#   1 NUMBER                 Running object number                                     
#   2 MAG_AUTO               Kron-like elliptical aperture magnitude                    [mag]
#   3 X_IMAGE                Object position along x                                    [pixel]
#   4 Y_IMAGE                Object position along y                                    [pixel]
#   5 X_WORLD                Barycenter position along world x axis                     [deg]
#   6 Y_WORLD                Barycenter position along world y axis                     [deg]
#   7 A_WORLD                Profile RMS along major axis (world units)                 [deg]
#   8 B_WORLD                Profile RMS along minor axis (world units)                 [deg]
#   9 THETA_WORLD            Position angle (CCW/world-x)                               [deg]
#  10 FWHM_WORLD             FWHM assuming a gaussian core                              [deg]
#  11 ELONGATION             A_IMAGE/B_IMAGE                                           
#  12 ELLIPTICITY            1 - B_IMAGE/A_IMAGE                                       
         1 -11.4720    223.5450     65.9346   7.4223266976e+01   2.0609516574e+01     2.894274     1.222508 -21.72  0.009484855    3.622    0.724
         2 -11.2655    198.1173     12.6843   6.3249877862e+01   3.3925446260e+01     1.362745    0.9002872  41.63  0.006833457    1.810    0.448
         3 -12.5760    194.3358     47.2919   7.3429349742e+01   3.0635588422e+01     2.803874     1.251567 -56.96   0.00956135    3.140    0.682
         4 -11.8918    201.7299     32.7264   6.8322433475e+01   3.0679691706e+01     1.771214      1.02564 -35.03  0.008299283    1.706    0.414
         5 -11.0297    228.3018     33.2647   6.5361088288e+01   2.4006581963e+01     0.866642    0.5675208 -45.57  0.003986018    1.398    0.285
         6 -10.8795    220.5347     15.4829   6.1702652011e+01   2.8010294254e+01     0.654741    0.5102301  75.23  0.003022919    1.222    0.182
         7 -11.4601    245.9305     43.3781   6.5969403821e+01   1.8579813234e+01     1.080229    0.4946925 -55.20  0.004624405    2.286    0.562
         8 -11.9161    233.3861      9.6935   5.9168491295e+01   2.5563105018e+01     1.327615     1.000023  25.58  0.007303121    1.964    0.491
         9 -11.0523    225.2720     23.2329   6.3176909804e+01   2.5966763655e+01    0.7483276    0.4770311  80.04  0.003786169    1.521    0.342
        10 -11.8335    248.2548      8.6116   5.7782269103e+01   2.2265477485e+01     1.131828    0.5770321 -23.93  0.005561255    2.287    0.563
        11 -11.6106    248.7240     32.0628   6.3059021335e+01   1.9408529069e+01    0.8449968    0.5798874 -46.25  0.004800639    1.272    0.214
        12 -12.2237    240.0105     19.5133   6.0919076028e+01   2.2913234835e+01     1.339236    0.6989883  89.02  0.006379943    2.050    0.512
        13  -9.6951    173.4144     25.4622   7.0140453887e+01   3.8920328869e+01    0.3176574    0.2308562 -38.01  0.001627768    1.425    0.298
        14 -10.6321    221.9860      5.8592   5.9190822008e+01   2.8690474557e+01    0.5499292    0.4509206 -45.54  0.003395769    1.213    0.176
        15 -10.4106    147.3170     18.8976   7.2271393713e+01   4.6444830030e+01    0.4809158     0.196344 -28.25  0.001909011    2.542    0.607
        16 -10.0462     67.4849     12.4213   9.0187290004e+01   6.5043560063e+01    0.4002313    0.2204611 -22.00  0.001855589    1.790    0.441
        17  -9.0971    207.2957     14.4462   6.2747527276e+01   3.1409752268e+01     0.293692    0.1673173 -13.47  0.001133641    2.387    0.581
        18  -8.8531    168.2161     11.7038   6.6635296608e+01   4.1768526407e+01    0.3452615    0.1493409 -41.91  0.001416666    2.405    0.584
        19 -10.4701    212.8652      8.8813   6.0755633797e+01   3.0611141962e+01     0.577755    0.3633496 -32.61   0.00305117    1.629    0.386
        20  -8.7919    214.4209      1.7766   5.8821225475e+01   3.0946987966e+01    0.1596476    0.1293833  -9.30 0.0005055658    1.586    0.369
        21  -9.4546    186.6644      9.7225   6.3709662694e+01   3.7172807316e+01    0.5201641    0.2625562 -52.60  0.002296719    2.119    0.528
        22  -8.7513     84.4572     10.3015   8.3516965264e+01   6.2048452040e+01    0.2277246    0.1227252 -17.14  0.001034591    1.960    0.490
        23  -8.7880    131.6962      6.5516   7.0697252545e+01   5.1606230571e+01     0.218961    0.1244415 -21.42 0.0008769215    1.934    0.483
        24  -8.8338    102.8068      6.6889   7.6887613070e+01   5.8467952997e+01     0.189559     0.157362  18.50  0.001022349    1.151    0.131
        25  -8.7816    171.4782      5.4748   6.4289045547e+01   4.1517045501e+01    0.2467408     0.138835 -21.92 0.0007318066    2.016    0.504
        26  -9.0768    116.4672      6.4800   7.3677927295e+01   5.5320550832e+01    0.1346145    0.1200252  44.95  0.000124558    1.018    0.017
        27  -8.5126    111.3728      5.7488   7.4492707591e+01   5.6586786276e+01    0.1764885    0.1224369   0.86 0.0006921718    1.594    0.373
        28  -8.3046     60.5237      5.5386   8.9368142612e+01   6.7046162349e+01    0.1248899    0.1008119  10.45 6.149999e-05    1.025    0.024
        29 -10.0024     63.8364      2.1618   8.6409110411e+01   6.6822421659e+01    0.2644344    0.1970584  23.75 0.0009287918    1.153    0.133
        30  -8.7357    164.6779      3.2668   6.4476942979e+01   4.3478954200e+01    0.3295748    0.1349843 -17.65  0.001304101    2.983    0.665
        31  -8.4369    190.3718      2.4657   6.1258662198e+01   3.6921130543e+01    0.2888128    0.2077887  57.57  0.001074004    1.365    0.268
        32  -8.4270    194.7506      2.1975   6.0740454367e+01   3.5829368512e+01    0.3012022    0.1227487 -66.80  0.001053511    3.484    0.713
        33 -10.1373    155.3705      8.8565   6.7573738465e+01   4.5379092100e+01    0.5051717    0.2457811 -29.04  0.002251298    2.167    0.539
        34 -10.1366    238.4236     38.5365   6.5589508827e+01   2.0936620258e+01    0.4041756    0.3016427  70.33  0.001691688    1.365    0.268
        35  -8.4528    192.3130    250.3305   1.1834991365e+02  -2.4879068160e+00     0.118238    0.0774865  15.95 0.0007044123    1.675    0.403
        36  -9.5398    132.2267    214.0490   1.2474925188e+02   1.2983123911e+01    0.2355832    0.1694272  53.31 0.0008179686    1.214    0.176
        37  -8.3300    109.4728    216.5302   1.2965861772e+02   1.6302171480e+01    0.1282344    0.1049228  58.09  0.000186808    1.001    0.001
        38  -9.0472     86.3468    208.8886   1.3346596082e+02   2.1344681048e+01    0.2610559    0.1364563  55.41  0.001346635    1.706    0.414
        39  -8.3488    166.6451    206.2941   1.1663425648e+02   8.2535305367e+00      0.13386   0.09776758  65.64 0.0007031628    1.688    0.408
        40  -9.4270    124.0388    206.0023   1.2532446117e+02   1.5859996557e+01    0.1880083    0.1584406  56.22            0    1.014    0.014
        41  -8.5793     56.2709    206.3514   1.3928480143e+02   2.6011088301e+01    0.1055066   0.08901439 -53.27 0.0005603221    1.630    0.387
        42  -9.7285    235.8648    204.3548   1.0323778096e+02  -3.5472353161e+00    0.2814689     0.237976  42.73  0.001153247    1.418    0.295
        43  -9.0702    249.7897    201.6628   1.0036747506e+02  -5.4107232892e+00    0.2997641    0.1651525 -37.74  0.001629932    2.014    0.504
        44 -10.6957    247.6696    193.7884   9.9260576743e+01  -4.0590424694e+00    0.4348558    0.4082796  75.94  0.002657269    1.692    0.409
        45  -9.2196    218.2851    201.8442   1.0592097051e+02  -2.6669700000e-01     0.251921    0.1770953 -38.54  0.001223081    1.616    0.381
        46  -8.5372    198.0000    202.9874   1.0991957429e+02   3.1245205347e+00    0.1969147    0.0749551 -40.15 0.0007635683    2.938    0.660
        47  -8.4815    193.4920    202.9803   1.1078445971e+02   3.9334151945e+00    0.1692574     0.118087 -69.04 0.0008104761    2.582    0.613
        48  -8.5287    187.2177    203.4411   1.1208225153e+02   4.9924459197e+00    0.1878314    0.1135538  50.68 0.0009341866    1.699    0.411
        49  -9.4625    242.2390    201.1363   1.0155005735e+02  -4.1518236905e+00    0.4457836    0.2544205  48.47  0.002345625    2.086    0.521
        50  -9.4400    229.1733    201.0378   1.0381209837e+02  -2.0002449925e+00    0.2822481    0.2055759 -31.78  0.001702745    1.467    0.318
        51 -10.3994    231.0007    195.0744   1.0238549867e+02  -1.4828058072e+00    0.4344371    0.2695155 -22.78  0.001439012    1.662    0.398
        52  -9.1227    222.8446    201.7398   1.0507376509e+02  -1.0310309371e+00    0.2116947     0.171001 -63.84  0.001221285    2.034    0.508
        53  -8.1189    160.2480    202.6211   1.1733537147e+02   1.0044351778e+01    0.1281804    0.1015876  81.49 0.0005311628    1.645    0.392
        54  -8.6651     16.0907    201.6692   1.4673636976e+02   3.1477985450e+01    0.1524272    0.1152132  67.04 0.0008353507    1.120    0.107
        55  -8.1184    203.3118    198.3044   1.0807284015e+02   2.8891811411e+00     0.134834   0.09421034  11.44 0.0003690859    1.614    0.380
        56 -11.1620    237.9359    190.6351   1.0032988201e+02  -2.0352940167e+00    0.6235685    0.3204817 -37.96  0.003024428    2.060    0.515
        57  -9.4337    235.8311    181.3776   9.8905593179e+01  -3.6720918193e-01    0.3704523    0.1811085 -37.58  0.001758568    2.092    0.522
        58 -10.1996    233.4399    174.9161   9.8040219846e+01   1.0016437594e+00    0.3974676    0.2364975 -41.22  0.001537796    1.828    0.453
        59  -9.3691    224.2367    192.0849   1.0303557455e+02   1.0487112411e-01    0.2212967    0.1812702 -46.27  0.001038451    1.555    0.357
        60  -8.5989    215.3897    192.1260   1.0466465886e+02   1.6603194703e+00      0.22394    0.1449957  43.30  0.001193077    1.487    0.328
        61  -9.6404    210.9401    184.0317   1.0395466835e+02   3.7106814014e+00    0.4380794    0.1901125 -34.64  0.001855331    2.471    0.595
        62  -7.9178    189.2992    189.6150   1.0920888307e+02   6.8571098648e+00    0.1326763    0.1089546  86.14 0.0007018279    1.778    0.438
        63 -10.3281    249.6262    184.4397   9.7144498971e+01  -3.1266297210e+00    0.6066625    0.2840751 -31.69  0.002965995    2.056    0.514
        64 -10.8705    242.9880    179.8452   9.7366719771e+01  -1.3810498720e+00    0.5540736    0.4165657 -23.56  0.002505647    1.261    0.207
        65  -8.5236    194.1575    188.3703   1.0801766731e+02   6.1483860202e+00    0.1989124    0.1183335  50.88 0.0009422765    1.769    0.435
        66  -9.0182    121.1659    188.1729   1.2334664525e+02   1.9847289587e+01    0.1958576    0.1494699  68.66 0.0008080824    1.328    0.247
        67  -9.1862    111.4992    188.5111   1.2552726758e+02   2.1452317551e+01    0.1368361    0.1191613  63.47 0.0008105939    1.001    0.001
        68  -9.3394    230.3609    186.3548   1.0084157055e+02  -1.3358086946e-01    0.3061699    0.1134884 -40.01  0.001247044    2.893    0.654
        69  -9.6239    224.6076    184.7862   1.0157144720e+02   1.1109560122e+00    0.3546572    0.2280538 -43.12  0.001867221    1.797    0.443
        70 -10.4354    227.1096    179.5872   1.0010007867e+02   1.4395035858e+00    0.4683565    0.3273208  40.92  0.002133945    1.403    0.287
        71  -9.5068    106.7828    185.1969   1.2609106957e+02   2.2938114608e+01    0.2400738    0.1306386  72.26 0.0009544125    2.814    0.645
        72 -10.0540    158.2342    178.7208   1.1363096177e+02   1.4796878203e+01    0.3824769     0.183654 -41.42  0.001583596    2.377    0.579
        73  -9.6596    218.2213    178.2552   1.0145895787e+02   3.2659898772e+00    0.4743402    0.2713336  63.42  0.001850444    3.452    0.710
        74  -8.7733    152.0979    178.3289   1.1489082252e+02   1.6066488977e+01    0.2092145    0.1647151  46.22 0.0004963172    1.161    0.138
        75  -8.7905     84.6564    175.2506   1.2971137848e+02   2.8635194862e+01    0.1837465    0.1150843 -58.05 0.0009444465    1.644    0.392
        76  -8.9237    250.5519    173.7226   9.4876677549e+01  -1.8023834487e+00    0.2466083    0.1148353 -27.08  0.001131267    2.141    0.533
        77 -10.3125    225.0005    172.1979   9.8998260361e+01   2.9512170037e+00    0.4662183    0.3199131 -43.50  0.002424158    1.640    0.390
        78 -10.0221    237.5619    170.1006   9.6344323847e+01   9.8025846686e-01     0.291742    0.2258153 -32.52 0.0009778629    1.305    0.234
        79  -9.8221    211.9310    170.0027   1.0097137760e+02   5.7738232001e+00    0.3346713     0.221479 -13.51   0.00161529    1.826    0.452
        80 -10.9672    241.8672    133.4321   8.7742476357e+01   5.8283004686e+00    0.5699973    0.3799254 -40.55  0.002011316    1.457    0.314
        81 -10.7937    246.4256    167.7501   9.4354683783e+01  -2.4236523655e-01    0.7896967    0.3343618  31.70  0.003194858    2.889    0.654
        82  -9.7344    240.5342    163.2071   9.4412713169e+01   1.4752259057e+00    0.3717132    0.2238967 -31.87  0.001463739    1.580    0.367
        83 -10.9504    245.8005    159.2693   9.2703581859e+01   1.1141130012e+00     0.618428    0.3686127 -29.94  0.003144377    1.570    0.363
        84  -9.1058    250.5396    158.9230   9.1850707458e+01   3.2163784474e-01    0.2575977    0.1519685 -36.41 0.0006475361    1.627    0.386
        85 -11.5984    243.6104    150.2755   9.1158186237e+01   2.8717645506e+00    0.9497346    0.4387476 -26.97  0.003006111    2.268    0.559
        86 -10.3667    249.7544    151.2493   9.0360117261e+01   1.5970317726e+00    0.5345503    0.2603731 -36.75  0.002027611    1.919    0.479
        87  -9.8292    250.2138    140.1968   8.7902612283e+01   3.1805583832e+00    0.2521514    0.2162716 -18.55 0.0008643826    1.037    0.036
        88 -11.0630    248.8336    133.2492   8.6590684661e+01   4.5066910496e+00    0.7336646    0.2880056 -40.37  0.002956808    2.408    0.585
        89  -8.6867    169.9346    169.2972   1.0931056420e+02   1.4268285013e+01    0.2059879     0.183869  41.34  0.001122588    1.044    0.042
        90  -9.9259    147.3614    168.3384   1.1408185847e+02   1.8982373536e+01    0.2770673     0.235008  71.91 0.0004744702    1.264    0.209
        91  -9.5220    192.9367    166.4468   1.0395029800e+02   1.0134005984e+01    0.2867796    0.2486377  22.92  0.001335982    1.109    0.098
        92  -9.7268    234.1174    164.6047   9.5811537087e+01   2.4354489903e+00     0.364041    0.2323113 -48.16  0.001449138    1.934    0.483
        93  -9.2461    212.5399    164.4854   9.9712981665e+01   6.5642996843e+00    0.2571284    0.2379458   0.82  0.001431656    1.039    0.037
        94  -8.6133    221.5015    162.4946   9.7627248422e+01   5.1467554155e+00    0.1388497    0.1253549   5.37 -3.237325e-05    1.001    0.001
        95  -8.9358    237.0109    159.0450   9.4143854152e+01   2.7530053430e+00     0.209606    0.1822805  -0.89 0.0006698671    1.036    0.035
        96  -7.9515     51.2927    159.6429   1.3557184124e+02   3.6728834813e+01    0.1372617   0.08352783  73.82 0.0007029975    1.690    0.408
        97  -9.4810    226.4139    157.2561   9.5625191909e+01   5.0411411338e+00    0.3971263     0.258444  -5.18  0.001376541    1.975    0.494
        98 -10.2388    230.2543    141.5878   9.1519191031e+01   6.8217097787e+00    0.4714424    0.2757712 -37.65  0.001341401    1.641    0.391
        99  -9.4472    229.6495    148.0941   9.3065532550e+01   5.8859614267e+00    0.2936096    0.2611491 -86.53  0.001096785    1.521    0.342
       100  -9.8032    231.8940    152.7869   9.3694508577e+01   4.6977899907e+00    0.4939374    0.3059063  41.50  0.002464338    1.626    0.385
       101 -10.2390    234.8423    147.8136   9.2103377668e+01   4.9185051465e+00     0.328276    0.2814283 -19.44  0.001318446    1.080    0.074
       102  -8.3679     41.0139    158.0297   1.3785122631e+02   3.8281263244e+01    0.1557694    0.1212086 -85.67 0.0005665425    1.075    0.070
       103  -9.4495    221.6115    153.1557   9.5608458017e+01   6.6476831868e+00    0.2960207    0.2308667 -59.80  0.001024723    1.696    0.411
       104  -9.0601    117.9901    153.7820   1.1820312201e+02   2.7772915108e+01    0.2189888    0.1593778 -82.21  0.001044842    1.630    0.386
       105  -9.2529    197.3604    150.6576   9.9685649438e+01   1.2047091285e+01     0.223185    0.1822789 -81.51  0.001109877    1.696    0.410
       106  -8.1735     35.7572    151.0104   1.3834195155e+02   4.0449423721e+01    0.1642618     0.090079 -73.95 0.0005848575    1.557    0.358
       107  -9.7472    224.0862    146.5033   9.3700979847e+01   7.2513329816e+00     0.368298    0.2907906 -16.93  0.001628469    1.261    0.207
       108  -7.6970    174.4706    148.5216   1.0396990272e+02   1.7330766085e+01    0.1494478    0.1427008  26.65 -4.617936e-06    1.024    0.024
       109  -8.7641    111.9795    147.4889   1.1848276484e+02   3.0301967514e+01    0.2260355    0.1391412  44.63  0.001027765    1.586    0.369
       110  -9.0239     17.0034    146.9985   1.4249045160e+02   4.3121398950e+01    0.1884647    0.1424616 -89.58 0.0006366826    1.045    0.043
       111  -9.4949      9.3536    141.5918   1.4385054787e+02   4.4952788877e+01    0.2072334    0.1356847  65.71 0.0006955375    1.441    0.306
       112 -10.2985    225.1273    138.9491   9.1823519435e+01   8.2933001808e+00    0.5291297    0.2569622 -29.05   0.00212091    2.181    0.541
       113  -8.7464    153.9935    140.9935   1.0687598825e+02   2.3270114680e+01    0.3094272    0.1899205  88.08 0.0009529802    4.083    0.755
       114  -9.3651    219.2947    138.8732   9.2850401894e+01   9.5099827319e+00    0.3024306    0.2112062  65.65  0.001114656    1.895    0.472
       115  -8.4408    209.7982    138.4226   9.4504332635e+01   1.1589292510e+01    0.2015201     0.133797  35.98 0.0008498814    1.570    0.363
       116  -9.7085    233.6434    135.2182   8.9506668347e+01   7.1775927646e+00     0.406633    0.2567212 -35.94  0.001672245    1.492    0.330
       117  -8.2364    233.8093    129.8345   8.8253469144e+01   8.0194872292e+00    0.2176642    0.1840103 -48.76 0.0008918084    1.273    0.215
       118  -8.5055    164.5014    136.5142   1.0344131633e+02   2.1901817036e+01    0.1522407    0.1480538  34.79 -3.572962e-05    1.020    0.020
       119  -8.3414     52.8000    136.1799   1.3203178484e+02   4.2017614306e+01    0.1747491    0.1421002 -52.19  0.000526535    1.309    0.236
       120  -9.8208    169.8055    134.7408   1.0184020330e+02   2.1082931344e+01    0.2807147    0.2577026  -9.33 0.0005552443    1.170    0.145
       121  -8.8303    140.4991    135.4437   1.0882744665e+02   2.7333791370e+01    0.1534237     0.145071  73.75 0.0001537559    1.050    0.047
       122  -9.8973     86.3617    129.5121   1.2168664232e+02   3.8906257665e+01    0.3522539    0.2333997 -89.35  0.001600635    1.944    0.486
       123  -9.4409    221.5674    129.6530   9.0317514025e+01   1.0599070865e+01    0.2715963    0.2503332 -51.59 0.0009730479    1.177    0.150
       124  -8.5272     62.1014    129.8638   1.2847846795e+02   4.2352979373e+01    0.1776896    0.1492742 -47.51 0.0003256988    1.287    0.223
       125  -8.4096     68.5573    128.5131   1.2644235456e+02   4.1805924728e+01    0.1379427    0.1226233 -77.48 8.893557e-05    1.008    0.008
       126 -10.9552    242.0397    123.2448   8.5405245449e+01   7.4105026271e+00    0.7453468    0.4779551 -14.86  0.003528228    1.834    0.455
       127 -11.5421    230.7368     94.6432   8.0379801154e+01   1.4431395172e+01    0.7220623    0.6726892  76.07  0.002325471    1.155    0.134
       128 -10.0326    226.2283     74.6342   7.6059016189e+01   1.8642673577e+01    0.5092117    0.4384955  26.29  0.002785492    1.378    0.274
       129 -10.4496    249.8576     66.7652   7.1055211292e+01   1.4459353582e+01    0.7955281    0.2645392 -34.08  0.002471803    2.641    0.621
       130  -9.1542    234.1492    248.1206   1.1079645231e+02  -8.5115835988e+00    0.2482497    0.1367026  45.71  0.001329123    1.998    0.499
       131 -10.4947    226.1298     86.2143   7.8990710246e+01   1.6837274607e+01    0.8556335    0.5816085  21.56    0.0038254    2.148    0.534
       132 -10.4673    240.3435     66.5943   7.2171758020e+01   1.6599021279e+01    0.8720238    0.4803677 -57.42  0.003868328    2.033    0.508
       133 -10.2204    237.4861     90.0187   7.8249851385e+01   1.3667687554e+01    0.6545162    0.3907672  74.84  0.001696496    2.272    0.560
       134  -9.7892    231.7630     83.4396   7.7465296009e+01   1.5986607380e+01    0.6385471    0.3227168 -53.85  0.002556081    2.336    0.572
       135 -10.1167    237.3931     83.9947   7.6799571151e+01   1.4630534436e+01    0.5347078     0.338525 -76.37  0.002336012    2.324    0.570
       136 -12.5794    246.5806    108.9972   8.1423438912e+01   8.7398584888e+00     1.831928      1.12265 -47.33  0.008904613    1.651    0.394
       137 -10.5875    247.0068     98.4455   7.8898922460e+01   1.0300018104e+01    0.6183565    0.4503778  65.23  0.003047887    1.592    0.372
       138 -12.0287    245.5020     81.8307   7.5173811956e+01   1.3176664071e+01     1.356618    0.7111393 -47.12  0.006126312    1.830    0.453
       139 -11.0615    235.6946     73.2573   7.4403489966e+01   1.6662013309e+01    0.9635229    0.5069823 -42.56  0.004276246    1.728    0.421
       140  -9.8300    206.5792    126.8138   9.2387739582e+01   1.4347973091e+01     0.296908    0.2571617  61.18 0.0008786841    1.261    0.207
       141  -9.5497    212.7156    124.2570   9.0634896049e+01   1.3444475285e+01    0.4397885    0.3101249  -4.25    0.0019938    1.871    0.465
       142  -9.0949    192.8190    127.6139   9.5264385008e+01   1.7283672904e+01    0.2381686    0.2095562  79.15 0.0007783588    1.316    0.240
       143  -9.7592    189.0201    123.7975   9.5103636838e+01   1.8865177466e+01    0.4325994    0.3162587 -41.26  0.002052193    1.367    0.268
       144  -9.4149    222.3400    121.6361   8.8294364805e+01   1.1795360451e+01    0.4480429    0.3087064 -71.54  0.001959985    2.277    0.561
       145  -8.5314    113.7079    126.9330   1.1371267033e+02   3.4668840061e+01    0.2108354    0.1945535 -69.85 0.0006656895    1.058    0.055
       146  -7.8820    177.0000    125.0042   9.7919866092e+01   2.1388825365e+01    0.2492466   0.08780137 -40.56 0.0007910405    2.864    0.651
       147  -8.9000    161.4881    124.4710   1.0123532023e+02   2.5040637100e+01    0.2544767    0.2028385  89.29 0.0006838647    1.591    0.372
       148  -8.1050     83.6643    122.7302   1.2106231747e+02   4.0936186964e+01    0.1369377    0.1117246 -19.83 0.0002321914    1.595    0.373
       149  -8.9078    196.8699    121.6286   9.2999213186e+01   1.7474751007e+01    0.3205876     0.129695  42.82  0.001103286    2.648    0.622
       150 -10.0252    229.1147    125.1227   8.7954104038e+01   9.7663480387e+00    0.3588353    0.2340692  53.32  0.001736296    1.666    0.400
       151 -10.8745    230.2945    116.1584   8.5648042607e+01   1.1001879562e+01    0.5797017    0.3844131  48.47  0.002846267    1.590    0.371
       152  -9.6285    213.3866    115.6620   8.8432769643e+01   1.4798203229e+01    0.4284703     0.258782  27.86  0.001303955    2.270    0.559
       153  -9.5979    218.4241    115.4850   8.7498720216e+01   1.3703708747e+01    0.4174641    0.2455061  49.65  0.001866347    1.759    0.431
       154  -8.4197    203.8327    115.8690   9.0237674295e+01   1.6930219108e+01     0.200688     0.173796 -60.04   0.00048922    1.258    0.205
       155  -8.5779    182.0054    116.4655   9.4721088199e+01   2.1888023676e+01    0.2376938    0.1509029  48.75 0.0006316286    1.570    0.363
       156  -9.1880     52.0808    113.6167   1.2849015430e+02   4.7452155327e+01    0.2622853    0.1675418 -57.45 0.0007498537    1.376    0.273
       157  -9.7222    104.5237    111.9790   1.1270259747e+02   3.9834240577e+01    0.2951213    0.2367794  43.77 0.0004766886    1.284    0.221
       158  -8.1543    104.5004    107.9856   1.1171507633e+02   4.0746877884e+01    0.2984684     0.144137 -55.93 0.0009864476    2.174    0.540
       159  -9.2756     15.0271    112.0077   1.3919554595e+02   5.1302269722e+01    0.1847678     0.145922 -76.46 0.0004774706    1.011    0.011
       160  -9.7710    183.7196    108.8612   9.2410319780e+01   2.2933859021e+01    0.3730244    0.2205485 -40.86   0.00156049    1.676    0.403
       161  -8.0663    141.6513    111.3326   1.0263647926e+02   3.2279435244e+01    0.1643728    0.1244623 -88.74 0.0007048379    1.772    0.436
       162  -8.0967    161.4742    109.0001   9.7276954441e+01   2.8193411781e+01    0.2261774    0.1326592 -62.76 0.0008088734    2.490    0.598
       163  -9.7381    215.2967    108.0050   8.6208011574e+01   1.5693418896e+01    0.3292759    0.2123523  63.00  0.001481603    1.787    0.440
       164  -8.0913     47.6498    106.2969   1.2847012666e+02   4.9684117873e+01     0.133805   0.09450857  72.65 0.0007034589    1.684    0.406
       165  -8.4908    196.1940    103.4132   8.8521633695e+01   2.0965377575e+01    0.2084808      0.14889  67.43 0.0004926311    1.604    0.377
       166  -8.9282    221.2651    100.6006   8.3356142448e+01   1.5591620873e+01    0.2836721    0.1644839 -43.90  0.001246316    1.671    0.402
       167  -8.6930    210.8004    101.1981   8.5283555519e+01   1.7905089884e+01    0.2111943    0.1732977  26.73  0.001060739    1.381    0.276
       168  -8.4564    167.3992    100.2491   9.3587276227e+01   2.8509500919e+01    0.2296328    0.1442371 -49.56 0.0009369456    1.678    0.404
       169  -9.0293    160.4948     99.5288   9.4938814301e+01   3.0314271794e+01    0.1553934    0.1540598  70.83 0.0006926203    1.004    0.004
       170  -9.7599    130.1458     98.3037   1.0206024079e+02   3.7603957547e+01    0.2773789    0.2456734 -20.53 0.0005650729    1.232    0.188
       171  -8.8677    196.3596     98.1885   8.7124000525e+01   2.1864834053e+01    0.3023532    0.2040936  88.41  0.001222887    2.244    0.554
       172  -8.5409    122.5102     98.5199   1.0416592296e+02   3.9215498588e+01    0.1533019    0.1482477 -79.56 7.316472e-05    1.049    0.047
       173  -9.5642    236.0417     60.1978   7.1143652900e+01   1.8514644408e+01    0.4708815    0.2022567  67.46  0.001884895    2.585    0.613
       174  -8.4070    150.9881     93.5048   9.5465850439e+01   3.3781824521e+01    0.2312337    0.1312049  29.81 0.0008105426    2.570    0.611
       175  -8.6023    171.4734     92.4743   9.0554357439e+01   2.8999003699e+01    0.1547949    0.1529063  24.63 0.0001235864    1.038    0.037
       176  -8.3049    108.7954     91.0543   1.0591152475e+02   4.3654289940e+01    0.2027995    0.1171044 -47.01  0.000432917    1.689    0.408
       177  -8.6603    203.3280     90.6839   8.3876009193e+01   2.1496816839e+01    0.1577957    0.1159558 -70.43 0.0007045239    1.676    0.403
       178  -8.6162    194.7953     90.2126   8.5293683821e+01   2.3658321459e+01    0.2618859    0.1576068 -69.94 0.0006420799    2.737    0.635
       179  -9.7241    176.0791     87.5307   8.8205245710e+01   2.8772021591e+01    0.3085124    0.2111056 -55.06  0.001343859    1.620    0.383
       180  -8.4593    139.4937     87.4844   9.6532638961e+01   3.7692435239e+01    0.1538469     0.152754  86.80 0.0002346772    1.009    0.009
       181  -8.7478    165.4750     87.9883   9.0579434873e+01   3.1319170737e+01    0.2196203    0.1287997 -60.00 0.0005481156    2.319    0.569
       182  -8.7993    205.9247     83.9118   8.1636238279e+01   2.2015251874e+01    0.2417997     0.175108 -68.80 0.0006869517    1.659    0.397
       183  -8.3682    193.9484     84.2046   8.3821847620e+01   2.4912114228e+01    0.2071427    0.1221255  58.13 0.0008617548    1.729    0.422
       184  -8.2274    134.8256     83.5920   9.6558036635e+01   3.9547428336e+01    0.2083269    0.1486959  62.03 0.0006899521    1.555    0.357
       185  -8.5406     87.7636     82.0948   1.0971078440e+02   4.9520997385e+01    0.1910764    0.1155606 -49.90 0.0008650515    1.583    0.368
       186  -8.0912     21.2922     82.3139   1.3253933918e+02   5.7645362634e+01    0.1268759   0.07493486 -43.19 0.0002211198    1.594    0.373
       187 -10.3307    214.4198     75.9425   7.8157195480e+01   2.1253653897e+01    0.5154368    0.3303546  50.85  0.002392829    1.631    0.387
       188  -8.6842    158.8080     81.4148   9.0140652732e+01   3.4190966928e+01    0.2273893    0.1429916  43.32 0.0008623466    1.646    0.393
       189  -8.7032    196.2827     79.9813   8.2248681568e+01   2.5051638226e+01     0.301782    0.1885532 -88.16  0.001050562    2.533    0.605
       190 -10.0057    119.6046     79.0734   9.9245857598e+01   4.3868886148e+01    0.3489942    0.2484009  23.26  0.001170937    1.750    0.429
       191  -9.2581    189.2113     78.7517   8.3186155797e+01   2.7029448220e+01    0.3300255    0.2260574 -23.20  0.001464366    1.659    0.397
       192  -8.9351     43.0000     79.0236   1.2413958961e+02   5.6451194787e+01    0.2240523   0.06449835 -58.76 0.0008082655    2.983    0.665
       193  -9.4067    175.6920     77.6514   8.5466658457e+01   3.0631253114e+01    0.3097519    0.2428823 -52.35  0.001013601    1.318    0.241
       194  -8.5829    148.5817     78.1934   9.1525004296e+01   3.7303389695e+01    0.2150479    0.1517489 -24.04 0.0009394532    1.622    0.383
       195  -8.8817    126.2479     76.7293   9.6698681983e+01   4.2851100289e+01    0.2068692    0.1782385   4.97 0.0005718289    1.315    0.240
       196  -9.8332    200.4121     72.0612   7.9372682491e+01   2.5327852369e+01    0.5328954    0.2368464  65.76  0.001912809    2.597    0.615
       197  -8.5321    163.2143     70.5985   8.5943302025e+01   3.5016740295e+01    0.2246291    0.1390896  45.88 0.0007067226    1.639    0.390
       198 -10.6261    210.4229     65.7389   7.6073699784e+01   2.3833123341e+01    0.4160099    0.2025025 -47.37  0.001617223    2.079    0.519
       199  -8.2048    139.3240     67.6756   9.0462782419e+01   4.1464999733e+01      0.15786    0.1213987 -76.02 0.0004928225    1.686    0.407
       200  -8.3732    153.6688     66.3119   8.6688870138e+01   3.8161838848e+01    0.1595559     0.120564 -75.32  0.000318786    1.674    0.403
       201  -9.3012    197.7724     64.4213   7.7702478067e+01   2.7206763134e+01    0.3039678    0.2183624 -59.91 0.0008966685    1.497    0.332
       202  -8.3464    132.3715     65.1609   9.1379150851e+01   4.3575137721e+01    0.2207148    0.1376111 -46.42 0.0008724923    1.695    0.410
       203  -8.7863    136.3514     62.8031   8.9609028834e+01   4.3035702633e+01    0.3151715     0.151689 -34.79 0.0008031367    2.131    0.531
       204  -8.5371    158.5679     61.7628   8.4205215728e+01   3.7684049073e+01    0.2193319    0.1397958 -46.15 0.0009450698    1.640    0.390
       205  -8.5443     43.5705     62.4964   1.1950224511e+02   5.9964733958e+01    0.1284076    0.1093224 -43.39 0.0001182106    1.029    0.028
       206 -10.3074    213.6480     57.8178   7.3495360981e+01   2.4228863274e+01    0.5114372    0.3423201  57.50  0.002315816    1.517    0.341
       207  -8.3168    177.5436     61.4538   8.0363669997e+01   3.2858240930e+01    0.1520398    0.1445294  38.41  9.68388e-05    1.108    0.097
       208 -10.2939    172.0587     59.1581   8.0702727175e+01   3.4637462664e+01    0.5660846    0.3847648  23.24  0.002407889    2.041    0.510
       209 -10.5572    235.3915     44.9061   6.7463414448e+01   2.0801270989e+01    0.8284106    0.4430563  67.48  0.003891507    1.909    0.476
       210  -8.9501    186.9893    247.3449   1.1888776848e+02  -1.2750228848e+00    0.1746763    0.1204423  37.12 0.0004628189    1.129    0.114
       211 -10.1755    249.0938     55.6452   6.8523035464e+01   1.6204389099e+01     0.567571    0.3591404  37.02  0.002735906    2.247    0.555
       212  -9.6896    191.2310    245.8430   1.1791981555e+02  -1.7534017967e+00    0.2329171    0.1269928  23.27  0.001227514    2.049    0.512
       213  -9.6694    224.9881    243.8850   1.1170798145e+02  -6.7101076858e+00     0.434814    0.2154832  52.23  0.002056531    3.191    0.687
       214 -10.8774    215.5748     31.0533   6.6199634387e+01   2.7396535010e+01     1.203731    0.3894801  64.58  0.004438254    2.829    0.647
       215  -8.6745    202.4690    242.4917   1.1543435014e+02  -3.1013842576e+00    0.2451672   0.09457581  39.83  0.001071117    2.067    0.516
       216 -10.4631    237.1181     30.1659   6.3707480512e+01   2.2304993303e+01    0.5451683    0.4658673 -87.34   0.00226146    1.110    0.099
       217  -8.7898    182.8211    239.9972   1.1861898708e+02   3.6343243744e-01    0.1725646     0.138216  83.12  0.001074459    1.987    0.497
       218 -10.9315    244.0021     51.6504   6.8138488886e+01   1.7897846810e+01    0.5586833    0.4799756 -88.58  0.002144752    1.165    0.142
       219 -11.2828    231.8279     52.8216   6.9832932979e+01   2.0550087936e+01     1.229292    0.5032188  70.32  0.004734529    2.782    0.641
       220  -8.2983     48.3139    240.6266   1.4333979523e+02   2.0531385335e+01    0.1220574   0.05863456  65.92 0.0007032401    1.788    0.441
       221  -9.6612    230.8948    237.5223   1.0971100819e+02  -6.8629649348e+00    0.2527751    0.2036362 -38.60  0.001049962    1.715    0.417
       222 -10.2321    205.8906    236.2129   1.1388704683e+02  -2.8521907007e+00    0.3750905     0.285344  43.65   0.00178092    1.327    0.247
       223  -8.9461    243.8826    237.1098   1.0745078102e+02  -8.7122266275e+00     0.157437    0.1385461  22.52 0.0008122619    1.376    0.273
       224  -9.9398    218.6944    235.6638   1.1153354043e+02  -4.7921709429e+00    0.3621148     0.180808  37.62  0.002000576    1.638    0.389
       225  -9.8583    238.4565    231.8100   1.0750735141e+02  -7.3301093282e+00    0.3741081     0.217188  48.52  0.002108638    2.163    0.538
       226  -8.3009     48.3590     60.6997   1.1710793859e+02   5.9793975430e+01    0.1225594    0.1011906  77.96 0.0007036472    1.713    0.416
       227  -9.6160    126.2484     58.5514   9.0745388501e+01   4.6164316321e+01    0.2673175    0.2047239 -35.52 0.0006166312    1.321    0.243
       228  -8.5226     99.4906     57.4593   9.7983045988e+01   5.2200574390e+01    0.1439153    0.1347329  -2.13 5.974791e-05    1.017    0.017
       229 -10.1489    131.8108     55.1067   8.8155363233e+01   4.5422440956e+01    0.3896537    0.1800855 -44.34  0.001313459    2.342    0.573
       230  -9.7657    163.0959     52.9865   8.0529982089e+01   3.7910515121e+01    0.3539252     0.208523 -41.37   0.00106709    1.728    0.421
       231  -8.3306    147.5107     52.4869   8.3605715166e+01   4.1970696333e+01    0.1503134    0.1448568  49.14 0.0001562068    1.009    0.009
       232  -8.5072    152.6894     53.6879   8.2879611484e+01   4.0472213061e+01    0.1559191    0.1155705  24.72 0.0003456899    1.628    0.386
       233  -8.0859     87.5157     49.5439   9.8946185574e+01   5.5929477166e+01    0.1376061     0.129397  -9.90 0.0008082639    1.053    0.050
       234  -9.0429    162.3288     46.2746   7.8557143778e+01   3.9104071686e+01    0.3050084    0.1982329 -67.37 0.0009420966    2.019    0.505
       235  -8.6716    113.0000     46.9106   9.0196294589e+01   5.1108510227e+01    0.2297764   0.08169792 -34.23 0.0004427483    2.849    0.649
       236 -10.1564    215.6597     42.6612   6.9226049971e+01   2.5869045327e+01    0.5315145    0.3435747 -13.44  0.001963554    2.057    0.514
       237  -9.1558    169.1351     45.7384   7.7127671922e+01   3.7410551530e+01    0.4241953    0.2550932   8.81  0.001548325    3.046    0.672
       238  -8.4803    169.6800     41.3076   7.5653484098e+01   3.7887011351e+01    0.2069024    0.1235887  64.00 0.0003745574    1.604    0.377
       239  -8.8435    178.7101     43.3811   7.4754530168e+01   3.5241589281e+01    0.3471542    0.2293175 -58.72  0.001097725    1.696    0.411
       240  -9.6147    174.0997     40.1640   7.4544961471e+01   3.6886866852e+01    0.4788901    0.3296571 -79.46  0.002192872    1.749    0.428
       241  -9.3692    207.6339     53.8314   7.3284102382e+01   2.6311537399e+01    0.2576696    0.2375057 -41.86 0.0005288034    1.102    0.092
       242  -9.2582    222.4656     42.7706   6.8420706262e+01   2.4179930376e+01    0.4402831    0.2265744 -53.67  0.001905875    2.005    0.501
       243  -8.3566    164.1559     33.2153   7.4062301323e+01   4.0398403377e+01    0.3377915    0.2065766 -14.46  0.001476592    2.052    0.513
       244  -9.2920    165.4798     39.9986   7.5984830809e+01   3.9162017352e+01     0.286243    0.2211148 -73.32 0.0007405739    1.460    0.315
       245  -8.9299    161.9914     38.4831   7.6131294289e+01   4.0275476021e+01    0.3056827    0.2121268  36.32  0.001328963    1.614    0.380
       246  -8.7062     61.1777     37.8579   1.0392698612e+02   6.2392098322e+01    0.1905287    0.1692449 -41.31 0.0007033833    1.272    0.214
       247  -8.5923     76.7116     43.9697   1.0053804851e+02   5.8837328402e+01    0.1922744    0.1638592 -27.16   0.00076953    1.106    0.096
       248  -8.5972    140.5396     37.5256   8.0056262125e+01   4.5906717957e+01    0.1458307    0.1383696  50.33 0.0001304009    1.005    0.005
       249  -9.2652    169.9907     30.9567   7.2375481018e+01   3.9155383972e+01    0.4164623    0.2223141 -10.75  0.001610581    2.763    0.638
       250  -8.1824    110.3285     31.3469   8.5028654141e+01   5.3981213407e+01    0.1521654    0.1011703  21.35 0.0007049841    1.755    0.430
       251  -9.8497    145.6002     24.8222   7.4626559960e+01   4.6222069126e+01    0.6257223    0.2723353 -55.56  0.002004432    4.024    0.751
       252  -9.7625    142.0222     24.7745   7.5297160107e+01   4.7138901627e+01    0.3138003    0.2097457 -65.71  0.001444434    1.953    0.488
       253  -9.2705    118.5410     25.4786   8.0658956732e+01   5.2827921901e+01     0.237775    0.1983357 -32.38 0.0006473919    1.281    0.219
       254  -9.0979    116.6997     22.3201   7.9877868891e+01   5.3636842233e+01    0.2326604    0.1967439 -36.50  0.001094553    1.295    0.228
       255  -9.3727    229.9032    228.9819   1.0851235152e+02  -5.7113270934e+00    0.2438885    0.2218938 -12.29  0.001093091    1.361    0.265
       256  -8.8982    217.0155     22.2402   6.3764567389e+01   2.8104159161e+01     0.325008    0.1993729 -78.49  0.001415605    1.725    0.420
       257  -9.2257    248.1443    227.7079   1.0520285580e+02  -8.2813460486e+00    0.1989386    0.1627077  20.48 0.0006322915    1.195    0.163
       258 -10.8078    239.6288    221.4979   1.0559340051e+02  -6.2958589926e+00    0.4965546    0.4135604 -70.57  0.003054476    2.490    0.598
       259  -8.3776    151.4567     19.9204   7.1894578773e+01   4.5269040334e+01    0.2014509    0.1018127 -50.52 0.0008062004    2.415    0.586
       260 -10.4428    208.5933    224.4361   1.1155446082e+02  -1.7561041913e+00      0.35658    0.3296973  48.52  0.002491171    1.381    0.276
       261  -8.8576    187.0777     16.9364   6.5729719344e+01   3.6313906636e+01    0.2109146    0.1862091  88.19 0.0004675261    1.024    0.024
       262  -8.8548    141.0000     16.9689   7.2743996783e+01   4.8260840379e+01      0.21856   0.08132862 -23.89 0.0008018304    2.938    0.660
       263  -8.8351     73.6533     17.0508   9.0168186780e+01   6.3365696659e+01    0.1833504    0.1526975  -3.93  0.001144915    1.089    0.082
       264  -8.5508    199.2921    228.6703   1.1392198160e+02  -7.9707817758e-01    0.1118244   0.09346323  63.16  0.000378924    1.627    0.385
       265  -9.5917    162.1949     15.1053   6.8578099486e+01   4.2993006089e+01    0.2667206    0.1683987 -76.06  0.001218902    1.925    0.480
       266  -8.8574    105.3279     14.7835   7.9658707802e+01   5.7096601649e+01    0.2006627    0.1671261 -38.64 0.0009323232    1.368    0.269
       267  -8.6492    173.4868     14.1877   6.6679268146e+01   4.0142790301e+01     0.186619    0.1409126 -24.60 0.0006582038    1.472    0.320
       268  -8.8641    163.7279    228.4480   1.2055517736e+02   5.2031147618e+00    0.2469834    0.1006589  45.28 0.0008349043    2.059    0.514
       269  -9.2246     99.3954    226.3948   1.3275495635e+02   1.6073913115e+01    0.2329771    0.1622033  62.14 0.0006376203    1.237    0.192
       270  -9.7363    217.4684    223.9281   1.0987302796e+02  -3.1300617814e+00    0.3052075    0.2391446  60.19  0.001875995    1.881    0.468
       271  -9.9659    228.4341    221.7463   1.0757084848e+02  -4.5963689338e+00    0.3414437    0.2798653  59.58  0.002181988    1.859    0.462
       272  -9.6962    193.9825    220.1520   1.1356109741e+02   1.2789427656e+00    0.2910599    0.2402033 -84.71  0.001747079    1.966    0.491
       273  -8.4446    166.0263     27.0092   7.1775886368e+01   4.0672076643e+01    0.1707874    0.1667276 -65.60 0.0009919266    1.081    0.075
       274  -9.3028    241.1000    209.6836   1.0328901530e+02  -5.0681351829e+00    0.2516417    0.1927501 -27.59  0.001638121    1.407    0.289
       275  -9.1619    247.1756    208.8847   1.0211421600e+02  -5.9105712736e+00    0.2680792    0.1941593   0.95  0.001715631    1.241    0.194
       276 -10.1367    247.6833    217.2584   1.0350277613e+02  -7.0033124418e+00    0.3347596    0.2651229  21.83  0.001645413    1.136    0.120
       277  -8.8545    244.4800    213.4950   1.0338634845e+02  -6.0648917831e+00    0.2177456    0.1569556 -19.82  0.001014118    1.358    0.264
       278  -8.6027     48.4341    219.7090   1.4187400567e+02   2.4365499377e+01    0.1385309   0.09611726 -71.51 0.0007546242    1.526    0.345
       279  -8.0955    131.5108    219.4879   1.2562037717e+02   1.2142136770e+01    0.1303105    0.1063354  53.35 0.0008101951    1.037    0.035
       280  -8.5592    159.9348    218.8018   1.1989693184e+02   7.3768669406e+00    0.1826647   0.08705731  40.95 0.0008585136    1.760    0.432
       281 -11.1517    214.2215    214.1693   1.0882658840e+02  -1.2999671853e+00    0.4550535    0.3264706 -32.86  0.002777087    1.553    0.356
       282 -10.0696    232.8694    213.2496   1.0534084319e+02  -4.2219778749e+00    0.3479176    0.2539872 -13.71  0.001612968    1.349    0.259
       283  -9.2626    186.6239    213.6745   1.1390994124e+02   3.5080142088e+00    0.2760036    0.1978088 -57.04   0.00155123    1.928    0.481
       284  -9.4697     63.8692    217.4270   1.3876141177e+02   2.2838212254e+01    0.2436122    0.1463663  68.17  0.001440706    1.469    0.319
