#   1 NUMBER                 Running object number                                     
#   2 MAG_AUTO               Kron-like elliptical aperture magnitude                    [mag]
#   3 X_IMAGE                Object position along x                                    [pixel]
#   4 Y_IMAGE                Object position along y                                    [pixel]
#   5 X_WORLD                Barycenter position along world x axis                     [deg]
#   6 Y_WORLD                Barycenter position along world y axis                     [deg]
#   7 A_WORLD                Profile RMS along major axis (world units)                 [deg]
#   8 B_WORLD                Profile RMS along minor axis (world units)                 [deg]
#   9 THETA_WORLD            Position angle (CCW/world-x)                               [deg]
#  10 FWHM_WORLD             FWHM assuming a gaussian core                              [deg]
#  11 ELONGATION             A_IMAGE/B_IMAGE                                           
#  12 ELLIPTICITY            1 - B_IMAGE/A_IMAGE                                       
         1 -15.5415    191.2923    191.5929   3.1342596570e+01   8.6320372056e+00     10.66781      5.28686 -59.02   0.03351681    6.924    0.856
         2 -17.5727    208.2380    178.5948   2.6050542585e+01   8.4958121402e+00     6.551128     5.376159 -58.21   0.04180342    1.822    0.451
         3 -17.9828    244.4059    143.6312   1.4128400723e+01   9.0437656598e+00     3.256838     2.688138 -23.81   0.02399019    1.109    0.099
         4 -16.9320    246.3757    123.7585   1.0078653643e+01   1.1630048787e+01     4.788112     2.438473 -60.59   0.01650004    4.869    0.795
         5 -13.8349     17.8605     89.1635   6.3278168548e+01   5.8012832641e+01     2.158867     1.849503  69.84   0.00819654    1.238    0.192
         6 -12.9555      4.7751     56.0592   6.3822460876e+01   6.7545643883e+01     1.676458    0.5135331 -66.19  0.006340333    2.677    0.626
         7 -12.4477    222.3400     42.6383   3.5539739978e+02   2.6778087060e+01      1.39011    0.3955468 -47.50  0.005856421    2.776    0.640
         8 -12.2640    214.4127     33.1686   3.5385134209e+02   2.9442155586e+01     1.030093    0.7360983 -39.16  0.006643423    1.216    0.177
         9 -13.6336    196.8405     13.8768   3.5048448979e+02   3.5164454251e+01     2.614385    0.8860041 -67.17  0.009901249    3.799    0.737
        10 -11.4810    162.2509     36.3293   3.5982773203e+02   4.0286671588e+01    0.6099263    0.2580325 -63.66  0.002167113    3.467    0.712
        11 -14.2681    231.4764      7.9207   3.4721530013e+02   2.8952410195e+01     2.881768     1.173831  86.24    0.0155247    2.638    0.621
        12 -10.1927    130.7411      2.1382   3.5260548476e+02   5.1568287435e+01    0.2957647    0.1938194  51.62   0.00160803    1.629    0.386
        13  -9.6694     60.9989    229.9521   6.5337134422e+01   1.8033304011e+01    0.1797266    0.1603818  29.35 0.0003839371    1.099    0.090
        14 -16.0420    178.6236    170.8323   3.0004362866e+01   1.3902471553e+01     3.816991     2.008489  36.30  0.009764281    1.995    0.499
        15  -9.5310     12.3401    206.6614   7.5665785896e+01   2.7711933712e+01    0.1427381   0.06901038  53.83 -0.0003747993    1.764    0.433
        16  -9.6622      6.3575    202.0810   7.6967143492e+01   2.9227031903e+01    0.1887179    0.1604007  23.11 0.0004272027    1.278    0.217
        17 -11.4839    161.1479    197.3316   3.8229626454e+01   1.1669760777e+01    0.3106279    0.2815424  67.62  0.001964557    1.603    0.376
        18 -11.3768    152.1217    196.8824   4.0066736311e+01   1.2983787807e+01    0.3870455    0.2726562  20.08  0.002195749    1.339    0.253
        19 -11.3786    149.8383    193.1469   3.9949540795e+01   1.3990200608e+01    0.4563182    0.2288539  37.25  0.002155203    1.969    0.492
        20 -11.7834    224.9729    219.1757   3.0059679018e+01   7.5250351825e-01    0.4599763     0.347338  24.04  0.002342643    1.526    0.345
        21 -10.4174     83.5895    188.6759   5.5418243704e+01   2.4202377432e+01     0.293393    0.2133232 -20.58  0.001129104    1.725    0.420
        22 -10.0206    246.1615    233.5024   2.8955840938e+01  -3.0041087397e+00    0.2328004    0.1528757  25.65  0.001415771    1.743    0.426
        23 -10.6625    111.9947    151.3863   4.1614800873e+01   2.8662946901e+01    0.3861606    0.2829352  55.46  0.001845225    1.568    0.362
        24 -11.3610     67.9019    143.9297   5.3365517736e+01   3.7419777762e+01    0.7721671    0.4192318  56.81   0.00283688    2.280    0.561
        25  -9.5354     80.8122    140.8487   4.8693279282e+01   3.6316052285e+01    0.3113198    0.2056793 -64.20 0.0006624055    1.548    0.354
        26  -9.8530    112.2338    134.4904   3.8019776668e+01   3.2591588928e+01    0.2783741    0.2306698 -32.90 0.0003182777    1.255    0.203
        27  -9.8613    124.9633    133.0504   3.4264221370e+01   3.0597903729e+01    0.3005873    0.2028346 -29.03 0.0007994722    1.729    0.422
        28 -10.9728    125.8486    128.2131   3.2919144914e+01   3.1521556742e+01    0.4288132    0.2397576 -49.32 0.0008705999    1.746    0.427
        29  -9.9927    120.9942    132.5289   3.5191745217e+01   3.1449715974e+01    0.3126119    0.2017375 -36.41  0.001374375    1.654    0.395
        30  -8.9448     76.2346    125.0165   4.7012945932e+01   4.1131691171e+01    0.2003189     0.126515 -58.62  0.000299559    1.549    0.354
        31 -12.3437    119.4172    119.2765   3.2480121252e+01   3.4776600669e+01    0.8411858    0.6754181 -23.71  0.004111798    1.406    0.289
        32 -10.2756    110.5122    103.8166   3.0966850323e+01   4.0069694787e+01    0.3166844    0.2456647  64.81 0.0007994852    1.493    0.330
        33 -12.1413    121.3355    103.2228   2.7804380732e+01   3.7975834489e+01     1.099267    0.8321021  65.88  0.005172895    1.562    0.360
        34 -10.3495    102.6759    113.8199   3.5906125614e+01   3.9283170921e+01    0.5858654    0.3116733 -47.11  0.002331232    1.839    0.456
        35 -12.1430    112.4599    111.4447   3.2432652568e+01   3.7935376473e+01    0.8077321    0.7158724   8.34  0.004141602    1.276    0.216
        36 -10.3975    107.3792    114.1245   3.4584809016e+01   3.8307195695e+01    0.3787835    0.3374108  47.15  0.001724247    1.152    0.132
        37  -9.9654     86.9745    111.0262   4.0176938904e+01   4.2881913080e+01    0.2290292    0.2203741 -54.92 0.0003355406    1.019    0.018
        38 -13.0611     48.6218     95.5125   5.0754378109e+01   5.3023998185e+01      0.93823     0.733339 -56.99 0.0009512142    1.213    0.176
        39 -13.4782     64.6855    102.6834   4.6045145997e+01   4.8787619002e+01     1.688108     1.065525  22.47  0.002031093    1.821    0.451
        40 -13.3812     56.6574     96.9901   4.7789405201e+01   5.1497580154e+01     1.589772    0.9693705  10.52  0.004538082    2.259    0.557
        41  -9.7790     87.9360    105.3697   3.8406626671e+01   4.4105295988e+01    0.2879542    0.2156066 -46.76 0.0006478259    1.316    0.240
        42 -10.0463    156.6132    105.2142   2.0039674582e+01   3.0241716635e+01    0.2213692    0.1801473 -37.63 0.0006780254    1.154    0.134
        43  -9.8625    154.3868    102.7674   1.9873147663e+01   3.1171228483e+01    0.2358833    0.1371969 -41.97  0.001043813    1.592    0.372
        44  -8.9949     96.0706    105.4903   3.5790010237e+01   4.2540696213e+01    0.2258675    0.1543142  40.72 0.0004450991    1.494    0.331
        45 -11.3621    222.2801    213.3261   2.9579851935e+01   1.8049846624e+00    0.2260337    0.1698387   0.71 0.0003739777    1.124    0.110
        46 -12.0056    175.8499    222.5096   3.9219017310e+01   5.6716093618e+00     0.579607    0.2457141  25.03  0.002580362    2.236    0.553
        47 -10.9454    165.1343    100.7823   1.7222353679e+01   2.9341356052e+01    0.4351165     0.288899  43.83  0.001988174    1.682    0.405
        48  -9.2662    106.6238    100.1258   3.1086823229e+01   4.1700041980e+01    0.2226861     0.186958 -43.05 0.0006258061    1.175    0.149
        49  -9.8879    152.1637     94.8673   1.8256847002e+01   3.3151689583e+01    0.3495093    0.1990667 -44.53 0.0009856862    1.634    0.388
        50  -9.5833     90.0230     96.4091   3.5262097464e+01   4.5874082779e+01    0.2872722    0.2028057 -37.87 0.0005136341    1.502    0.334
        51  -9.9362    168.5493     92.9815   1.4593134862e+01   3.0056455807e+01    0.2423424     0.201152  24.36 0.0007187201    1.482    0.325
        52 -10.4280    194.0772    223.7863   3.6018814238e+01   3.4048512581e+00    0.3295619    0.2065037 -13.29  0.001173853    1.476    0.323
        53  -9.9983    173.7535     77.9640   9.7874051967e+00   3.1542404513e+01    0.2321727    0.1928334  24.01 0.0007728228    1.552    0.356
        54 -10.6773    166.1269     76.3352   1.0611398879e+01   3.3453309458e+01    0.5179453    0.2962463 -28.10  0.001937276    1.949    0.487
        55 -10.0001    236.5323     72.0000   5.8184045709e-01   2.0431796636e+01    0.2334244     0.169873  75.37  0.001542426    1.710    0.415
        56  -9.9368    241.3619     68.5798   3.5941784632e+02   2.0084380125e+01    0.3101629    0.2546648 -11.95  0.001134775    1.523    0.343
        57 -11.2375    173.6132     70.4431   7.8122475221e+00   3.2790648028e+01     0.422595    0.3368196  73.75  0.001123867    1.359    0.264
        58  -8.9170    229.0750     70.4977   9.7930088288e-01   2.1912645132e+01    0.1464608    0.1200387  71.02 0.0004841623    1.482    0.325
        59  -8.5437    250.7696     67.0369   3.5829579053e+02   1.8762720674e+01    0.1482212   0.07255463 -37.09  0.000284186    1.516    0.341
        60  -9.6313     39.9362     66.7638   4.6813119567e+01   6.1516820644e+01    0.2465809    0.1874009 -48.81 0.0005035041    1.246    0.197
        61 -10.1475    173.2814     64.9747   6.3906799983e+00   3.3719599552e+01    0.2006394    0.1641718 -45.02 0.0003845964    1.100    0.091
        62  -9.0587    210.9873     62.0877   9.2680029322e-01   2.6385514575e+01    0.1820868     0.149459   7.81 0.0006885312    1.731    0.422
        63 -10.5698    223.5352     59.3653   3.5905243953e+02   2.4407823340e+01    0.3643712    0.2132905 -43.62  0.002116984    1.336    0.251
        64  -9.4293    231.3009     59.6649   3.5841044658e+02   2.2976166137e+01    0.2291354    0.1414776 -75.27   0.00132786    1.931    0.482
        65 -10.2030    231.8426     56.1976   3.5760973740e+02   2.3331911583e+01    0.2223153     0.165168 -35.84 0.0006938081    1.194    0.162
        66 -10.6940    244.0308     54.9536   3.5635454766e+02   2.1395097199e+01     0.190707    0.1574499 -86.20 0.0004782984    1.383    0.277
        67 -10.7892    172.1831    219.4069   3.9467124707e+01   6.5858265302e+00    0.2512103    0.1904542 -25.43 0.0005312404    1.243    0.195
        68 -11.9125    174.6640    216.6798   3.8573096108e+01   6.7151408705e+00    0.6191341    0.4644523  62.44  0.003445171    2.696    0.629
        69 -10.9499    174.5449    211.4864   3.7796645235e+01   7.5529540753e+00    0.3051778    0.2008928  29.83  0.001302786    1.476    0.323
        70  -8.6648    200.7959     46.3649   3.5819846647e+02   3.0525598671e+01    0.1563324    0.1133758  61.15 0.0004335813    1.592    0.372
        71 -10.8106    235.9393     38.5061   3.5348164052e+02   2.4797419651e+01    0.3235676    0.1768949 -40.95  0.001403011    1.374    0.272
        72 -10.7519    172.3029    208.6984   3.7799563824e+01   8.2828606976e+00    0.2868721    0.1941869  19.47  0.001019805    1.353    0.261
        73 -10.8196    153.4890     26.5196   3.5797291437e+02   4.3560386752e+01     0.266994    0.2085931  67.04    0.0011263    1.294    0.227
        74 -11.4707    152.8263     31.9283   3.5972727552e+02   4.3067078394e+01    0.3962474    0.3660588 -20.10  0.001877393    1.262    0.208
        75 -10.8966    157.8036     27.3927   3.5771565632e+02   4.2431237582e+01    0.4013391    0.1884132  52.34  0.001771615    2.397    0.583
        76 -13.9063    188.5812    176.3497   2.9133040677e+01   1.1513180114e+01    0.7085975    0.3264175 -42.03  0.002114072    2.013    0.503
        77  -9.4157    240.0364     47.8089   3.5516204878e+02   2.2959152901e+01    0.1659681    0.1523449  56.90 0.0005096016    1.477    0.323
        78 -11.3906    238.6629     24.9733   3.5044794311e+02   2.5861998614e+01    0.2644841    0.1749904 -30.91  0.001223341    1.441    0.306
        79  -9.1720    249.1931     46.1905   3.5417713824e+02   2.1611069347e+01    0.1575092    0.1289523 -35.55 0.0007341001    1.241    0.194
        80  -9.7051     44.1602     17.8646   2.2279686252e+01   7.0558289744e+01    0.1895642    0.1839565  44.79 0.0007277197    1.172    0.147
