#   1 NUMBER                 Running object number                                     
#   2 MAG_AUTO               Kron-like elliptical aperture magnitude                    [mag]
#   3 X_IMAGE                Object position along x                                    [pixel]
#   4 Y_IMAGE                Object position along y                                    [pixel]
#   5 X_WORLD                Barycenter position along world x axis                     [deg]
#   6 Y_WORLD                Barycenter position along world y axis                     [deg]
#   7 A_WORLD                Profile RMS along major axis (world units)                 [deg]
#   8 B_WORLD                Profile RMS along minor axis (world units)                 [deg]
#   9 THETA_WORLD            Position angle (CCW/world-x)                               [deg]
#  10 FWHM_WORLD             FWHM assuming a gaussian core                              [deg]
#  11 ELONGATION             A_IMAGE/B_IMAGE                                           
#  12 ELLIPTICITY            1 - B_IMAGE/A_IMAGE                                       
         1 -12.9023     38.2982     49.9133   6.5562784539e+01   6.2761326403e+01    0.6709571    0.5547341 -25.45  0.003685715    1.021    0.020
         2 -11.4694     11.6542     58.6381   7.9231190386e+01   6.3174474072e+01    0.6814444    0.2378839 -54.10  0.003308294    2.033    0.508
         3 -12.4145      4.4904     49.0358   7.9857162955e+01   6.5526572447e+01      1.23744    0.3201284 -55.02  0.005627863    2.476    0.596
         4 -11.9103    145.5003     29.0722   2.4095634565e+01   4.5417289866e+01      0.50959    0.3318171 -13.22 0.0008789939    1.886    0.470
         5 -11.0247      2.3821     25.1459   7.3775561750e+01   7.0170100927e+01    0.5433773    0.1582715 -41.11  0.001908921    2.436    0.589
         6 -11.8493      3.1033     13.4699   6.8983683241e+01   7.2118975649e+01    0.3209738    0.1769613 -24.52  0.001261701    1.504    0.335
         7 -10.7406    130.3838     13.5284   2.1787542388e+01   5.0833281420e+01    0.3851198    0.2503751  23.54  0.001933936    1.799    0.444
         8 -12.6595    132.9300     18.9437   2.3167951331e+01   4.9666787215e+01    0.4185701     0.268654  51.77 0.0004357919    1.365    0.267
         9 -10.6624     19.7229     16.5851   6.1422001271e+01   7.0348456550e+01    0.3036395    0.2665291 -12.44  0.002315097    1.304    0.233
        10 -10.6010     32.3022     14.3453   5.4104888705e+01   6.9375968620e+01    0.3936727    0.2803499  25.30  0.002641032    1.444    0.308
        11 -11.8998     28.5208     19.6212   5.8352128784e+01   6.9017264204e+01    0.2639253    0.2155665 -14.43 8.813277e-05    1.117    0.104
        12 -12.8668    237.8601     17.6721   8.8545961284e+00   2.3935632652e+01    0.4310044    0.2789505 -69.74 0.0006884772    1.407    0.290
        13 -11.6717    234.9628     10.2380   7.4629777924e+00   2.5440126159e+01    0.2721331     0.212814 -85.67 0.0009227918    1.100    0.091
        14 -11.2158    169.2047     16.0370   1.6065312090e+01   4.0861453580e+01    0.3494489     0.244243 -23.90  0.001060505    1.646    0.392
        15 -10.6253     50.4307     16.9170   4.7098050993e+01   6.6641104605e+01    0.3464219    0.2021605 -35.32  0.001120739    1.734    0.423
        16 -11.1523    164.8026     13.0112   1.5803698075e+01   4.2288218121e+01    0.2561896    0.2304846 -67.18  0.001444086    1.159    0.137
        17 -11.2454     77.3971      9.7810   3.3745631819e+01   6.2880646860e+01    0.3982741    0.2581829  19.37  0.001082003    1.506    0.336
        18 -10.6616     73.0257     10.5175   3.5522837716e+01   6.3629969097e+01    0.3732724    0.2078309  17.23  0.001809469    2.061    0.515
        19 -10.4565     76.7296     15.7305   3.6610615584e+01   6.2367857801e+01    0.2798835     0.216188  29.45 0.0003882022    1.124    0.110
        20 -10.6912     72.6670     16.2745   3.8238437984e+01   6.3057669307e+01    0.3442585    0.2784106  54.26   0.00172255    1.522    0.343
        21 -11.0163     60.5332     13.8183   4.1567859499e+01   6.5454466264e+01    0.3267391    0.2622401 -21.67  0.001351347    1.289    0.224
        22  -9.9461     15.0103     13.4940   6.2515306543e+01   7.1240089447e+01    0.1776847     0.116545 -25.55 0.0003753868    1.176    0.150
        23 -10.6260    156.2096     12.7848   1.7019865651e+01   4.4486161480e+01     0.449928    0.2695651  10.47  0.002022807    2.527    0.604
        24 -10.7959    159.8542      8.8230   1.5260486913e+01   4.3945860102e+01    0.2746605    0.1957899  83.91 0.0006177921    1.363    0.266
        25 -10.3771    154.4773      8.0695   1.5822216721e+01   4.5370599294e+01     0.298761    0.2332703  73.13  0.001633997    1.143    0.125
        26 -10.5278     98.9265     12.5428   2.8623482262e+01   5.8194861967e+01    0.2867107    0.2318095 -40.59  0.001107403    1.499    0.333
        27 -10.8275    118.1518     12.3673   2.3913910421e+01   5.3865606088e+01    0.3938251    0.1632912  47.69  0.001394376    2.058    0.514
        28 -11.0725    176.0497     11.1752   1.3738378362e+01   3.9622009114e+01    0.4007549     0.272982  78.04  0.001757265    1.329    0.248
        29 -10.0270    145.4351     10.5272   1.8037611029e+01   4.7408867015e+01    0.2584233    0.1421253  56.05 0.0007331275    1.549    0.355
        30 -11.2430    145.3801      6.3959   1.6705940475e+01   4.7797957862e+01    0.4191622    0.3160755 -41.52  0.001389476    1.490    0.329
        31 -10.9419     11.4006     14.7582   6.5001434751e+01   7.1334103777e+01     0.338078    0.1503043 -24.77  0.001765716    2.239    0.553
        32  -9.8733     25.9406      9.6149   5.4990544946e+01   7.0751960070e+01    0.2790213    0.2148593  57.93  0.001651835    2.993    0.666
        33 -11.3016    241.3374      8.9921   6.6898519452e+00   2.4150440152e+01    0.2365541    0.1331984 -84.92  0.001267026    1.693    0.409
        34 -10.4969     65.0136      8.7614   3.7519065923e+01   6.5262176171e+01    0.1891697    0.1536835   2.75 0.0002527773    1.092    0.084
        35 -10.8835      9.2659      8.2263   6.3249408091e+01   7.2508835444e+01    0.3066606    0.2206353   6.39  0.001173179    1.334    0.250
        36 -11.5288     11.3436      2.3294   5.9213346643e+01   7.3190780295e+01    0.2660081    0.1762381 -21.04  0.001585191    1.139    0.122
        37 -11.1642     36.8475      7.7769   4.8740247566e+01   6.9693184709e+01    0.3190288    0.1951131  35.72 0.0005253043    1.719    0.418
        38 -12.0010     28.6679      2.0045   4.9745050866e+01   7.1430880137e+01    0.7996206     0.233848  29.53  0.003290999    3.850    0.740
        39 -10.6047     22.4005      2.4328   5.3199085175e+01   7.2094316150e+01    0.4329841    0.1723655 -29.67  0.002263927    2.262    0.558
        40 -10.3835    222.9959      5.2076   7.3279479606e+00   2.8735563325e+01    0.2488478    0.1858937 -21.85  0.001026346    1.685    0.407
        41  -9.4552     91.8768      6.7821   2.8131603613e+01   6.0248695383e+01    0.1704575   0.08985806  51.11 0.0008510489    1.633    0.388
        42 -11.0792    227.9264      4.7824   6.8269366252e+00   2.7638295143e+01    0.2841259    0.1507128  70.98  0.001032308    1.715    0.417
        43 -10.6620    229.9402      1.6380   5.9737716825e+00   2.7505927611e+01    0.2299928    0.1583397 -54.34 0.0005090158    1.295    0.228
        44 -10.6464    164.7258      4.7402   1.3367243183e+01   4.3092195264e+01     0.234785    0.1986915 -80.87 0.0004530313    1.168    0.144
        45 -10.1913    168.1183      1.9058   1.2106016063e+01   4.2490245137e+01     0.197683    0.1675344  77.31 0.0003039851    1.012    0.011
        46 -10.9957    126.4320      2.8504   1.8777657184e+01   5.2737200990e+01    0.4440045    0.2487933  29.89  0.001883828    2.018    0.505
        47  -9.4262     68.1818      5.3411   3.4783758708e+01   6.5047106125e+01    0.1724816    0.1082892  54.06 0.0009587855    1.778    0.438
        48  -9.4943      1.0000      5.0726   6.6533921779e+01   7.3577117355e+01    0.1557413   0.04857055 -47.93 0.0003124444    2.680    0.627
        49 -12.0785    242.2540      2.7565   5.3035354155e+00   2.4628023368e+01    0.6131825    0.2309712  82.00  0.002399921    2.649    0.623
        50 -11.2341    178.7938      3.6697   1.1313643374e+01   3.9652285947e+01    0.2336546    0.2071067 -89.51 0.0002600686    1.054    0.052
        51 -11.0831    213.9817      6.3098   8.3700398247e+00   3.0747133667e+01    0.4182163    0.1840952 -63.15  0.001685024    2.554    0.609
        52  -9.5768    136.5046      3.0171   1.7051470208e+01   5.0278795490e+01    0.1739153    0.1338162 -14.97 0.0004545526    1.507    0.336
        53  -9.3051     97.8174      3.5921   2.5245957820e+01   5.9254517925e+01    0.1596539    0.1147144  63.02  0.000398143    1.420    0.296
        54 -10.8608     90.9650      2.0900   2.6383654572e+01   6.0849239528e+01     0.189217    0.1598692  18.77 -0.001320134    1.105    0.095
        55 -10.9219     74.2496      2.0147   3.1214485088e+01   6.4225538334e+01    0.3810129    0.2170441  63.08  0.001933853    2.283    0.562
        56  -9.6052    196.5122    201.4727   5.7675214436e+01   2.3765917413e+00    0.1391245    0.1196982  16.67 6.717267e-05    1.047    0.045
        57 -11.3056    247.3539    250.0658   5.6580679283e+01  -1.2335403692e+01    0.3483538    0.1547336  27.11  0.001882512    1.965    0.491
        58  -9.3527    155.6680    250.3109   7.3503647271e+01   1.5493298926e+00    0.1233576   0.08457656  60.01 0.0007043118    1.673    0.402
        59  -9.8681    109.9802    250.2891   8.2230297756e+01   8.8026283249e+00    0.1792779    0.1281025  48.27 0.0006539696    1.106    0.096
        60 -11.1688     90.0845    249.4501   8.5880065373e+01   1.1922622419e+01    0.2796692    0.2109661  50.52 0.0009970138    1.109    0.098
        61 -12.1850     21.8058    248.5863   9.7848210764e+01   2.0796024780e+01    0.5761451     0.147631  47.59  0.002935104    2.595    0.615
        62 -11.6994     14.4784    244.9824   9.8874070540e+01   2.2225834985e+01    0.2453911    0.1588558  78.97  0.001244168    1.170    0.145
        63 -10.3817     12.8426    250.2659   9.9383695631e+01   2.1446473213e+01    0.1552892    0.1356927  46.79  0.001223788    1.593    0.372
        64 -10.0955     14.5063    215.3472   9.7312657534e+01   2.7893157239e+01    0.1988505   0.09941951  38.14 0.0009799487    1.997    0.499
        65  -9.4585     41.0000    198.0170   9.0882593721e+01   2.8674344974e+01     0.195796   0.06083472 -71.89 0.0008030078    2.946    0.661
        66  -9.5504     56.8262    197.1665   8.7448887403e+01   2.6923767599e+01    0.1933908    0.1396226 -34.55  0.001054277    2.248    0.555
        67  -9.3753    134.6023    196.5116   7.0038865165e+01   1.4756473772e+01    0.1386641    0.1280716  51.50 8.593728e-05    1.028    0.027
        68 -12.1009     15.7578    192.0775   9.5593247705e+01   3.2615225026e+01    0.3783776    0.3168046 -74.16  0.001849324    1.324    0.245
        69 -10.6477    186.9719    191.8608   5.7827960189e+01   5.8046237644e+00    0.4566638    0.1624773 -33.12  0.001426458    4.247    0.765
        70  -9.0478    145.2746    190.3459   6.6602876245e+01   1.4034184409e+01    0.1398105    0.1126173  -6.35 0.0006336918    1.626    0.385
        71 -10.2463    244.8466    188.1708   4.5954993148e+01  -3.8772353072e+00      0.18529    0.1695597  -3.14 0.0004818627    1.194    0.162
        72  -9.9479     61.8609    184.3859   8.4937094578e+01   2.9116384773e+01    0.2326224    0.1590859 -84.98  0.001298007    1.371    0.271
        73 -12.7217     18.5511    181.3961   9.4226698224e+01   3.4682887645e+01    0.5861699    0.3551041  25.50  0.002888689    2.150    0.535
        74  -9.9015    244.3742    178.4249   4.4093477221e+01  -2.3206059680e+00    0.2619244    0.1072475 -24.03 0.0009282851    3.334    0.700
        75 -10.0984      1.6756    180.0759   9.7649196461e+01   3.6441002459e+01     0.162567    0.1165831 -85.55  0.001134769    1.115    0.103
        76  -9.6637    172.4786    175.4603   5.7719805575e+01   1.1717694565e+01    0.1469531     0.138467  35.22 0.0001196314    1.033    0.032
        77 -11.2875     17.8169    172.3622   9.3656847777e+01   3.6768850385e+01    0.3552683    0.1637891  56.05  0.001847211    2.103    0.525
        78  -9.1145    156.6482    172.2698   6.0633816186e+01   1.5543664819e+01    0.1506741    0.1150877  70.63 0.0003709435    1.629    0.386
        79  -9.5894     25.3096    169.3641   9.1712113306e+01   3.6748763258e+01    0.1220677   0.08154999 -50.80 0.0007039155    1.751    0.429
        80 -10.9987      5.1743    167.8870   9.6078063241e+01   3.8843235040e+01    0.1872297    0.1276257  77.42 0.0009410721    1.217    0.178
        81  -8.9392     93.3043    166.7341   7.4917750118e+01   2.8571179195e+01    0.1438382    0.1023699  70.05 0.0002238497    1.527    0.345
        82 -10.1277     67.5810    165.7297   8.1180548147e+01   3.2678976419e+01    0.1899458     0.120522 -80.20 0.0006747136    1.579    0.367
        83 -11.3665     51.6924    161.8513   8.4600862156e+01   3.5649546368e+01    0.5508373     0.313677 -64.46  0.001862358    1.574    0.365
        84 -10.1612     36.6057    165.7975   8.8726574906e+01   3.6429399318e+01    0.2342462    0.1575007  57.87 0.0006510481    1.436    0.304
        85  -9.6513     33.4349    166.3980   8.9539110370e+01   3.6621590173e+01    0.1916469    0.1370699 -86.31  5.59397e-05    1.177    0.150
        86 -10.0232    187.3436    165.6791   5.2471282097e+01   1.0618352073e+01    0.1479115    0.1203981  85.64 0.0007049966    1.726    0.421
        87  -9.9350      9.4418    162.8691   9.4744942628e+01   3.9630839620e+01    0.2041821    0.1580726 -20.14  0.001333353    1.998    0.500
        88  -9.4704     66.2443    161.9545   8.0978309727e+01   3.3759084727e+01    0.1923418    0.1544049 -77.84 0.0006320098    1.129    0.114
        89  -9.1646    132.4477    161.5135   6.4221908321e+01   2.2700575322e+01    0.1497769    0.1440631  63.89  6.48783e-05    1.006    0.006
        90  -9.4473     38.5833    159.2320   8.7514906261e+01   3.7758669701e+01    0.1864068   0.09843234 -60.50 0.0009430711    1.713    0.416
        91 -10.1633     67.1156    157.8006   8.0149213763e+01   3.4633953441e+01    0.1989973     0.165876  77.57 0.0002739428    1.132    0.117
        92 -11.0593     20.5628    157.0797   9.1648611967e+01   4.0018828043e+01    0.3199534    0.2327898 -78.78  0.001599336    1.121    0.108
        93 -10.4558    247.4597    157.5165   3.9230635166e+01   4.4813504969e-01    0.1355101    0.1182196 -16.39 0.0001697029    1.021    0.021
        94  -9.9920      7.0624    157.0204   9.4808575826e+01   4.1144438394e+01    0.1926721    0.1097606  68.83 0.0007273328    1.673    0.402
        95  -9.7232      1.5415    157.5548   9.6110465029e+01   4.1433110927e+01    0.1171371   0.08939486 -86.70 0.0001177617    1.026    0.026
        96  -9.7070    235.5455    154.4722   4.0632729157e+01   3.1164948884e+00    0.1411954      0.12297  -9.23 0.0003355911    1.059    0.055
        97  -9.7454    216.4798    154.5141   4.4144129317e+01   6.7951160870e+00    0.1447984    0.1334697  -6.92 -2.607848e-05    1.003    0.003
        98 -10.6762     11.0276    153.1796   9.3551105907e+01   4.1715491447e+01    0.2853988    0.1918507  46.20  0.001041112    1.576    0.365
        99  -9.5095    159.0216    153.3261   5.6112970034e+01   1.9057139527e+01    0.2600617    0.1228753  25.97 0.0007049634    4.418    0.774
       100  -9.5278     40.8862    153.1729   8.6211370101e+01   3.8948571831e+01    0.1743611    0.1261839 -62.11  0.000620989    1.288    0.223
       101  -9.6092    176.8597    150.1000   5.1325727458e+01   1.5916611596e+01    0.2308628    0.2108101  86.46 0.0006271367    1.263    0.208
       102 -10.9400     13.9523    148.0257   9.2363576217e+01   4.2675427426e+01    0.2255224    0.1510937 -89.64 0.0003222074    1.257    0.204
       103  -9.6679    144.0015    147.7910   5.8489450902e+01   2.3432555704e+01    0.2158919    0.2040483  51.51 0.0007537436    1.036    0.035
       104 -10.7854      8.2379    145.4211   9.3514472250e+01   4.3714298808e+01    0.3144243    0.2335754  16.40   0.00203018    1.825    0.452
       105 -10.3775    217.0300    145.1919   4.1957111405e+01   8.3644880011e+00    0.2291496    0.1894253   4.33 0.0006087389    1.300    0.231
       106 -10.3292    187.7382    144.0603   4.7576654799e+01   1.4779727073e+01     0.259859    0.2140338  42.10 0.0005099749    1.211    0.174
       107  -9.5660    126.6735    142.9537   6.1784688074e+01   2.8085266197e+01    0.2097941    0.1887571 -58.33 0.0003120561    1.115    0.103
       108 -10.8417     24.9692    142.9170   8.9047093039e+01   4.2949176575e+01    0.1886448    0.1518743 -79.12 0.0003819396    1.021    0.021
       109 -10.2105     32.9820    141.9844   8.6843638674e+01   4.2428453064e+01    0.2073198    0.1338444  71.52  0.001126005    1.641    0.391
       110  -9.1975     39.3024    141.3159   8.5078035928e+01   4.1955385173e+01    0.1297859   0.08940092 -44.75 0.0004163894    1.619    0.382
       111 -10.0012     13.8493    140.1439   9.1593896811e+01   4.4519435689e+01    0.1640117    0.1214471 -59.12 0.0002714048    1.299    0.230
       112 -10.1102    188.5129    139.5093   4.6348959695e+01   1.5514440367e+01    0.1516839     0.148551  -6.15 -6.736168e-05    1.016    0.016
       113 -10.2804    236.5172    137.9625   3.6828090686e+01   5.7382935271e+00     0.211696      0.18523  35.64 0.0006848928    1.219    0.180
       114 -10.9681      2.9711    135.6411   9.3908955694e+01   4.6333101037e+01    0.4022103    0.1284062 -71.92  0.001824038    2.329    0.571
       115  -9.9068    144.2421    137.0078   5.5968292049e+01   2.5787833791e+01    0.2188057    0.2056953 -42.87 0.0004166531    1.080    0.074
       116  -9.9750     43.8475    136.8095   8.3206611409e+01   4.2561002050e+01    0.1868008    0.1404779  84.85 0.0008446256    1.318    0.241
       117  -9.0604      9.4840    136.4638   9.2329923495e+01   4.5699932952e+01    0.1218934    0.0956699 -78.67 -2.341072e-06    1.022    0.022
       118 -10.7720    241.3562    134.2945   3.5196142972e+01   5.4216391007e+00    0.2465817    0.2224046 -42.66 0.0004337409    1.138    0.121
       119 -11.5961     53.8541    132.1715   7.9679829738e+01   4.2548153327e+01    0.5765619    0.3235728  60.15  0.002040614    2.238    0.553
       120 -10.7162     58.9872    131.5060   7.8104365194e+01   4.2080044575e+01    0.2728566    0.1795768 -56.23 0.0006247957    1.377    0.274
       121 -10.1181     20.7040    134.5542   8.9182169836e+01   4.5291145301e+01    0.2225958    0.1262207  86.78  0.001043358    1.799    0.444
       122 -11.7907     36.8014    130.2502   8.4198998936e+01   4.4871089515e+01    0.5761046    0.2683254 -47.49  0.002191858    2.216    0.549
       123 -11.0777     73.8213    128.9920   7.3371525070e+01   4.0682840032e+01    0.3229867    0.2791663  89.17  0.001135315    1.176    0.150
       124 -10.8143      4.1804    130.0710   9.3053564579e+01   4.7540873881e+01    0.1787028    0.1678681  84.87 0.0006484865    1.235    0.190
       125 -11.0087     56.6660    126.4783   7.7884281936e+01   4.3591480599e+01    0.3560651    0.2137103 -40.77 0.0008183529    1.874    0.466
       126 -11.2203     15.4926    125.0999   8.9454111725e+01   4.7925658275e+01    0.3164284    0.2135058  43.50  0.001938674    1.677    0.404
       127 -11.8679     10.0134    121.5326   9.0543910290e+01   4.9145031046e+01    0.5252002    0.2749661  86.91  0.002697176    2.016    0.504
       128  -9.5606    219.4627    124.0540   3.6611822066e+01   1.1689323847e+01    0.2063472    0.1274122 -12.76 0.0008077157    2.426    0.588
       129 -10.2244     54.1691    123.7879   7.8132871139e+01   4.4546552320e+01    0.1838183    0.1447885 -44.21 0.0003011293    1.300    0.231
       130 -10.2850     55.9891    120.7896   7.7040276914e+01   4.5053567197e+01     0.226753    0.1595876  74.66  0.001149108    1.729    0.422
       131 -10.6180    243.6836    122.0724   3.2073044414e+01   7.0303163812e+00    0.2062293    0.1648835 -32.74 0.0007478687    1.126    0.112
       132 -10.7436     19.8688    121.3880   8.7749231961e+01   4.8471684180e+01    0.2383194    0.1444303 -65.05 0.0006062365    1.325    0.245
       133  -9.6779      4.5394    122.4904   9.2160634665e+01   4.9272804613e+01    0.1213878   0.09351435 -73.36 5.182009e-05    1.031    0.030
       134 -10.0893     71.2997    120.9789   7.2496201234e+01   4.2988432285e+01    0.2023232    0.1745275 -60.25 0.0004548781    1.060    0.056
       135 -10.5011     24.5138    120.5275   8.6296816244e+01   4.8306016655e+01    0.2347297    0.1833518  68.30  0.001184065    1.375    0.273
       136 -10.3814     24.3426    117.6896   8.5938407047e+01   4.8993297020e+01    0.2462342    0.1547414  53.94  0.001364118    1.842    0.457
       137 -10.3422      1.3939    118.5609   9.2594871306e+01   5.0366660961e+01    0.2179799   0.08969048 -72.74 0.0002205074    1.855    0.461
       138  -9.9228     42.0592    116.8558   8.0520244323e+01   4.7565151985e+01    0.2513913    0.1549625 -80.12  0.001260064    1.701    0.412
       139 -11.2897    182.0060    114.5535   4.1592430544e+01   2.1971168633e+01    0.4740465    0.3163851  34.29 0.0006955701    1.711    0.416
       140  -9.9188     86.0083    116.0875   6.7019472128e+01   4.1918566443e+01    0.2167904    0.2038265 -60.43 0.0002775782    1.007    0.007
       141 -10.3528     71.9817    115.2772   7.1079927556e+01   4.4264069930e+01    0.2564899    0.2389869  57.16  0.001495413    1.153    0.133
       142 -10.2772     52.5250    116.1747   7.7214278128e+01   4.6580208671e+01    0.2147798     0.195097  22.90  0.000591378    1.273    0.215
       143 -12.5730     36.3741    108.9108   8.0865961038e+01   5.0023240822e+01     1.018307    0.3553914  27.23  0.004204764    3.254    0.693
       144 -11.5157     23.5295     99.3769   8.3274732097e+01   5.3362117875e+01     0.451104    0.2657732  28.30  0.002519876    2.000    0.500
       145 -11.8519     25.0227    106.4978   8.4001871095e+01   5.1581389955e+01     1.053114    0.4719995  -4.60   0.00374313    5.329    0.812
       146 -11.2878     15.9214    115.2009   8.8054689147e+01   5.0220872704e+01    0.2471039     0.198882 -86.78  0.000399505    1.155    0.134
       147 -12.3066     14.7846    110.1885   8.7697903059e+01   5.1473402178e+01    0.6361784    0.3079759 -79.14  0.003151051    1.952    0.488
       148 -10.4497    105.6152    114.7000   6.0912755923e+01   3.8791897364e+01    0.2946426    0.2669042 -74.78 0.0008920862    1.153    0.133
       149  -9.7449      3.2972    114.6344   9.1620738457e+01   5.1162719840e+01    0.1229281   0.07642686  75.20 0.0007031747    1.722    0.419
       150 -10.9043    249.6449    112.0131   2.8892384234e+01   7.5274982763e+00    0.2522668    0.2174946 -58.01 0.0006942432    1.213    0.175
       151 -10.9971     93.3701    111.9239   6.3822777923e+01   4.1662702665e+01    0.4321431    0.3023465  67.92  0.001934723    1.920    0.479
       152  -9.6314     77.7814    111.7387   6.8509400738e+01   4.4250605709e+01    0.1898248    0.1630748 -86.63 0.0008882977    1.275    0.216
       153  -9.8788     51.4450    112.2377   7.6785525466e+01   4.7650731619e+01    0.1920682    0.1211546 -74.93 0.0009383832    1.660    0.398
       154 -10.8388     55.0817    109.6745   7.5132326388e+01   4.7835718674e+01    0.2628495    0.1981987 -59.75  0.000598777    1.171    0.146
       155 -10.8675      2.8571    105.9479   9.0696455244e+01   5.3185830280e+01    0.3173964    0.1738703 -71.41  0.001292704    1.413    0.293
       156 -10.2873    111.4537    105.8740   5.6945217485e+01   3.9681440398e+01    0.3188978    0.1981305  41.00 0.0008906764    1.650    0.394
       157  -9.3243    102.8519    105.3783   5.9328602400e+01   4.1459418527e+01    0.1942197    0.1447745  26.55 0.0002197765    1.510    0.338
       158 -11.1649     53.2426    104.8188   7.4700923692e+01   4.9207990697e+01    0.4836252    0.1372728  37.31  0.001718231    3.657    0.727
       159 -10.3834    119.0239    102.9165   5.3985716804e+01   3.8797786102e+01    0.4002544    0.2271993 -37.87  0.001607247    1.861    0.463
       160 -11.5211     36.6794    101.4138   7.9375112924e+01   5.1763980031e+01    0.5077001    0.3120275  75.85  0.001862294    2.401    0.583
       161 -10.2068     32.6725     96.7260   7.9782894661e+01   5.3224319533e+01    0.2471127     0.174203  66.56  0.001235851    1.826    0.452
       162 -11.9229     62.0804     98.7491   7.0456836004e+01   4.9534152147e+01    0.4906325    0.3081788 -44.92  0.001323487    1.471    0.320
       163 -10.4094     66.8142     97.8056   6.8673602306e+01   4.9115134655e+01    0.2096206    0.1759959 -29.86 0.0002599954    1.213    0.176
       164  -9.6329     47.9376    100.8785   7.5586211882e+01   5.0740379369e+01    0.2091885    0.1544595  83.64 0.0006752071    1.700    0.412
       165  -9.6927    144.4275     99.2848   4.6188564957e+01   3.3949121046e+01    0.2212585    0.1499492 -52.18 0.0009392523    1.574    0.365
       166 -10.4567     75.5463     98.4414   6.5989319745e+01   4.7702887275e+01    0.3371074    0.2047147 -22.21  0.001384788    2.464    0.594
       167  -9.8710      9.7876     99.1223   8.7633319544e+01   5.4357598068e+01    0.1712114    0.1343629 -81.97 0.0003511468    1.192    0.161
       168 -10.0426     41.0484     96.7085   7.6985996959e+01   5.2438830912e+01    0.1781547    0.1569079 -51.89 0.0004812424    1.039    0.038
       169 -10.9009     15.7195     96.5733   8.5334739582e+01   5.4568865990e+01    0.2420115    0.1971307 -31.95  0.001018402    1.331    0.249
       170  -9.4213    240.6763     96.3432   2.6621142266e+01   1.1955276565e+01     0.148576    0.1012102 -64.14 0.0007050622    1.733    0.423
       171  -9.3690     57.3422     96.2790   7.1440718414e+01   5.0712165817e+01    0.1394126   0.09812017 -26.35 0.0001602806    1.627    0.385
       172 -10.7113     56.4019     90.6049   7.0385912152e+01   5.2131459199e+01    0.3222695    0.1567285 -44.98 0.0008742889    1.873    0.466
       173 -11.7326    157.8564     90.6333   4.0486026898e+01   3.2490597127e+01    0.5816039    0.3967088  48.68   0.00257563    1.452    0.311
       174 -10.6133    157.0544     84.8227   3.8999010233e+01   3.3799501503e+01    0.5218921    0.4010758 -56.77  0.002434747    1.424    0.298
       175  -9.8933    249.7702     91.0300   2.4125792392e+01   1.0919288530e+01    0.1848844    0.1020915 -37.69 0.0004542479    1.598    0.374
       176  -9.8126    231.5339     91.4795   2.6826396145e+01   1.4741000472e+01    0.1445729     0.129489 -53.69 3.768219e-05    1.044    0.042
       177  -9.9092     73.6845     90.8333   6.4608777755e+01   4.9713522901e+01    0.3072874    0.1071475 -45.93  0.001091323    2.649    0.622
       178 -10.6349     10.6785     90.7571   8.6035040571e+01   5.6214729155e+01    0.1915203    0.1700404 -51.81 0.0004902394    1.143    0.125
       179 -11.8682     21.5069     85.6811   8.1422377462e+01   5.6653374351e+01    0.6452926    0.1970752 -58.73 0.0005840979    2.367    0.578
       180  -9.2944    128.4212     89.3676   4.7513542196e+01   3.9647849601e+01    0.1514294    0.1470031  29.57 7.706748e-05    1.025    0.024
       181 -10.1999     97.5144     89.0683   5.6429939843e+01   4.6083055016e+01     0.229868    0.2001394  34.19 0.0006089228    1.184    0.155
       182 -10.4696     84.4526     88.8828   6.0529571915e+01   4.8436002344e+01    0.2903339     0.223197  37.17  0.001081544    1.374    0.272
       183 -11.8091     76.8307     83.2420   6.1438445386e+01   5.0904190757e+01    0.5314053    0.3259513 -57.87 0.0008303073    1.765    0.434
       184 -11.3559     66.1301     85.1155   6.5613488017e+01   5.2084072269e+01     0.525883    0.3851351 -39.45   0.00271905    1.262    0.208
       185 -12.1052    107.2555     84.6184   5.2132418698e+01   4.5135422170e+01    0.2949105    0.2719073  60.19 0.0002747032    1.190    0.160
       186  -9.9077      9.2834     85.9191   8.5693684198e+01   5.7388137323e+01    0.2122968    0.1178206  55.09 0.0009282339    2.529    0.605
       187  -9.4875    184.5585     85.4272   3.3334097887e+01   2.6892652883e+01     0.153209    0.1464288 -77.67 9.793272e-05    1.037    0.035
       188 -10.1515     38.6981     86.9043   7.5649732765e+01   5.4923029034e+01    0.3233756    0.1224333 -53.37 0.0009375399    2.097    0.523
       189  -9.9386     34.3195     84.8922   7.6740878821e+01   5.5788657388e+01    0.2038187    0.1736423  71.12 0.0009777866    1.450    0.310
       190 -11.4130     30.4401     81.3296   7.7329349995e+01   5.6929025467e+01    0.3775563    0.2689277 -55.53  0.002124123    1.165    0.142
       191 -10.5357    167.4601     83.0954   3.6186027675e+01   3.1556653672e+01    0.4794405    0.2599503  66.90  0.001758219    2.367    0.578
       192  -9.5507    117.0104     83.9501   4.9069096758e+01   4.3248054682e+01     0.184302    0.1795826   2.88 0.0006830327    1.007    0.007
       193 -10.3294      7.1774     81.4484   8.5648088768e+01   5.8503370560e+01    0.3430547    0.1681975 -48.77  0.001898288    1.639    0.390
       194  -9.4693     86.5928     82.3384   5.7929142739e+01   4.9486481768e+01    0.2056015    0.1293358 -37.38 0.0008328049    1.565    0.361
       195 -11.3726     88.1423     77.3905   5.5916627971e+01   5.0251142311e+01    0.2748921    0.2327002 -46.31 0.0001461098    1.178    0.151
       196  -9.5983     39.6106     79.2020   7.3494638694e+01   5.6558939470e+01    0.1991456    0.1434912 -47.61 0.0005402001    1.166    0.143
       197 -11.2839     99.7021     76.8829   5.2057000770e+01   4.8209841010e+01    0.3884162    0.3338914  -7.55   0.00138916    1.217    0.178
       198 -11.5096      5.2349     71.8662   8.4592655543e+01   6.0709141246e+01    0.6295547     0.421459 -37.03  0.004096841    1.383    0.277
       199 -12.4047    226.4642    245.6811   5.9553767331e+01  -8.8988904257e+00    0.5759879    0.3712995   2.00  0.003511284    1.599    0.375
       200 -14.3505     16.6436     67.3872   7.9316375718e+01   6.1017774184e+01    0.5535538     0.355184 -46.26  0.001289813    1.243    0.195
       201 -11.7445      2.5721     62.6117   8.3763650871e+01   6.2818832529e+01    0.4553527    0.2329682 -71.49  0.002211035    1.849    0.459
       202 -10.3709     83.2966    248.1768   8.7023688388e+01   1.3124716897e+01      0.25582    0.1225857  50.81  0.001183567    1.651    0.394
       203 -11.4832     44.7747     43.9278   6.0744266152e+01   6.3148926151e+01    0.4173166    0.2864235 -66.16  0.001490084    2.390    0.582
       204 -11.9052     45.4312     38.5196   5.8437170940e+01   6.4020985883e+01    0.3302568    0.2651814  58.85  0.001961054    2.063    0.515
       205 -12.9048     12.5000     47.4293   7.5933177410e+01   6.5396745734e+01    0.4712299    0.3161477 -43.95  0.000707683    1.143    0.125
       206 -11.6347      6.1853    245.0277   1.0021990171e+02   2.3060260529e+01    0.3497398    0.1702636  72.92  0.001644452    1.579    0.367
       207 -12.3761    167.7607     73.2541   3.3284157544e+01   3.3240975348e+01    0.3698593    0.2710156 -38.38 0.0004587201    1.384    0.277
       208 -10.9404     56.8479     74.6920   6.5979450452e+01   5.5590923588e+01    0.5128974    0.3023612  29.54  0.002574492    1.858    0.462
       209  -9.5951     61.6665     73.3260   6.3829331383e+01   5.5245968634e+01    0.1310104    0.1087764  82.79 0.0004569143    1.714    0.417
       210 -10.9294     44.5861     74.7161   7.0503532364e+01   5.7026718693e+01    0.2216793    0.2051823  22.21 0.0003337089    1.242    0.195
       211 -10.7603     42.6282     81.6087   7.2995661018e+01   5.5719760949e+01    0.3649017    0.1716708 -63.55  0.001613586    2.180    0.541
       212 -11.1758     57.6887     58.6585   6.0694816445e+01   5.8755243168e+01    0.4220774    0.2765161 -13.19  0.001633569    1.797    0.443
       213 -10.2718     51.8802     62.4482   6.4159839345e+01   5.8753647796e+01    0.2863089    0.1791299 -32.58  0.001502607    1.510    0.338
       214 -11.7851    122.7602     67.4831   4.2258378590e+01   4.5144658147e+01    0.3333524    0.2718652 -51.96 0.0003443114    1.350    0.259
       215  -9.1469    186.7003     68.7574   2.8341405822e+01   2.9231643548e+01    0.1440905    0.1143354  32.01 0.0001547426    1.484    0.326
       216  -9.0451    164.2443     68.6812   3.2674355502e+01   3.4909904403e+01    0.1512706    0.1156712 -66.08 0.0001582203    1.520    0.342
       217  -9.2098     61.9442     68.0000   6.2106614261e+01   5.6312964806e+01    0.2035436   0.07680583  33.32 0.0006445146    2.856    0.650
       218 -10.7303    146.8949     65.0344   3.5384337945e+01   3.9853816643e+01    0.3218703    0.2260984 -48.12 0.0005954772    1.527    0.345
       219 -10.2924    140.0493     66.2757   3.7402465512e+01   4.1309839943e+01    0.2180363    0.1916382  50.98  0.001125022    1.107    0.096
       220  -9.6748     93.5246     66.5369   5.0664389930e+01   5.1418114882e+01    0.1447692    0.1337573  -6.03  9.48475e-05    1.012    0.012
       221  -9.5735    131.1473     64.8085   3.9162628704e+01   4.3684804274e+01    0.2050187    0.1719793  19.21 0.0003573383    1.290    0.225
       222 -10.0145     81.2358     64.9222   5.4223616944e+01   5.3941212200e+01    0.2026406    0.1956483 -56.32 0.0007338147    1.219    0.180
       223 -11.1077    155.6322     62.8711   3.2756166954e+01   3.8044830246e+01    0.4263221    0.3343787 -28.35  0.001463302    1.360    0.265
       224 -10.2076    106.2622     63.9776   4.5827383734e+01   4.9362341234e+01    0.2020425    0.1810698 -22.93            0    1.096    0.088
       225 -11.0835     98.1531     61.0991   4.7341988911e+01   5.1528954437e+01    0.4877826    0.2353927 -36.59  0.001378109    2.078    0.519
       226 -10.6550    202.0835     62.5120   2.4066499939e+01   2.6390411143e+01    0.2589397     0.205977 -39.10 0.0003076473    1.253    0.202
       227  -9.4741    161.9668     61.7308   3.1070892763e+01   3.6636592206e+01    0.2087775    0.1899242  67.81 0.0002119469    1.072    0.067
       228 -10.3122     69.2949     61.0522   5.7153639488e+01   5.6622584822e+01    0.3749534     0.165228 -40.55  0.001490476    2.122    0.529
       229 -10.7085    120.7573     60.1957   4.0393396155e+01   4.6876101043e+01    0.3969438    0.3403592  84.64  0.002054634    1.448    0.310
       230  -9.9747    114.2078     60.7559   4.2408964891e+01   4.8237943634e+01    0.2586538    0.2086979  40.21  0.001335202    1.203    0.169
       231 -10.8076     90.7982     60.9508   4.9656293114e+01   5.2973707263e+01    0.4172939    0.1916054  37.21  0.001240626    2.272    0.560
       232 -10.3027     82.9857     61.4641   5.2452267947e+01   5.4295470171e+01    0.2156442    0.1358988  39.84  0.001041414    1.633    0.388
       233  -9.3903     73.7232     61.6217   5.5746924983e+01   5.5819454003e+01    0.1759167     0.128455  43.95 0.0003254172    1.547    0.354
       234 -11.3640     46.6383     60.3367   6.5540969433e+01   5.9802217326e+01    0.3464149    0.2217478 -26.26 0.0007887929    1.573    0.364
       235  -9.9159    169.1966     59.8040   2.9049306964e+01   3.5111714563e+01    0.2078549    0.1752543  30.24 0.0004568716    1.328    0.247
       236  -9.5821    138.2453     60.0255   3.5840953414e+01   4.2802866463e+01    0.1965274    0.1789448 -84.02 0.0002743992    1.230    0.187
       237  -9.7859    134.8293     58.1347   3.6059189554e+01   4.3936075606e+01     0.265559    0.2071098  74.52 0.0005202684    1.507    0.336
       238 -11.8011     50.3646     68.2288   6.6503795666e+01   5.7752253615e+01    0.3753527    0.2346062 -41.76 0.0006208117    1.394    0.283
       239 -10.4063    143.4642     58.4598   3.4101405364e+01   4.1786457456e+01     0.293822    0.2144853  81.52  0.001218212    1.746    0.427
       240 -10.7835    147.0863     56.9071   3.2780182312e+01   4.1141066742e+01    0.3102544    0.2164684 -44.98  0.001182559    1.521    0.342
       241  -9.9170    126.8132     58.4638   3.8198552168e+01   4.5776992056e+01    0.2804337    0.1458154  56.13  0.001121142    2.000    0.500
       242 -11.3133     80.2605     56.6256   5.1708620646e+01   5.5661544325e+01    0.4308208     0.269574 -14.05  0.001289628    2.078    0.519
       243 -11.8398     21.3352     76.1959   7.9516680441e+01   5.8782178076e+01     0.693027    0.2566986 -39.98 0.0008937592    2.643    0.622
       244  -9.8329    112.0055     56.6495   4.1632464828e+01   4.9420820731e+01    0.2051595    0.1780051  37.16 0.0004640068    1.110    0.099
       245 -10.0236    208.0369     55.9871   2.1464046842e+01   2.5918350769e+01    0.2108126    0.1727756  24.67 0.0003385665    1.583    0.368
       246 -12.0860     77.7601     48.1728   4.9517381643e+01   5.7576872732e+01    0.7728336    0.4211216 -20.79  0.002119796    2.333    0.571
       247  -9.9746     82.5171     47.0676   4.7444106637e+01   5.6919672364e+01    0.2376826    0.1807323  21.95  0.001290731    1.296    0.228
       248 -12.6445    104.8460     52.6048   4.2309041553e+01   5.1627057814e+01    0.3941515    0.2936967  25.95 0.0004308184    1.384    0.278
       249 -11.1674     89.0846     52.1401   4.7101574408e+01   5.4854091594e+01    0.5568041    0.1909102 -42.53  0.001992483    3.011    0.668
       250 -10.2257    151.5306     53.9691   3.0875878769e+01   4.0491908027e+01    0.3309233     0.187974  43.08 0.0005648629    1.815    0.449
       251 -11.5630    134.2143     51.0782   3.3875553959e+01   4.5201686551e+01    0.4633438    0.3395364 -39.57  0.002290249    1.437    0.304
       252 -11.1950    128.3423     50.4126   3.5094731852e+01   4.6706147290e+01    0.3840723    0.2668783  32.35 0.0007498716    1.536    0.349
       253 -12.1981     57.1635     34.5584   5.1989738877e+01   6.3094623414e+01    0.5016438    0.3014001 -15.88  0.002579178    1.835    0.455
       254 -11.5431     51.8372     48.8570   5.9615347386e+01   6.1377465658e+01    0.5208972    0.2233964 -41.56  0.002050938    2.072    0.517
       255 -10.2142     27.6170     53.6439   7.1240512697e+01   6.3045851115e+01    0.2681976    0.1754393 -13.74 0.0008051133    1.630    0.387
       256 -10.3849     61.8335     48.4727   5.5528220836e+01   6.0070673918e+01    0.3114166    0.2119511 -22.10  0.001690752    1.442    0.306
       257  -9.3768     27.3432     49.2531   7.0011477595e+01   6.3935320337e+01    0.2057282    0.1362056  -3.25  0.001223574    1.639    0.390
       258  -9.2116     69.0342     48.0166   5.2628514679e+01   5.9051774283e+01    0.1588175      0.13868   1.84  0.000357395    1.053    0.051
       259  -9.8326    104.1099     46.4842   4.0320743974e+01   5.2761159043e+01    0.2134938    0.1864625 -18.45 0.0007589915    1.142    0.124
       260  -9.7433    143.0184     45.6762   3.0062190280e+01   4.3850085364e+01    0.2097236    0.1786366  54.18 0.0004924629    1.102    0.092
       261  -9.7132    120.4520     45.8000   3.5521489140e+01   4.9246101667e+01    0.2901158    0.2009621  23.07 0.0007991948    1.671    0.402
       262 -11.2200    120.9244     40.9803   3.3695917738e+01   4.9835015082e+01    0.6391658    0.3343763  73.63  0.002165222    3.678    0.728
       263 -10.3099     91.4629     45.5166   4.3877927985e+01   5.5487815631e+01    0.2422907    0.1863247 -29.49  0.000502851    1.289    0.224
       264 -12.5444     89.0715     41.4411   4.3109008355e+01   5.6587317016e+01    0.2793831    0.2561435   0.25   0.00169239    1.064    0.060
       265  -9.5861    171.4197     44.5664   2.4132793342e+01   3.6814550936e+01    0.2292708    0.1466652 -14.21 0.0005520997    2.076    0.518
       266 -10.1149    151.8546     44.5974   2.7843763022e+01   4.1793383434e+01    0.3835839     0.205348  79.95  0.001179473    2.970    0.663
       267  -9.9909     67.4734     41.4922   5.0730594930e+01   6.0401210011e+01     0.132544    0.1154969  -6.25 5.642865e-05    1.029    0.028
       268 -10.9974     23.9423     41.7801   6.9087567430e+01   6.5652476867e+01    0.3799035    0.1993534 -49.92  0.001087128    1.625    0.385
       269 -13.1855     27.2919     37.4218   6.6054621809e+01   6.6161056309e+01    0.3502384    0.3228798  76.48  0.001593377    1.705    0.413
       270 -11.0381     96.8646     41.9993   4.0846286052e+01   5.4953151717e+01     0.375369    0.2394715  18.36  0.001742968    1.913    0.477
       271 -10.2793    162.5488     42.3450   2.5063143798e+01   3.9391223676e+01     0.258582    0.1534597  44.50 0.0006317795    1.740    0.425
       272 -11.2147     72.6407     43.0909   4.9431719028e+01   5.9294492072e+01    0.2815389    0.2605101  -4.25  0.001775222    1.132    0.117
       273 -10.0961    109.5362     38.4671   3.5813669413e+01   5.2769548170e+01    0.5056226    0.1806145 -43.97  0.001710073    3.625    0.724
       274 -11.6792    111.2263     34.7291   3.3965648801e+01   5.2904495078e+01    0.3020855    0.2342862  45.02 0.0007380703    1.189    0.159
       275 -11.1764     83.6435     35.7793   4.2695039897e+01   5.8468594511e+01    0.5086673    0.2974003   1.56  0.001626048    2.575    0.612
       276 -11.9976     75.3076     35.7445   4.5571124623e+01   5.9989989873e+01    0.4144495    0.3665439  33.76 0.0008732899    1.231    0.188
       277 -10.1745     73.4799     31.4875   4.4490436230e+01   6.0934746511e+01    0.2890644    0.2355801 -59.18   0.00165216    1.846    0.458
       278 -10.0748     60.6038     40.7640   5.3091830789e+01   6.1579850395e+01    0.2417642    0.1480013  20.36 0.0007731997    1.762    0.432
       279  -9.7255    235.8505     40.1381   1.4116544058e+01   2.1563530176e+01    0.1632677    0.1548424  58.72 0.0003694829    1.276    0.216
       280 -10.4676    225.5895     39.4502   1.5083452905e+01   2.4031865364e+01    0.3048116    0.1504079 -58.88   0.00130951    2.214    0.548
       281 -11.4706    112.3681     45.3688   3.7547135327e+01   5.1139721116e+01    0.2927689    0.2369569  15.27 0.0004259466    1.286    0.222
       282 -11.7600     30.3165     62.5036   7.2679480458e+01   6.1007518733e+01    0.8666553    0.6923863  69.60  0.004373679    1.848    0.459
       283 -10.5436    115.4266     38.9912   3.4411236367e+01   5.1376250613e+01    0.2505825    0.1985876  50.33 8.884195e-05    1.207    0.171
       284  -9.3825    159.8293     38.3551   2.4338880829e+01   4.0622630933e+01    0.2050203    0.1205969  52.77 0.0003614213    1.574    0.365
       285 -10.0466      1.5400     37.1935   7.7988157581e+01   6.7990520862e+01    0.1989483   0.09946563 -49.66 0.0008411644    1.456    0.313
       286 -11.2555    248.2803     36.2087   1.1984157699e+01   1.9313757252e+01    0.2243556     0.185897 -68.48 0.0002982874    1.022    0.021
       287 -11.0357     66.2026     36.5397   4.9251246475e+01   6.1397534520e+01    0.3326705    0.2015979  33.03  0.001756948    1.623    0.384
       288  -9.2451     19.6989     37.6765   6.9641470687e+01   6.6758113903e+01    0.1259384   0.06956863 -28.67  0.000702812    1.633    0.387
       289  -9.7391    129.1350     35.8889   2.9897813974e+01   4.8587752871e+01     0.199354    0.1560785  29.56 0.0003972755    1.307    0.235
       290 -10.6731     97.1187     36.1337   3.8529436272e+01   5.5754397667e+01    0.2023997    0.1856251  15.62 0.0005465981    1.047    0.045
       291 -10.2716    192.8998     33.6769   1.7702442639e+01   3.2789987425e+01    0.3125501    0.2560742 -67.41  0.001742847    1.192    0.161
       292  -9.4845     11.7598     29.3117   7.0524932875e+01   6.8854493428e+01    0.1431422    0.1008479 -30.32 0.0002059248    1.091    0.083
       293 -10.2149      9.2131     34.5833   7.3552872487e+01   6.8061582510e+01    0.2132594    0.1386001 -10.19  0.001398011    1.535    0.348
       294 -11.3262      7.1572     30.3873   7.3165130195e+01   6.8956152839e+01    0.2728029    0.2481558  32.21 0.0009814741    1.550    0.355
       295 -10.0138    178.0791     34.6630   2.0145433666e+01   3.6432772905e+01    0.2920732    0.1308906  73.27  0.001096625    2.482    0.597
       296  -9.8071    140.8532     33.8320   2.6608768690e+01   4.5989841429e+01    0.2077523    0.1777118  39.05 0.0003410814    1.138    0.122
       297  -9.2575    134.5173     34.5107   2.8199941427e+01   4.7462981481e+01    0.1420568      0.13323  60.66 0.0008094769    1.066    0.062
       298 -11.3338    122.5757     33.4177   3.0585139801e+01   5.0468122870e+01     0.327804    0.2448502  51.25 0.0007133362    1.231    0.188
       299 -11.4751     17.7095     31.3396   6.8352798411e+01   6.8059462648e+01    0.4801385    0.2543723  -7.32  0.002312287    2.215    0.549
       300 -10.9703     28.1274    245.0474   9.6605333124e+01   2.0740682137e+01    0.2653747    0.1547488 -84.27  0.001804198    1.551    0.355
       301 -10.3272     33.2715     33.2132   6.1745269107e+01   6.6314853076e+01    0.2794407    0.1528064  36.98  0.001522717    2.233    0.552
       302 -10.5466    221.6853     31.9599   1.3722959480e+01   2.5935339176e+01    0.1906541    0.1570731 -55.96 0.0004119237    1.127    0.112
       303 -10.0698    129.1862     31.9088   2.8495753206e+01   4.9085566053e+01     0.201092    0.1875275 -86.17 0.0003252394    1.205    0.170
       304 -10.1413      1.4035     31.2078   7.6257749678e+01   6.9121571630e+01    0.1866604   0.07931151 -52.06 0.0003722545    1.743    0.426
       305 -10.2832    178.4198     30.3388   1.8854704221e+01   3.6887002294e+01    0.2540545    0.1384365  -6.06 0.0009510635    3.292    0.696
       306  -9.9556    166.9677     31.0163   2.0855773942e+01   3.9733218894e+01    0.2158365    0.1990013  79.39 0.0004964253    1.024    0.024
       307 -11.2371    100.8640     28.5446   3.4477264597e+01   5.5977015011e+01    0.4520151    0.3010761  45.85  0.001156358    1.372    0.271
       308 -10.5359    234.4470     29.2019   1.1752823493e+01   2.3307978325e+01     0.304678    0.1079692 -36.39  0.001265272    2.526    0.604
       309 -11.2033    197.7539     27.9403   1.5532024183e+01   3.2285542819e+01    0.3951697    0.1996426  75.78   0.00119927    1.985    0.496
       310 -11.9885    156.7081     28.1585   2.1728958802e+01   4.2695563205e+01    0.2993421    0.2412033  80.10 0.0002975948    1.234    0.190
       311 -10.2008     80.2511     28.3730   4.0832174299e+01   6.0142150612e+01    0.3003635     0.259201 -38.79  0.001840512    1.391    0.281
       312 -10.0590     62.3771     28.7059   4.7484010801e+01   6.3188188777e+01    0.2531936    0.1874205  58.03  0.001398398    2.091    0.522
       313 -10.0652     49.9883     28.0451   5.2241748322e+01   6.5123704792e+01    0.3520649    0.1888432 -11.04   0.00160791    2.571    0.611
       314 -11.9529    239.1560     26.8612   1.0775590435e+01   2.2532541467e+01    0.3232142    0.2743215 -65.35  0.002068908    1.049    0.047
       315 -10.4193    118.7192     27.7091   2.9453321683e+01   5.2080430794e+01    0.2662108    0.1420704  47.23  0.001212911    1.675    0.403
       316 -12.1306    216.4443     25.2969   1.2682133266e+01   2.8018152913e+01    0.3746735    0.2313636  65.28 0.0003225639    1.542    0.352
       317 -10.3878    134.9375     27.0907   2.5566192057e+01   4.8270959199e+01    0.2595353    0.1776391  51.15  0.000541696    1.308    0.236
       318 -11.6607    112.5925     26.1792   3.0407943600e+01   5.3673684049e+01    0.4457673    0.2690108 -14.57  0.002132071    1.925    0.481
       319 -11.3431    207.4277     32.2301   1.5440128571e+01   2.9351280088e+01    0.2597253    0.2057837  40.55 0.0006289974    1.535    0.349
       320  -9.5158    124.5455    245.5462   7.8919210050e+01   7.3256234237e+00    0.1253987   0.09985682  49.67 0.0001415235    1.007    0.007
       321 -10.5273     10.2561     24.3276   6.9456143371e+01   6.9831039030e+01    0.3858179    0.1924248  -5.59  0.001979745    2.339    0.573
       322 -11.0069      4.6960     16.6949   6.9419594971e+01   7.1488789482e+01    0.2582551    0.1330766 -34.20  0.001237225    1.480    0.324
       323 -10.8313     73.1919    244.5997   8.8582438178e+01   1.5185021583e+01    0.2749922    0.1649275  40.28  0.001487873    1.542    0.352
       324 -10.9740    225.6755     23.1537   1.1220652283e+01   2.6085414582e+01    0.4261583    0.1883228 -53.97  0.001877296    2.240    0.554
       325 -10.2972    137.1084     14.8889   2.0963468886e+01   4.9054902427e+01    0.2000848    0.1835068  56.49 0.0003044567    1.040    0.038
       326 -12.6761     75.2100    238.8364   8.7706307073e+01   1.5965448770e+01    0.5551178    0.5044697  89.55  0.003432397    1.299    0.230
       327 -11.0140    128.2815     23.9620   2.5900525007e+01   5.0248766064e+01    0.2521585    0.2143535  64.83 0.0003251193    1.159    0.137
       328 -10.3847     45.7811    244.5133   9.3525011550e+01   1.8770844818e+01    0.3091076   0.09805377  46.68    0.0015434    2.318    0.569
       329 -10.9061     22.4594     24.2739   6.3308191081e+01   6.8870116494e+01    0.2456104    0.1731335 -24.34 0.0004145847    1.118    0.105
       330  -9.7455    102.1805    243.6412   8.3025111524e+01   1.1144075876e+01    0.1733554    0.1343724  64.75   0.00113639    1.138    0.121
       331 -10.6333     88.8548    240.8823   8.5301619786e+01   1.3632533032e+01     0.169634    0.1531005  58.73 0.0007331586    1.224    0.183
       332 -10.4878     60.5565    240.8644   9.0605245345e+01   1.7573241639e+01    0.1986272    0.1064129  47.81 0.0007180561    1.498    0.332
       333  -9.7566     24.4435     20.4424   6.0718273115e+01   6.9301697216e+01    0.1911362    0.1328794  13.13 0.0004897336    1.407    0.289
       334 -10.9694    193.6108     22.5374   1.4623490048e+01   3.3965200371e+01    0.4093146     0.175467 -37.17  0.001754796    2.279    0.561
       335 -10.7164    161.5968     20.2645   1.8473779327e+01   4.2347292688e+01    0.2936517    0.1825556  19.20  0.001311139    2.366    0.577
       336 -10.8788    108.3945     22.4919   3.0080498144e+01   5.5050080219e+01    0.2482859    0.2074107  10.04 0.0005963733    1.200    0.166
       337  -9.9855    107.9730     17.9758   2.8442842099e+01   5.5640606539e+01    0.2459239    0.1856628 -13.19  0.001387706    1.416    0.294
       338 -10.1483     54.2108     23.1799   4.8359356601e+01   6.5230891392e+01    0.1990597    0.1866372 -25.74 0.0008074483    1.412    0.292
       339 -10.6659     83.0362     21.5286   3.7039616535e+01   6.0484466817e+01    0.3947614    0.2748058  28.86  0.001656511    1.314    0.239
       340 -10.9238     87.0380     20.0596   3.5152685697e+01   5.9869582739e+01    0.2690637    0.1974782  22.46  0.001542697    1.271    0.213
       341 -11.5923     59.7493     21.6850   4.5459845567e+01   6.4585360263e+01    0.4153215     0.245968  49.72  0.001018988    2.155    0.536
       342 -10.2557     34.2988     22.2751   5.6752259952e+01   6.7978236638e+01    0.2194473    0.1528778 -21.61  0.001102679    1.187    0.158
       343 -10.1964    186.1212     21.1730   1.5210165538e+01   3.6008125097e+01    0.4177274    0.1298141 -31.46  0.001534879    3.176    0.685
       344  -9.4482     93.8070     22.3748   3.4062971915e+01   5.8217946929e+01    0.1902611    0.1078029  41.49  0.000289349    1.585    0.369
       345 -10.9667    248.9317     20.5950   8.5572282388e+00   2.1137153951e+01    0.2779291    0.1468106 -47.31 0.0003612776    1.617    0.381
       346  -9.2336    155.7147     21.6906   1.9875082690e+01   4.3685939743e+01    0.1410334   0.09876833  35.98  0.000404686    1.571    0.364
       347  -9.5693     71.4383     25.5456   4.2728269253e+01   6.2116471608e+01     0.242786    0.1017909  34.34  0.001027918    2.469    0.595
       348  -9.8109     74.6060     21.0842   3.9679117862e+01   6.2126153557e+01    0.1733038    0.1459618   1.69  0.000629125    1.068    0.064
       349  -9.4548    115.6919    240.3186   8.0041281720e+01   9.6308477009e+00    0.1287506   0.08209395  64.43 0.0006304402    1.637    0.389
       350 -10.2068    195.4659    238.4810   6.4165147939e+01  -3.1753892144e+00    0.2197201    0.1886736  15.56 0.0008653445    1.093    0.085
       351  -9.5882     99.1959     20.1719   3.1631316250e+01   5.7331771894e+01    0.1610787    0.1521312 -50.00            0    1.313    0.239
       352 -10.5096     41.6122     19.2558   5.2031838080e+01   6.7536209821e+01    0.3208075    0.1674735  34.64 0.0005409099    1.960    0.490
       353  -9.7409    144.3260     17.4061   2.0480488462e+01   4.7009551305e+01    0.4031021     0.174666 -48.68  0.001544345    3.052    0.672
       354 -10.0664    140.1764     18.1753   2.1497345880e+01   4.7962858592e+01    0.2526318    0.1858615  33.53 0.0005391047    1.423    0.297
       355 -10.8529     35.3003    237.8898   9.4942596381e+01   2.1251920924e+01    0.1980597    0.1168868  58.22  0.001222575    1.301    0.231
       356 -10.8567     18.0578    236.4369   9.7849063004e+01   2.3429267255e+01    0.4016893    0.1319522  56.22   0.00209537    2.370    0.578
       357 -10.0700     53.9872     14.0000   4.4253838176e+01   6.6478884571e+01    0.2285622    0.1312449  37.21 0.0008937974    1.660    0.397
       358 -10.2120     67.6181    236.0795   8.8900702103e+01   1.7529180935e+01    0.2311542    0.1589202  40.13  0.001464432    1.454    0.312
       359 -11.0171    183.2874    234.2555   6.5860944036e+01  -5.6038287393e-01    0.3451291    0.2357437  39.31  0.001375145    1.247    0.198
       360 -10.4662    160.0221    235.5031   7.0633728980e+01   3.1480483482e+00    0.1994308    0.1076412  38.96 0.0004588284    1.537    0.349
       361  -9.9514     91.6671    235.6812   8.4242180102e+01   1.4174186657e+01    0.1097788   0.09741037   3.36 0.0003598898    1.694    0.410
       362 -11.2033     30.5855    233.9131   9.5528812317e+01   2.2544304487e+01    0.3568333    0.2104529  64.27  0.002357735    1.311    0.237
       363  -9.6730    193.0776     16.4056   1.3064657090e+01   3.4788166180e+01    0.2009918    0.1178248  70.55  0.000386211    1.525    0.344
       364  -8.9928    119.2539     16.3777   2.5155172348e+01   5.3211441728e+01     0.140491   0.09280656  25.33 0.0006963167    1.654    0.395
       365  -9.2835     23.8862    232.3724   9.6617867188e+01   2.3578046229e+01    0.1745293    0.1285413  35.03 0.0008334667    1.696    0.410
       366 -10.8914     38.6822    233.6356   9.4063241528e+01   2.1665236792e+01    0.2086918    0.1556213 -59.74  0.001191506    1.761    0.432
       367  -9.2644    159.3305     15.6907   1.7431346396e+01   4.3405081264e+01    0.1423026     0.098681 -71.24 0.0004086024    1.666    0.400
       368 -10.6365     39.6415    229.4472   9.3603096818e+01   2.2361223376e+01    0.2573713    0.1548184  64.34  0.001582925    1.329    0.247
       369  -9.5424     88.2854    233.6807   8.4700508319e+01   1.5050971676e+01    0.1275363   0.07809451  66.81 0.0003977004    1.591    0.372
       370 -10.4036    127.3267    231.4944   7.6654795685e+01   9.3122086479e+00    0.2033769    0.1208951 -56.80   0.00108362    1.983    0.496
       371  -9.9883     54.6763    231.6782   9.0976040085e+01   2.0078486057e+01   0.09988305   0.09235688 -41.02 0.0004025894    1.680    0.405
       372  -9.1470     59.2940    229.3230   8.9911393906e+01   1.9938475548e+01    0.1008819   0.09283252 -46.62  0.000444158    1.616    0.381
       373 -11.4551    184.9634    228.2824   6.4594844244e+01   7.0809519566e-02    0.4962515    0.3115675  -8.90  0.002408997    2.416    0.586
       374  -9.6080    151.5346    228.0801   7.1272141341e+01   5.8253052937e+00    0.1714869    0.1324037 -51.86 0.0006673889    1.543    0.352
       375  -9.6088    131.4892    226.5199   7.5153790104e+01   9.5137282179e+00    0.1323829    0.1111606  48.72 0.0001859629    1.001    0.001
       376  -9.4271    206.4713     10.6176   1.0127723995e+01   3.2104740423e+01    0.1316346    0.1102715  89.87 3.073438e-05    1.030    0.030
       377 -10.2026      3.8338    225.8751   9.9749587643e+01   2.6857257605e+01    0.1531262    0.1207996  89.76 0.0007884128    1.273    0.215
       378  -9.1447    120.3388    225.6621   7.7333135681e+01   1.1531660174e+01    0.1385671   0.08874111  66.24  0.000705094    1.759    0.431
       379  -9.4790     13.3094    221.3028   9.7864395123e+01   2.6827333526e+01     0.146119   0.07628696 -83.76 0.0006496071    1.614    0.380
       380  -9.4495    126.3408    220.6495   7.5426801683e+01   1.1467738317e+01    0.1411573   0.09238312  67.57  0.000704392    1.800    0.444
       381  -9.3133     77.2726    220.3403   8.5542225931e+01   1.9254353001e+01    0.1091991   0.09776571 -37.79 0.0002736064    1.610    0.379
       382 -10.0593     42.5030    220.4996   9.2417154840e+01   2.3793770242e+01    0.1199191   0.09060474  71.61 0.0008106583    1.013    0.012
       383 -10.9848     45.7227    218.6776   9.1656182889e+01   2.3774274679e+01     0.293995   0.09781678  45.78  0.001381093    2.409    0.585
       384  -9.9254    120.9911    219.4806   7.6389300826e+01   1.2590008654e+01    0.1979996    0.1156233  40.39 0.0005643771    1.508    0.337
       385  -9.2620    176.2991    218.6814   6.4776378905e+01   3.1049795952e+00    0.1268445    0.1018333  67.01 0.0002729118    1.618    0.382
       386  -9.7990    211.8342    219.0959   5.7832195551e+01  -3.0437422976e+00    0.1814487    0.1693464  23.76 0.0007295266    1.254    0.203
       387  -9.7530    135.9946    216.4567   7.2807472836e+01   1.0600472340e+01    0.2107165    0.1171451  41.07 0.0006160762    1.561    0.359
       388 -10.8572     29.3133    215.5464   9.4569291396e+01   2.6307416087e+01    0.2239901     0.175852  71.70  0.001210228    1.079    0.073
       389 -10.2520     23.9312    216.1294   9.5619753647e+01   2.6768904240e+01    0.1788704    0.1136735  71.04 0.0004117395    1.238    0.192
       390 -11.0193      8.3811    216.0675   9.8462015175e+01   2.8344814946e+01    0.3272053    0.1056421  45.70  0.001735613    2.414    0.586
       391 -12.5292      4.9780    208.2425   9.8659165757e+01   3.0236214658e+01    0.6026558    0.2829109  88.03  0.003259871    1.762    0.432
       392 -11.7783     11.9085    209.9771   9.7478766577e+01   2.9233827824e+01    0.4854093    0.1898056  86.37  0.002423915    2.451    0.592
       393  -9.7584    110.2647    212.0221   7.7671176044e+01   1.5837155110e+01    0.1833726    0.1638544  78.04 0.0007471336    1.103    0.093
       394 -10.4661    236.9926    209.0077   5.1334536365e+01  -5.6494455054e+00    0.2049872    0.1324458   2.48  0.000564736    1.657    0.397
       395  -9.8856    217.4616    208.5532   5.4874648664e+01  -2.4056669219e+00    0.2314802    0.1154492 -25.31 0.0009292113    2.396    0.583
       396 -10.0387     28.0215    205.3360   9.4096982219e+01   2.8557886374e+01    0.1612291    0.1220349  65.26 0.0004365683    1.117    0.105
       397 -11.0968     19.8991    200.6068   9.5359213287e+01   3.0394097069e+01    0.4967194    0.1318044 -67.34  0.002178827    3.109    0.678
       398 -10.8646    175.2462    202.2206   6.2186216441e+01   6.1378097646e+00    0.2724735    0.2124115  39.15 0.0004455688    1.158    0.136
       399  -9.9736     67.2800    202.9661   8.5812034685e+01   2.4274119989e+01     0.178441    0.1466152  87.32 0.0003677261    1.100    0.091
       400  -9.0342     53.2438    202.3600   8.8721321681e+01   2.6254010736e+01    0.1137293   0.08855682 -54.14 0.0003822763    1.599    0.374
