#   1 NUMBER                 Running object number                                     
#   2 MAG_AUTO               Kron-like elliptical aperture magnitude                    [mag]
#   3 X_IMAGE                Object position along x                                    [pixel]
#   4 Y_IMAGE                Object position along y                                    [pixel]
#   5 X_WORLD                Barycenter position along world x axis                     [deg]
#   6 Y_WORLD                Barycenter position along world y axis                     [deg]
#   7 A_WORLD                Profile RMS along major axis (world units)                 [deg]
#   8 B_WORLD                Profile RMS along minor axis (world units)                 [deg]
#   9 THETA_WORLD            Position angle (CCW/world-x)                               [deg]
#  10 FWHM_WORLD             FWHM assuming a gaussian core                              [deg]
#  11 ELONGATION             A_IMAGE/B_IMAGE                                           
#  12 ELLIPTICITY            1 - B_IMAGE/A_IMAGE                                       
         1 -15.0467    186.6414     93.5148   6.9966035971e+01   2.4669696543e+01     7.976814     2.360289 -41.08   0.02371066    3.234    0.691
         2 -16.7527    246.4140     87.1862   5.8234482728e+01   1.1774071668e+01     10.26243     2.857198 -25.18   0.02101091    8.765    0.886
         3 -18.0578    235.3394     26.9626   4.4574923838e+01   2.2816978835e+01     10.58447      7.74064  60.14   0.05895557    1.450    0.310
         4 -12.0008    214.6049     13.8086   4.3305063741e+01   2.9370949283e+01    0.4147802    0.2692326  23.95  0.001957984    2.297    0.565
         5 -10.6222    217.3964      7.6760   4.1436878967e+01   2.9335035152e+01    0.1875015    0.1263209 -31.90 0.0006756397    1.503    0.334
         6 -12.1947    217.1445      2.8624   4.0227052915e+01   2.9885981025e+01    0.2836173    0.1941043 -17.26 0.0009869322    1.728    0.421
         7 -12.7936    106.2130      4.6940   5.7141849296e+01   5.7394126383e+01    0.6062958     0.306868 -27.64  0.002882361    2.037    0.509
         8  -9.6692    167.9708      2.9260   4.5546506023e+01   4.2344470980e+01    0.1502987    0.1374604  69.39 -0.001877172    1.011    0.011
         9 -11.9038     57.9402      2.3452   7.0601007799e+01   6.7151738689e+01    0.3672919   0.08689422  43.64  0.001374246    3.792    0.736
        10 -12.6604    208.8335    186.2068   8.7388919020e+01   3.3180103118e+00    0.4227008    0.3491091 -39.39  0.002485375    1.378    0.274
        11 -13.3404    212.7738     56.3807   5.5050709486e+01   2.4343238178e+01    0.5239286    0.3925471  36.17  0.001934969    1.564    0.361
        12 -10.6477    202.1564    248.1820   9.9000173656e+01  -4.0728887652e+00    0.1722714     0.126498  23.98 0.0003821148    1.137    0.120
        13 -13.8247     70.1355    146.2698   1.1094034972e+02   3.6475228374e+01     1.480495     1.055707 -88.34   0.00460923    1.409    0.290
        14 -13.8357    166.1063     71.6202   6.7792723491e+01   3.3707566343e+01    0.8068107    0.5320488  -1.13  0.001860276    2.303    0.566
        15 -10.0425    166.0058    134.5014   8.5096587561e+01   2.1453834359e+01    0.2261254    0.1503805  45.14 0.0003987776    1.495    0.331
        16 -11.2240    136.0000    129.8995   9.1059095781e+01   2.8855808172e+01    0.6857305    0.1461812 -47.40  0.001745533    4.678    0.786
        17 -11.1137    135.2015    121.7502   8.9290776826e+01   3.0814876097e+01    0.7887899    0.1962317 -47.96   0.00188985    4.084    0.755
        18  -9.5957     98.1723    133.6060   1.0149865831e+02   3.5157919132e+01     0.179284    0.1409271  26.93 0.0003930619    1.512    0.338
        19 -14.0914     62.8206    156.9216   1.1426757147e+02   3.4984381064e+01    0.8930686    0.5816728  86.80  0.001787517    1.574    0.365
        20 -12.1389    160.6257    128.5136   8.4867110771e+01   2.3868735814e+01    0.4436143    0.3730876 -56.43  0.001298639    1.260    0.207
        21 -11.8225      7.2779    128.9711   1.2436281282e+02   4.6948542398e+01    0.1809259    0.1531492  86.88 0.0003053229    1.154    0.133
        22  -9.3096    114.7446    127.2965   9.5828560916e+01   3.3650783732e+01    0.1449122    0.1147075 -88.59 0.0001917546    1.497    0.332
        23 -10.8720    154.9027    111.2536   8.1784754795e+01   2.8740882227e+01    0.7208632    0.4325868  85.03  0.001971757    5.044    0.802
        24 -12.5644    161.4282    118.6305   8.2198122609e+01   2.5731203654e+01    0.7128856    0.4629478 -85.43    0.0024495    3.204    0.688
        25 -13.0881    168.1089    114.1795   7.9523589368e+01   2.5106222112e+01    0.5571921    0.5454689 -62.92  0.001207203    1.060    0.057
        26 -12.4753    175.4841    115.3528   7.8205286295e+01   2.3162680287e+01    0.7507308    0.4603057  77.38  0.002236914    3.197    0.687
        27 -11.9446    134.6240    107.9645   8.5885535915e+01   3.3948427138e+01     1.274198    0.2232721 -44.76  0.002899614    5.566    0.820
        28 -11.1720    132.6685     97.4881   8.3495997034e+01   3.6616058369e+01    0.3607542    0.2771281 -53.38 0.0006650191    1.343    0.255
        29 -13.8949    197.4835     65.2510   5.9943246215e+01   2.6818574507e+01     1.271362     1.059506  44.50  0.006491727    1.260    0.206
        30 -10.0572    140.6660    104.9524   8.3541628897e+01   3.3271206150e+01    0.2250324    0.1964194 -45.13 0.0005201054    1.123    0.110
        31 -11.1661    112.3896    104.2085   9.0786074022e+01   3.9347450945e+01    0.2930018    0.2525239  69.26 0.0008545571    1.309    0.236
        32 -12.7731    154.3739     94.8096   7.7351592538e+01   3.2217463564e+01     1.117561    0.5218064 -46.05  0.003629999    2.200    0.545
        33 -12.8539    152.1904     85.1537   7.5029477554e+01   3.4633815095e+01    0.4550951     0.338944 -33.34 0.0006978332    1.339    0.253
        34 -14.1659     49.9277    166.7130   1.1843512577e+02   3.4362577816e+01    0.8325391    0.6744342  28.67   0.00111396    1.597    0.374
        35 -11.1586    145.6634    101.1946   8.1261831296e+01   3.2936613035e+01    0.3188339    0.2690134  -8.34 0.0006393892    1.358    0.264
        36 -14.2002     56.9572    161.8347   1.1627041445e+02   3.4608744585e+01      1.19295    0.9259664  36.42  0.002593661    1.498    0.332
        37  -9.7551    113.4680     94.9837   8.7958238354e+01   4.1174605640e+01    0.2250243    0.1445776 -45.14  4.55466e-05    1.481    0.325
        38 -13.1866    167.8703     86.5394   7.1887176576e+01   3.0564792597e+01    0.8284836    0.6230433   7.47  0.003641373    1.739    0.425
        39 -11.6578    138.8248     90.7398   7.9962832917e+01   3.6645406334e+01    0.3280474    0.3053044 -71.10 0.0006933071    1.162    0.139
        40  -9.6475    207.2602     91.4414   6.5515245034e+01   2.0043739720e+01    0.1911806    0.1513385  73.73 0.0003129668    1.474    0.321
        41 -10.9792    109.8199    223.8479   1.1267822982e+02   1.4342062553e+01     0.176874    0.1240078  65.56   0.00108607    1.336    0.252
        42 -11.6537    159.5932     84.3911   7.3089789419e+01   3.2992697140e+01    0.4425419    0.2798078 -38.00  0.001300148    1.551    0.355
        43 -13.9169      5.5658    199.8365   1.2989903223e+02   3.1954709140e+01     1.030846    0.5208604  67.85  0.006683195    1.579    0.367
        44 -10.7447     97.7183    222.8521   1.1484572156e+02   1.6361724859e+01    0.2410548    0.1207881  61.08   0.00121791    2.058    0.514
        45 -11.8157      6.2197    166.1431   1.2770997190e+02   3.8810395829e+01    0.2445789    0.1333494  71.37 0.0005191633    1.601    0.376
        46 -10.9840     86.6581     74.1095   8.9749015560e+01   5.0624044002e+01    0.6543045    0.2461231 -56.31  0.001967162    4.095    0.756
        47 -11.5666     87.9936     68.5000   8.7525693791e+01   5.1549943249e+01    0.5623087    0.2158478  29.39  0.001684712    4.563    0.781
        48 -10.4689    224.4697     75.2623   5.8388017129e+01   1.8611197092e+01    0.2547114    0.1784126 -48.16  0.000266006    1.395    0.283
        49 -10.1622    124.8371     76.0490   7.9109773802e+01   4.2722215454e+01     0.238156    0.2054216 -65.13 0.0007414823    1.331    0.249
        50 -11.1982    151.6615     73.6555   7.1625714834e+01   3.6922489497e+01    0.4884491    0.2718153  45.72   0.00194363    1.821    0.451
        51 -10.0662    157.3359     71.9871   6.9812614813e+01   3.5829328581e+01    0.2161469    0.1963002 -30.36 0.0004321373    1.090    0.083
        52 -11.6611    246.5861    163.5945   7.5930605342e+01  -1.3608403665e-01     0.539821    0.2950152  10.55   0.00219539    2.887    0.654
        53 -11.4724    193.9767     48.7057   5.5726513024e+01   3.0219766308e+01    0.2503289    0.1986904 -43.35 0.0003223572    1.236    0.191
        54 -10.9669    102.7814     34.3911   7.0394765937e+01   5.4670091322e+01    0.1975579    0.1229376  38.41 0.0004332286    1.580    0.367
        55 -11.2347     93.8185     27.3388   7.0156350296e+01   5.7511940635e+01     0.312946    0.1885423 -18.07  0.001076842    1.713    0.416
        56 -10.3347     93.1265     22.8592   6.8462989395e+01   5.8242968569e+01    0.1936233    0.1783331 -24.55  0.000539065    1.218    0.179
        57 -12.1915    201.5947     24.0033   4.7543987245e+01   3.1492167554e+01    0.3127772    0.2128219 -36.12  0.001198041    1.450    0.310
        58 -11.4495    133.6801    145.4432   9.5100062199e+01   2.5911359207e+01    0.9503419    0.2236996 -53.55  0.002297631    5.739    0.826
        59  -9.7736    194.0008     20.7692   4.7573817212e+01   3.3812645278e+01    0.1728982    0.1533908 -88.46 0.0009799383    1.070    0.066
        60 -11.9262    103.9071     20.8435   6.4541692435e+01   5.6218030761e+01    0.2313008    0.1742885  20.52  0.001253721    1.291    0.225
        61 -10.0133    205.6527     17.9384   4.5377277544e+01   3.1157214424e+01    0.1794917    0.1263451 -32.72 0.0002882767    1.434    0.303
        62 -10.1994    200.7180     17.6490   4.5865854779e+01   3.2442098035e+01     0.295166    0.1552208 -37.32  0.001342244    1.834    0.455
        63 -10.8993     39.6062     18.2141   8.6206004363e+01   6.7715608932e+01    0.1802318   0.09243806 -28.71 0.0005610772    1.719    0.418
        64 -12.5916    191.8426    152.0242   8.3616661915e+01   1.2489292281e+01    0.5760241    0.2137447 -45.76  0.001968262    2.998    0.666
        65 -11.5639    181.7410    207.4681   9.6450497288e+01   4.9072543009e+00    0.5593836    0.2653728  22.84  0.001948487    4.032    0.752
        66 -15.1389     22.4127    184.6383   1.2582480496e+02   3.3447172569e+01    0.9334962    0.8696021  74.18  0.003931088    1.383    0.277
        67 -13.8969      4.0153    187.0270   1.2946635257e+02   3.4642524017e+01     1.031152    0.4127553 -88.13  0.005658091    2.082    0.520
        68 -10.5299    207.7995     10.3319   4.3077667849e+01   3.1439641875e+01    0.1430608    0.1173361  76.61 0.0002490538    1.146    0.127
        69 -12.1964    189.4297    148.2286   8.3257419518e+01   1.3700359232e+01    0.2843216    0.2440643 -89.20  0.000980297    1.529    0.346
        70 -12.5721    192.6810    194.6930   9.2095327253e+01   4.9529378931e+00     1.024102    0.5344731 -62.89  0.003007241    6.759    0.852
        71 -10.9977    203.2554    191.5869   8.9480700195e+01   3.5039216415e+00    0.1970685    0.1136118  32.28 0.0009521828    1.652    0.395
        72 -11.4362    172.3484    149.8866   8.7243540313e+01   1.7005887966e+01    0.2634223    0.2086475  55.40  0.000852743    1.335    0.251
