#   1 NUMBER                 Running object number                                     
#   2 MAG_AUTO               Kron-like elliptical aperture magnitude                    [mag]
#   3 X_IMAGE                Object position along x                                    [pixel]
#   4 Y_IMAGE                Object position along y                                    [pixel]
#   5 X_WORLD                Barycenter position along world x axis                     [deg]
#   6 Y_WORLD                Barycenter position along world y axis                     [deg]
#   7 A_WORLD                Profile RMS along major axis (world units)                 [deg]
#   8 B_WORLD                Profile RMS along minor axis (world units)                 [deg]
#   9 THETA_WORLD            Position angle (CCW/world-x)                               [deg]
#  10 FWHM_WORLD             FWHM assuming a gaussian core                              [deg]
#  11 ELONGATION             A_IMAGE/B_IMAGE                                           
#  12 ELLIPTICITY            1 - B_IMAGE/A_IMAGE                                       
         1 -12.0243      6.8494     18.8902   1.0979790326e+02   6.9943246143e+01     0.463943    0.1826461 -33.55   0.00219528    2.114    0.527
         2 -11.7306     36.9011     19.8589   9.6638626831e+01   6.6704651436e+01    0.4020282     0.318548  52.10  0.002674551    2.143    0.533
         3 -11.4683    219.5116     14.9344   5.6408716347e+01   2.9531125493e+01    0.1980121    0.1188714 -32.14 0.0005253747    2.040    0.510
         4 -11.4624    113.3493     15.5692   7.1568759222e+01   5.3590472353e+01    0.4079067    0.2395979  65.35  0.001386161    1.644    0.392
         5 -12.3456     25.8498     13.1667   9.8549892337e+01   6.8839899177e+01    0.2623538     0.201577   6.87 0.0003820015    1.112    0.101
         6 -11.4768     80.4414     14.8849   7.9470465085e+01   6.0314324978e+01    0.2274307    0.1996557  -1.04 0.0007893362    1.203    0.169
         7 -13.1341    209.8502      6.7450   5.5624247239e+01   3.2541584848e+01    0.6641717    0.3011824 -48.68  0.001709125    2.085    0.520
         8 -10.8703     62.4188     12.5798   8.4124159422e+01   6.3727112575e+01    0.2215627    0.1867799  76.69 0.0006676255    1.994    0.498
         9 -11.9027     47.1104      8.3395   8.7754790450e+01   6.6555000647e+01    0.4873087    0.2740007  45.52  0.002719829    1.846    0.458
        10 -11.4129     51.9619      5.9315   8.4964349132e+01   6.6041649600e+01     0.178098    0.1349031   1.18  0.000314268    1.192    0.161
        11 -10.7466     74.9187      9.1578   7.8889343539e+01   6.1856382581e+01    0.1868542    0.1584511   2.62 0.0007961867    1.202    0.168
        12 -10.2345     13.7708      8.7345   1.0219658790e+02   7.0647767131e+01    0.2027155    0.1084654 -38.14  0.001306752    1.953    0.488
        13 -11.0816     18.8211      7.4278   9.9227159537e+01   7.0283053502e+01    0.3724691    0.1444823  23.38   0.00121643    2.635    0.620
        14 -10.3892    108.6587      7.7195   7.0005708969e+01   5.5277606227e+01    0.1292054   0.07437118  38.48 0.0002495259    1.628    0.386
        15 -12.8350    190.6862      5.2763   5.7165441097e+01   3.6972172676e+01     0.448684    0.3103307  68.38 0.0003298776    1.265    0.209
        16 -11.7027    194.6918      3.6649   5.6408185176e+01   3.6226575787e+01     0.274509    0.1786864  64.82  0.000827439    1.394    0.282
        17 -11.1731    176.0316      7.9157   5.9389895655e+01   4.0061814357e+01    0.1964875    0.1288415  46.94  0.001133159    1.718    0.418
        18 -10.7842     87.3067      7.1586   7.4761283676e+01   5.9683313810e+01     0.194165    0.1365851 -20.34 0.0009574649    1.607    0.378
        19 -11.5152     24.7198      6.8503   9.6277164524e+01   6.9687351472e+01    0.2054303    0.1491033 -18.33 0.0005089466    1.292    0.226
        20 -11.4449     38.8345      3.8560   8.8983398225e+01   6.8179347167e+01    0.3345348    0.2108371 -45.52  0.001975446    2.885    0.653
        21 -10.4540    236.4564      6.5396   5.3379064948e+01   2.6876937222e+01    0.1173499   0.08787605 -79.92 5.454913e-05    1.011    0.011
        22 -10.5007     62.2052      5.9556   8.1512105018e+01   6.4371428037e+01    0.2213941    0.1138736  35.58 0.0009978084    1.617    0.382
        23 -11.9912    180.7626      2.8504   5.7667626322e+01   3.9456586864e+01    0.3459231    0.2378025  74.29  0.001901655    1.181    0.153
        24 -12.0744    160.0443      2.9394   6.0136827601e+01   4.4188843391e+01    0.4939389    0.2164537  76.50  0.002323035    2.139    0.532
        25  -9.3656    111.7161      4.6932   6.8396284672e+01   5.4868089557e+01    0.1233841   0.07596584  36.96 0.0002585739    1.563    0.360
        26 -11.3130     74.2103      2.4297   7.6492458255e+01   6.2542178202e+01    0.2704111     0.227108  46.94  0.001412002    1.222    0.181
        27 -10.1486     30.8373      4.0014   9.2327962633e+01   6.9236167828e+01    0.1485514    0.1226879   4.57 0.0003492601    1.246    0.198
        28 -10.7323     11.9711      2.9403   1.0045794064e+02   7.1496982889e+01    0.2780282    0.2201931  58.53   0.00153379    3.826    0.739
        29 -10.9912    218.0276      2.7096   5.4105104039e+01   3.1180919691e+01    0.1736224    0.1279645  89.66  0.001174978    1.067    0.063
        30 -10.5524     91.5091      2.7019   7.2120413720e+01   5.9204855242e+01    0.1944216    0.1539698  52.00 0.0006656921    1.128    0.113
        31 -11.0292    232.8063      2.3945   5.2886111943e+01   2.8085157224e+01    0.1636247   0.08631665  68.37 0.0009598166    1.734    0.423
        32  -9.9025     81.3102      2.3318   7.4529593887e+01   6.1222023242e+01    0.1247327   0.07032461  30.00 0.0002873623    1.671    0.402
        33 -10.3570      7.1293     10.2988   1.0612124565e+02   7.1064841828e+01    0.2136613    0.1618572  48.38  0.001421099    2.903    0.656
        34  -9.4935     64.2873      1.3183   7.8968476257e+01   6.4399368534e+01    0.1182125   0.06860913  24.43 0.0002720659    1.593    0.372
        35 -10.2172    119.8018    233.6667   1.2306185526e+02   8.6145883718e+00    0.2550132    0.1668202  82.30   0.00120095    2.096    0.523
        36 -10.5083    200.4317    248.8069   1.0863000433e+02  -7.5923617132e+00    0.2813971    0.1809074 -16.40  0.001502402    1.860    0.462
        37 -11.1888    200.0693    244.9487   1.0806613722e+02  -6.9234253670e+00    0.2356572    0.1976386   7.24 0.0003851746    1.080    0.074
        38 -11.7595    202.9426    240.2614   1.0671217766e+02  -6.6157813529e+00    0.3934514    0.2086495  38.02 0.0009335245    1.751    0.429
        39 -10.8844    197.3858    239.2467   1.0764559305e+02  -5.5688629674e+00     0.237139    0.2255862 -81.35 0.0008063753    1.416    0.294
        40  -9.4935    149.6922    250.7502   1.1919243560e+02   2.8987120261e-01    0.1244555   0.09583715  14.19 0.0001620988    1.508    0.337
        41 -11.1565    129.1637    248.3061   1.2309282702e+02   4.1552987986e+00    0.2643899    0.2196242 -35.23 0.0009310131    1.500    0.333
        42 -12.0662    115.7684    243.8697   1.2529277589e+02   7.2295536389e+00    0.3777533    0.2445665  79.72  0.001761556    2.043    0.511
        43  -9.6636    118.4025    250.7402   1.2562894098e+02   5.4625491425e+00    0.1956792    0.1076795  44.38 0.0009770915    1.549    0.354
        44 -10.7535    115.2501    249.4037   1.2610721360e+02   6.2322866464e+00    0.3148941    0.2308388  40.31  0.001010795    1.241    0.194
        45 -12.7836    109.6853    244.5784   1.2665019632e+02   8.0829399255e+00    0.4508535    0.3802548  76.68  0.002784332    1.163    0.140
        46 -10.3349    102.4545    250.8428   1.2889330678e+02   8.0046595998e+00    0.2577657    0.1044809  43.99  0.000912375    2.070    0.517
        47 -10.4703     98.6181    249.2492   1.2948594268e+02   8.9225645015e+00     0.231648    0.1927456  35.47 0.0006685284    1.309    0.236
        48 -10.1607     92.4467    242.5063   1.2996675805e+02   1.1247413148e+01     0.220434    0.1479159  49.88 0.0009029163    1.287    0.223
        49 -11.6259     85.2356    244.9605   1.3171689024e+02   1.1853652733e+01    0.2506317    0.2090047  86.83 0.0005021046    1.150    0.131
        50 -10.4905     89.4391    244.5117   1.3081250783e+02   1.1302754513e+01    0.2411203     0.189571  79.23  0.000700208    1.201    0.167
        51 -12.0624     14.4539    197.8629   1.4173735276e+02   3.1378803576e+01    0.5729747    0.2737081  43.51  0.002676753    2.058    0.514
        52 -12.8514     45.2199    200.3125   1.3530503314e+02   2.7411106311e+01     1.102766    0.7085735  -4.93  0.004726612    3.681    0.728
        53 -11.8495     21.9392    192.2973   1.3962926932e+02   3.1928300290e+01    0.5879161    0.3055207  88.52 0.0005600715    1.870    0.465
        54 -13.9021      8.4367    214.5959   1.4426055828e+02   2.8192838487e+01    0.9227938    0.5263599  88.58   0.00376545    1.437    0.304
        55 -11.8143     19.1185    210.9433   1.4187120996e+02   2.7927388174e+01    0.2738944    0.2397795  20.83 0.0002955068    1.641    0.391
        56 -13.0646     16.0583    204.5385   1.4196641583e+02   2.9691743916e+01     1.162124     0.756099  -3.08  0.001886985    3.309    0.698
        57 -13.6291     27.2953    219.3051   1.4092236039e+02   2.5166359617e+01     1.260865    0.5407677 -51.71  0.003685963    3.113    0.679
        58 -12.3418     20.0200    216.5571   1.4214362145e+02   2.6575641649e+01    0.3581652    0.2455403 -54.56 0.0003776863    1.772    0.436
        59 -12.8521     38.3500    218.3915   1.3860472191e+02   2.4079150530e+01    0.3637536    0.3284343  10.52  0.001040215    1.643    0.391
        60 -12.7123     17.0019    229.7842   1.4371601779e+02   2.4013664593e+01    0.8400858    0.2408348 -75.81  0.002950603    3.100    0.677
        61 -13.3294     36.2995    228.1741   1.3988631141e+02   2.2159685301e+01    0.8734464    0.5257324 -54.11  0.001771831    2.031    0.508
        62 -12.1770      2.0725    228.3679   1.4636126833e+02   2.5840609966e+01     0.316224    0.2365255  80.94 0.0007256701    1.046    0.044
        63 -12.6211      7.4944    224.2729   1.4510798588e+02   2.6179644698e+01     0.503205    0.2315732  36.05  0.002790147    2.305    0.566
        64 -13.7068     25.8012    233.5297   1.4233874458e+02   2.2238581263e+01    0.9128232    0.5135455 -45.10  0.004601155    3.079    0.675
        65 -14.1124     10.9382    232.3080   1.4500594416e+02   2.4118558515e+01    0.7168359    0.6221131  23.73   0.00523557    1.745    0.427
        66 -14.7009     36.1527    244.0146   1.4119966239e+02   1.8809335030e+01    0.8274836    0.6289186  75.45  0.003424186    1.012    0.012
        67 -12.7711     44.0672    235.1044   1.3895966268e+02   1.9698131807e+01    0.4144722    0.2487761  72.55  0.001568062    1.513    0.339
        68 -12.7471     46.8470    231.2778   1.3806986961e+02   2.0167798861e+01    0.3851603     0.223991 -85.36 0.0004193264    1.616    0.381
        69 -14.8719     14.3546    247.4990   1.4536458642e+02   2.0619288825e+01     1.168444    0.7171212  36.54  0.005458358    1.865    0.464
        70 -13.6473      2.8027    246.5605   1.4729074080e+02   2.2025614976e+01    0.6592973    0.3052515 -74.42  0.001475867    1.873    0.466
        71 -12.0947     59.3032    231.8448   1.3561341278e+02   1.8387697059e+01    0.4542644    0.2501348  82.30  0.002203735    2.005    0.501
        72 -10.7706     55.6859    228.6914   1.3603801137e+02   1.9568279775e+01    0.1936599    0.1141241 -69.08 0.0004730594    1.624    0.384
        73 -10.2221    230.9948    233.4893   1.0013365323e+02  -9.7839197257e+00    0.1800702    0.1683481  15.52  0.001224993    1.288    0.224
        74 -11.3949    236.8409    229.9891   9.8427572716e+01  -1.0084585759e+01    0.4982142    0.1688639  35.56  0.001444947    2.939    0.660
        75 -10.0023    196.9807    233.2773   1.0670791203e+02  -4.4977401161e+00    0.1840437    0.1553553  26.60 0.0004386405    1.092    0.085
        76 -11.5716    154.9132    232.5560   1.1534511965e+02   2.7773375106e+00    0.4582735     0.230557  48.23 0.0006769217    1.982    0.495
        77 -11.4252    219.2186    231.2213   1.0196451575e+02  -7.6721780608e+00    0.2146262    0.2023067 -16.19 0.0004182583    1.235    0.191
        78 -11.4315     74.7166    230.7049   1.3230608648e+02   1.6439454711e+01    0.2323064    0.1977063 -80.74 0.0004619701    1.180    0.153
        79 -11.9995     74.0361    227.1913   1.3205320600e+02   1.7308741778e+01     0.472434    0.2102731  56.72   0.00201962    2.347    0.574
        80 -10.0166     87.0050    231.0086   1.2974676360e+02   1.4514066165e+01    0.2022803    0.1341796  66.27 0.0003172459    1.480    0.324
        81 -10.6013    243.0597    229.2657   9.7164090911e+01  -1.0851322067e+01    0.2241904     0.191772 -40.65 0.0008301723    1.440    0.306
        82 -10.0907    167.8406    230.4594   1.1225506351e+02   9.2732381214e-01    0.2130079    0.1243055  38.70   0.00102016    1.563    0.360
        83 -11.5357     96.1473    228.4165   1.2746392916e+02   1.3631816633e+01    0.4217429     0.375365  45.75  0.002572469    1.176    0.150
        84 -10.2513    173.2906    228.2137   1.1072690595e+02   4.0182273045e-01    0.2589972     0.199345  -9.84 0.0009826247    1.549    0.354
        85 -10.0279    158.7924    222.2472   1.1281931800e+02   4.1067072892e+00    0.2252711    0.1614242  52.94 0.0006370088    1.454    0.312
        86 -10.5526    107.0478    227.9898   1.2504083161e+02   1.1943724732e+01    0.2053582    0.1784644  62.46 0.0003544126    1.018    0.018
        87 -11.6834    144.7256    232.4385   1.1751009363e+02   4.5740132540e+00    0.4906426    0.2073037  43.55  0.001855537    2.138    0.532
        88 -10.1246    134.0251    227.3016   1.1904083278e+02   7.4754717981e+00    0.1946914    0.1601281  42.60 0.0002659463    1.114    0.102
        89 -11.5532     78.9798    222.5502   1.3044947890e+02   1.7600599989e+01    0.4109643    0.1876588 -64.99  0.001829195    2.192    0.544
        90 -11.5838    111.3595    227.7850   1.2407188669e+02   1.1267842586e+01    0.2443146    0.2122975  64.51 0.0003622429    1.044    0.043
        91 -11.1195    178.6681    223.4758   1.0877787656e+02   3.5266513257e-01    0.3580049    0.2481283   9.50  0.001211027    1.817    0.450
        92 -10.8393     53.2641    222.6420   1.3593149774e+02   2.1232570187e+01    0.2899761    0.2475724 -74.53  0.001142961    1.244    0.196
        93 -10.4045    125.7224    221.7198   1.2001809675e+02   1.0097251424e+01    0.3594459    0.1727277 -67.71  0.001250041    2.949    0.661
        94 -12.9378     47.1093    218.5068   1.3680104669e+02   2.2963942609e+01     0.473086    0.2730505 -73.62  0.001750642    1.579    0.366
        95 -11.6754     39.6148    211.9299   1.3772764901e+02   2.5392687718e+01    0.3793826    0.2229489  47.51 0.0004765278    1.609    0.378
        96  -9.9352    203.5581    222.5027   1.0348140844e+02  -3.7108731602e+00    0.1859877    0.1638638 -12.91 0.0005273779    1.083    0.076
        97  -9.9988    203.6931    219.3020   1.0287301202e+02  -3.1680429729e+00    0.1930697    0.1637058 -31.71 0.0004791259    1.189    0.159
        98 -10.2836     84.9338    221.2964   1.2899737618e+02   1.6969533625e+01    0.1920751    0.1537167  52.19 0.0005178752    1.156    0.135
        99 -10.7029     63.2793    220.3085   1.3357072854e+02   2.0390982822e+01      0.28749    0.1658231  68.15  0.000731858    1.795    0.443
       100 -10.4594    248.9147    219.6992   9.4384227714e+01  -1.0196471606e+01      0.28529    0.2150615  64.97  0.001124762    2.584    0.613
       101  -9.7242    188.6036    219.7782   1.0604375468e+02  -6.8608722497e-01    0.1751539     0.131863 -54.85 0.0002879265    1.572    0.364
       102 -11.6010    222.4550    218.3301   9.9010318473e+01  -6.0431070389e+00    0.2641792    0.2242249  22.00 0.0001567214    1.150    0.130
       103 -10.7203    217.5203    217.5377   9.9815735086e+01  -5.1244017364e+00    0.2913144    0.2239294  46.95  0.001601121    1.528    0.346
       104 -10.8858    134.0156    218.9724   1.1774058732e+02   9.2165117689e+00    0.2136838    0.1976018  45.98 0.0003227419    1.039    0.037
       105 -11.5549    106.6168    217.7985   1.2370799049e+02   1.4238688157e+01    0.4339887    0.2459002 -41.07 0.0007677998    2.386    0.581
       106 -12.1515     86.0332    216.2958   1.2811215342e+02   1.7925630973e+01    0.9015363    0.3034015  52.40  0.003045315    3.461    0.711
       107 -10.7298     80.7035    209.5165   1.2841923955e+02   2.0309855191e+01    0.3651407    0.1742686 -69.99  0.001548044    2.216    0.549
       108 -11.4074    173.6252    216.9928   1.0870611300e+02   2.4848140348e+00      0.40257    0.2814012 -72.56  0.001166315    2.166    0.538
       109 -11.4535    100.9484    216.4613   1.2479167837e+02   1.5484283535e+01    0.3870473    0.2053358 -61.56  0.001749994    1.947    0.486
       110 -10.8814     72.7714    217.4518   1.3118808553e+02   1.9675769284e+01    0.2243094    0.2061246  71.38 0.0003139394    1.143    0.125
       111  -9.8126    142.2072    217.1893   1.1562297768e+02   8.1233745793e+00    0.1957494    0.1570953  61.04 0.0004766491    1.297    0.229
       112 -10.5600     76.9460    216.4729   1.3015112828e+02   1.9278424342e+01    0.2381883    0.1685615  87.26 0.0003582998    1.409    0.291
       113 -10.8380    125.7985    215.9236   1.1910102934e+02   1.1332293772e+01    0.2586336      0.21692  19.40 0.0005673977    1.392    0.282
       114 -10.2296    146.7835    214.9096   1.1422063438e+02   7.7724927572e+00    0.2821929     0.176216  62.56  0.001224392    2.082    0.520
       115 -10.3245     59.8545    215.0176   1.3371994261e+02   2.2069346700e+01    0.2655095    0.2241163 -44.57  0.001022631    1.554    0.356
       116 -10.6771     57.7946    211.6009   1.3378541569e+02   2.3137035152e+01    0.2533955    0.1980537 -41.12  0.001439946    1.739    0.425
       117 -10.2093    199.5268    214.4855   1.0283022964e+02  -1.5940803928e+00    0.2475673    0.1697452  24.99 0.0008826533    1.484    0.326
       118 -10.6891    199.8314    211.1886   1.0215433178e+02  -1.0392162529e+00    0.2333612    0.1580033 -21.19 0.0003061534    1.684    0.406
       119  -9.3242    155.7042    214.2693   1.1212933825e+02   6.2784765533e+00    0.1386437    0.1091664  68.75  0.000205275    1.517    0.341
       120 -11.1205    111.9885    213.5208   1.2186117305e+02   1.4277849553e+01     0.266777    0.2095746 -64.92 0.0005370322    1.314    0.239
       121  -9.9197    164.1411    213.3521   1.1011226511e+02   4.9246043687e+00    0.2709084    0.1616583  47.94 0.0001468869    1.690    0.408
       122 -10.1704    160.3108    213.1288   1.1091329301e+02   5.6703091935e+00    0.2053703    0.1864313   8.34 0.0005395709    1.156    0.135
       123 -10.5267    117.8989    212.5914   1.2037126743e+02   1.3458461026e+01    0.2583689     0.242363 -23.44 0.0008063212    1.275    0.216
       124  -9.7358    121.6908    212.2825   1.1945758216e+02   1.2859420670e+01    0.1847424    0.1690767   9.27 0.0002422594    1.297    0.229
       125 -10.0939     70.5429    210.4427   1.3082801466e+02   2.1613529259e+01    0.4165143     0.139692 -58.61  0.001600267    2.812    0.644
       126 -11.8482     66.9991    207.2677   1.3123159446e+02   2.2865358506e+01     0.287237    0.2168278  87.40 0.0003214464    1.227    0.185
       127 -10.7622    218.8866    212.2556   9.8566877866e+01  -4.4300230024e+00    0.2748414    0.1951024  37.91  0.001512018    1.445    0.308
       128 -10.6931     74.6468    211.6823   1.3006421083e+02   2.0722286019e+01    0.3198363     0.228999 -72.30  0.001747442    1.337    0.252
       129 -10.4412     45.9482    209.2126   1.3610112798e+02   2.5237564606e+01    0.3649933    0.1364617  47.91  0.001564779    2.497    0.600
       130 -11.0724     52.1753    211.1298   1.3495727662e+02   2.3994781393e+01    0.2521779    0.1664206  88.61 0.0003321189    1.421    0.296
       131 -12.0642     52.7122    206.9226   1.3437702024e+02   2.4902284662e+01    0.2701946    0.2579391  89.16 0.0004585471    1.250    0.200
       132 -10.5336    143.6917    210.7230   1.1420048534e+02   9.2250127457e+00    0.2704569    0.2262567 -12.34 0.0008609438    1.479    0.324
       133 -11.3950    213.7623    209.3020   9.9009467439e+01  -3.0643755416e+00    0.3579196     0.245103 -67.59  0.001241355    2.550    0.608
       134 -10.4766    183.9929    210.0250   1.0522923711e+02   1.9800006603e+00    0.2021605    0.1893591  11.99            0    1.001    0.001
       135 -11.6701    128.5012    208.4650   1.1727953168e+02   1.2488443568e+01    0.3819538    0.3687136  73.93  0.002219163    1.048    0.045
       136 -11.9852     95.2439    209.0696   1.2503542697e+02   1.8107374227e+01     0.371778    0.2601141 -81.71 0.0003342628    1.527    0.345
       137 -10.9750     98.7468    205.2962   1.2367246973e+02   1.8403648381e+01    0.2772563    0.2468234  31.59 0.0003792619    1.271    0.213
       138 -10.8502    237.9761    207.8983   9.4155417015e+01  -6.6921791040e+00    0.2517092    0.1749831 -19.21  0.001406604    1.403    0.287
       139 -10.4578    180.3545    206.7292   1.0538959806e+02   3.2877855094e+00    0.2311952    0.1919416  47.27 0.0003381255    1.243    0.195
       140 -11.4526    183.2081    204.1228   1.0428883083e+02   3.2831282200e+00    0.3399179    0.2520976 -48.34 0.0008279817    1.417    0.294
       141 -10.0408    152.4294    207.1682   1.1160928473e+02   8.3688090938e+00    0.1960288    0.1417148 -65.77 0.0004830516    1.633    0.387
       142  -9.9335    117.2216    207.3901   1.1970556884e+02   1.4746399354e+01    0.2149345    0.1227378  50.21 0.0009414235    1.714    0.416
       143 -10.8165      2.8707    206.1839   1.4474238183e+02   3.0582546324e+01    0.2955181    0.2170662  45.81  0.001123235    1.479    0.324
       144 -10.9070    200.1343    205.4289   1.0100348633e+02  -1.4958949181e-02    0.2772042    0.1841169 -58.66  0.001311667    1.968    0.492
       145 -10.6141    133.6355    206.1832   1.1571564105e+02   1.2059925553e+01    0.2524216    0.1895516  53.39 0.0006930928    1.308    0.235
       146 -11.0541    121.4826    203.3301   1.1805267096e+02   1.4909913640e+01    0.2940193    0.2574535  49.84 0.0003573351    1.088    0.080
       147 -11.0783    121.1430    199.0402   1.1741129868e+02   1.5954991180e+01    0.2461412    0.2175965  72.70 0.0004462828    1.115    0.103
       148  -9.9519     73.8134    204.0143   1.2926699414e+02   2.2639264319e+01     0.217639    0.1463035  73.86 0.0005482142    1.549    0.354
       149 -10.6552     71.3503    202.3179   1.2961125443e+02   2.3403780904e+01    0.3861732    0.1660979  59.44  0.001412359    3.055    0.673
       150 -12.2592    239.9704    199.7605   9.2243043492e+01  -5.6203248840e+00    0.4582631    0.3631409 -67.80  0.001351142    1.927    0.481
       151 -12.0799    241.1250    193.7251   9.0869808951e+01  -4.7604441121e+00    0.2735414    0.2494744  20.61  0.001383961    1.197    0.165
       152  -9.8032    166.6395    202.1495   1.0751802894e+02   6.7665782874e+00    0.1988861    0.1328039 -35.70 0.0004094866    1.647    0.393
       153 -11.5417    232.4118    200.7446   9.3811903566e+01  -4.6000427612e+00    0.2418684    0.2121769  24.21 0.0005332321    1.194    0.162
       154 -11.3407    207.6222    199.5738   9.8359489246e+01  -2.2715441746e-01    0.2881716    0.2659224 -48.47 0.0009573348    1.211    0.175
       155 -11.2662    190.8356    200.8536   1.0204986974e+02   2.5337714449e+00    0.2500173    0.1984344 -62.77 0.0006181177    1.543    0.352
       156 -12.1636    188.7036    196.2499   1.0160386158e+02   3.8402746538e+00    0.2712894    0.2578381  27.73 0.0002719702    1.064    0.060
       157 -11.2466    188.4838    190.9600   1.0060506952e+02   4.9493505871e+00    0.2808248    0.2432005 -48.24 0.0007021957    1.193    0.162
       158 -10.9093    193.1012    194.3139   1.0029852936e+02   3.4111220144e+00    0.2916068    0.2443559  28.32 0.0005462436    1.188    0.159
       159 -11.3358    192.0225    190.5497   9.9776649854e+01   4.3661946748e+00    0.4008093    0.2545905 -28.70 0.0003483041    1.788    0.441
       160 -11.3643     95.9971    200.3068   1.2356522749e+02   2.0030762922e+01     0.276238    0.1997404 -65.19 0.0004550637    1.368    0.269
       161 -10.7420     53.5552    200.6795   1.3347394582e+02   2.6262128125e+01    0.3022204    0.1855448  82.05 0.0009988853    1.700    0.412
       162 -10.4529    170.3823    198.9538   1.0608706786e+02   6.7278559034e+00    0.4157692     0.264712 -70.90   0.00169974    2.482    0.597
       163 -10.1574     90.6179    199.8126   1.2476130435e+02   2.1028713766e+01    0.2730021    0.1414366  46.41 0.0007406713    1.851    0.460
       164 -10.1009    177.0014    199.4613   1.0473551668e+02   5.3755981465e+00    0.2556879     0.171684  44.21 0.0003371538    1.480    0.325
       165 -10.0739    173.5799    197.4919   1.0510371757e+02   6.4271609448e+00    0.2250287    0.1917351  53.65 0.0006296893    1.242    0.195
       166 -11.8115    109.6126    198.0340   1.1997692892e+02   1.8244655137e+01    0.2868218    0.2516997  56.68 0.0003705497    1.082    0.076
       167 -11.0416    227.1686    189.6400   9.2615545634e+01  -1.7545683113e+00     0.320296    0.1774332 -48.30 0.0008953998    1.885    0.470
       168 -11.1824    223.8550    198.1268   9.4909055068e+01  -2.7391179069e+00    0.3295951    0.2189637  59.13  0.001255462    2.275    0.560
       169 -12.8516    229.2512    195.5295   9.3386474201e+01  -3.1665647983e+00     0.440235    0.3153318  12.75 0.0008233702    1.582    0.368
       170 -10.5743    103.7136    197.2632   1.2125752687e+02   1.9449153565e+01    0.4491003    0.2602044 -28.64  0.001595252    3.510    0.715
       171 -13.3757     66.8203    191.0793   1.2916950650e+02   2.6757918339e+01    0.5065642    0.4237438  66.55  0.001128212    1.127    0.113
       172 -11.4179     61.0497    188.0840   1.3014387441e+02   2.8291796261e+01    0.4058218    0.3226441  -3.25   0.00206112    1.910    0.477
       173 -11.3402     57.2666    195.0844   1.3194537452e+02   2.7107389675e+01    0.3392577    0.2357284 -74.87  0.001190491    1.302    0.232
       174 -12.4080     52.6525    192.8322   1.3273916230e+02   2.8256643870e+01    0.3538677    0.2701532  43.53  0.000296578    1.377    0.274
       175 -11.8211    217.8034    194.2155   9.5303246424e+01  -9.9751884428e-01    0.4343983    0.2758467  19.37  0.001660347    1.943    0.485
       176 -10.2262     82.2030    195.9426   1.2618758479e+02   2.3289343702e+01    0.2175722    0.1722859  83.28 0.0005359545    1.228    0.185
       177 -10.4331     62.8396    196.0082   1.3076489369e+02   2.6125586709e+01    0.2067804    0.1710524  82.02 0.0004608893    1.074    0.069
       178  -9.8873    199.5241    195.0178   9.9107400024e+01   2.0931621645e+00    0.2099583    0.1365533 -43.80  0.000589267    1.525    0.344
       179 -10.9700    139.9784    194.7006   1.1220851604e+02   1.3447968721e+01    0.2434781    0.2107961 -56.74  0.001104342    1.187    0.158
       180 -10.4659    130.3397    195.0023   1.1453219682e+02   1.5193746075e+01    0.2105755    0.1916838 -67.55 0.0005738936    1.116    0.104
       181 -10.3386     95.1605    195.1151   1.2296443965e+02   2.1404296743e+01    0.2002256     0.194704 -36.52  0.000487022    1.221    0.181
       182 -10.7987     41.1513    193.0602   1.3541482158e+02   2.9629156976e+01    0.4720223    0.2148308  87.96  0.001842431    2.967    0.663
       183  -9.7109      4.5716    195.4843   1.4359816108e+02   3.2841962257e+01    0.1604598    0.1384523  72.81 0.0004649764    1.212    0.175
       184 -11.4756      1.7887    192.2999   1.4392416655e+02   3.3810344492e+01    0.2148787    0.1372124 -80.67 0.0005777359    1.223    0.182
       185 -10.9778    163.8388    192.3094   1.0626628675e+02   9.3909490067e+00    0.3914652    0.3054704 -18.28 0.0006655842    1.555    0.357
       186 -11.6284     80.7473    189.4749   1.2558167687e+02   2.5080722861e+01    0.5909927    0.3267194  35.53  0.002013238    1.914    0.478
       187 -10.0105    148.1804    192.5870   1.0990220997e+02   1.2354903737e+01    0.2196897    0.1416965  28.20  0.000947483    1.779    0.438
       188 -11.5766    120.5826    190.1504   1.1599843182e+02   1.8130920648e+01     0.433282    0.3235979 -24.99  0.001648406    1.832    0.454
       189 -11.6744    247.2092    190.2996   8.9133716521e+01  -5.1180357544e+00    0.3146771    0.1996442  25.32 0.0009882966    1.808    0.447
       190  -9.5920     16.0129    191.2044   1.4081770431e+02   3.2771377020e+01    0.1391732   0.09638296  37.00 0.0004078029    1.651    0.394
       191 -11.6729     92.0268    188.1597   1.2262285771e+02   2.3600426357e+01    0.4519239     0.239396 -50.07  0.001310937    1.971    0.493
       192 -10.5638    130.1604    188.1024   1.1331891065e+02   1.6825123798e+01    0.5025069     0.246712  64.97  0.001400875    4.679    0.786
       193 -10.9265    104.2151    187.0289   1.1944264411e+02   2.1809988268e+01    0.3462687      0.23389  64.02  0.001518045    1.655    0.396
       194 -10.3494     48.4009    186.6312   1.3297082685e+02   3.0297107719e+01    0.2768517    0.1717251  85.30  0.001376795    1.682    0.405
       195 -11.0527     46.7445    182.2819   1.3282037516e+02   3.1560807057e+01    0.3703882    0.2526345   3.43  0.001241888    2.488    0.598
       196 -10.2380      9.0801    186.6769   1.4191465487e+02   3.4469980179e+01    0.1763384    0.1449229 -62.33 0.0005519131    1.328    0.247
       197 -12.0655     15.8198    183.2368   1.4011479457e+02   3.4659987469e+01    0.3861939    0.3043464 -32.04  0.001702856    1.790    0.441
       198 -11.0620      8.3941    183.1160   1.4174908413e+02   3.5360589222e+01    0.2182995    0.1761392  21.70 0.0005691462    1.680    0.405
       199 -11.0967      4.4762    183.0156   1.4259526460e+02   3.5719893245e+01    0.3612563    0.1382895 -77.73  0.001140687    2.155    0.536
       200 -10.7176    248.6284    184.9305   8.7841931695e+01  -4.4103359721e+00    0.2769273    0.2284358 -49.00  0.001405945    1.324    0.245
       201  -9.6679    197.9956    185.9922   9.7616027470e+01   4.1609014690e+00    0.1696101    0.1606466 -12.62            0    1.001    0.001
       202 -10.4772    149.9865    200.9017   1.1103181812e+02   1.0175500244e+01    0.2104332     0.205247  57.74 0.0003151611    1.022    0.022
       203 -10.2503    110.4539    186.0460   1.1773918409e+02   2.0945770908e+01     0.235682    0.1446576 -58.67  0.001040466    1.627    0.385
       204 -12.3675     28.9966    181.6166   1.3694017742e+02   3.3737321281e+01    0.8298982    0.3961625  64.13  0.003700765    2.491    0.598
       205 -11.0051    225.4840    184.0064   9.1805507489e+01  -4.2733113453e-01    0.2606384    0.2130619   0.14 0.0006663122    1.300    0.231
       206 -12.3532    229.4491    180.2735   9.0318267352e+01  -4.1902351483e-01     0.289204    0.2597075 -22.43 0.0002345706    1.009    0.009
       207 -11.9817     58.2881    181.4796   1.2991267096e+02   3.0283054840e+01    0.5319263    0.4052889  38.28  0.002513913    1.432    0.302
       208 -10.0856    213.9970    182.6635   9.3728521545e+01   1.8622481595e+00    0.1930221    0.1700682  30.74 0.0005129019    1.179    0.152
       209 -11.0520    177.3385    183.0793   1.0142040610e+02   8.7384760456e+00        0.252    0.2032863  28.84 0.0005471385    1.290    0.225
       210 -10.9256    103.8140    183.2700   1.1889356914e+02   2.2790897405e+01    0.2481486    0.1754428  58.31 0.0007538818    1.469    0.319
       211  -9.6277    190.6593    182.6737   9.8469507993e+01   6.2302136473e+00    0.1539799    0.1148103  -3.17 0.0007051366    1.733    0.423
       212 -10.6703    122.3604    182.7214   1.1421216163e+02   1.9562348919e+01    0.4241198    0.2345359  56.24  0.001410551    2.115    0.527
       213 -10.0412    157.8306    180.8464   1.0536504367e+02   1.3093909502e+01     0.202779    0.1774688  89.67  0.001025806    1.297    0.229
       214  -9.7811     92.4523    180.4652   1.2125042950e+02   2.5412782846e+01    0.1467464    0.1370404 -85.07 0.0002239113    1.038    0.036
       215 -10.6633     83.0361    179.8419   1.2351310692e+02   2.7088468445e+01     0.514256    0.2928249  70.48  0.002037335    2.480    0.597
       216 -11.1760     83.9561    175.9264   1.2263713204e+02   2.7913060005e+01    0.2605121    0.2159617  34.34 0.0003701895    1.331    0.249
       217 -12.4999     78.9554    174.4850   1.2367416835e+02   2.9051810694e+01     1.172777    0.5496604  25.72  0.004329756    3.040    0.671
       218 -10.7326     70.7048    178.3643   1.2637856931e+02   2.9322067229e+01    0.2781745    0.2025746  66.76 0.0006732843    1.424    0.298
       219 -10.9047     73.8166    177.4016   1.2544663335e+02   2.9103412616e+01    0.2629786    0.2421487  21.57 0.0005788569    1.310    0.237
       220  -9.3382    209.2917    179.2921   9.3963009989e+01   3.3820027324e+00    0.1423712    0.1090865  -5.86 0.0002321457    1.550    0.355
       221 -10.4446    119.1431    177.8423   1.1409005747e+02   2.1333369914e+01    0.2707347    0.2282533  28.94   0.00136583    1.306    0.234
       222 -10.6085    104.0291    178.0796   1.1792122059e+02   2.4019728867e+01    0.2332068    0.2090344  83.36 0.0006123058    1.085    0.078
       223 -11.6301     31.1957    176.4331   1.3583504466e+02   3.4757093664e+01    0.3890085     0.319216   6.95 0.0009925993    1.710    0.415
       224  -9.8343     13.0403    178.0067   1.4023549619e+02   3.6150594862e+01    0.1787414    0.1282975 -50.73 0.0005314969    1.560    0.359
       225 -11.7138    136.1137    176.1676   1.0958196802e+02   1.8477413958e+01    0.3332363    0.2646638 -28.86  0.000791442    1.490    0.329
       226 -11.5123    136.6192    171.3040   1.0847649655e+02   1.9525144596e+01    0.3716987    0.3389955  75.49 0.0007318311    1.125    0.111
       227  -9.5360    109.0529    177.0711   1.1647229975e+02   2.3372054406e+01    0.1806499     0.165456 -71.92 0.0004451221    1.061    0.057
       228  -9.8162     89.4609    177.4659   1.2149760999e+02   2.6645320072e+01    0.1481076    0.1355918 -89.63   0.00013013    1.006    0.005
       229 -11.2328     47.8395    177.0759   1.3188052991e+02   3.2702817319e+01    0.2128609    0.2003299 -80.41 0.0002453003    1.159    0.137
       230  -9.5085     48.5279    173.5121   1.3123104005e+02   3.3496685996e+01    0.1376752    0.1183188 -80.37 0.0004750782    1.022    0.021
       231  -9.7651    130.1589    176.3798   1.1108128491e+02   1.9587745534e+01     0.221106    0.1371538  52.31 0.0004251475    1.694    0.410
       232 -10.1072      6.4244    174.8022   1.4142977679e+02   3.7475922504e+01    0.2965507   0.06921352 -65.05  0.001159801    2.981    0.665
       233  -9.7828    220.9733    186.4608   9.3150739522e+01  -1.0122118060e-01    0.1928119    0.1361358  39.62 0.0004277388    1.500    0.333
       234 -11.3259    231.8143    184.6070   9.0754821840e+01  -1.6196050068e+00    0.2572425    0.2218208 -70.88 0.0009735305    1.527    0.345
       235 -10.6857    189.8622    174.1537   9.6868896511e+01   8.1548685665e+00    0.4988133     0.204603  48.22   0.00177844    2.669    0.625
       236 -10.4427    156.9385    173.6710   1.0409995585e+02   1.4891001042e+01     0.300602    0.2442865  14.07  0.001302183    1.479    0.324
       237 -10.3338    160.5273    172.9857   1.0312294270e+02   1.4317565720e+01    0.2607696    0.2181996  12.98 0.0009075989    1.400    0.286
       238  -9.8269    149.4910    174.0917   1.0594106783e+02   1.6299380530e+01    0.2223009    0.1519718 -50.28 0.0003732702    1.467    0.318
       239 -11.0595    100.1115    171.0002   1.1762922673e+02   2.6447774455e+01    0.4272586    0.3133219 -24.75  0.001578745    1.911    0.477
       240 -10.0707     25.5457    170.9404   1.3655498746e+02   3.6665810069e+01    0.2059243    0.1081491 -72.70  0.001029639    1.597    0.374
       241 -11.3637     12.8281    170.1068   1.3949391335e+02   3.8044515029e+01    0.2098034    0.1903547 -88.48 0.0002858209    1.175    0.149
       242 -11.7835     52.4022    158.2000   1.2799065298e+02   3.6820693209e+01    0.2721995    0.2621107 -13.20 0.0004420298    1.253    0.202
       243 -10.5622     46.2964    158.9578   1.2972518844e+02   3.7370235459e+01    0.2206074    0.1967359  40.74 0.0003986184    1.275    0.216
       244 -11.2228     48.3494    167.0978   1.3038064560e+02   3.5105589233e+01     0.524145    0.1605507 -54.36  0.001896989    2.887    0.654
       245 -10.6414     31.9882    168.7507   1.3471885036e+02   3.6543341363e+01    0.4157473    0.1550881 -53.73  0.001729792    2.499    0.600
       246 -10.6541    195.1898    168.9359   9.4649204589e+01   8.1879246533e+00    0.2391324    0.2141592  12.45            0    1.193    0.162
       247 -11.4978    114.6510    168.4650   1.1341205108e+02   2.4448792107e+01    0.3193808     0.261577  48.92 0.0009364791    1.222    0.181
       248  -9.7011    108.5356    168.9908   1.1508213670e+02   2.5445305236e+01    0.2212757    0.1467625 -57.29 0.0003490752    1.474    0.322
       249 -10.7273      2.5709    168.9569   1.4176251958e+02   3.9156553270e+01    0.2308032     0.177029  12.20  0.000931526    1.837    0.456
       250 -10.7856     74.0909    165.4833   1.2343330916e+02   3.2035233305e+01    0.4784879    0.2003736 -45.57  0.001735342    2.768    0.639
       251 -10.6486     82.1138    166.4773   1.2149618303e+02   3.0558854471e+01    0.2210369    0.1444527  38.82   0.00103449    1.599    0.375
       252 -10.2681     55.5265    165.4548   1.2828790591e+02   3.4617786848e+01    0.2585929    0.1259986 -77.97  0.001023522    2.395    0.582
       253  -9.3762     40.4310    166.4555   1.3230796540e+02   3.6189993774e+01    0.1356755    0.1140727 -80.40 0.0001073007    1.010    0.010
       254  -9.7951      8.7453    166.1492   1.4005066124e+02   3.9328755001e+01    0.1627552    0.1175951 -61.19 0.0007126028    1.285    0.222
       255 -10.3101    124.2066    165.0474   1.1029017916e+02   2.3461034664e+01    0.2310073    0.2072161 -31.99 0.0004619525    1.229    0.186
       256 -11.3281     63.9877    170.2738   1.2684029462e+02   3.2287160443e+01    0.4122218    0.2939442  27.91  0.001748054    1.659    0.397
       257 -10.2464     61.7348    165.0216   1.2660154341e+02   3.3906431188e+01     0.210089    0.1776383 -46.95 0.0005055854    1.275    0.216
       258  -9.8503     63.9853    161.7724   1.2548381061e+02   3.4411760084e+01    0.1936183    0.1577026  77.67 0.0003438204    1.252    0.201
       259 -10.0834    203.2097    162.8224   9.1708091391e+01   7.8584062770e+00    0.3541569    0.1671533 -46.64  0.001392003    2.047    0.511
       260  -9.9744    159.1799    164.2174   1.0156934864e+02   1.6579238852e+01    0.2092978    0.1816992 -84.31 0.0003635211    1.295    0.228
       261 -11.1378     23.9553    164.0189   1.3612978839e+02   3.8497366749e+01    0.2787069    0.2294069 -55.68  0.001189186    1.259    0.206
       262 -10.3589     18.8841    162.1811   1.3716786101e+02   3.9410635246e+01    0.3287268    0.1562445 -72.99  0.001242196    1.751    0.429
       263  -9.8285    100.7115    163.6798   1.1608998958e+02   2.8156120171e+01    0.1501029    0.1187346 -26.08 0.0002768755    1.599    0.375
       264  -9.9780     95.2128    163.4440   1.1749199093e+02   2.9167707222e+01    0.2060045    0.1374818  51.90  0.000547737    1.570    0.363
       265 -10.7741    140.4025    161.1973   1.0542462401e+02   2.1152583065e+01    0.2774782    0.2150263  40.43 0.0005328505    1.313    0.239
       266 -11.9394     34.4795    158.1131   1.3269843891e+02   3.8889994859e+01    0.5628664    0.2519237  52.77 0.0007712852    2.711    0.631
       267  -9.5628    192.6223    158.8290   9.2997946897e+01   1.0821258680e+01    0.2061122    0.1375187 -53.78  0.000257969    1.558    0.358
       268 -11.9234    107.3213    158.1069   1.1324118381e+02   2.8348606255e+01    0.2795843    0.2542023 -63.09 0.0002295516    1.062    0.058
       269 -10.4181    145.7381    158.0148   1.0342420607e+02   2.0802312760e+01    0.2134724    0.2094449  78.24  0.001106887    1.015    0.015
       270  -9.7357     66.4681    158.4883   1.2427028710e+02   3.4888974438e+01    0.1443973     0.129347 -75.41 0.0008097079    1.002    0.002
       271 -10.3442     25.5926    158.0155   1.3497550529e+02   3.9800383135e+01    0.3493772    0.1623564  14.52  0.001474298    3.495    0.714
       272 -10.7950    164.0993    155.7289   9.8559509217e+01   1.7470049526e+01     0.455509     0.318594   4.31  0.001406353    2.364    0.577
       273 -11.8253    139.1164    155.8155   1.0457101844e+02   2.2687472520e+01    0.6386604     0.383483 -75.31            0    2.788    0.641
       274  -9.9520     95.7075    157.3321   1.1617844395e+02   3.0604142380e+01    0.1559456     0.115425  81.30 0.0007022889    1.633    0.388
       275  -9.7788    209.3331    156.6386   8.9169879406e+01   7.9028998766e+00     0.152737    0.1154645 -77.99 0.0007038898    1.809    0.447
       276 -10.2819    154.4273    155.2190   1.0071103016e+02   1.9632074085e+01    0.2225051    0.1494483 -59.68 0.0006330874    1.622    0.384
       277  -9.5536     71.1670    154.5959   1.2231444935e+02   3.5192431998e+01    0.1789501    0.1433277  13.82 0.0003738107    1.575    0.365
       278 -10.4363     15.3344    153.3926   1.3702022762e+02   4.1833963835e+01    0.2269011    0.1781254 -75.36   0.00105275    1.024    0.024
       279 -11.5254    225.2533    151.0192   8.5003166661e+01   5.9181230034e+00    0.4616413    0.3110019 -43.14  0.002066828    1.344    0.256
       280 -10.4091     90.0351    152.9946   1.1685493250e+02   3.2645331960e+01     0.220076    0.2040663 -84.67 -0.002661949    1.044    0.042
       281 -10.0880    223.8615    158.8676   8.6919321910e+01   4.6582232050e+00    0.1935318    0.1656368 -66.90 0.0005369931    1.323    0.244
       282  -9.2444      5.5036    152.9930   1.3944946168e+02   4.2701852080e+01     0.182821   0.08657842  82.64  0.000810449    2.559    0.609
       283 -10.8677    249.0625    151.0231   8.0986244053e+01   1.5820665984e+00    0.2064175    0.1757232 -43.49 0.0003446216    1.044    0.042
       284 -10.0406    177.9649    150.9891   9.4377093276e+01   1.5571578348e+01    0.1892167    0.1768187 -48.32 0.0004040374    1.039    0.038
       285  -9.8637     79.6669    150.2915   1.1917440609e+02   3.4990084119e+01    0.1512016    0.1106952  73.90 0.0001652614    1.633    0.388
       286 -10.3313     21.7739    150.1798   1.3495175081e+02   4.2054449998e+01    0.1795555    0.1310449 -51.93 0.0005426818    1.328    0.247
       287 -10.1112    107.1378    149.1283   1.1141180356e+02   3.0592233806e+01    0.2121402    0.1787995  78.12 0.0004450816    1.303    0.233
       288 -10.0048     51.6503    149.2248   1.2674419219e+02   3.9146350484e+01    0.2018477    0.1102928 -56.08 0.0002712599    1.608    0.378
       289 -10.4151    113.7285    154.5112   1.1080202826e+02   2.8038610506e+01    0.2905014    0.2112449 -57.60  0.000769834    1.350    0.259
       290  -9.9513     98.2147    148.6458   1.1373308608e+02   3.2322213472e+01     0.203699    0.1468538  27.76 0.0009339604    1.598    0.374
       291  -9.4514     91.7504    147.9828   1.1537194762e+02   3.3602681970e+01     0.192992    0.1233474 -56.21 0.0002115156    1.480    0.324
       292 -10.3589     25.6127    145.2512   1.3325922059e+02   4.2902806793e+01    0.3273816    0.2024813 -36.49  0.001705412    1.938    0.484
       293  -9.8568      4.4874    144.5093   1.3875319555e+02   4.4781743375e+01    0.2854548   0.09796114 -71.05  0.001244619    2.285    0.562
       294  -9.8023    117.3199    143.4704   1.0743166405e+02   3.0031856223e+01    0.2952722    0.1411951 -51.52  0.001093463    2.039    0.510
       295  -9.7805     84.8641    143.8146   1.1643266688e+02   3.5775958262e+01    0.1944964     0.164018 -89.46  0.000225201    1.271    0.213
       296  -9.7235     52.8427    143.8531   1.2549500405e+02   4.0331814851e+01    0.1921337     0.148392 -83.86 0.0005347161    1.314    0.239
       297 -10.6597    242.1262    142.4789   8.0340156517e+01   4.3878583597e+00    0.2450772    0.1902269 -62.73 0.0003100697    1.387    0.279
       298 -12.0770    132.2907    140.7519   1.0288083093e+02   2.7658871996e+01    0.2956058    0.2752141 -71.24 0.0003612137    1.072    0.068
       299 -10.2485     91.7859    142.1538   1.1414084252e+02   3.5036809834e+01     0.493612    0.2313092  24.92  0.001655977    3.291    0.696
       300 -10.4570    193.0337    140.9607   8.8916562533e+01   1.4495487303e+01    0.2177589    0.2078244 -33.32            0    1.068    0.063
       301 -10.4683    109.2477    140.4422   1.0892633859e+02   3.2316257012e+01    0.2770434    0.1774541 -42.44 0.0005070062    1.610    0.379
       302 -10.3595    224.1012    139.5665   8.2745797411e+01   8.3665672753e+00    0.2309856    0.1789606 -51.37 0.0003646642    1.207    0.171
       303 -10.0652     62.8366    140.0905   1.2196173275e+02   3.9973090338e+01    0.2016489    0.1805817 -87.97 0.0003728737    1.130    0.115
       304 -11.2206     49.6881    136.9091   1.2516325295e+02   4.2423092478e+01    0.5037963    0.2337316 -39.30  0.001485501    2.679    0.627
       305 -10.5140    241.9995    138.0074   7.9429327004e+01   5.2416530294e+00    0.2051367    0.1798083 -45.18 0.0003442706    1.009    0.009
       306 -10.6589     98.7260    137.7974   1.1124308155e+02   3.4893132095e+01     0.243705    0.2054559  26.96 0.0002172621    1.309    0.236
       307  -9.8089    122.0138    135.7917   1.0440416994e+02   3.0934631246e+01    0.2090074    0.2030314  56.97  0.000312448    1.048    0.046
       308  -9.9346    114.0531    135.6705   1.0651879072e+02   3.2541933347e+01    0.2041499    0.1990643  51.92 0.0003321083    1.055    0.053
       309 -10.3708     24.1153    136.1628   1.3235148725e+02   4.5233512445e+01    0.1736574    0.1370057  86.77 0.0003593921    1.297    0.229
       310  -9.2782    200.2806    134.2332   8.5943540796e+01   1.4337552934e+01    0.1363068    0.1173253   6.97            0    1.440    0.305
       311 -10.5680    195.8813    133.4778   8.6631431714e+01   1.5438696207e+01    0.2582558    0.1999894 -44.12 8.846908e-05    1.229    0.186
       312 -11.8733     34.2786    137.1102   1.2962365208e+02   4.4052750425e+01    0.2641413    0.2099519  85.46 0.0002279157    1.322    0.243
       313 -12.0763     26.6332    130.3316   1.3072809355e+02   4.6409944371e+01    0.3534107    0.2206885  50.18  0.001884203    1.914    0.477
       314 -10.8317      2.2271    129.9104   1.3757977666e+02   4.8356764183e+01    0.3655165    0.1763332  76.23  0.001595744    3.111    0.679
       315 -11.3565     62.0731    129.9174   1.2017871603e+02   4.2568909897e+01    0.4730558    0.1943506 -54.68   0.00051646    2.117    0.528
       316  -9.8715     48.4722    130.9851   1.2443004578e+02   4.4011047532e+01     0.210431    0.1202992 -59.77 0.0004835918    1.517    0.341
       317  -9.6064    121.9906    129.9564   1.0301252384e+02   3.2310902730e+01    0.1911155    0.1715028 -52.08 0.0004679573    1.090    0.083
       318 -10.2031    156.7628    128.8397   9.3980335367e+01   2.5096308677e+01     0.219144     0.211442 -10.45 0.0004427045    1.122    0.109
       319  -9.5034     96.3310    128.2972   1.0974684245e+02   3.7609705416e+01    0.1529835    0.1188011 -15.33 0.0003207555    1.641    0.390
       320 -11.1484     66.8339    128.0700   1.1837347282e+02   4.2363804245e+01    0.3099484    0.1620489 -56.25  0.001349542    1.728    0.421
       321 -10.1835     36.3465    128.2811   1.2753299103e+02   4.5979568473e+01    0.1359132   0.09076813 -35.16 0.0005489087    1.640    0.390
       322 -11.0258     91.8953    126.7398   1.1066361589e+02   3.8757947397e+01    0.2543628    0.2222172 -54.98 0.0003545249    1.091    0.084
       323 -10.5055     20.1443    126.3847   1.3198975558e+02   4.7901518935e+01     0.254564    0.1935383 -31.01  0.001552147    1.462    0.316
       324 -11.2561      2.6364    104.6271   1.3382588932e+02   5.4109764525e+01    0.4864961    0.1553546 -65.51  0.001876971    2.405    0.584
       325 -11.2350      3.8349    124.8156   1.3645865746e+02   4.9439449449e+01     0.293253    0.1975001 -33.12  0.000411758    1.661    0.398
       326 -10.5067      5.4854    120.9933   1.3545179137e+02   5.0219805347e+01    0.2481659    0.1454786 -73.62 0.0008581686    1.459    0.315
       327 -10.6519      1.9632    116.7328   1.3587120267e+02   5.1413847873e+01    0.3806451    0.1883156  84.68  0.001700742    2.970    0.663
       328 -10.9105      3.5178    111.5564   1.3464125792e+02   5.2500403320e+01    0.3303931    0.2199676 -39.73  0.002053581    1.449    0.310
       329 -10.1870     56.1551    124.5732   1.2086387346e+02   4.4628552941e+01    0.2533475    0.1320645  35.50  0.001141231    2.089    0.521
       330 -10.7296     83.2772    120.3355   1.1169826244e+02   4.1720402009e+01    0.4425417      0.28311 -78.57  0.001815943    2.351    0.575
       331 -10.5328     63.6721    122.3667   1.1810605460e+02   4.4170664755e+01    0.2114243    0.1629096  79.07 0.0008886548    1.650    0.394
       332 -10.5260     14.2515    121.8620   1.3301456428e+02   4.9418894531e+01    0.2719479    0.1367576 -45.33 0.0006588665    1.838    0.456
       333 -11.5324     19.0563    117.9372   1.3094498874e+02   4.9970930132e+01     0.466381    0.3558039  70.46  0.002829915    1.580    0.367
       334 -10.4770    116.2804    119.9940   1.0209395030e+02   3.5765769032e+01    0.2393083    0.2151318  39.88 0.0003486712    1.140    0.123
       335 -10.0354     93.3533    119.7484   1.0856395362e+02   4.0152592020e+01    0.3376147     0.205779  26.72  0.001436456    1.969    0.492
       336 -11.0866     92.3111    116.6659   1.0811168293e+02   4.1050174565e+01    0.5139987    0.2711396  57.09   0.00188079    2.829    0.647
       337  -9.5443    101.2540    119.6664   1.0624414977e+02   3.8746006751e+01    0.1489533    0.1187935 -84.98 0.0001626094    1.563    0.360
       338  -9.8779     54.8902    117.7097   1.1980921089e+02   4.6419478527e+01    0.1753849    0.1737997 -16.41 0.0003740955    1.118    0.105
       339  -9.8813     48.8690    116.8942   1.2151733307e+02   4.7335564849e+01    0.1781752    0.1475619 -77.13            0    1.281    0.220
       340 -10.6047     33.0472    113.1444   1.2573913452e+02   4.9879665758e+01    0.3821098     0.161746 -73.67  0.001406292    3.315    0.698
       341 -11.2901    120.7576    112.3451   9.8901544201e+01   3.6566162866e+01     0.262497    0.2543187 -43.29 0.0002576077    1.022    0.022
       342 -11.8498     74.7190    111.8722   1.1227459912e+02   4.5036885248e+01    0.2431112    0.2303771  -2.54  0.000252243    1.100    0.091
       343  -9.3350    149.7421    111.3165   9.1239564625e+01   3.0465035851e+01     0.154238    0.1209411 -78.08 0.0001889052    1.537    0.349
       344 -10.9139     37.5553    108.8520   1.2343423597e+02   5.0430152902e+01    0.3401873    0.1845563 -59.46   0.00168108    1.606    0.377
       345 -10.3144     27.5880    111.1952   1.2709229728e+02   5.0828038559e+01    0.1905849   0.09734947 -53.12 0.0005821533    1.584    0.369
       346 -11.2444     20.0355    109.8776   1.2923948510e+02   5.1755154818e+01    0.3231964    0.1855052 -40.15  0.001126766    1.659    0.397
       347 -10.4853     85.5208    109.2501   1.0828705239e+02   4.3905320885e+01    0.2539969     0.216549  76.33  0.000453238    1.438    0.305
       348 -10.2856     43.9694    106.9608   1.2094938213e+02   5.0189585848e+01    0.2389086    0.1868877  25.43  0.001211331    1.439    0.305
       349  -9.4953      8.2738    107.6521   1.3255413549e+02   5.3092090236e+01    0.1177753   0.08602314  83.24 0.0007000344    1.628    0.386
       350  -9.8896    152.6481    105.8454   8.9133964344e+01   3.0940892944e+01    0.2170612    0.1403829 -52.84 0.0003685945    1.614    0.380
       351 -10.7530    161.1581    102.9805   8.6456023099e+01   2.9557927592e+01    0.2404125    0.2154405  57.66 0.0003055529    1.110    0.099
       352 -10.4852     74.9335    103.1974   1.1003000797e+02   4.6961238557e+01     0.230988    0.1624621  -3.16  0.001083376    1.896    0.473
       353 -11.3265     51.5715    101.9205   1.1729851196e+02   5.0454469765e+01    0.4135569    0.2254514 -31.80  0.001855869    2.127    0.530
       354 -12.4075     55.4967     96.9917   1.1478491990e+02   5.1058129569e+01    0.2741929    0.2359297 -52.21  0.001632611    1.132    0.117
       355 -10.8570     43.6957    101.6141   1.1983840063e+02   5.1427614342e+01    0.3399909     0.193603 -65.13  0.001633383    1.856    0.461
       356 -10.5140    134.8187    101.8650   9.2412222453e+01   3.5783223812e+01    0.3086116     0.232861   8.33  0.001369168    1.862    0.463
       357 -11.2848     85.5060     99.0442   1.0560583875e+02   4.6156292753e+01    0.5151548     0.255687 -34.61  0.001865291    2.372    0.578
       358 -10.2173      9.0299     99.8326   1.3096202429e+02   5.4792411582e+01    0.1778402    0.1232462  55.29 0.0005224621    1.933    0.483
       359 -12.9193    106.4585     97.6318   9.8930939627e+01   4.2613147526e+01    0.3248104    0.2827279  40.81 0.0009819497    1.161    0.139
       360  -9.2323     15.7113     99.6558   1.2873532856e+02   5.4381812099e+01    0.1334263   0.07295174 -40.68 0.0007023522    1.652    0.395
       361 -10.1653      4.6669     98.9892   1.3223370041e+02   5.5243221822e+01    0.1813403    0.1254959 -58.98  0.001020094    1.135    0.119
       362 -10.3510    147.9061     97.3644   8.8001544619e+01   3.3738479121e+01    0.2456102    0.2001078 -54.52 0.0003389656    1.257    0.204
       363  -9.6657     36.2971     97.8908   1.2147045715e+02   5.3025563487e+01    0.2098131    0.1563565 -74.62  0.001187574    1.544    0.352
       364 -11.0444     62.7520     96.0479   1.1212644783e+02   5.0303687873e+01    0.2215462    0.1971966  37.46  0.000331025    1.254    0.203
       365 -10.2202     32.3824     96.1860   1.2241444724e+02   5.3777811960e+01    0.1822996    0.1127782 -67.83 0.0009438019    1.716    0.417
       366 -11.3089     24.5367     90.5264   1.2385112103e+02   5.5700121363e+01    0.2298348    0.1475725 -66.13 0.0008230804    1.570    0.363
       367 -10.9608     22.4646     93.5261   1.2522151538e+02   5.5219354646e+01     0.227782    0.1059129 -59.82 5.191541e-05    1.831    0.454
       368 -10.2687     29.1330    103.2387   1.2501779580e+02   5.2504756638e+01    0.1845541    0.1481152 -39.61 0.0003560748    1.127    0.113
       369 -10.6231    114.1392     91.0368   9.4898154722e+01   4.2408396777e+01     0.249412    0.2087367  41.86 0.0004120863    1.186    0.157
       370 -10.5436    105.7305     91.1611   9.7317423298e+01   4.4080235756e+01    0.2388996     0.195539  52.76 0.0003088575    1.303    0.233
       371 -12.6745      9.4310     85.7830   1.2812096171e+02   5.7810725905e+01    0.2524922    0.1976822 -42.20 0.0004101883    1.064    0.060
       372 -12.0390     77.9093     88.0744   1.0496849873e+02   4.9712246718e+01    0.3304705    0.2319774 -29.81 0.0003703064    1.454    0.312
       373  -9.2453     70.2560     90.2927   1.0809480149e+02   5.0447022818e+01     0.136505   0.09956656 -20.66            0    1.491    0.329
       374 -10.4384     89.1185     88.3963   1.0150483905e+02   4.7748358583e+01    0.3143474    0.2224498   3.37  0.001208027    1.862    0.463
       375 -11.3092     63.4744     86.9882   1.0944546065e+02   5.2116647603e+01    0.2643602    0.2347095  36.07 0.0003328349    1.259    0.205
       376 -11.0579     29.9652     86.7566   1.2107278487e+02   5.6033884879e+01    0.3949229    0.2627923 -45.50  0.001589137    1.245    0.197
       377 -10.3431     26.6863     84.3205   1.2165902360e+02   5.6836834512e+01    0.1869594    0.1498842 -73.52 0.0002700427    1.476    0.322
       378 -10.6910    154.3646     86.3381   8.3561331321e+01   3.4348287583e+01    0.2884393    0.2363901   8.48 0.0009206098    1.604    0.376
       379 -10.2798    138.6838     86.0256   8.7097721862e+01   3.8030504484e+01    0.2387748    0.2015007  37.96 0.0005180016    1.215    0.177
       380 -10.7419    128.7341     86.2463   8.9635227801e+01   4.0218189767e+01    0.3412464    0.1898205  34.98  0.001200651    2.116    0.527
       381 -10.6442    132.1304     82.8427   8.7808288899e+01   4.0099434402e+01    0.3321566    0.2391456  36.52   0.00150727    1.463    0.317
       382 -10.8514     43.3849     79.9192   1.1451870041e+02   5.6094429587e+01     0.299929    0.2847366  63.13  0.001867569    1.369    0.270
       383  -9.9983     48.2724     85.6768   1.1433131915e+02   5.4353052459e+01    0.1863692    0.1315389  27.17  0.000355824    1.532    0.347
       384 -11.5524     51.1553     82.7567   1.1252892283e+02   5.4606895278e+01    0.4942313    0.3677735  43.96  0.002811135    1.636    0.389
       385 -11.2469      6.4806     89.4545   1.2987912304e+02   5.7208984018e+01    0.2784531    0.2376769  75.72 0.0008136612    1.499    0.333
       386  -9.8119     98.4010     83.8336   9.7343748577e+01   4.6943399495e+01    0.1946111    0.1320716 -30.28 0.0003337545    1.566    0.361
       387  -9.8518     14.7888     83.8107   1.2580212389e+02   5.7871318524e+01    0.1491686    0.1338676 -74.61 0.0003304369    1.306    0.234
       388 -10.3720     20.0417     81.9939   1.2350215887e+02   5.7865233559e+01    0.1846142    0.1528903 -41.21 0.0004652092    1.031    0.030
       389 -10.6450     77.1061     80.9149   1.0314964443e+02   5.1270065971e+01    0.2103505    0.1861734 -13.88 0.0005516355    1.062    0.058
       390  -9.7192     82.1334     80.1348   1.0128641880e+02   5.0586840910e+01    0.1680569    0.1625756 -75.70            0    1.237    0.192
       391 -10.1209    153.9607     79.0405   8.1670337484e+01   3.5758289541e+01    0.2190489     0.208743  77.32 0.0003720346    1.005    0.005
       392  -9.5017    101.4737     79.4545   9.5130526119e+01   4.7182734766e+01    0.1413814    0.1354976   9.15 3.114119e-05    1.020    0.020
       393 -10.3374     68.5761     78.9993   1.0542355892e+02   5.2976512875e+01    0.2181333    0.1846269  38.66 0.0007768769    1.306    0.234
       394 -10.3374     96.2030     77.6344   9.6149498570e+01   4.8533366303e+01    0.2529927    0.1698363  32.29 0.0007738365    1.526    0.345
       395 -10.5405     49.5298     77.5624   1.1165469659e+02   5.5849558669e+01    0.1981462    0.1579388  21.24 0.0005455408    1.317    0.241
       396 -11.3166     52.9929     74.2854   1.0946514016e+02   5.6058676230e+01    0.2715789    0.1842442 -30.21 0.0002237568    1.382    0.276
       397  -9.2457    119.2944     77.2797   8.9496348989e+01   4.3925249400e+01    0.1428778    0.1119636  13.01 0.0001943378    1.533    0.348
       398 -10.2039      3.7805     76.9362   1.2828932410e+02   5.9985966936e+01    0.2604345    0.1187923 -59.48  0.001115569    1.760    0.432
       399 -10.8933      1.6049     74.1742   1.2849695346e+02   6.0666083907e+01    0.3449383   0.09622815 -48.22  0.001582494    2.404    0.584
       400 -10.3013     81.3600     75.1473   1.0002541311e+02   5.1661950900e+01    0.2427567    0.2046156 -75.50 0.0009094766    1.646    0.392
       401  -9.9177    131.0501     75.3185   8.5911761118e+01   4.1691763498e+01    0.2033611     0.172238  52.66  0.000273533    1.141    0.123
       402 -11.2926     59.0627     74.2032   1.0728270078e+02   5.5269925261e+01    0.3497155    0.2005704  36.05  0.001370962    1.845    0.458
       403  -9.9325     69.4897     74.1033   1.0364210240e+02   5.3775130577e+01    0.1951408    0.1258874 -44.01 0.0009690868    1.507    0.336
       404 -10.8549     36.8222     72.0915   1.1475927733e+02   5.8354758284e+01    0.3354214    0.2023014  38.62  0.001625948    2.014    0.504
       405  -9.6556    101.3517     70.8593   9.2546129513e+01   4.8757918807e+01    0.1941378     0.127565 -26.43  0.000508149    1.686    0.407
       406 -10.7509     88.0099     69.4814   9.6147149615e+01   5.1521167627e+01    0.2833664    0.2042664 -41.43 0.0004595163    1.419    0.295
       407  -9.8922    106.8434     70.3664   9.0819000729e+01   4.7743910664e+01    0.2077982    0.1228368  35.44 0.0005483523    1.755    0.430
       408 -10.2229     79.7912     69.5731   9.8802151026e+01   5.2943963246e+01    0.2074549    0.1553058 -41.70 0.0003164791    1.357    0.263
       409 -11.4325     53.0365     69.6531   1.0806388573e+02   5.6933909436e+01    0.2305274    0.1720121 -41.12 0.0002970231    1.255    0.203
       410 -10.1166     43.5626     70.3235   1.1174043383e+02   5.7961620690e+01    0.2786751    0.1613316  13.31  0.001426166    2.007    0.502
       411  -9.7773    130.3286     68.0000   8.3947426731e+01   4.3096121411e+01     0.188589    0.1875861  16.79 0.0003802451    1.052    0.050
       412 -10.5124     21.8627     67.5593   1.1919881673e+02   6.0620912047e+01    0.2240481    0.1825288  78.02  0.001171576    1.969    0.492
       413  -9.5089     26.5348     67.5322   1.1738848139e+02   6.0226891099e+01    0.1246188   0.09793875 -29.99 0.0001606925    1.043    0.041
       414 -10.8116      1.3761     66.0056   1.2675180590e+02   6.2303240515e+01     0.206089   0.09673999 -63.72 0.0003586099    2.040    0.510
       415  -9.7489      1.3485     62.3019   1.2588059683e+02   6.3022147174e+01    0.1238307   0.06273731 -33.34 0.0005936954    1.692    0.409
       416  -9.6220     75.4541     66.5275   9.9264854209e+01   5.4206433528e+01    0.1345639    0.1200418  -3.92 0.0001263851    1.008    0.008
       417  -9.4671     17.6236     66.7567   1.2062751539e+02   6.1110692582e+01    0.1225969   0.07306002 -24.02 0.0006936542    1.631    0.387
       418 -10.0972     14.4086     65.7371   1.2161240398e+02   6.1544522466e+01     0.192298    0.1073157 -29.95 0.0008265225    1.635    0.388
       419 -10.7420     16.2064     61.2579   1.1970127830e+02   6.2266198805e+01    0.3216226    0.1774656 -64.67  0.001702794    2.273    0.560
       420 -10.2717    189.6669     67.9168   7.2049468212e+01   2.9154453835e+01    0.1908623    0.1671983 -61.97 0.0003433372    1.106    0.096
       421  -9.6764     47.6483     62.8691   1.0795065520e+02   5.8859199910e+01    0.1633668    0.1111528 -51.13 0.0001777401    1.604    0.377
       422 -11.2693      9.3604     62.8997   1.2286113180e+02   6.2433312515e+01    0.1949776    0.1881806 -31.59 0.0003926656    1.315    0.239
       423 -11.5317      6.3012     59.3424   1.2315884760e+02   6.3300702601e+01    0.2670101    0.1998778   3.37  0.001177982    1.421    0.296
       424 -10.8985     77.9658     61.2502   9.6724568105e+01   5.4691093238e+01    0.3942662    0.2914748  13.91  0.002185879    1.408    0.290
       425 -10.0831     78.7995     56.2037   9.4778524735e+01   5.5371247479e+01    0.1877708    0.1436983  -2.39 0.0007682486    1.354    0.262
       426 -10.0193     25.5099     62.1124   1.1625212323e+02   6.1343886139e+01    0.1815285     0.103669 -50.14  0.001022864    1.574    0.365
       427 -10.9040     68.5994     60.9304   9.9774469824e+01   5.6269807249e+01    0.3914494    0.1872337  38.13  0.001625128    2.088    0.521
       428  -9.6194     52.9819     62.0000   1.0569515360e+02   5.8334100662e+01    0.1926993   0.06950525  33.18 0.0007695039    2.847    0.649
       429 -10.2008     39.0708     60.2026   1.1037605826e+02   6.0341164844e+01    0.2253365    0.1593334 -37.08  0.001379029    1.238    0.192
       430 -10.1654     21.5001     57.0118   1.1635898691e+02   6.2629148666e+01    0.2827186    0.1532951  27.88  0.001282846    2.038    0.509
       431 -10.5169     31.3121     58.9720   1.1302645857e+02   6.1375536325e+01    0.1844891    0.1826599 -43.21 0.0003759246    1.401    0.286
       432 -11.9025     27.5835     55.4956   1.1344269249e+02   6.2358263588e+01    0.3273616    0.2275783 -36.01 0.0007690771    1.199    0.166
       433 -10.2183     48.4924     58.9228   1.0637441797e+02   5.9452877179e+01    0.1859188    0.1544842   7.35 0.0004761775    1.141    0.124
       434 -10.0651    110.9342     57.1345   8.5562775731e+01   4.9045973210e+01    0.1984732    0.1838927  88.26 0.0004081966    1.276    0.216
       435  -9.7868    102.2227     56.6730   8.7806482251e+01   5.0909836384e+01    0.2014338    0.1093778 -24.08 0.0008711264    2.272    0.560
       436 -10.1947     92.6741     56.9049   9.0663986696e+01   5.2744044747e+01     0.267052    0.1217808 -30.13  0.001102145    2.510    0.602
       437  -9.5899     58.3843     56.7999   1.0201897091e+02   5.8489124884e+01    0.1633829    0.1075513 -27.95 0.0009010976    1.442    0.307
       438 -11.1684     46.1174     54.8971   1.0595611837e+02   6.0441385905e+01    0.2989758    0.1859974   6.95  0.001624016    1.804    0.446
       439 -10.9141    119.7494     53.5351   8.2167185467e+01   4.7690656020e+01    0.4185434    0.2029174  31.97  0.001571617    2.959    0.662
       440 -11.7251     40.6004     52.2375   1.0720851624e+02   6.1552336571e+01    0.3728363    0.2506198  17.52  0.002262827    1.471    0.320
       441 -10.0750     82.9677     51.0351   9.1692698487e+01   5.5436041493e+01    0.1872251     0.165773 -89.75 0.0005940656    1.651    0.394
       442  -9.4579    108.4285     50.4859   8.4108627788e+01   5.0552132851e+01    0.1339038    0.1237429  32.38 8.505212e-05    1.026    0.025
       443 -10.3498     97.9823     49.5119   8.6666118172e+01   5.2819321813e+01    0.1996248    0.1239183  48.78 0.0004412318    1.543    0.352
       444 -10.2721     94.4895     47.0317   8.6841606039e+01   5.3857721463e+01    0.1907785     0.167421 -53.45 0.0004559738    1.420    0.296
       445  -9.5209     65.4559     49.5164   9.7007862567e+01   5.8605361823e+01    0.1305316    0.1075112   0.96 5.925331e-05    1.081    0.075
       446 -10.7686     21.5512     44.6940   1.1247285765e+02   6.4767836395e+01     0.447448    0.1457212 -38.84  0.001737654    2.618    0.618
       447 -11.2969     16.6720     47.4641   1.1543811880e+02   6.4712920367e+01    0.3078843    0.2254701 -19.34  0.001983502    1.128    0.113
       448 -11.7524     12.2202     45.7844   1.1680965274e+02   6.5344722013e+01    0.3176858    0.2763694  49.74  0.002307774    1.808    0.447
       449 -10.4383     46.3330     48.0339   1.0354365717e+02   6.1543977351e+01    0.1739767    0.1399043 -26.02 0.0008867226    1.154    0.133
       450  -9.2847     31.3616     48.2341   1.0956899685e+02   6.3235487654e+01    0.1198913   0.07625127  -9.34 0.0002453858    1.587    0.370
       451 -10.2187    122.7951     45.9550   7.9080595827e+01   4.8081841547e+01    0.2051885    0.1699954  28.71 0.0005123992    1.234    0.190
       452 -11.8623     61.7349     44.7798   9.6655787623e+01   5.9892258107e+01    0.2379483    0.1886522 -15.63 0.0002889603    1.157    0.136
       453 -11.5100    163.5477     42.9658   7.0041809962e+01   3.9027585898e+01    0.2542434    0.2158566 -86.99 0.0003445898    1.152    0.132
       454 -10.8303    141.4792     42.5669   7.4005663270e+01   4.4278124420e+01     0.238452    0.2275343 -18.45  0.001029683    1.184    0.156
       455 -10.2444     80.7698     43.3026   8.9715683292e+01   5.6944905432e+01    0.2012965    0.1665912  -7.27 0.0003030974    1.169    0.144
       456 -10.0229     54.5778     44.4740   9.9157999753e+01   6.0988730032e+01    0.1938405    0.1461908  10.19 0.0001112097    1.210    0.173
       457 -10.7042     56.8438     41.1707   9.7127471684e+01   6.1149865672e+01    0.2276411    0.1767044   2.04 0.0004724895    1.144    0.126
       458 -10.0816     33.9854     44.2405   1.0713361573e+02   6.3608734878e+01    0.1629581    0.1488623  15.81  0.001173601    1.370    0.270
       459 -10.4576     92.1873     41.1415   8.5505864125e+01   5.5107012937e+01    0.2045182    0.1620299  13.76 0.0006202012    1.255    0.203
       460  -9.5041     70.2513     41.6292   9.2562145664e+01   5.8991495812e+01    0.1126341   0.09966949 -59.47 0.0006957156    1.634    0.388
       461 -10.6937     23.9614     39.5860   1.0970407033e+02   6.5374315780e+01    0.2203008    0.1833547 -27.42 0.0009139285    1.217    0.179
       462 -10.5580     18.6085     40.7537   1.1241293303e+02   6.5673268285e+01    0.3247893    0.1418197  23.06  0.001756591    2.355    0.575
       463 -11.4724      9.5684     39.4585   1.1594437002e+02   6.6603047536e+01    0.2720088    0.1568561 -12.95  0.001431649    1.671    0.402
       464 -10.9536    103.5292     38.9389   8.1621887947e+01   5.3122702955e+01     0.216665    0.1771314  65.94 0.0004756856    1.393    0.282
       465 -10.3296     41.1081     36.2918   1.0137388575e+02   6.3987270226e+01    0.2009064    0.1568664 -60.15  0.001223767    2.222    0.550
       466 -10.0835    239.2780     36.5488   5.8848199124e+01   2.2618081769e+01    0.1598718    0.1040934  64.73 0.0009410425    1.591    0.371
       467 -11.0135    193.7450     35.2880   6.3642938499e+01   3.2894067276e+01    0.2158512    0.1896139  84.75 0.0002775583    1.082    0.076
       468 -10.1490    130.1832     36.3743   7.4496699530e+01   4.7647422542e+01    0.3686746    0.1158102  58.20  0.001348163    2.852    0.649
       469 -11.0496    120.3910     33.9130   7.5873522307e+01   5.0130870926e+01    0.2702939    0.2048666  57.04  0.001356966    1.197    0.165
       470 -10.7351     13.9404     39.5496   1.1404423954e+02   6.6255886394e+01    0.2081634    0.1387242   5.01 0.0003316516    1.439    0.305
       471 -10.3487     60.7977     34.4306   9.3202674141e+01   6.1485851530e+01     0.244902    0.1704908 -22.34 0.0008764347    1.389    0.280
       472 -10.5794     55.7744     34.1717   9.4925734364e+01   6.2282032717e+01    0.2341666    0.1669975  47.11  0.001071322    1.752    0.429
       473 -11.1706    143.0214     33.3545   7.1051864359e+01   4.5059025447e+01    0.4757655    0.2499232 -19.88  0.002148238    2.619    0.618
       474 -11.4785    139.6902     32.4135   7.1410616093e+01   4.5940582525e+01    0.3197934    0.2357267  19.33   0.00122321    1.738    0.425
       475 -11.5998     77.7535     33.1811   8.7049053661e+01   5.8810995418e+01    0.3178761    0.2109971  53.96 0.0008770747    1.726    0.421
       476  -9.6396     35.5601     34.6004   1.0300097650e+02   6.4901218532e+01    0.1169256   0.09169186  -5.45 0.0001879764    1.017    0.016
       477 -10.0978     29.1229     34.1437   1.0553216447e+02   6.5686482526e+01    0.1478263    0.1437931  45.64  0.001105764    1.687    0.407
       478  -9.8602     87.3398     33.3029   8.4182716403e+01   5.7028348799e+01    0.1343466   0.08639919  21.56 0.0007038837    1.673    0.402
       479 -11.1302    206.4375     31.6418   6.1271341676e+01   3.0439197806e+01    0.2312887    0.1855433  88.47 0.0002621813    1.049    0.047
       480 -10.2048     91.8910     33.8048   8.3050043780e+01   5.6091382657e+01    0.1934743    0.1496027  26.04 0.0002985735    1.193    0.162
       481 -11.7115    106.9943     30.5167   7.7934300310e+01   5.3410474784e+01    0.3672882    0.2275714 -11.63  0.001899252    2.033    0.508
       482 -10.2417    246.9194     30.5075   5.6994560103e+01   2.1837809265e+01    0.1772174    0.1346746 -64.81 0.0004499101    1.102    0.093
       483 -10.3490    250.4977     28.9627   5.6401711080e+01   2.1313811478e+01    0.1970605    0.1284513 -75.27 0.0006221387    1.273    0.215
       484 -10.3596    158.9757     30.2642   6.7417163323e+01   4.1683601949e+01    0.2129618    0.1714524  -7.95  0.001243844    1.639    0.390
       485 -10.8182     24.5232     30.9497   1.0632191739e+02   6.6632527141e+01    0.2134358    0.1396969  18.76 0.0003668047    1.453    0.312
       486  -9.9328     85.2755     30.6582   8.3846013618e+01   5.7734371795e+01    0.1125786   0.09998189 -70.52 0.0007000532    1.619    0.382
       487 -10.8854     18.8576     28.8981   1.0806030208e+02   6.7480994825e+01    0.2109574    0.2069536 -10.11  0.001214102    1.665    0.399
       488 -11.4888     18.1754     23.5601   1.0631238534e+02   6.8305753309e+01    0.2368538    0.2060693  16.76  0.001024066    1.489    0.328
       489 -10.1303     32.6659     28.3289   1.0181230689e+02   6.6122146140e+01   0.09580152   0.09373424  44.02 0.0007051955    1.723    0.420
       490  -9.8030     37.2695     26.6460   9.9228999959e+01   6.5797837673e+01   0.09697174    0.0907072 -37.39 0.0006919011    1.633    0.388
       491 -10.9806      9.9737     23.0898   1.0994121048e+02   6.9097627050e+01    0.1956206    0.1410278 -26.62  0.000820007    1.160    0.138
       492 -12.0035      1.9451     25.6778   1.1472356298e+02   6.9315155169e+01    0.2083798    0.1280086 -38.28 0.0003130828    1.334    0.250
       493 -11.6536    206.7937    246.6113   1.0702163198e+02  -8.2224858549e+00    0.3747166    0.2765515  40.31 0.0008596562    1.399    0.285
       494 -10.7775    131.8808     25.1228   7.0766944268e+01   4.8538868266e+01    0.1966361    0.1677399  50.02 0.0002795318    1.068    0.063
       495 -10.6455    131.3221     21.7316   6.9860802253e+01   4.9017634800e+01    0.2246918    0.1723673  83.74 0.0002042409    1.414    0.293
       496 -10.6248    206.0112     23.7195   5.9589429351e+01   3.1504580571e+01    0.1776417    0.1394879  85.77  0.000277504    1.066    0.062
       497 -11.7559    118.2159     22.6895   7.2806464787e+01   5.1840801053e+01    0.3942659     0.192622  49.58 0.0008756068    1.722    0.419
       498  -9.8912     61.7600     23.4066   8.8641427944e+01   6.2691985703e+01    0.1737095    0.0932496  32.25 0.0004568907    1.677    0.404
       499 -11.6051    190.2748     20.4143   6.0630375529e+01   3.5478571794e+01     0.224873    0.2009236  80.41 0.0002614845    1.153    0.133
       500  -9.7594     78.7988     22.1810   8.2673925049e+01   5.9885749475e+01     0.165363    0.1189185  21.29            0    1.289    0.224
       501 -11.7162    137.6396    246.7435   1.2111783891e+02   3.0359783498e+00    0.3345541    0.2628705 -41.52  0.001937834    1.506    0.336
       502 -10.7709    182.3701     18.6986   6.1184625423e+01   3.7495602044e+01    0.2237419    0.1891497  68.62 0.0004825696    1.156    0.135
       503 -10.7476     92.6235     18.7102   7.7535524308e+01   5.7596463256e+01    0.2287292    0.1415418 -32.03  0.001306699    1.841    0.457
       504 -10.1812    146.2794    247.7052   1.1945950961e+02   1.4100065788e+00    0.1720763    0.1494992   5.62 0.0003738903    1.324    0.244
       505 -10.7583    131.1764     17.2823   6.8560977935e+01   4.9490254885e+01     0.481786    0.1098217  49.16   0.00166089    3.662    0.727
       506  -9.7525     99.8046     17.8371   7.5416647440e+01   5.6230665712e+01    0.1492362    0.1374002  71.52 0.0002454885    1.269    0.212
       507  -9.9609    157.9751     17.3138   6.4136370012e+01   4.3322880472e+01    0.1791934    0.1418014  70.04 0.0003892756    1.062    0.058
       508 -11.6754    145.5609    243.0229   1.1892814027e+02   2.3979295165e+00     0.321472    0.2637009 -71.26  0.001465727    1.451    0.311
       509 -10.4978     44.0602     16.7873   9.2486380206e+01   6.6108354254e+01    0.2557204    0.2030138  76.89  0.001440275    3.323    0.699
       510 -10.7305     81.1089    231.8300   1.3109110450e+02   1.5240021207e+01     0.268617    0.1756754 -62.67 0.0003608468    1.589    0.371
       511  -9.7217    226.2760     16.7067   5.6152683546e+01   2.7865419440e+01    0.1232013   0.07257719 -70.14 0.0006938758    1.524    0.344
       512 -13.4268     76.1103    242.6166   1.3331019445e+02   1.3701440607e+01    0.5792503    0.3927258 -81.50  0.001718107    1.479    0.324
       513 -12.8154     83.7983    238.0450   1.3124077091e+02   1.3506739399e+01    0.3605249    0.2424673  55.24 0.0006470489    1.298    0.229
       514  -9.8498    139.1905     14.1461   6.6232071384e+01   4.7967600790e+01    0.1629249    0.1340093 -86.28 0.0002790276    1.287    0.223
       515 -10.4631    163.4840    245.2922   1.1553648080e+02  -1.0378889903e+00    0.3390659    0.1839865  24.92  0.001526038    2.169    0.539
       516 -10.3712     13.4557     14.6408   1.0488834718e+02   6.9943548145e+01    0.1710131   0.08655845  23.51  0.001073701    1.861    0.463
       517 -11.1314    171.8967     13.7000   6.1298020356e+01   4.0448573926e+01    0.1876674    0.1405487  76.83  0.001156537    1.112    0.101
       518 -10.3258    176.3074     11.3360   6.0173581520e+01   3.9664061603e+01    0.1229392   0.08547767  44.85 0.0003409702    1.675    0.403
       519 -10.2645    102.9304    246.5447   1.2828703688e+02   8.7777398804e+00    0.1917526    0.1138877  42.06 -3.372771e-05    1.485    0.327
       520  -9.8293    216.1407    245.0797   1.0495576597e+02  -9.3892855881e+00    0.1506359    0.1425195  14.53 0.0004102665    1.278    0.218
       521 -10.5196    246.5275     10.4922   5.3348696485e+01   2.4373082209e+01    0.1180957   0.08587305 -76.10 6.170809e-05    1.021    0.021
       522  -9.8466    187.2570    245.4347   1.1070351388e+02  -4.9715167453e+00    0.1758148    0.1122364  42.92 0.0006980458    1.514    0.339
       523  -9.2208     62.4693    244.4861   1.3620975635e+02   1.5266813278e+01    0.1297431   0.09929581  69.50 0.0008088712    1.065    0.061
       524 -10.8354     66.0243    243.6823   1.3543269991e+02   1.4935201146e+01    0.3679744    0.1867605  84.66   0.00158793    2.490    0.598
       525  -9.8970      2.2035     10.6988   1.0876064951e+02   7.1415033254e+01    0.1822739   0.07536502  28.80  0.001073971    2.552    0.608
       526  -9.8553     61.1810     17.6451   8.6568002658e+01   6.3418825852e+01    0.1825849   0.09998233  41.09  0.001041373    1.609    0.378
       527 -10.1098     66.5378    239.4760   1.3491435069e+02   1.5743127373e+01    0.1621401     0.155638 -23.70 0.0007438057    1.513    0.339
       528  -9.3089    227.4340    243.4954   1.0254252347e+02  -1.0791916785e+01    0.1242752    0.1022808   2.05 0.0001098607    1.012    0.012
       529 -10.6813    191.0003    241.5641   1.0931505615e+02  -4.9294875725e+00    0.3296007    0.1856298 -63.99   0.00131794    3.774    0.735
       530 -11.1905    182.5760    241.5993   1.1102840110e+02  -3.5632312885e+00    0.3882692    0.2708716  -5.32   0.00145028    1.826    0.452
       531 -11.1421    186.9892    237.5612   1.0946144398e+02  -3.5952866356e+00    0.3002212      0.18922 -30.52  0.001397963    1.784    0.440
       532 -11.9150    118.5409    240.4857   1.2426424164e+02   7.4440569433e+00    0.4534777    0.2898715  73.45  0.002201861    2.023    0.506
       533 -12.8544    102.0093    235.3467   1.2709460859e+02   1.1212628832e+01     0.854233    0.5269792 -54.84  0.004417859    1.790    0.441
       534 -10.8855    106.0066    235.2319   1.2622927456e+02   1.0586327868e+01    0.2208706    0.1891243 -77.59 0.0002576819    1.217    0.178
       535 -11.3067     93.9920    237.6045   1.2906629034e+02   1.2020615361e+01    0.5435388    0.2065363  51.05  0.002060287    2.556    0.609
       536 -11.3025     93.0309    233.2965   1.2874497954e+02   1.3080931109e+01    0.5058975    0.2382573  58.47  0.002134125    2.383    0.580
       537 -10.6678    130.1150    241.1238   1.2190729929e+02   5.3770944436e+00    0.2025188    0.1770498  20.68  0.001080432    1.281    0.219
       538 -11.0514    168.0688    238.8540   1.1357550883e+02  -6.5717095486e-01    0.2675858    0.1997001 -53.43 0.0005354566    1.560    0.359
       539  -9.9483    149.3820    240.2923   1.1771815521e+02   2.2604265673e+00    0.1678823    0.1304689 -67.72 0.0005097196    1.561    0.359
       540  -9.7042    172.7703    239.5801   1.1271565283e+02  -1.5805862366e+00    0.1920143    0.1139059  46.46 0.0009427058    1.664    0.399
       541 -10.8107    144.6544    238.0900   1.1838636707e+02   3.4880235544e+00    0.2988745    0.1795608  39.28 0.0004385263    1.486    0.327
       542 -10.2456    140.6482    237.3099   1.1912146163e+02   4.3263343787e+00    0.2298903    0.1139278  44.08  0.001027901    1.803    0.445
       543 -10.5373     95.1284    246.8648   1.2992065850e+02   9.9443135346e+00    0.3692215    0.2989959  29.44  0.002232674    1.451    0.311
       544 -11.5078    179.7816    233.8876   1.1032712361e+02  -1.7469195870e+00    0.5385221    0.3400583  46.04  0.002690118    1.590    0.371
       545 -10.9613    172.7789    234.1303   1.1182448873e+02  -6.0128494585e-01     0.285513    0.2157903 -26.79  0.001214056    1.492    0.330
       546 -10.5458    132.8375    233.3692   1.2021055176e+02   6.4488361377e+00    0.2421462    0.1902812 -47.65 0.0007176769    1.434    0.303
