#   1 NUMBER                 Running object number                                     
#   2 MAG_AUTO               Kron-like elliptical aperture magnitude                    [mag]
#   3 X_IMAGE                Object position along x                                    [pixel]
#   4 Y_IMAGE                Object position along y                                    [pixel]
#   5 X_WORLD                Barycenter position along world x axis                     [deg]
#   6 Y_WORLD                Barycenter position along world y axis                     [deg]
#   7 A_WORLD                Profile RMS along major axis (world units)                 [deg]
#   8 B_WORLD                Profile RMS along minor axis (world units)                 [deg]
#   9 THETA_WORLD            Position angle (CCW/world-x)                               [deg]
#  10 FWHM_WORLD             FWHM assuming a gaussian core                              [deg]
#  11 ELONGATION             A_IMAGE/B_IMAGE                                           
#  12 ELLIPTICITY            1 - B_IMAGE/A_IMAGE                                       
         1 -15.2060     12.9288    151.3622   1.4247316065e+02   4.1995863293e+01     12.02005     4.772466  76.77   0.04984422    3.357    0.702
         2 -13.5004    197.3714     28.3750   6.7008125034e+01   3.2272053754e+01     1.538872     1.362444   6.36  0.007301337    1.364    0.267
         3 -13.4956    212.9524      9.3987   6.0313752008e+01   3.0571012520e+01     1.013648    0.8737152  47.92  0.005358063    1.349    0.259
         4 -12.3600      2.7557     23.4394   1.2252436056e+02   7.0440377658e+01    0.7556031    0.1576539 -51.87  0.003224498    3.103    0.678
         5 -12.3387      3.4115      5.1589   1.1451159140e+02   7.3461837373e+01    0.7153739    0.3667832 -34.34  0.004553152    1.485    0.327
         6 -11.7547     99.6792    247.5234   1.3394652508e+02   1.1989209428e+01    0.3383997    0.2972762  21.85  0.001892148    1.540    0.351
         7 -11.1613    174.6147    249.5460   1.2067241776e+02   2.5770703703e-01    0.4148602      0.15836  50.08  0.001798881    2.983    0.665
         8 -11.8320    139.5274    248.5328   1.2686831447e+02   5.8540615067e+00    0.3491094    0.3133769 -63.98  0.002598017    1.382    0.277
         9 -11.5514    126.1451    249.7346   1.2942111269e+02   7.7193737975e+00    0.3926683    0.2651205 -81.20  0.002446724    2.007    0.502
        10  -9.6725    111.9371    250.5543   1.3205431914e+02   9.7151339337e+00    0.1802211   0.09170645  42.24  0.000679669    1.579    0.367
        11  -8.8653     66.7819    250.2107   1.3992880340e+02   1.6038726153e+01    0.1326995    0.1137582  53.23 0.0003699128    1.307    0.235
        12 -11.4534     29.5717    248.7684   1.4601662154e+02   2.0734755471e+01    0.3567821    0.2603769  67.53  0.002322249    1.065    0.061
        13 -12.1730     35.1518    244.3118   1.4485837068e+02   2.0883693289e+01    0.4909319    0.2855316  52.15  0.003451933    1.337    0.252
        14 -11.4088     10.8115    249.3571   1.4900442583e+02   2.2604859228e+01    0.4503183    0.1762407  35.08  0.002644541    2.764    0.638
        15 -10.9760      2.4669    248.1050   1.5023307965e+02   2.3635296093e+01    0.3493883    0.1620801 -83.62  0.002406819    1.863    0.463
        16 -11.0359    197.8205    245.1281   1.1593202361e+02  -2.7461675239e+00    0.2254685    0.1766269 -58.28  0.001485418    1.990    0.498
        17 -10.9204    152.4712    245.9874   1.2420884345e+02   4.2152003861e+00    0.2362868    0.1687858 -82.69   0.00141511    2.195    0.544
        18 -10.5475     46.0388    248.4539   1.4330382080e+02   1.8906641572e+01    0.3503557    0.1303598  67.24  0.001219826    3.022    0.669
        19 -10.2858     22.5180    245.6481   1.4698897706e+02   2.2034408831e+01    0.1663391   0.07842744  41.94 0.0006894126    1.864    0.463
        20 -12.0236     11.9924    241.1223   1.4845544037e+02   2.3908860198e+01    0.3023859    0.2116721  85.72   0.00242957    1.212    0.175
        21 -10.5975     18.8678    242.2803   1.4740837884e+02   2.3004520804e+01    0.1776132    0.1034956  75.53 0.0004922447    1.319    0.242
        22 -11.1902      5.5904    241.0172   1.4946420088e+02   2.4556904212e+01    0.2095863    0.1909824  40.50 0.0005579482    1.707    0.414
        23 -10.3086    183.1814    238.8139   1.1764236847e+02   3.7101370558e-01     0.166661    0.1239159  18.46  0.000461264    1.325    0.246
        24 -12.0008     22.0598    126.5384   1.3750711211e+02   4.6929937532e+01    0.4967042    0.2354711  49.33  0.001267805    2.362    0.577
        25 -11.8804    247.4665    247.7446   1.0788294369e+02  -1.0210753047e+01    0.5179531    0.3012288  21.87  0.003376803    1.411    0.291
        26 -11.0027    143.2529    231.0086   1.2400299720e+02   7.9923300395e+00     0.385118    0.1053305  39.46  0.001440995    3.180    0.686
        27  -9.5901     55.0150    230.0397   1.4046858309e+02   2.1092155828e+01    0.1844071    0.1292017  65.08 0.0007955609    1.112    0.100
        28  -9.5625      4.6957    228.6831   1.4907016410e+02   2.6845948269e+01   0.08795238   0.07170294 -69.55 0.0002564638    1.625    0.385
        29  -9.3213    171.6952    222.6660   1.1739206634e+02   4.6054863542e+00    0.1257267   0.09183744   9.25 0.0002914998    1.664    0.399
        30 -12.5604      9.6939    207.1264   1.4712593739e+02   3.0461339951e+01    0.6305479    0.4542484  27.24  0.003681382    1.935    0.483
        31  -8.9182    152.4935    212.9893   1.1966278207e+02   9.4489729443e+00    0.1654235    0.1302732 -49.31 0.0003405255    1.462    0.316
        32 -11.7171     59.5124    198.6605   1.3685918450e+02   2.6673069067e+01    0.2519993    0.2256219 -73.28 0.0005776308    1.300    0.231
        33 -12.1598     12.8649    195.7493   1.4586083756e+02   3.2443221502e+01    0.2588709    0.1685459  61.85 0.0004483414    1.277    0.217
        34 -12.8436     32.4494    232.5332   1.4461288887e+02   2.3290081520e+01    0.2605151    0.2171987  87.98 0.0007571102    1.290    0.225
        35 -11.9804     65.9710    190.3002   1.3463074642e+02   2.7583682998e+01    0.2597602    0.2213588 -71.19 0.0004311269    1.247    0.198
        36  -9.7619    191.9312    193.0844   1.0851059656e+02   5.7955871001e+00    0.4251857      0.25188 -66.51  0.001584496    4.137    0.758
        37 -13.8864     37.6468    225.5256   1.4325480441e+02   2.4003782920e+01    0.6982443      0.50752  68.39   0.00238546    1.034    0.033
        38 -13.2790     63.0535    175.4883   1.3354701817e+02   3.1190975111e+01    0.4975081    0.2786462 -45.99  0.001795458    2.336    0.572
        39 -10.8855     76.4081    177.4635   1.3077992396e+02   2.8923466881e+01    0.2346001     0.208406  86.56 0.0004627202    1.058    0.055
        40  -9.6092     96.7465    173.3708   1.2554352974e+02   2.6740134063e+01     0.237079    0.2048554 -69.04 0.0007171702    1.157    0.135
        41 -11.9040     84.2104    168.1828   1.2767829598e+02   2.9843516940e+01    0.6348099    0.6178336  65.03  0.004064522    1.188    0.158
        42 -10.4366    233.0294    236.3232   1.0847562763e+02  -6.9407746842e+00    0.2010129    0.1527534 -61.08  0.001182151    2.822    0.646
        43 -10.0281     97.0185    152.3951   1.2199240975e+02   3.1406506319e+01    0.3030962    0.2846555   4.04 0.0009166637    1.297    0.229
        44  -9.2331    100.0320    148.1513   1.2046089961e+02   3.1874991881e+01     0.203249    0.1887934 -30.00 0.0003149598    1.252    0.201
        45 -12.0182     85.4145    151.5562   1.2473990293e+02   3.3454134928e+01    0.2946658    0.2474407 -46.93 0.0003095731    1.307    0.235
        46 -10.9003     50.2501    235.1915   1.4169725217e+02   2.0736676596e+01    0.2423785    0.2083673  60.78  0.001304265    1.276    0.217
        47 -12.2320     67.4574    143.6249   1.2799222455e+02   3.7913543324e+01    0.6775472    0.4214545  65.07  0.002621641    1.866    0.464
        48  -9.7614    109.0572    137.1679   1.1597991339e+02   3.2812854989e+01    0.4200488    0.2683171 -23.42  0.001270595    2.642    0.621
        49 -10.4165     96.0935    134.6702   1.1883695951e+02   3.5657505417e+01    0.2490425    0.2041431 -45.00 0.0003928819    1.264    0.209
        50 -10.5666     12.8159    233.1590   1.4794683217e+02   2.5244520389e+01    0.1516605    0.1029617  76.87 0.0003863767    1.083    0.077
        51 -10.9769     30.4851    131.1221   1.3585538757e+02   4.5110119302e+01     0.284258    0.1874266  47.18 0.0005905178    1.642    0.391
        52  -9.2835     77.8402    130.6181   1.2292709931e+02   3.9506443628e+01    0.2847545    0.1614919  66.65  0.001154167    2.614    0.617
        53  -9.3627     84.9913    127.0038   1.2025184852e+02   3.9262564087e+01    0.2157222    0.1611215  77.17 0.0004348467    1.588    0.370
        54  -9.0183    106.2847    124.0062   1.1381755025e+02   3.6332838621e+01    0.1957917     0.176061 -58.48 0.0003270098    1.066    0.062
        55 -10.2872    167.9525    113.0794   9.5915603441e+01   2.5716044859e+01    0.3228163    0.2724847 -75.16 0.0007126314    1.393    0.282
        56  -9.3388    203.1831    111.8147   8.8501109915e+01   1.7901822107e+01    0.2074543    0.1757195   5.59 0.0004957925    1.329    0.247
        57  -9.1377     42.7572     97.2012   1.2657229473e+02   5.1842995355e+01     0.373974    0.1082351  45.81   0.00117688    5.342    0.813
        58 -10.5300    242.1700     92.2812   7.7394181473e+01   1.2620449814e+01    0.3065096    0.1292772  60.03  0.001216302    2.788    0.641
        59  -9.5907    157.8648     76.8357   8.8006388088e+01   3.4989858512e+01    0.2153341    0.1835153 -72.25 0.0004532005    1.328    0.247
        60  -8.5208     45.9415     69.1996   1.1866275219e+02   5.7738803072e+01    0.1487952    0.1030601  27.94  0.000322046    1.646    0.393
        61  -8.8882     31.9856     62.2133   1.2193356017e+02   6.0657048292e+01    0.1770588    0.1327094  57.65 0.0008259593    1.889    0.471
        62 -12.2225      9.1084     53.0330   1.2859816216e+02   6.4329632974e+01    0.4625272    0.2894209  43.18  0.002511126    2.201    0.546
        63 -11.8419      3.7952     39.5893   1.2724790306e+02   6.7343025106e+01    0.3980614     0.259561 -83.24  0.002347533    2.244    0.554
        64 -11.3306    237.9251    247.6961   1.0944258561e+02  -8.9076298482e+00    0.2293068     0.183291  -8.84  0.001714185    1.276    0.216
        65 -10.6649    216.4852    249.0055   1.1325404658e+02  -6.0068494613e+00    0.2950082    0.0935032  31.32  0.001199484    3.333    0.700
        66 -10.6758    162.2363    248.9206   1.2281150894e+02   2.2679697594e+00     0.203452     0.163025  -6.89  0.001115165    1.592    0.372
