#   1 NUMBER                 Running object number                                     
#   2 MAG_AUTO               Kron-like elliptical aperture magnitude                    [mag]
#   3 X_IMAGE                Object position along x                                    [pixel]
#   4 Y_IMAGE                Object position along y                                    [pixel]
#   5 X_WORLD                Barycenter position along world x axis                     [deg]
#   6 Y_WORLD                Barycenter position along world y axis                     [deg]
#   7 A_WORLD                Profile RMS along major axis (world units)                 [deg]
#   8 B_WORLD                Profile RMS along minor axis (world units)                 [deg]
#   9 THETA_WORLD            Position angle (CCW/world-x)                               [deg]
#  10 FWHM_WORLD             FWHM assuming a gaussian core                              [deg]
#  11 ELONGATION             A_IMAGE/B_IMAGE                                           
#  12 ELLIPTICITY            1 - B_IMAGE/A_IMAGE                                       
         1 -15.5985    200.9213     22.0118   4.5383994128e+01   3.2095038761e+01      10.1115     4.697483  -6.78   0.03166206    5.013    0.801
         2 -15.9691    222.4185     21.8217   4.2984770581e+01   2.6813074307e+01     4.766658     2.208486  -7.14   0.01356601    6.626    0.849
         3 -18.1148    245.6712     45.9383   4.6445056809e+01   1.8300156193e+01     7.823834     5.070678 -24.82   0.02050458    1.684    0.406
         4 -13.9339    240.0512      2.8353   3.6952053763e+01   2.4815956958e+01     2.021165    0.3159013  73.13  0.003980236    5.716    0.825
         5 -13.5001     39.2203      5.1724   7.8014503226e+01   6.9907983344e+01     1.795429    0.8913808  24.27  0.009524589    2.131    0.531
         6  -9.8820    164.9433     17.1083   4.8752983731e+01   4.1866439354e+01    0.5013991    0.2709469  -0.93  0.001987619    2.934    0.659
         7 -11.5973    135.1068     13.9178   5.2738521872e+01   4.9766592362e+01    0.6517366     0.296183 -18.14  0.002023953    2.558    0.609
         8 -10.1455    154.7318     13.7832   4.9264261370e+01   4.4833291163e+01    0.5072306    0.3022356  11.60  0.002216216    2.415    0.586
         9 -15.9561    221.0920     80.3650   5.8181308810e+01   1.8784468814e+01     4.257747     2.203747 -62.53   0.01361038    3.096    0.677
        10  -9.6577    116.0142     12.5002   5.6165680256e+01   5.4515281054e+01    0.3419944    0.1827141  43.25  0.001601047    1.718    0.418
        11 -11.4460    120.3925      9.0051   5.3845219600e+01   5.3819241970e+01    0.4435324    0.3711858  41.89  0.001371253    1.067    0.063
        12  -9.0650    185.8451      6.8514   4.2920153962e+01   3.7547625329e+01    0.1827571    0.1659219 -73.69  0.001111921    1.071    0.066
        13 -10.0220    181.9031      4.0366   4.2566259771e+01   3.8820221047e+01    0.2783723    0.1848259  82.15 0.0007736864    1.409    0.290
        14 -13.8012     14.4645     11.0846   9.3501390719e+01   7.1797684107e+01     1.249059    0.8575043 -26.08  0.008723452    1.102    0.092
        15  -9.2052    196.9251      1.9242   4.0382242444e+01   3.5228027493e+01    0.1940124    0.1577213  50.45 0.0004810226    1.344    0.256
        16  -8.6029    171.6516      2.3082   4.3270186518e+01   4.1592135696e+01     0.144154   0.09304893 -67.26 0.0007043845    1.707    0.414
        17 -11.6107    177.7791     24.4992   4.9132662207e+01   3.7724358445e+01    0.6487516    0.4674076  74.69  0.003333807    1.334    0.250
        18  -9.0551    238.1673    213.3259   8.4691895951e+01  -5.7632831431e+00    0.1681881    0.1013976  42.86 0.0009362127    1.744    0.427
        19 -10.0338    204.9145    168.6714   8.2225012877e+01   6.7753153116e+00    0.2610933    0.2190189  83.66  0.001220643    1.738    0.425
        20 -13.4673     19.9833    160.3002   1.2316587692e+02   3.9060244829e+01    0.8332432    0.6277397  87.84  0.003793772    1.040    0.038
        21 -10.7631    196.9304    159.3955   8.1837737735e+01   1.0009730793e+01    0.3942052     0.317877 -43.96  0.001781706    1.313    0.238
        22 -11.7774    191.9693    153.4196   8.1537262241e+01   1.2133401865e+01    0.7970633    0.3727722 -48.20  0.003048906    2.423    0.587
        23  -8.4472     69.6289    181.1732   1.1420597474e+02   2.8665516764e+01    0.1573189    0.1103425 -62.35 0.0001353271    1.440    0.306
        24 -11.6366    147.5683    144.0761   8.9268507277e+01   2.3395083701e+01    0.6671412     0.417957 -79.92  0.002369637    3.074    0.675
        25 -11.1209    155.6927    154.2883   8.9605969947e+01   1.9534777901e+01    0.7903103     0.490651  85.88  0.002559444    3.980    0.749
        26 -10.2408    153.5169    151.4504   8.9495927617e+01   2.0580803102e+01    0.3647252    0.2785991  85.33  0.001036563    1.769    0.435
        27  -9.7644    176.1230    157.2012   8.5699700571e+01   1.4705923491e+01    0.2045896    0.1777842  77.45 0.0005779254    1.386    0.278
        28  -9.9431    163.0721    154.9679   8.8083423264e+01   1.7865999043e+01    0.2424176    0.1868066   3.41 0.0009958181    1.697    0.411
        29 -10.3003    203.8399    152.4967   7.8945084806e+01   9.8501966292e+00    0.2842486    0.2707524  71.48 0.0007876321    1.238    0.192
        30 -10.9314    133.5977    145.0120   9.2838160587e+01   2.6050056630e+01     1.178653    0.2802645 -54.13  0.002748959    5.989    0.833
        31 -12.0657     47.3815    148.5831   1.1536227250e+02   3.8986584925e+01    0.3623598    0.3110003   7.48 0.0008819981    1.615    0.381
        32 -14.0626     59.8678    143.7776   1.1150097978e+02   3.8622991270e+01     1.630498      1.17881  13.94  0.005697652    1.982    0.496
        33 -10.4795    173.3287    149.8889   8.4700485565e+01   1.6739936364e+01     0.299781    0.2198444  36.23  0.000774355    1.371    0.271
        34  -9.7274    157.4833    149.4836   8.8156152667e+01   2.0167933427e+01     0.322574    0.2270743  89.17 0.0008141058    2.287    0.563
        35  -9.2925    218.9136    148.9971   7.5279798788e+01   7.4105459777e+00    0.2445061     0.189008  78.51 0.0006724573    1.999    0.500
        36 -10.8212    144.7144    147.1424   9.0620934763e+01   2.3322062946e+01     0.494756    0.3094112 -78.85  0.001801063    2.919    0.657
        37 -11.6657    180.1220    143.5333   8.1786950435e+01   1.6550179140e+01    0.5318286    0.4208404 -62.05  0.001542242    1.498    0.332
        38 -11.7875    185.9908    140.4473   7.9824551591e+01   1.5884231618e+01    0.6897668    0.4051147 -18.88  0.001573265    2.559    0.609
        39  -9.9563    198.1595    144.0646   7.8165545642e+01   1.2581198790e+01    0.2622028    0.2254586  68.26 0.0007498372    1.393    0.282
        40  -9.8011    192.1406    144.0771   7.9390154852e+01   1.3860915689e+01    0.2409453    0.2113428  41.30 0.0003970958    1.145    0.126
        41 -10.4610    158.9272    142.6386   8.6291900936e+01   2.1299603605e+01    0.3027591    0.2694875  81.46  0.000988436    1.264    0.209
        42 -11.7201    211.7963    137.6743   7.4024373584e+01   1.0863729221e+01    0.4944451     0.433381 -59.56  0.001727888    1.328    0.247
        43 -12.5509    172.0567    123.4008   7.8695763538e+01   2.2386995171e+01      1.06196    0.5339284 -50.53  0.003942106    2.215    0.548
        44 -11.8467    166.5920    115.2701   7.7836734334e+01   2.5301196988e+01     0.866908    0.5796493  59.69  0.003719811    1.685    0.406
        45 -11.9651    173.9613    136.8253   8.1555015745e+01   1.9234401734e+01    0.5465886    0.4375414  -3.46  0.002298405    1.517    0.341
        46 -13.2096    183.5960    125.3163   7.6680501853e+01   1.9380616128e+01     1.732371    0.8031622 -28.43   0.00576996    2.915    0.657
        47 -11.7818    185.4350    117.5719   7.4344951181e+01   2.0476444767e+01    0.7158099    0.5099174 -39.71  0.002944239    1.373    0.272
        48 -10.9418    194.6143    134.2346   7.6575263263e+01   1.5196569182e+01    0.2833609    0.2382133 -78.69 0.0009288076    1.522    0.343
        49  -9.6129    166.7745    133.9537   8.2469968195e+01   2.1406050757e+01    0.2348916    0.2115229  -4.18 0.0006186746    1.205    0.170
        50  -9.0694    156.3191    139.2777   8.6122370482e+01   2.2569205229e+01     0.152598    0.1221962   6.73 0.0002363709    1.576    0.366
        51 -11.9723    160.2230    128.8499   8.2730643005e+01   2.3922662116e+01    0.5214846    0.4433241 -25.09  0.002442386    1.260    0.206
        52  -9.8837    139.4537    130.5083   8.8110803375e+01   2.8075537790e+01    0.2597021    0.2245418  84.64 0.0006520488    1.303    0.233
        53 -11.0966    136.2776    128.1298   8.8333965204e+01   2.9273564636e+01    0.6736169    0.2675366 -51.52  0.002259102    2.672    0.626
        54 -15.4141    238.6696     48.7208   4.7880095289e+01   1.9497496972e+01    0.7834748    0.5007852 -61.25  0.003113102    1.591    0.372
        55  -8.9538    212.8857    127.5312   7.1418107775e+01   1.2452119513e+01    0.2085063    0.1466987  46.83 0.0004949693    1.481    0.325
        56  -9.2361    184.9648    150.4624   8.2333536721e+01   1.4163727721e+01    0.2007785    0.1331414  70.43 0.0005149257    2.360    0.576
        57  -9.0211    180.9741    210.9741   9.4917764310e+01   4.1269141893e+00    0.2463723    0.1590405  77.94 0.0009498582    4.058    0.754
        58  -9.2593    210.8273    122.7023   7.0631517840e+01   1.3771052404e+01    0.3068714    0.1668106 -25.31  0.001204681    2.143    0.533
        59  -9.7928    142.5779    122.7350   8.5443574396e+01   2.9121180430e+01    0.2269512    0.1477161 -56.22 0.0009534707    1.667    0.400
        60 -10.0671    135.2266    119.9350   8.6587485404e+01   3.1321497857e+01    0.4064667    0.1934956 -47.04   0.00120786    2.076    0.518
        61 -10.3821    215.4431    116.7849   6.8337717476e+01   1.3815370564e+01    0.3381432    0.3053826 -62.51  0.001102875    1.222    0.182
        62  -9.0508    150.7762    117.4241   8.2091067399e+01   2.8460985825e+01    0.2108604    0.1501432  35.13 0.0003283068    1.522    0.343
        63  -9.8019    180.9597    111.4540   7.3700921427e+01   2.2712788667e+01    0.3445656    0.2600928 -62.48 0.0005801374    1.564    0.360
        64 -11.3007    135.0000    109.5063   8.3945838771e+01   3.3670814555e+01    0.9283161    0.2393824 -44.55  0.002541191    3.811    0.738
        65 -11.3493    134.1039    101.4302   8.1977322703e+01   3.5617189638e+01     1.003762    0.4028294 -55.53  0.001750092    3.753    0.734
        66  -9.9587    121.2542    112.5414   8.8363426400e+01   3.5899006000e+01    0.3891355     0.216924 -58.50  0.001514522    2.053    0.513
        67  -8.5310    110.3100    110.3172   9.0793189268e+01   3.8579312188e+01    0.1531653    0.1207332 -13.33 0.0007032832    1.638    0.389
        68 -10.4151    145.8468    104.8447   7.9947678891e+01   3.2252148601e+01     0.282893    0.2589378  62.16 0.0005954292    1.135    0.119
        69 -12.9464      7.3100    170.2506   1.2669769275e+02   3.7948064351e+01    0.9159145    0.5119154 -82.79  0.005678532    1.399    0.285
        70  -9.0698    181.2842    102.9093   7.1365209275e+01   2.4293663844e+01    0.2140663     0.192744 -33.80 0.0002607776    1.093    0.085
        71 -10.7752    156.0331    101.2100   7.6488032029e+01   3.0645461600e+01     0.615257    0.4201732  41.58  0.002696694    1.519    0.342
        72 -12.0765    168.7363     95.2705   7.1942250269e+01   2.8792524975e+01    0.9430025    0.6945464  45.19  0.004333097    1.386    0.278
        73 -11.5755      3.2364    151.5272   1.2620959788e+02   4.2405134940e+01    0.7324922    0.2529074 -78.05  0.003500878    2.270    0.560
        74 -11.1292    139.6043     95.6854   7.8940742572e+01   3.5596314800e+01    0.4044173    0.3503945 -50.01 0.0006234587    1.156    0.135
        75 -11.3159    152.9852     92.2765   7.4676273745e+01   3.3168956619e+01    0.3046311    0.2741837 -40.33 0.0002047653    1.098    0.089
        76 -10.8551    176.3424     91.6009   6.9287669165e+01   2.7642132400e+01    0.2904184    0.2766347  61.37 0.0003111041    1.071    0.066
        77  -9.0566    118.0037     83.4756   8.1087539455e+01   4.2903513425e+01    0.2532966    0.1871044 -41.32 0.0006814584    1.314    0.239
        78 -10.2022    126.5205     76.0339   7.6426802260e+01   4.2533783739e+01    0.2511844    0.2123981  46.94  0.001261485    1.203    0.169
        79 -10.2920    111.5977     73.0873   7.9646035884e+01   4.6353261832e+01    0.2471165    0.2215124  16.71 0.0003389191    1.154    0.134
        80 -10.5408    144.5519     68.4660   6.9445813945e+01   3.9720981183e+01    0.3344263    0.2608135 -65.75 0.0008458178    1.545    0.353
        81 -12.1008    134.9234     61.4869   6.9512054479e+01   4.3265597688e+01    0.9301336    0.2939932 -37.43   0.00295033    3.090    0.676
        82 -10.4332    139.9805     64.2135   6.9170560619e+01   4.1579291241e+01    0.2748254    0.2185431 -35.37 0.0006654273    1.259    0.206
        83 -11.6330    143.5920     58.7223   6.6513357202e+01   4.1638406208e+01    0.5086326    0.3381341 -63.63  0.001765288    2.060    0.515
        84  -9.9723    153.9488     64.0272   6.5880937176e+01   3.8180806512e+01    0.2391413    0.2325354 -37.95 0.0008247664    1.036    0.035
        85 -11.3166    144.5578     49.8529   6.3345197383e+01   4.2821860000e+01    0.5194418     0.177917  51.89  0.001750398    2.703    0.630
        86 -10.7727    248.9659    174.4412   7.5390790257e+01  -2.1571916401e+00    0.2705395    0.2282492  43.06  0.001072436    1.429    0.300
        87  -9.9153    165.1164     40.1033   5.6020587694e+01   3.9017187406e+01    0.2721041    0.2180549  87.25  0.001378714    1.349    0.259
        88  -9.2174    176.0097     36.1402   5.2928593145e+01   3.6734173100e+01    0.2745756    0.1855924  56.54  0.001319299    1.415    0.293
        89  -8.7403     92.0000     36.0658   7.2213082416e+01   5.6834684424e+01    0.2150608   0.07552369 -33.59 0.0005850451    2.798    0.643
        90 -10.1132    126.1027     32.5286   6.1483356363e+01   4.9806086418e+01    0.2217746    0.1369117  57.47  0.001025197    1.579    0.367
        91 -10.4736    227.1875    203.6906   8.4896883215e+01  -2.7148865735e+00    0.2173983    0.1906378  55.13  0.001362696    1.580    0.367
        92 -10.6695    182.8845     23.5260   4.8120443252e+01   3.6521102568e+01    0.3641016     0.255369 -65.12  0.001096816    1.533    0.348
        93 -10.8063    133.2982     23.8034   5.6683354536e+01   4.9141312155e+01    0.3116603    0.2462557 -27.13 0.0008869999    1.335    0.251
        94 -11.5557    192.7368    194.7951   8.9767917920e+01   4.6497794947e+00    0.9334695    0.4865062 -61.15  0.003175978    4.775    0.791
        95 -10.2274    215.3846    198.6043   8.6123222717e+01   1.5726098722e-02    0.2359412    0.1974092  63.87 0.0007287582    1.710    0.415
        96 -11.0560    168.2806     29.0655   5.1995566874e+01   3.9633305520e+01    0.4628358     0.435482 -60.98  0.001933747    1.087    0.080
        97 -11.2565    201.5091    173.6483   8.3923454898e+01   6.5753607261e+00    0.4056096    0.2825299  38.75  0.001766519    1.370    0.270
        98 -10.2877    246.3723    196.0473   8.0086563767e+01  -4.7648183950e+00    0.2094941     0.162053  25.09 0.0001841354    1.200    0.166
        99 -12.3360    211.0250    190.4370   8.5403047660e+01   2.0365118217e+00     1.021033    0.5345186  -7.24  0.003327678    4.737    0.789
       100 -10.6077    215.9509    193.3531   8.5030675339e+01   7.1067722598e-01    0.3217121    0.2255089  33.89 0.0008316003    1.306    0.234
       101 -12.8918    217.7705    189.6219   8.3975722036e+01   9.6172884509e-01    0.7233935    0.5164075 -15.74  0.002636465    1.444    0.308
       102  -9.4989    126.6520     28.1956   5.9752918861e+01   5.0229101725e+01    0.1925996    0.1326762 -10.01 0.0004472957    1.646    0.392
       103 -10.9264    204.5862    189.9634   8.6546142753e+01   3.2753772796e+00    0.3623418     0.255343  68.39   0.00145981    2.408    0.585
       104 -10.0571    184.4829    184.7939   8.9550094868e+01   7.8952322600e+00    0.2358888    0.2038117  50.02 0.0005042263    1.215    0.177
       105 -15.1484    235.9776     80.7280   5.6084479243e+01   1.5322999545e+01     1.674953     1.040592 -81.11  0.006471055    2.501    0.600
       106 -10.3003    204.2641    184.3091   8.5515776296e+01   4.2561651981e+00    0.2707159    0.1616007  59.85  0.001158699    2.580    0.612
       107 -10.0462    116.7332    245.2604   1.1194213159e+02   9.2210311128e+00    0.1945674    0.1618785  46.29 0.0002742228    1.140    0.123
       108  -8.9627    228.5386    221.4385   8.7802634075e+01  -5.3147136787e+00    0.1224266   0.09888104  16.24 0.0001445858    1.035    0.033
