#   1 NUMBER                 Running object number                                     
#   2 MAG_AUTO               Kron-like elliptical aperture magnitude                    [mag]
#   3 X_IMAGE                Object position along x                                    [pixel]
#   4 Y_IMAGE                Object position along y                                    [pixel]
#   5 X_WORLD                Barycenter position along world x axis                     [deg]
#   6 Y_WORLD                Barycenter position along world y axis                     [deg]
#   7 A_WORLD                Profile RMS along major axis (world units)                 [deg]
#   8 B_WORLD                Profile RMS along minor axis (world units)                 [deg]
#   9 THETA_WORLD            Position angle (CCW/world-x)                               [deg]
#  10 FWHM_WORLD             FWHM assuming a gaussian core                              [deg]
#  11 ELONGATION             A_IMAGE/B_IMAGE                                           
#  12 ELLIPTICITY            1 - B_IMAGE/A_IMAGE                                       
         1 -11.9022     76.8311     25.0283   8.9721295115e+01   5.9416106293e+01    0.4039228    0.2681762  -0.51  0.001444741    1.587    0.370
         2 -10.6326     13.0691     15.8535   1.1062134969e+02   6.8959693799e+01    0.3475095    0.1555644  21.67  0.002048363    2.219    0.549
         3 -10.7437     41.2084     18.6550   9.9794944476e+01   6.5588715985e+01    0.3907421    0.2595956 -10.71  0.002570715    1.318    0.241
         4 -10.5521    100.1627     18.8125   8.0828255079e+01   5.5654653746e+01    0.3459455    0.2179006 -50.83  0.001776616    2.402    0.584
         5 -11.4180     92.2795      8.6654   7.9207392842e+01   5.8189015628e+01    0.4767803    0.3620518  28.80  0.001801832    1.128    0.113
         6 -10.6162     87.2900     12.2197   8.1844390230e+01   5.8838250915e+01    0.2824928    0.1771193  42.25   0.00116424    1.330    0.248
         7 -10.1886     38.4378      2.7106   9.4131800673e+01   6.7737073477e+01    0.2542587    0.1251462 -31.11  0.001515069    2.085    0.520
         8 -11.0932     22.3194      9.1999   1.0372925605e+02   6.8938023214e+01    0.3414889    0.1808411   8.24  0.002049763    1.951    0.487
         9 -11.6945     30.3684      7.5120   9.9533042907e+01   6.8239120200e+01    0.3362698    0.2357319  17.70  0.001295182    1.229    0.186
        10 -11.6787     35.1200     13.0789   9.9938916888e+01   6.7023725574e+01    0.3655651    0.2547121 -31.36  0.001604363    1.532    0.347
        11 -12.0348     39.9096      8.9738   9.6274702388e+01   6.6885177887e+01    0.4470956    0.2682372  -5.00  0.001748754    1.586    0.369
        12 -11.1077    155.8116     14.0720   6.8089441199e+01   4.3633490099e+01    0.3881479     0.219189  42.26  0.001739783    1.835    0.455
        13 -10.6542    119.2956     12.0842   7.4118343004e+01   5.2227215864e+01    0.2337548    0.1667014  62.17 0.0006298259    1.305    0.234
        14 -10.5487    148.3775      9.8326   6.8081691532e+01   4.5783321648e+01     0.224527    0.1680471  24.58 0.0009148216    1.567    0.362
        15 -11.2745    151.4993      7.3215   6.6880122189e+01   4.5272942758e+01    0.3082467    0.2593665 -11.70  0.001424807    1.450    0.310
        16 -10.0950     50.1947      2.0063   8.9392882131e+01   6.6138134583e+01    0.2712099    0.2025565  41.06    0.0012534    1.476    0.322
        17 -11.4910     55.4793      7.4844   8.9846480685e+01   6.4811107024e+01     0.300251    0.2644279 -42.77  0.001524757    1.772    0.436
        18 -11.7717     56.0135      4.4964   8.8408066597e+01   6.5014469560e+01    0.6545845    0.2262641  36.93  0.003115846    2.517    0.603
        19  -9.8726     10.5063      1.5069   1.0576902663e+02   7.1015139757e+01    0.1361502   0.08535107 -34.51 0.0009702021    1.632    0.387
        20 -11.6197      3.9194      8.8249   1.1205114222e+02   7.0646764672e+01    0.3051091    0.2522601 -43.49    0.0013264    1.788    0.441
        21 -10.2089      2.2634      2.9710   1.1039560902e+02   7.1532140132e+01    0.1758318    0.1115102   3.04  0.001172566    1.324    0.245
        22 -10.9209    210.1063      7.6398   5.9680911408e+01   3.1434656064e+01    0.2058363    0.1523301 -58.20   0.00110279    1.315    0.240
        23 -11.4775     69.0706      6.3702   8.4902243059e+01   6.2693505900e+01    0.6628039    0.2124417  46.60  0.003012062    2.590    0.614
        24 -11.8242    194.0243      4.8831   6.0736642490e+01   3.5442166074e+01    0.3613178    0.2769559  39.03  0.002229501    1.631    0.387
        25 -11.5934    130.4962      4.0990   6.9425046928e+01   5.0400208221e+01    0.2998833     0.255118 -48.03   0.00151145    1.421    0.296
        26 -10.5196    144.9863      5.5634   6.7405775435e+01   4.6948379829e+01    0.1752591     0.168495   1.27 0.0007018665    1.233    0.189
        27 -10.8013    120.4194      4.3637   7.1392753599e+01   5.2633887727e+01    0.3407968    0.1505359  50.79  0.001051345    1.785    0.440
        28  -9.7187    235.5752      4.2718   5.6695033364e+01   2.6098770898e+01    0.1409866    0.1162398 -26.31 0.0009497093    1.644    0.392
        29 -11.2405     18.2090      2.8912   1.0281115839e+02   7.0106798058e+01       0.3228    0.1574963  17.14 0.0007154386    1.984    0.496
        30 -11.1769    172.4344      2.9884   6.2807156996e+01   4.0706730723e+01     0.346488    0.1683633  76.32 0.0004264316    1.898    0.473
        31 -11.0367    159.7267      2.3103   6.4308246382e+01   4.3766487447e+01    0.3643695    0.2064358 -88.49   0.00179362    2.095    0.523
        32 -11.8193     80.3140      1.8397   7.9825088588e+01   6.1059152418e+01    0.3487513    0.1516897  48.92  0.001808027    1.870    0.465
        33 -11.2858     90.1919     15.9261   8.2419811708e+01   5.7923234389e+01     0.298588    0.2237917  -9.38 0.0004743949    1.384    0.277
        34 -10.6461    137.1331      4.5861   6.8415610592e+01   4.8846394805e+01    0.1899017    0.1536489   2.54  0.001179114    1.475    0.322
        35 -11.6352     10.6759      6.7215   1.0796720852e+02   7.0365007593e+01    0.4406191     0.353134  36.22  0.003358829    2.056    0.514
        36  -9.4025     29.2188      1.4092   9.7317734053e+01   6.9040247580e+01    0.1326733   0.09040783  33.57 0.0006588644    1.592    0.372
        37 -10.9536      4.5564    167.3076   1.4426377105e+02   3.9356134878e+01    0.3112343    0.2036726  55.17   0.00178987    1.576    0.366
        38 -12.0895     17.2806    249.1337   1.4796796544e+02   2.1307283115e+01    0.5191945    0.2028209  29.59  0.002374825    4.403    0.773
        39 -12.0660      5.2227    240.6732   1.4942520146e+02   2.4149481130e+01    0.4223182    0.2026631  53.82  0.002731114    1.693    0.409
        40 -10.9422      1.8170    248.7688   1.5040163906e+02   2.2984619574e+01     0.340588    0.1398527 -82.58  0.002041991    2.056    0.514
        41 -12.9210      8.4683    245.9838   1.4920254280e+02   2.2825258645e+01    0.5036351    0.3800012  36.25  0.003844048    1.774    0.436
        42  -9.7666     14.3298    164.3323   1.4182455655e+02   3.9211173041e+01    0.1196459   0.07712971 -48.40 0.0007051948    1.720    0.419
        43  -8.8883     41.6798    158.3111   1.3468201944e+02   3.7909873842e+01    0.1322428   0.08826973  73.99 0.0007036407    1.647    0.393
        44  -9.1747    247.4642    155.5264   8.7211931216e+01   6.1739819119e-01    0.1361219    0.1216338 -23.23 9.177266e-05    1.007    0.007
        45 -10.2791      2.8015    153.5654   1.4333067207e+02   4.2522715167e+01    0.2395533   0.07832461  37.76  0.001148176    3.165    0.684
        46  -9.9008     15.0122    150.6759   1.4016745060e+02   4.2223936611e+01     0.161189    0.1390524 -83.48 0.0005555757    1.089    0.081
        47 -10.0356     23.8037    150.6369   1.3804009306e+02   4.1472700333e+01     0.157345    0.1060309  46.13 0.0006011672    1.635    0.388
        48 -10.4532     22.0303    143.2185   1.3752542692e+02   4.3321810670e+01    0.2256324    0.1528819 -71.51 0.0009686288    1.218    0.179
        49 -10.8813      3.1693    138.6462   1.4164702144e+02   4.5806395961e+01    0.2582579    0.1100769  40.60  0.001353693    2.653    0.623
        50 -11.1047     12.0931    130.0779   1.3833003641e+02   4.7088076512e+01    0.4494236    0.2203342  58.44  0.001758183    2.828    0.646
        51  -9.8312      2.4708    132.5049   1.4110523992e+02   4.7214055996e+01    0.1180999   0.09106065 -68.83 0.0001019022    1.031    0.030
        52  -9.5636     29.3328    129.6182   1.3366589047e+02   4.5774833004e+01    0.3719575    0.1540174 -82.58  0.001230463    4.608    0.783
        53 -10.0772    248.3347    129.6683   8.1592334696e+01   4.9144330346e+00    0.1402269    0.1030177 -68.89 0.0007052201    1.731    0.422
        54  -9.4767     21.0365    125.9932   1.3536574727e+02   4.7313563235e+01    0.1700254    0.1406327 -64.89 0.0004150225    1.014    0.014
        55 -11.7393     23.7313    121.7687   1.3397041179e+02   4.8042596434e+01    0.4887018    0.2488731 -83.47 0.0007687484    2.529    0.605
        56  -8.9002    134.3398    124.3300   1.0365082102e+02   3.0790822295e+01    0.1604322    0.1242076  -0.46 0.0007051704    1.740    0.425
        57 -10.7285      3.3931    118.8888   1.3913662596e+02   5.0157684054e+01    0.1930555     0.166311 -29.02 0.0007004291    1.353    0.261
        58  -9.2588     86.6951    118.2971   1.1513945481e+02   4.1158062961e+01    0.1405146    0.1128009  81.55 0.0004985399    1.585    0.369
        59  -9.9836    132.0357    114.1971   1.0168557667e+02   3.3459330152e+01    0.2287273    0.2030165   4.11 0.0004551294    1.257    0.204
        60  -9.9512    249.2037    111.6174   7.7589608464e+01   7.8380576915e+00    0.1803189    0.1268417  43.53  0.000946413    1.643    0.392
        61 -10.3034     12.7555    108.7401   1.3500460158e+02   5.1769803123e+01    0.1934026   0.08910656 -76.86 0.0008968481    2.422    0.587
        62 -11.3555      5.5176    108.9634   1.3712749165e+02   5.2193499156e+01    0.2819131     0.126671 -46.07  0.001469795    1.955    0.488
        63 -10.0030      2.3243    108.6699   1.3799367427e+02   5.2448371147e+01    0.1997291    0.1138962  49.14 0.0009712809    2.282    0.562
        64 -10.8438     58.3132    108.0037   1.2117618318e+02   4.7552332597e+01    0.2745758    0.1911041   2.44  0.001164569    1.876    0.467
        65  -9.8556     34.4623    107.9654   1.2841674640e+02   5.0175025324e+01    0.1952275     0.108349 -60.69 0.0005617597    1.552    0.356
        66  -9.3987     79.1769    107.1356   1.1466881705e+02   4.4827975081e+01    0.1863651     0.167133  86.91 0.0004455364    1.320    0.242
        67  -9.7021    113.5151    102.5136   1.0354903247e+02   3.9738325071e+01    0.1481649    0.1434735  -7.85  0.000108561    1.011    0.011
        68  -9.9663     66.6736    101.4804   1.1708516699e+02   4.7881612102e+01    0.2387695    0.1166538 -52.17 0.0007248516    1.879    0.468
        69 -10.7761     57.5242    101.5378   1.1993782475e+02   4.9069002197e+01    0.2973389    0.2373275  48.56  0.001334852    1.485    0.327
        70  -9.4676      4.7180    102.3349   1.3633214428e+02   5.3672157561e+01    0.1107999   0.08092303  83.39 0.0004022153    1.617    0.382
        71 -10.1593     62.1256     98.8569   1.1785977526e+02   4.9058232241e+01    0.1988537    0.1808681 -78.90 0.0008073232    1.277    0.217
        72 -10.9725     15.3140     96.6958   1.3214880484e+02   5.4195218655e+01    0.5655805    0.1581365  37.05  0.002287651    4.354    0.770
        73 -11.5302     17.7037     94.6379   1.3101236624e+02   5.4462952834e+01     0.297485    0.2349616  59.55  0.001503823    1.654    0.395
        74  -9.4279    129.4982     97.4959   9.7899807198e+01   3.7440969253e+01    0.1498093    0.1469119  20.26 -5.814938e-05    1.005    0.005
        75  -9.0098    101.6388     96.7161   1.0532955264e+02   4.3219991197e+01    0.1499066     0.112654   0.58 0.0002625158    1.680    0.405
        76 -10.6989     78.9490     94.9730   1.1163554408e+02   4.7464194774e+01    0.2076242    0.1867455 -24.37 0.0003016803    1.046    0.044
        77  -9.5770      3.5102     95.4896   1.3557620250e+02   5.5199517904e+01    0.1166475   0.09090025 -57.19 7.696049e-05    1.013    0.013
        78 -11.1154     27.3302     90.9829   1.2718727144e+02   5.4481217591e+01     0.480149    0.2927667  48.99  0.002618683    2.280    0.561
        79 -10.4175     25.4888     85.1661   1.2652357437e+02   5.5848438211e+01    0.2623592    0.1900281 -59.74   0.00112947    1.278    0.217
        80 -10.3733     58.5380     91.3088   1.1712006861e+02   5.1119960800e+01    0.2401409    0.1647334 -31.24 0.0005108262    1.443    0.307
        81 -10.8978      1.8443     89.9261   1.3514108008e+02   5.6459220846e+01    0.2323832    0.1264361 -64.41 0.0002691759    1.483    0.326
        82 -11.6007     11.0500     88.0507   1.3186583272e+02   5.6304684195e+01    0.5484925    0.2010633 -60.93  0.002644113    2.149    0.535
        83 -10.3951     17.2819     88.5329   1.2994217059e+02   5.5779957948e+01    0.3754665    0.2019447 -20.20   0.00196703    2.365    0.577
        84 -11.3835     76.3410     89.3122   1.1092329278e+02   4.9033625467e+01    0.2468988    0.2203374 -19.98 0.0003310394    1.050    0.048
        85 -10.2272    107.6641     89.3072   1.0153696275e+02   4.3558254930e+01    0.1440426    0.1183831  86.85 0.0007041477    1.674    0.403
        86  -9.6358     43.7137     89.4297   1.2147840315e+02   5.3245206993e+01    0.2183082    0.1182501  33.56 0.0009771466    2.070    0.517
        87 -10.6354     54.4372     85.0611   1.1684671705e+02   5.2919753111e+01     0.396564    0.1925665 -45.94  0.001466615    1.802    0.445
        88  -9.5151    124.1533     86.8233   9.6308437909e+01   4.0659773470e+01    0.2077902    0.1749453   7.71 0.0005571014    1.321    0.243
        89  -9.7592     72.0590     84.4518   1.1093980557e+02   5.0658345181e+01    0.3266272    0.1507719 -33.10  0.001297809    2.572    0.611
        90  -9.8582     77.7459     83.1847   1.0877281062e+02   5.0042121785e+01    0.2188738    0.1729546  39.84 0.0004449226    1.368    0.269
        91 -10.2695      3.9813     82.7762   1.3315297862e+02   5.7818052513e+01    0.2128748    0.1354404 -58.07  0.001031358    1.234    0.189
        92  -9.4862    100.5869     81.7114   1.0137982224e+02   4.6377998510e+01    0.2934911    0.1335272 -37.84  0.001162331    2.250    0.556
        93 -11.2955     63.8666     80.3159   1.1244559805e+02   5.2646829689e+01    0.4719785    0.2893028 -48.89  0.002437979    1.560    0.359
        94  -9.6694    250.2641     80.9869   7.0904234602e+01   1.2657051965e+01    0.1725915    0.1047553 -41.69 0.0006946552    1.498    0.333
        95 -10.1752     89.3867     80.4541   1.0435988277e+02   4.8646038289e+01    0.2578906    0.1677697 -45.79 0.0006434592    1.548    0.354
        96  -9.4022    124.2195     79.0232   9.4031257014e+01   4.2083936246e+01    0.2245349     0.164438 -67.06 0.0007281408    1.890    0.471
        97 -10.6318    176.4364     77.3971   8.1715367988e+01   3.0194338147e+01    0.3216661    0.2500156  32.93   0.00159122    1.480    0.325
        98 -11.5791     55.8286     75.5142   1.1378301871e+02   5.4643320868e+01    0.3663044     0.257943  -0.32  0.001528386    1.607    0.378
        99  -9.6965     74.9518     75.7027   1.0749401943e+02   5.1919339538e+01     0.177147    0.1600028   9.16 0.0001939568    1.091    0.083
       100 -10.5054     15.0305     75.9363   1.2801129949e+02   5.8515629871e+01    0.1816239    0.1440569 -44.17 0.0006708659    1.015    0.015
       101 -10.4017     32.1400     72.9061   1.2129147236e+02   5.7739299127e+01    0.1997287    0.1711596  25.08            0    1.372    0.271
       102 -11.1378     35.9602     72.0298   1.1971334854e+02   5.7546655117e+01    0.4073001     0.248206 -54.19 0.0008890624    1.555    0.357
       103 -11.0996      4.0370     73.8714   1.3135955477e+02   5.9611786667e+01    0.3340573    0.1989467  20.68  0.001160822    2.012    0.503
       104  -9.1824    224.0322     74.2332   7.2962896696e+01   1.9426135969e+01    0.1726208    0.1121156  62.37 0.0004176189    1.544    0.352
       105  -9.4675    136.4717     74.4742   8.9606144789e+01   4.0166714213e+01    0.1467959    0.1400958  37.83 0.0003137677    1.005    0.005
       106  -9.4399     26.0208     74.5430   1.2385582275e+02   5.7955262367e+01    0.1535135    0.1149885  17.95 0.0003716254    1.505    0.336
       107 -10.5100    105.9936     71.2870   9.6685752595e+01   4.7229720517e+01    0.2463127    0.1992217 -18.97 0.0005418264    1.271    0.213
       108  -9.4134     92.4600     72.4682   1.0102721913e+02   4.9581115613e+01    0.1368186    0.1293945  -2.64 0.0001054566    1.065    0.061
       109  -9.6311     81.0407     72.5177   1.0458725871e+02   5.1540501566e+01    0.1804434    0.1187839  61.29 0.0008091658    2.480    0.597
       110  -9.1665     46.0269     68.8019   1.1526390108e+02   5.7101285413e+01    0.2504677    0.1748674 -80.96  0.001220059    2.861    0.650
       111  -9.5616     10.1723     69.1569   1.2817569535e+02   6.0176916693e+01    0.1892921    0.1254382 -37.49  0.001244759    1.234    0.190
       112  -9.2805    122.4407     68.5550   9.1372804035e+01   4.4284255856e+01    0.1429556    0.1347662  26.41 8.667407e-05    1.009    0.009
       113 -10.1738    114.3204     66.6818   9.2954316983e+01   4.6322076410e+01    0.2388801    0.2063844  72.75 0.0006967494    1.418    0.295
       114 -11.8041     34.1658     65.1098   1.1846452306e+02   5.9042867897e+01    0.4226124    0.2337149 -26.84 0.0004189384    1.854    0.461
       115 -11.2473     38.9937     62.5164   1.1596386330e+02   5.9037893155e+01    0.7071983    0.2703173 -29.35  0.002574958    3.995    0.750
       116 -10.1510     16.0971     64.3476   1.2487100894e+02   6.0705692467e+01    0.2873446    0.2367186  30.41  0.002054842    1.535    0.349
       117 -10.3983    131.7093     64.6317   8.7853798342e+01   4.2877410611e+01    0.3752393    0.2509606  59.56  0.001783247    1.579    0.367
       118  -9.6276     72.6170     63.7501   1.0459534394e+02   5.4452655990e+01    0.1785242    0.1197306 -48.08 0.0005901512    1.637    0.389
       119 -11.2061      3.8431     61.3956   1.2866011963e+02   6.2047124455e+01    0.3660405     0.239788  68.58  0.001358852    3.095    0.677
       120 -10.9474      9.6911     60.2561   1.2621151547e+02   6.1912639516e+01    0.3305042     0.180512 -35.40 0.0002215794    1.525    0.344
       121 -10.5573     62.5043     61.9737   1.0744455630e+02   5.6256158846e+01    0.2620316    0.1903656 -23.68  0.001150019    1.281    0.219
       122 -10.0891     60.6599     58.0158   1.0681980611e+02   5.7199370648e+01    0.2971134     0.219145 -49.62  0.001125978    1.566    0.361
       123 -11.1841      3.6358     52.9811   1.2666323647e+02   6.3624495480e+01    0.6717991    0.1913261 -32.68   0.00266632    4.091    0.756
       124 -11.0111     11.5234     48.5370   1.2236465658e+02   6.3927830988e+01    0.5119916    0.1736926  26.30  0.002551361    3.206    0.688
       125 -11.2899     16.7633     44.8326   1.1917277211e+02   6.4188809878e+01    0.5292759    0.2837015  19.74  0.003217035    2.002    0.501
       126 -13.0575     20.9013     57.1662   1.2116663084e+02   6.1683565940e+01    0.4271644    0.3633139 -73.42  0.002983031    1.636    0.389
       127 -10.8152     20.3765     51.0859   1.1962227146e+02   6.2817651574e+01    0.3150641    0.1532914 -41.74  0.001030427    1.630    0.386
       128  -9.2087    100.9831     61.5119   9.5065517427e+01   4.9861015919e+01    0.1792693    0.1240007  70.25 0.0008064894    2.346    0.574
       129 -10.6151     54.3964     56.7872   1.0863153931e+02   5.8251590509e+01    0.5921994    0.2366012 -49.35  0.002529302    2.780    0.640
       130  -9.7376     51.3526     57.7049   1.1001400839e+02   5.8480727661e+01     0.183218      0.16646  10.91 0.0005838834    1.219    0.180
       131 -11.2305     83.4927     56.9491   9.8874369350e+01   5.3813899676e+01    0.2518126    0.2043422 -31.11 0.0002977243    1.231    0.188
       132 -11.8783     87.5779     53.9626   9.6609911643e+01   5.3569071204e+01    0.4364006    0.3051283  31.22  0.001340847    1.364    0.267
       133 -10.0921     99.7317     56.0872   9.3677963130e+01   5.0966958678e+01    0.1872332    0.1619197 -12.54 0.0004505321    1.135    0.119
       134 -11.2701    114.6572     53.9243   8.8857750925e+01   4.8261951829e+01    0.3286123    0.2677014  33.21 0.0009949188    1.144    0.126
       135 -10.2160    106.3180     53.2471   9.0889728427e+01   5.0091876289e+01    0.2694661    0.2317534 -81.37  0.001117173    1.625    0.385
       136 -10.1605     78.4344     45.9106   9.6758088255e+01   5.6384550292e+01    0.2898625    0.1665803  34.55 0.0006742676    1.659    0.397
       137 -12.4018     65.9912     52.6154   1.0319736895e+02   5.7330594885e+01    0.4971248    0.2216786  33.36  0.001502376    2.275    0.560
       138 -10.0566     75.3923     49.8873   9.9115778964e+01   5.6291570515e+01    0.2729953    0.1769358  10.48 0.0005141456    1.786    0.440
       139 -10.0838     34.4866     53.4638   1.1491195514e+02   6.1121836660e+01     0.262547    0.1448589 -28.57 0.0009204502    1.702    0.413
       140  -9.2458    198.5647     53.5168   7.1797288678e+01   2.8541719147e+01    0.1398097    0.1253665 -87.72  9.02285e-05    1.025    0.024
       141  -9.0355    176.3003     52.3034   7.5085077732e+01   3.4120329930e+01    0.1403174    0.1062833  31.78 0.0002128346    1.588    0.370
       142  -9.2446     71.4819     57.5300   1.0296857870e+02   5.5689107764e+01    0.1320741    0.1135246  -4.64 5.688142e-05    1.019    0.018
       143  -9.5817    211.9789     48.7892   6.8761535466e+01   2.6018746813e+01    0.1865695    0.1553385  87.92            0    1.094    0.086
       144  -9.4326    147.5362     49.5156   7.9776179984e+01   4.1463423348e+01    0.1412439     0.130082  56.53 -0.0001089128    1.020    0.020
       145 -10.0042     38.0104     49.0425   1.1216803871e+02   6.1511931539e+01    0.1817457    0.1406839 -17.91 0.0005195839    1.069    0.065
       146  -9.2774     87.4898     48.4854   9.4794311791e+01   5.4417545061e+01    0.1340041    0.1162272  10.28 0.0008103637    1.017    0.017
       147  -9.8794     53.0534     48.3756   1.0633686702e+02   5.9825862658e+01    0.2401948    0.1442941  14.43 0.0009202572    1.829    0.453
       148 -10.3972    103.6749     47.2364   8.9646566825e+01   5.1501170160e+01    0.3926135    0.1642918  37.17  0.001552845    2.531    0.605
       149 -10.1726     31.0451     45.8347   1.1381433853e+02   6.2765998918e+01    0.2177787    0.1638826 -57.73  0.001204757    1.787    0.440
       150  -8.8287    136.3390     46.2931   8.1219547314e+01   4.4527419966e+01     0.146413   0.09962637  29.35 0.0004100978    1.649    0.394
       151  -9.5292     64.9779     46.4046   1.0142639681e+02   5.8460208465e+01    0.1746919     0.114071  33.62  0.000983782    1.506    0.336
       152 -10.9678     25.7378     43.9513   1.1529900950e+02   6.3582198005e+01    0.2407392    0.2157566 -34.52  0.001025194    1.333    0.250
       153 -10.0936    224.8928     55.3022   6.8556752580e+01   2.2102711958e+01    0.3377341    0.2586479  -4.45  0.001775739    2.030    0.507
       154 -10.5812     70.3297     41.5953   9.7910108515e+01   5.8347021898e+01    0.3122934    0.2389626  -7.06  0.001916848    1.214    0.176
       155  -9.7374      2.4655     42.3559   1.2424858631e+02   6.5579573854e+01    0.1570911   0.09461813   9.88 0.0006839656    1.792    0.442
       156 -10.6225    182.3629     40.1789   7.0918819915e+01   3.4282807960e+01    0.3538856    0.2639598  44.16  0.001857571    1.442    0.307
       157  -9.6255    159.9682     40.6520   7.4810831260e+01   3.9663631898e+01    0.1974783    0.1661697  63.26 0.0005461709    1.072    0.067
       158 -10.8825    139.4693     40.3742   7.8749293830e+01   4.4577008119e+01    0.2686104    0.2316265 -60.80  0.001361166    1.348    0.258
       159 -11.0368    134.0834     34.0187   7.7950482729e+01   4.6606799117e+01    0.2134263    0.1754923  39.49 0.0003219747    1.132    0.117
       160  -9.4869    134.3253     39.7030   7.9647701994e+01   4.5853846664e+01    0.2198762    0.1623783  55.16 0.0006754543    1.230    0.187
       161 -10.3618    131.0576     37.6147   7.9719314197e+01   4.6863627123e+01     0.309397    0.2672687   5.02 0.0009795782    1.256    0.204
       162  -9.2928     42.8596     40.6281   1.0746499865e+02   6.2321510563e+01    0.1451938    0.1045746  32.68 0.0004384227    1.558    0.358
       163 -10.2821     12.6777     38.7702   1.1895060836e+02   6.5516672606e+01    0.3129013   0.09130732 -52.30  0.001367488    3.266    0.694
       164 -12.1007    121.6667     36.8928   8.1635787904e+01   4.9061502600e+01    0.4667254    0.4160042  56.37  0.002073603    1.138    0.121
       165  -9.3732    101.5457     39.4777   8.7627119781e+01   5.2985616171e+01    0.1351901    0.1154859  22.50 5.799891e-05    1.046    0.044
       166 -10.0389     30.4819     30.5375   1.0873437104e+02   6.5224285802e+01    0.1329833   0.09979533  20.95 8.134506e-05    1.388    0.280
       167 -10.8225     22.7569     38.6070   1.1474194589e+02   6.4725667797e+01    0.1929088    0.1800212 -25.51 0.0007557993    1.411    0.291
       168 -11.1730     26.4685     35.4183   1.1213137079e+02   6.4888097841e+01    0.4641613     0.226877 -23.24  0.002468239    2.127    0.530
       169  -8.9677    236.6765     37.7070   6.3364428635e+01   2.1885303653e+01    0.1175742   0.09661743  43.16  0.000335166    1.615    0.381
       170  -9.3258     99.1180     35.8452   8.7052801381e+01   5.3936791744e+01    0.1837278    0.1324236  25.05  0.001024803    1.334    0.250
       171 -10.3424     36.3173     41.2580   1.1021657618e+02   6.2965740664e+01    0.2531203    0.1794294 -22.98   0.00105167    1.173    0.147
       172 -10.7819      1.9571     35.7153   1.2250036818e+02   6.6735084486e+01    0.2253752     0.143149 -36.49  0.001357211    1.165    0.141
       173  -9.7473     90.6839     35.6960   8.9401433171e+01   5.5591933011e+01    0.1353215   0.08953767  17.34 0.0007024863    1.622    0.384
       174  -9.4204     54.6760     34.6545   1.0087805711e+02   6.1677302513e+01    0.2166305    0.1041109  26.16  0.001066189    2.183    0.542
       175 -10.4450     50.3486     33.7842   1.0215397528e+02   6.2391018344e+01    0.1957516     0.171376   8.71 0.0004517692    1.219    0.180
       176 -10.5277    145.0181     32.9910   7.5418923947e+01   4.4178034452e+01    0.1991861    0.1759181  54.98  0.001194484    1.001    0.001
       177 -11.1233     19.7604     31.7773   1.1364134388e+02   6.6065904843e+01    0.4547733    0.2156718  -4.26  0.001853527    3.046    0.672
       178 -10.1641    166.2406     31.1102   7.1091741284e+01   3.9314437380e+01    0.2262999    0.1725084 -57.83 0.0003613726    1.452    0.311
       179  -9.8928    205.3277     30.6415   6.5394570513e+01   2.9962258144e+01    0.2177393    0.1382301 -72.49  0.001114198    1.694    0.410
       180  -9.9672    126.8238     30.6888   7.8479310200e+01   4.8649012590e+01    0.2226904     0.145475  41.12  0.000657343    1.407    0.289
       181 -11.5483     43.9934     29.4182   1.0293036206e+02   6.3826038161e+01      0.42439    0.2823054 -15.99  0.001886803    1.337    0.252
       182  -9.5833    187.4857     29.9775   6.7580105480e+01   3.4305799060e+01     0.189351    0.1329067 -34.13  0.001032152    1.589    0.371
       183 -10.4096     69.3140     28.0396   9.3282677622e+01   6.0328632071e+01    0.2740498    0.2295678 -56.11   0.00169679    1.882    0.469
       184 -10.2876      7.5273     27.9488   1.1757478856e+02   6.7623426042e+01     0.185104    0.1563096  32.60  0.001018158    1.755    0.430
       185 -10.0769    140.7722     26.8620   7.4417764511e+01   4.5871958318e+01    0.3439487    0.1594412  58.69    0.0015416    1.863    0.463
       186 -10.0867    195.3070    249.6832   1.1483332919e+02  -5.6562755120e+00    0.1168378   0.09512985  61.20 0.0004706439    1.630    0.387
       187 -10.9862     74.6927     21.6713   8.9125139113e+01   6.0172023304e+01    0.2745535    0.1937318 -10.60 0.0009903067    1.395    0.283
       188 -10.0500    218.8435     25.8374   6.2740869428e+01   2.7396050746e+01    0.1846185    0.1294275 -71.04 0.0005261195    1.347    0.258
       189 -10.1790    154.5564     25.8341   7.1596247857e+01   4.2723619725e+01    0.4439354    0.1709073  71.46  0.001560287    3.293    0.696
       190 -10.2089    113.8840     25.2913   7.9678323928e+01   5.2103142963e+01    0.2191711    0.2167275 -51.81 0.0007409112    1.221    0.181
       191  -9.7966    101.0203     25.9978   8.3124001270e+01   5.4720312306e+01    0.1887753    0.1595332 -73.34  0.001125041    1.725    0.420
       192  -9.3587     18.3378     26.3280   1.1228892352e+02   6.7012756525e+01    0.1194838   0.06600991 -16.46 0.0007051822    1.730    0.422
       193 -10.0445     59.1144     24.3996   9.5388129192e+01   6.2384051913e+01     0.225529    0.1438631  -9.69  0.001029604    1.557    0.358
       194 -10.1614     51.3341     23.9163   9.8019766587e+01   6.3576782668e+01    0.2909177    0.2252124  72.73  0.001561262    3.289    0.696
       195 -10.4114    149.2182     28.8024   7.3398436470e+01   4.3665713022e+01    0.4562213    0.2657693 -82.14  0.001862998    2.974    0.664
       196  -9.8232     89.3780     22.0786   8.4894304281e+01   5.7445599521e+01    0.2657743    0.1166197 -26.68  0.001247809    2.440    0.590
       197 -11.4529     13.2397     20.7064   1.1242609369e+02   6.8266166857e+01    0.2459637    0.1768254 -32.32 0.0008216172    1.265    0.210
       198 -10.6593     19.8845     16.7770   1.0794425618e+02   6.8215866746e+01    0.1751809    0.1264185  13.78 0.0004064504    1.314    0.239
       199  -9.2266    229.6370    247.7253   1.0805808081e+02  -1.0781470125e+01    0.1272492   0.07916407  11.76 0.0006620851    1.664    0.399
       200 -10.1738      2.0658     22.3444   1.1806206967e+02   6.8852786924e+01    0.1957427    0.1232432 -42.56 0.0007946742    1.403    0.287
       201 -10.0608    124.3293     20.6857   7.5834247023e+01   5.0288325517e+01    0.2497645    0.1395433 -41.42  0.001237672    2.154    0.536
       202  -9.7424     85.0190     21.0072   8.5749042298e+01   5.8384498030e+01    0.2064597    0.1239142  24.20  0.000661697    1.677    0.404
       203 -10.4268     34.1470    247.1319   1.4503751407e+02   1.9763467409e+01    0.1604352   0.09821118  67.70 0.0004467691    1.302    0.232
       204 -10.8350     30.9646     20.4582   1.0467186778e+02   6.6580561200e+01    0.2458114    0.1576574 -37.47  0.001164978    1.627    0.385
       205 -10.0694     26.2542     16.4462   1.0504419443e+02   6.7616334286e+01    0.2097585    0.1702764  21.80 0.0006743947    1.458    0.314
       206 -10.3479    175.0389     20.5323   6.6940245226e+01   3.8373810421e+01    0.2067225    0.1137109  65.80 0.0005748685    1.561    0.359
       207  -9.7687    132.1384     20.1809   7.4074135376e+01   4.8571557593e+01    0.2095536    0.1544878  38.68 0.0007543905    1.280    0.219
       208  -9.4578    224.6933    246.6531   1.0879093882e+02  -9.8901813073e+00    0.1281659    0.0823872   5.63 0.0005673095    1.699    0.412
       209  -9.7300    148.7546     18.8329   7.0597864801e+01   4.4837827437e+01    0.1736149    0.1431248 -87.58 0.0003728168    1.314    0.239
       210  -9.7787    227.4711     18.5123   6.0289621985e+01   2.6303876013e+01    0.1250733    0.1033804 -85.65 -1.360545e-05    1.028    0.027
       211  -8.7368     65.2998     18.6838   9.1021664709e+01   6.2083262212e+01    0.1009072   0.09765518 -60.24 0.0006489157    1.614    0.380
       212  -9.9927    234.6835     17.6634   5.9434592884e+01   2.4804329849e+01    0.1144537   0.09090938  45.13 0.0007048131    1.698    0.411
       213 -10.2855    199.9144     17.1115   6.2903005159e+01   3.2804041312e+01    0.1970375    0.1641624  89.72 0.0004972068    1.032    0.031
       214  -9.4025    136.3195    245.6709   1.2580213430e+02   4.9567272433e+00    0.1321766   0.09018891  66.82 0.0005460653    1.687    0.407
       215  -9.7306    217.4552    245.0000   1.0986606879e+02  -8.5423925014e+00    0.2785628    0.0611944  39.69 0.0009391765    3.971    0.748
       216  -9.3033     74.2027    243.6400   1.3758597118e+02   1.5173052949e+01    0.1505298    0.1030659  40.11 0.0002274825    1.489    0.329
       217 -11.2555     38.0557    242.2327   1.4400642261e+02   2.0227314229e+01     0.346763     0.122563  58.87  0.001596012    2.747    0.636
       218  -9.5121    202.4502    240.3167   1.1194732603e+02  -5.4466156597e+00    0.2081716    0.1215713 -32.67 0.0008309917    1.926    0.481
       219  -9.3143     60.4838    241.0000   1.3988182528e+02   1.7593231292e+01    0.2491907    0.0591659  38.52 0.0009287004    3.886    0.743
       220  -8.9654    148.7115    239.6794   1.2249628596e+02   3.8773237237e+00    0.1246989   0.09937571   7.90 0.0002630445    1.600    0.375
       221  -9.8043    174.3425     14.6745   6.5530073640e+01   3.9148855873e+01    0.2102889    0.1378339 -72.16  0.001108616    1.744    0.426
       222 -12.5692     26.3216    235.9938   1.4559394819e+02   2.2805405291e+01    0.3863268    0.2435473 -81.05  0.001821587    1.383    0.277
       223  -9.9672     56.4608     14.9722   9.2584230440e+01   6.3882278875e+01    0.1424303   0.09626838 -47.60  0.000501734    2.446    0.591
       224 -10.6068    190.6332     13.8760   6.3238572139e+01   3.5343107838e+01    0.2226412    0.1527592  64.09 0.0006802626    1.279    0.218
       225  -9.2716     75.6740     14.7369   8.6161594614e+01   6.0737976036e+01     0.125522   0.07612425  23.76 0.0001881315    1.564    0.361
       226  -9.9345     69.0013     13.4991   8.7764384430e+01   6.2020500539e+01    0.1469685     0.106229  69.20 0.0008099095    2.481    0.597
       227  -9.9059    212.6062     12.2911   6.0441563606e+01   3.0370935834e+01    0.1368923   0.07948052 -74.19 0.0007004961    1.780    0.438
       228 -12.2691      2.2904    220.0636   1.4869628962e+02   2.8431223459e+01    0.7166389    0.1337285 -75.23  0.002743679    4.427    0.774
       229 -13.3545     10.0219    229.9767   1.4799249504e+02   2.5721620725e+01    0.6684977     0.353664 -88.74   0.00341207    1.560    0.359
       230 -11.8719      4.0023    232.3595   1.4914796254e+02   2.5856229838e+01    0.4093122    0.1918577  73.94 0.0003795708    1.853    0.460
       231  -9.0034    210.6836    235.7089   1.0958792505e+02  -6.1152136583e+00    0.1303717   0.08871412   9.66 0.0003018159    1.597    0.374
       232  -9.7437    249.1950    234.1074   1.0217712903e+02  -1.1847920959e+01    0.1828688    0.1343699   5.89 0.0004906077    1.175    0.149
       233  -9.6822    140.0174    227.0316   1.2241200794e+02   7.6934039930e+00    0.2211473    0.1515818  66.79  0.000913663    1.731    0.422
       234  -9.2415    109.9951    226.5015   1.2856648540e+02   1.2970437244e+01    0.1700794    0.1157087  16.96 0.0006191856    2.354    0.575
       235 -10.2468     32.9273    225.2313   1.4360329550e+02   2.4189954035e+01    0.2750346    0.1317998  43.98  0.001552891    1.913    0.477
       236 -10.2095     25.5147    225.0242   1.4493600820e+02   2.5069202066e+01    0.1706343   0.09351667 -77.95 0.0008722218    1.582    0.368
       237 -11.9899      7.8844    217.7945   1.4757257809e+02   2.8353624593e+01    0.3328961    0.2311175  86.64  0.001799855    1.093    0.085
       238  -9.5094    246.4725    216.5139   9.9481496544e+01  -8.9905177239e+00     0.128827    0.1037149   1.50 0.0001856709    1.060    0.056
       239 -11.1043     16.2255    211.9666   1.4564983189e+02   2.8718846508e+01    0.1897971     0.147723  59.54   0.00110316    1.247    0.198
       240  -9.4431    209.5234    211.5285   1.0550497283e+02  -2.1075370554e+00    0.1356293    0.1198217  14.44 0.0002572269    1.006    0.006
       241 -10.0848     20.5932    209.7586   1.4466255830e+02   2.8730187883e+01    0.1597468   0.08800695  89.75 0.0003945518    1.592    0.372
       242  -9.9218    246.9784    207.0683   9.7620164016e+01  -7.6715171563e+00    0.2004781    0.1656805  -9.43 0.0007218455    1.056    0.053
       243  -9.4975    197.0392    204.0094   1.0659241047e+02   1.4393274733e+00    0.1702251    0.1543114  17.39 0.0006292564    1.004    0.004
       244 -11.5778      9.1765    203.4512   1.4632591881e+02   3.1177114836e+01    0.2300018    0.1824663  65.10 0.0008922939    1.209    0.173
       245  -9.6250    180.8092    199.3288   1.0907043740e+02   5.3571360798e+00    0.3086076    0.1198169  48.09  0.001106865    2.697    0.629
       246  -9.5673     23.1988    197.5866   1.4313519870e+02   3.1043835332e+01    0.1377613    0.1157962  24.49  0.000621186    1.650    0.394
       247 -10.2225      6.7564    191.8633   1.4590243322e+02   3.3845396754e+01    0.2692357    0.1310605  69.98  0.001258605    2.058    0.514
       248  -9.7616     15.4407    185.3475   1.4361441468e+02   3.4461136327e+01    0.2084321   0.09250701 -86.21  0.001015562    2.203    0.546
       249  -9.2022    250.3019    183.3377   9.2412674584e+01  -4.5068312749e+00    0.1365124   0.09378892  -3.44 0.0007037176    1.666    0.400
       250  -9.4113      1.3100    183.2287   1.4629535397e+02   3.6156730618e+01    0.1585437     0.081513 -84.33 0.0005468599    1.592    0.372
