#   1 NUMBER                 Running object number                                     
#   2 MAG_AUTO               Kron-like elliptical aperture magnitude                    [mag]
#   3 X_IMAGE                Object position along x                                    [pixel]
#   4 Y_IMAGE                Object position along y                                    [pixel]
#   5 X_WORLD                Barycenter position along world x axis                     [deg]
#   6 Y_WORLD                Barycenter position along world y axis                     [deg]
#   7 A_WORLD                Profile RMS along major axis (world units)                 [deg]
#   8 B_WORLD                Profile RMS along minor axis (world units)                 [deg]
#   9 THETA_WORLD            Position angle (CCW/world-x)                               [deg]
#  10 FWHM_WORLD             FWHM assuming a gaussian core                              [deg]
#  11 ELONGATION             A_IMAGE/B_IMAGE                                           
#  12 ELLIPTICITY            1 - B_IMAGE/A_IMAGE                                       
         1 -14.2700    201.6072     17.3210   6.4918843556e+01   3.2909256261e+01     2.473611     1.413877  33.28   0.01099758    2.852    0.649
         2 -12.3693      2.3217     13.7173   1.1737906375e+02   7.0354454778e+01     1.124635    0.1396159 -48.38  0.003636574    6.943    0.856
         3 -12.8315      1.9555      5.0376   1.1402192406e+02   7.1596581461e+01     1.120034    0.4323818  15.78  0.006360074    2.886    0.653
         4  -9.1362     79.4286    243.4404   1.3888193084e+02   1.4437739250e+01    0.2029732     0.112363  63.56  0.001136608    1.621    0.383
         5  -9.9444    205.0447    250.4735   1.1648340473e+02  -7.3643866452e+00    0.1910464    0.1016135  38.48 0.0006466756    1.568    0.362
         6  -9.7511    192.9969    249.2321   1.1851311871e+02  -5.2112743420e+00     0.191571    0.1768993 -22.03 0.0008047029    1.265    0.210
         7  -9.6993    184.1972    250.5929   1.2035032746e+02  -3.9392919797e+00    0.1745798   0.09968381  32.94 0.0002410769    1.596    0.373
         8 -11.8156    136.0586    227.5220   1.2625661039e+02   8.2631750733e+00    0.5158592    0.3725885   0.42  0.002499091    2.615    0.618
         9 -11.7875    149.8961    248.5487   1.2647692113e+02   2.1965622497e+00    0.4352827    0.3254109  59.55  0.002691458    1.283    0.221
        10 -11.0628    143.3697    249.2767   1.2779402558e+02   3.1832915970e+00     0.254611    0.1990438  76.63 0.0007482218    1.425    0.298
        11 -11.6440    135.6751    241.1047   1.2818147277e+02   5.8794642460e+00    0.3836091    0.2831619  25.71  0.001487639    1.669    0.401
        12 -12.3855    135.6374    236.2428   1.2754291671e+02   6.7459207754e+00    0.4420093    0.4208958 -62.47  0.001687426    1.253    0.202
        13 -10.6631    122.6150    249.8028   1.3171153241e+02   6.5538549822e+00    0.5772335    0.2303997  53.87   0.00255739    2.421    0.587
        14  -9.7850    126.5549    248.8878   1.3087471949e+02   6.0624990728e+00    0.2688459    0.1961403  69.46 0.0009877098    1.357    0.263
        15 -10.7955    121.7317    244.8869   1.3128998176e+02   7.5564340142e+00    0.4115212    0.1837786  54.38  0.001436408    2.118    0.528
        16 -12.0604    126.2567    240.5344   1.2990061589e+02   7.5754585593e+00     0.409145    0.3653878 -78.87  0.001951256    1.241    0.194
        17 -10.1546    108.6436    242.5524   1.3345673270e+02   1.0110505341e+01    0.2243903    0.1794996  81.35  0.001220765    1.194    0.162
        18 -10.8939    115.3584    250.1754   1.3308620394e+02   7.6697747666e+00    0.4749754      0.15409  42.92  0.002019167    2.575    0.612
        19 -11.3205    110.0701    247.7810   1.3378451696e+02   8.9409514469e+00    0.4634785    0.2873048  48.13  0.002722966    1.341    0.254
        20 -11.1192     98.7602    247.2465   1.3578731619e+02   1.0820890538e+01    0.5261486     0.283954  64.66  0.002793147    1.865    0.464
        21 -11.1187     96.7521    239.5359   1.3532855568e+02   1.2552781703e+01    0.3740783    0.2719648 -86.71  0.001778312    1.374    0.272
        22 -10.9897    103.1724    244.9816   1.3473953951e+02   1.0540387324e+01    0.3950416    0.2676561 -84.58  0.002383015    1.594    0.372
        23 -10.1573    101.1437    240.1729   1.3458330396e+02   1.1744521083e+01    0.1956239    0.1405832  71.91 0.0003820816    1.271    0.213
        24 -10.6405    104.3415    237.8969   1.3372779814e+02   1.1660539067e+01    0.3407167    0.1739619  55.10  0.001739583    1.744    0.426
        25 -10.1620     88.2272    250.6313   1.3801406699e+02   1.1816160544e+01     0.400793    0.1587946  36.05  0.001753505    3.066    0.674
        26 -10.5581     88.3066    247.1284   1.3765620916e+02   1.2439913984e+01    0.3100293    0.2056829  33.80  0.001584407    1.871    0.466
        27  -8.6213     74.8320    250.5859   1.4035035409e+02   1.3782694655e+01    0.2239076    0.1004418  40.50  0.001158668    2.162    0.537
        28 -11.1173     59.6913    245.0767   1.4248243229e+02   1.6900123013e+01    0.3540686    0.2437308  86.15 0.0009643112    1.243    0.196
        29  -9.6384     63.3232    249.6253   1.4223990009e+02   1.5564519464e+01     0.189963    0.1444219 -63.53    0.0010318    1.636    0.389
        30 -10.5782     67.1756    244.1147   1.4110624878e+02   1.6057420741e+01     0.384676    0.2227858  32.20  0.002109967    2.391    0.582
        31 -14.6807     23.2900    152.3533   1.4054916173e+02   4.0943943610e+01     3.649801     1.506139 -46.68   0.01637997    2.976    0.664
        32 -14.3191      6.1633    245.8475   1.5117624884e+02   2.3093178365e+01     1.367115    0.7631741 -77.72  0.009766011    1.561    0.359
        33 -13.0102     13.8065    238.8063   1.4960678122e+02   2.3603312775e+01    0.5590613    0.3604305  59.98  0.004132913    1.279    0.218
        34 -12.8291     41.9233    228.5572   1.4421386524e+02   2.2379266896e+01    0.3219767     0.295866 -69.31 0.0008018708    1.554    0.357
        35 -14.6185     47.7705    219.4445   1.4239282580e+02   2.3490533222e+01     1.863423     1.351777  27.42  0.008120683    2.051    0.513
        36 -11.0932    172.7336    239.7153   1.2088940318e+02  -3.1137680148e-01    0.3440299     0.226675 -54.83  0.001915893    1.894    0.472
        37 -11.2837    133.4657    249.3251   1.2964574270e+02   4.8393078920e+00    0.7044621    0.2360768  52.28  0.002742936    3.067    0.674
        38 -10.5602    115.9250    239.5882   1.3174235948e+02   9.4661576954e+00    0.2632021    0.2416998 -29.15  0.001478919    1.539    0.350
        39 -10.7283     89.7409    237.5171   1.3640990101e+02   1.4015767265e+01     0.324876    0.2126047 -86.81   0.00141568    1.569    0.363
        40  -9.6086     83.5247    238.4238   1.3764699309e+02   1.4780440647e+01    0.2088012    0.1096869  59.35 0.0001031126    1.700    0.412
        41  -9.6397     86.3093    237.3029   1.3702088375e+02   1.4576966820e+01    0.1814057    0.1587259  60.96 0.0003146027    1.223    0.182
        42  -9.2898    209.6986    246.7200   1.1503932954e+02  -7.6032671442e+00    0.1219213   0.08348703  14.24 0.0001840141    1.546    0.353
        43 -10.3781    165.1035    242.0856   1.2269802565e+02   6.3341143608e-01    0.2246558    0.1875961  22.51 0.0007586834    1.276    0.216
        44 -10.4976    165.6420    235.2016   1.2157488999e+02   1.6716281499e+00    0.2536492    0.2254373  40.92  0.001145288    1.043    0.041
        45  -9.8558    161.8299    232.6172   1.2192673108e+02   2.7839645217e+00    0.2162907    0.1664976  63.89   0.00074099    1.402    0.287
        46 -11.5449    122.4307    232.6877   1.2963199508e+02   9.6531618378e+00    0.3896369    0.3414054 -85.45  0.001653918    1.194    0.163
        47 -11.0635     98.4727    231.5122   1.3410388473e+02   1.3810269466e+01    0.3101819    0.2863142 -69.97 0.0008096684    1.333    0.250
        48 -10.9232    112.6502    230.2001   1.3121441243e+02   1.1762714199e+01    0.3653167    0.3404845   3.74   0.00173889    1.509    0.337
        49 -11.0839    106.0090    229.2119   1.3238098138e+02   1.3044767120e+01    0.5468246    0.2644484  49.35   0.00149024    1.787    0.440
        50  -9.7233     77.7751    232.9028   1.3814373322e+02   1.6694146315e+01    0.3517848    0.1877185  86.84  0.001765672    2.225    0.551
        51 -11.1254    156.6504    231.6571   1.2279621133e+02   3.8706206228e+00    0.2404048    0.2289416 -22.79 0.0005398456    1.242    0.195
        52 -10.8359    141.8875    230.6772   1.2555341962e+02   6.6591475098e+00    0.3217169    0.2538827 -12.62 0.0009152316    1.932    0.482
        53  -8.8046     92.4586    232.5218   1.3536004097e+02   1.4557033899e+01    0.1267746    0.1020539  68.92 3.558661e-05    1.005    0.005
        54  -9.4450     56.9807    230.6324   1.4171688608e+02   2.0043972798e+01    0.2815028     0.122242  51.54  0.001470872    1.953    0.488
        55 -10.4730     84.6363    229.6874   1.3652659544e+02   1.6306641527e+01    0.2210528    0.2061275  58.97 0.0007254179    1.331    0.249
        56 -10.6690     77.6210    221.0575   1.3692875094e+02   1.9083395106e+01    0.3055636    0.1810868  63.63 0.0006560339    1.558    0.358
        57 -10.6794     80.4057    227.5628   1.3709792182e+02   1.7360121870e+01    0.2990594    0.2641416 -28.72 0.0007157841    1.828    0.453
        58 -10.1284     78.6892    224.6930   1.3711703358e+02   1.8188763492e+01    0.2147651    0.2012242   6.46  0.000965282    1.654    0.395
        59  -9.7577    199.9002    245.6795   1.1668355424e+02  -5.8493592137e+00    0.1756916     0.136734  35.14 0.0004067889    1.087    0.080
        60 -10.6232    165.4910    227.0115   1.2034368874e+02   3.0946896926e+00    0.3680233    0.2432615 -64.32  0.001401597    2.013    0.503
        61 -11.1935    160.9062    223.4924   1.2070064927e+02   4.5453263501e+00    0.5696812    0.3298934  29.87  0.001988884    1.975    0.494
        62  -9.0522    190.8332    228.1359   1.1556624095e+02  -1.6332408633e+00    0.1732911    0.1408196  13.47 0.0002772822    1.278    0.218
        63  -9.2946    179.4733    227.9744   1.1774838189e+02   4.1583710729e-01    0.1644884    0.1169485 -79.69 0.0006690212    2.357    0.576
        64  -9.6178    197.5650    226.8146   1.1404618601e+02  -2.6095936943e+00     0.257353    0.1972629  72.38  0.001401603    1.943    0.485
        65  -9.3588     93.8868    217.1167   1.3328168297e+02   1.7408326249e+01    0.2551824    0.1632361 -89.85 0.0008974717    1.708    0.414
        66 -10.3999     92.6140    226.0264   1.3459443885e+02   1.5807754139e+01    0.2712781    0.1746195  55.75 0.0008625087    1.339    0.253
        67 -11.6247     98.9229    223.5255   1.3306976323e+02   1.5308392968e+01    0.4974359    0.3126098  45.80  0.001297921    1.451    0.311
        68  -9.8784    147.2710    225.3264   1.2370612273e+02   6.6774393393e+00    0.1926621    0.1798908  24.41 0.0002461521    1.209    0.173
        69  -9.7194    149.5669    222.5162   1.2282142887e+02   6.7805899470e+00    0.2117148    0.1808915  21.71 0.0006995092    1.342    0.255
        70 -10.2402    132.6628    224.4696   1.2649975886e+02   9.4328999461e+00     0.222075    0.2080136  33.91 0.0007895944    1.228    0.186
        71  -9.4227    129.9996    221.7737   1.2665020364e+02   1.0416206070e+01    0.2366002    0.1689764 -82.14  0.001275154    1.660    0.398
        72 -10.8814    117.3468    224.3159   1.2953149316e+02   1.2110093228e+01    0.2330158    0.2050298  67.32 0.0002716079    1.050    0.048
        73 -11.5822    142.0218    221.7195   1.2421981094e+02   8.2893255776e+00    0.3704576    0.3007014  38.67 0.0003291536    1.206    0.171
        74 -11.2310    137.7311    214.4107   1.2398719469e+02   1.0466193459e+01    0.5800423    0.3626235  39.85  0.001417916    1.521    0.343
        75 -10.4920    105.4399    219.3569   1.3125581975e+02   1.5085654340e+01    0.3756768    0.2130029  75.43 0.0007381564    2.343    0.573
        76 -10.9492     72.9900    209.9433   1.3659946310e+02   2.2072566502e+01    0.4738805    0.2986121  35.30  0.002028069    1.862    0.463
        77 -10.9674     70.6807    219.9478   1.3814249077e+02   2.0314492774e+01    0.4559106    0.2546539 -71.73  0.002071508    1.718    0.418
        78 -10.3904    222.8337    244.6795   1.1231300224e+02  -9.4280277572e+00    0.2029168    0.1305685  23.08  0.001186855    1.431    0.301
        79  -9.9579    193.8209    245.1150   1.1772747805e+02  -4.7526620525e+00    0.1762815    0.1528336  45.26 0.0003349744    1.189    0.159
        80 -11.9319    245.4813    241.7431   1.0778103359e+02  -1.2506355972e+01     0.304867    0.2734689 -42.13  0.002159861    1.613    0.380
        81  -9.7729    177.1949    220.0271   1.1688667624e+02   2.1791334390e+00    0.2064494    0.1418944  58.97  0.001059696    1.653    0.395
        82 -10.1655    246.0340    218.9706   1.0364920707e+02  -9.5579419403e+00     0.208382    0.1348001   5.24  0.001138201    1.704    0.413
        83 -10.0903    110.6883    221.8663   1.3053358098e+02   1.3712867465e+01    0.2798974    0.2260022 -54.17  0.001469541    1.452    0.311
        84  -9.5503     22.7809    216.4238   1.4663869083e+02   2.7026936361e+01    0.3568492    0.1386638  86.09  0.001399348    2.949    0.661
        85  -8.5422     24.6514    212.6679   1.4602457333e+02   2.7592802283e+01     0.164626    0.1304018 -39.37 0.0004209779    2.146    0.534
        86  -8.7056    190.6728    215.3058   1.1340033846e+02   5.1867891250e-01    0.1311505    0.1053958  72.34  0.000703606    1.651    0.394
        87  -9.9614     88.1826    212.9308   1.3391033611e+02   1.9169318957e+01    0.2486107    0.1698164 -77.64 0.0007292936    1.432    0.302
        88  -9.7172     68.2107    214.9920   1.3809467833e+02   2.1690046239e+01    0.2308832    0.1599149 -78.22 0.0004242213    1.323    0.244
        89  -9.8156    102.0473    212.2347   1.3101004561e+02   1.7100964590e+01    0.3821455     0.181052  62.97  0.001552406    2.697    0.629
        90  -9.0816    152.4720    211.9910   1.2056652515e+02   8.2261512290e+00    0.1906716    0.1375985 -51.77 0.0004324975    1.527    0.345
        91  -9.8072     33.5079    211.4799   1.4432387446e+02   2.6851862877e+01    0.1817303    0.1056285  42.15 0.0006917827    1.796    0.443
        92  -9.4762    134.7007    208.2874   1.2366672260e+02   1.2232560293e+01     0.256457    0.2004628  -4.10  0.001300018    2.023    0.506
        93  -9.1749    119.8089    208.7984   1.2685819852e+02   1.4794064852e+01    0.1883513    0.1421622  69.88  0.001029297    1.310    0.237
        94  -9.9444    108.9268    207.2372   1.2890435523e+02   1.6996028793e+01    0.2211138    0.1830616 -74.41 0.0004719955    1.210    0.173
        95 -12.3467     93.5223    202.7228   1.3150397980e+02   2.0497236288e+01    0.5437962    0.4502964 -70.73  0.001809087    1.215    0.177
        96 -10.3560    102.9386    202.7402   1.2952560067e+02   1.8955934811e+01    0.4045022    0.2526314  58.83  0.001888637    1.548    0.354
        97 -10.7211     98.5720    196.7446   1.2960175431e+02   2.0976889895e+01    0.5559927    0.3147997  49.51  0.001975283    1.656    0.396
        98 -11.4262    247.2954    205.9833   1.0099129388e+02  -7.8836757293e+00    0.4650574    0.2648342  20.88  0.002299907    2.018    0.504
        99 -10.3902    175.3959    205.4701   1.1472894273e+02   5.1281317383e+00    0.3297951    0.2511818   6.10  0.001613818    1.702    0.412
       100  -9.5714    178.3000    204.7084   1.1399755578e+02   4.7149071445e+00    0.2005168    0.1713105 -68.91 0.0002375804    1.399    0.285
       101  -9.0243     83.6044    242.1932   1.3801080766e+02   1.4056342121e+01    0.1448937    0.1063764 -64.75 0.0005178223    1.535    0.348
       102  -9.4660    125.9444    205.7148   1.2510669122e+02   1.4341313010e+01    0.2004273    0.1627002  54.68 0.0004986381    1.114    0.103
       103  -9.2881    148.9796    205.0431   1.2014437780e+02   1.0232856385e+01    0.2268518     0.177376  -2.07  0.001144319    1.874    0.466
       104  -9.5367    166.9334    203.2351   1.1607750163e+02   7.1677116824e+00    0.1909866     0.167294  42.91  0.001085765    1.053    0.050
       105  -9.5977    133.0832    202.8318   1.2314156723e+02   1.3639572011e+01    0.2136055    0.1762651  73.02 0.0005045664    1.211    0.174
       106 -10.2319    138.0618    201.5593   1.2187507772e+02   1.2980386381e+01    0.2389406    0.2023199 -65.77 0.0002741578    1.245    0.197
       107  -9.7882     64.0640    202.1725   1.3751175380e+02   2.4996888536e+01    0.2417835     0.170445  37.24 0.0006738686    1.648    0.393
       108  -9.9510     32.9348    201.9332   1.4360737146e+02   2.8928279688e+01    0.1723157    0.1333942  87.50 0.0003084062    1.045    0.043
       109 -10.1951    197.3054    200.7259   1.0941795413e+02   1.8163365955e+00    0.2849817    0.2175192  41.17  0.001083601    1.236    0.191
       110 -10.3596    112.7877    193.5737   1.2604549626e+02   1.9255248511e+01    0.4891962     0.280701 -66.42  0.001259212    1.878    0.467
       111 -11.0333    115.2407    200.2554   1.2654564741e+02   1.7384890733e+01    0.2436164    0.2288798 -77.92 0.0002310329    1.151    0.131
       112 -10.3536    120.0343    199.2939   1.2536984504e+02   1.6742856684e+01    0.3308339    0.2199512  66.28  0.001277555    1.623    0.384
       113  -9.1575    169.5851    200.2570   1.1499170791e+02   7.2271514228e+00    0.1767259    0.1368363 -34.78 0.0003344752    1.449    0.310
       114  -8.5169     86.2593    199.2859   1.3257179706e+02   2.2386675355e+01    0.1871803    0.1495354 -68.03  0.000205055    1.250    0.200
       115  -9.6273     85.9795    195.7508   1.3215915347e+02   2.3206532403e+01    0.2042641    0.1724773  82.73 0.0003611288    1.021    0.021
       116 -11.3112     53.2879    198.0988   1.3924014190e+02   2.7313091427e+01    0.5515306     0.213884  45.42  0.002579046    2.398    0.583
       117 -10.2859     56.3357    193.9340   1.3816020068e+02   2.7835531813e+01    0.2804241    0.1930688 -80.00 0.0007787201    1.260    0.207
       118  -9.6658     44.5252    199.0849   1.4109107203e+02   2.8189160251e+01    0.2909662    0.1490519  48.25 0.0009510326    1.845    0.458
       119  -9.9743    134.0912    197.9641   1.2213096434e+02   1.4462960090e+01    0.2135451    0.1892162  73.07 0.0003318292    1.078    0.072
       120 -11.6198     66.9304    195.0535   1.3609264814e+02   2.6161685547e+01    0.4127346    0.3157029 -42.44  0.001605792    1.806    0.446
       121  -9.8853     72.9361    193.0669   1.3458265033e+02   2.5752321509e+01    0.1944059    0.1644825  84.42  0.001211771    1.022    0.021
       122  -9.3621     77.1683    188.8231   1.3312087795e+02   2.6084805695e+01    0.2078861    0.1586355 -62.01 0.0002902811    1.320    0.242
       123 -11.9777     72.4957    187.4619   1.3395219864e+02   2.7072200352e+01     0.359433    0.3507825 -11.19 0.0007471612    1.412    0.292
       124  -8.8849    107.4045    196.1937   1.2761725900e+02   1.9615842504e+01    0.1878968    0.1248205 -76.56 0.0005968488    1.628    0.386
       125  -9.3468     31.1084    195.2136   1.4335227204e+02   3.0574491871e+01    0.2331027    0.1227374  58.35   0.00109472    1.786    0.440
       126  -9.8713    159.5578    193.9752   1.1596435015e+02   1.0411770885e+01    0.3225685    0.1999593  53.65  0.001172035    1.641    0.391
       127  -8.9644    133.4873    194.4503   1.2167359849e+02   1.5313896535e+01    0.1405715    0.1319918  57.09 8.271348e-05    1.074    0.069
       128 -10.9035    119.1018    191.5316   1.2433579296e+02   1.8579861487e+01    0.5523122    0.3661352 -83.07 0.0006227992    1.863    0.463
       129  -8.7752     82.2340    194.3476   1.3277020177e+02   2.4091404380e+01    0.1821529    0.1277604  42.52 0.0001842139    1.479    0.324
       130  -8.7130     84.6582    192.3226   1.3197637474e+02   2.4170948451e+01    0.1395821    0.1232379  86.12 0.0004783586    1.063    0.059
       131 -10.6111     38.6974    192.3714   1.4158088014e+02   3.0341531865e+01    0.2273433    0.1671378 -65.86 0.0001392579    1.358    0.264
       132  -9.6067     26.0713    193.0558   1.4413668214e+02   3.1581697180e+01    0.1801174      0.13389 -88.94 0.0005954962    1.040    0.039
       133  -9.8832     20.5358    192.0203   1.4511605713e+02   3.2374058843e+01    0.2624639    0.1382545  80.46  0.001469168    1.768    0.434
       134 -10.2014    191.3996    191.4109   1.0881861042e+02   4.6458658386e+00    0.2722153     0.247933   7.31 0.0006335293    1.110    0.099
       135  -9.4789    173.1415    192.2778   1.1276903249e+02   8.0768743471e+00     0.230815    0.1541573  -1.15 0.0008750177    2.681    0.627
       136  -9.1883     47.6247    192.4638   1.3978509689e+02   2.9260715618e+01    0.1243898   0.09844925 -88.62 -3.216482e-06    1.040    0.039
       137  -9.3135    135.2940    190.1039   1.2053346747e+02   1.5897665982e+01    0.1936589    0.1768097 -86.47 0.0003967074    1.091    0.083
       138 -10.1148     32.4194    189.3346   1.4253978641e+02   3.1712051137e+01    0.3221146     0.278097  16.92  0.002217629    1.763    0.433
       139 -11.9653    249.8556    187.6142   9.6942984486e+01  -5.4967105713e+00    0.9583332    0.2167192 -35.48  0.002941672    4.550    0.780
       140 -12.6336    248.4142    171.9659   9.3999158977e+01  -2.7146569918e+00    0.8084503    0.5240978 -31.18  0.004227351    1.430    0.301
       141 -12.6107    248.3534    101.3911   7.8550304363e+01   9.5178657300e+00    0.8933828    0.4944226 -37.68  0.004135654    1.655    0.396
       142 -12.6397    244.7006    155.9013   9.1241440147e+01   6.9402906985e-01     1.389094    0.9167751 -71.88  0.005831668    2.933    0.659
       143 -11.0640    249.5269    151.0188   8.9369637703e+01   6.3174057453e-01    0.5573153    0.3433868 -39.61  0.002769548    1.480    0.324
       144 -12.0871    248.0025    142.3297   8.7735394013e+01   2.4309571496e+00    0.8127498    0.6410862  36.06  0.004421975    1.394    0.282
       145 -12.6706    248.2946    134.5256   8.5971339369e+01   3.7422998488e+00     1.145241    0.7917129 -40.04  0.005937839    1.304    0.233
       146  -9.2821     41.7100    188.2380   1.4054666008e+02   3.0904033428e+01    0.2851935    0.1570246  82.90  0.001185715    1.857    0.461
       147  -9.3945    175.4911    186.4994   1.1116266292e+02   8.7445131390e+00    0.1451226     0.137245  57.62 0.0008096701    1.069    0.065
       148 -10.7965     25.6014    184.5316   1.4344808707e+02   3.3489305056e+01     0.308155    0.2056015  55.35  0.001334088    1.464    0.317
       149  -9.3968     29.9785    182.9256   1.4240579957e+02   3.3387961914e+01    0.2688374    0.1500389  72.94   0.00147866    1.780    0.438
       150  -9.8803    140.1373    183.1475   1.1821722827e+02   1.6462424484e+01    0.2803955    0.2151373  69.22 0.0003076353    1.415    0.293
       151 -10.3155    143.2992    181.3701   1.1718276997e+02   1.6228470915e+01    0.5003119    0.2518938 -50.80  0.002068816    2.056    0.514
       152  -9.2441     37.4382    184.2924   1.4101211395e+02   3.2270749134e+01    0.2052635    0.1034133  38.62  0.001088721    2.139    0.532
       153  -9.2658     85.9655    183.2956   1.3041047312e+02   2.6002383644e+01     0.285695    0.1756291  21.67 0.0006952392    2.677    0.627
       154  -9.3199     53.6721    182.2543   1.3735985709e+02   3.0792730879e+01    0.2584466    0.1849991 -21.78  0.001325329    2.675    0.626
       155  -9.7584     65.9367    181.9786   1.3466134378e+02   2.9238191774e+01     0.193931    0.1659416  87.59 0.0003318407    1.036    0.035
       156  -9.6900    174.6566    179.7034   1.0999431749e+02   1.0269875866e+01    0.3444793    0.1763363  49.32  0.001400006    1.965    0.491
       157  -9.2843    170.1134    180.0773   1.1104370391e+02   1.1119758547e+01    0.2084627    0.1926507   2.80  0.001139861    1.180    0.152
       158  -8.7701    104.2551    180.6932   1.2588636969e+02   2.3603241270e+01    0.1405698    0.1017535  82.04  0.000282163    1.514    0.340
       159 -13.0891    248.5407    114.1149   8.1384198339e+01   7.2744699595e+00     1.534121    0.9135253 -25.34   0.00690819    1.969    0.492
       160  -9.4493    109.1812    178.3244   1.2436895375e+02   2.3286043814e+01    0.2288079    0.1796533 -55.07 0.0004448078    1.306    0.234
       161 -11.6095     81.5747    175.5535   1.3025151088e+02   2.8453972277e+01    0.4276674     0.342175  40.72  0.001545837    1.381    0.276
       162  -9.8444     77.1676    175.6320   1.3126868231e+02   2.9095635531e+01    0.2215539    0.1678033 -71.90 0.0005629585    1.198    0.165
       163 -11.7902     68.7963    173.3132   1.3283998325e+02   3.0834536544e+01    0.6404198    0.2404536 -53.10  0.001512812    2.641    0.621
       164 -10.8806     68.9578    166.8573   1.3186474747e+02   3.2315211022e+01    0.2658328     0.201862 -60.22 0.0003849342    1.263    0.208
       165  -9.1335     48.0417    179.6151   1.3825682029e+02   3.2086645469e+01    0.1670646     0.116045  44.40 0.0005062014    1.538    0.350
       166  -8.7302    107.6435    173.3310   1.2386754784e+02   2.4696469663e+01    0.1556404    0.1052275  76.46 0.0003519814    1.789    0.441
       167  -9.4494     81.0966    164.1318   1.2857490796e+02   3.1190650534e+01     0.218778    0.1742235  79.87 0.0008990077    1.236    0.191
       168  -9.7736     95.2853    172.8138   1.2665534519e+02   2.6918437916e+01    0.2528723    0.1779063  63.72 0.0005758237    1.466    0.318
       169  -9.6259     90.9936    172.7139   1.2763679112e+02   2.7639912978e+01    0.2880356    0.2057867 -38.85 0.0009051743    1.798    0.444
       170 -10.7280     89.9051    160.6532   1.2587205488e+02   3.0635886014e+01    0.3490919    0.2496809 -69.72 0.0006616624    1.333    0.250
       171  -9.8510     93.3775    169.2685   1.2651321347e+02   2.8054657865e+01    0.2347801    0.1879746   2.56   0.00119609    1.916    0.478
       172 -12.4687     87.8578    166.8941   1.2742146007e+02   2.9496128679e+01    0.8606458    0.5972707 -51.79  0.004453933    1.471    0.320
       173 -11.3553     28.4092    171.4618   1.4155579210e+02   3.6113157765e+01    0.3939584    0.2630496 -69.26  0.001253806    1.266    0.210
       174 -10.8659     43.8211    168.9051   1.3789303471e+02   3.5029801483e+01    0.3521379    0.3016713 -51.20  0.001738177    1.395    0.283
       175  -9.4604    107.3423    168.1948   1.2303250184e+02   2.5933555578e+01    0.2202738    0.1912799  41.06 0.0003476353    1.244    0.196
       176  -9.3795    126.5178    167.5286   1.1839256661e+02   2.2556817193e+01    0.1494442    0.1386433  82.14 0.0004479426    1.023    0.023
       177  -9.1064     58.4933    167.4883   1.3438133197e+02   3.3570506514e+01    0.1335459    0.1112368 -86.33 0.0008104842    1.017    0.017
       178  -8.9307     77.0000    165.9120   1.2983132660e+02   3.1384511453e+01     0.216798   0.07164107 -61.13 0.0004044834    2.782    0.641
       179  -9.0395    136.3969    165.4713   1.1568018955e+02   2.1093810867e+01    0.1499361     0.139679  89.06 8.033051e-07    1.048    0.046
       180  -9.2378     53.8253    164.8314   1.3509174253e+02   3.4778516073e+01    0.1800027    0.1302364  86.27 0.0003291526    1.309    0.236
       181  -9.8944     49.0340    169.0000   1.3673604130e+02   3.4396214191e+01    0.2453257    0.1897632  34.29 0.0007999526    1.574    0.365
       182  -9.4557    154.6979    161.8834   1.1072114698e+02   1.8153706639e+01    0.2082396    0.1870757 -64.65 0.0003770989    1.136    0.120
       183  -9.2741     36.8484    162.5879   1.3868497128e+02   3.7254980088e+01      0.16459    0.1026073  54.19 0.0006798385    1.669    0.401
       184  -8.9986     33.2594    161.6358   1.3938080014e+02   3.7850513778e+01    0.1291651   0.07969369  81.56 0.0006975545    1.635    0.388
       185 -11.0999     96.0365    157.5063   1.2381677678e+02   3.0373854223e+01    0.6420699    0.2022649 -58.45  0.002126209    3.145    0.682
       186 -11.1424    100.5273    151.0511   1.2148842082e+02   3.1134944948e+01    0.5399296     0.469049   1.74  0.002893878    1.513    0.339
       187  -9.7107    103.7754    145.8143   1.1963009249e+02   3.1803551046e+01    0.3286387    0.2650315 -38.93  0.001694797    1.370    0.270
       188 -10.9353     73.5290    157.9356   1.2938667815e+02   3.3767156496e+01     0.448205    0.3429523 -74.44  0.002027025    1.182    0.154
       189 -11.8056     41.1627    204.6671   1.4228432309e+02   2.7392614139e+01      1.30396    0.3264522  45.49  0.005405835    3.363    0.703
       190  -9.4234     78.9967    158.9489   1.2822658903e+02   3.2727632897e+01    0.2112658    0.1837572 -81.89 0.0005102889    1.020    0.019
       191 -11.9863     51.5164    237.5617   1.4327171013e+02   1.9407529334e+01    0.9883735     0.646728  68.13  0.003731027    1.210    0.173
       192  -9.0651     52.4880    158.4625   1.3451731027e+02   3.6428632883e+01    0.1314673    0.1106839 -76.96 9.366806e-05    1.040    0.039
       193  -9.3475     47.7476    157.9735   1.3556812639e+02   3.7106938593e+01    0.1731306   0.09492452 -67.11 0.0003915943    1.544    0.352
       194  -9.4006    134.2143    155.8107   1.1421500797e+02   2.3714368221e+01    0.2006299    0.1824863  -9.90  0.000356136    1.316    0.240
       195  -9.2312    228.3761    155.2943   9.4009263212e+01   3.9727880956e+00    0.1983015    0.1280845 -45.98  0.000443953    1.555    0.357
       196  -8.7317    124.6821    154.3140   1.1619507969e+02   2.5938403741e+01    0.1558826    0.1160221  82.51 0.0002661358    1.648    0.393
       197 -10.5410    113.8128    151.0939   1.1819518602e+02   2.8748520997e+01    0.4233786    0.2710566 -52.70 0.0007364562    1.513    0.339
       198 -10.1058     60.2703    151.1129   1.3153484938e+02   3.7183584586e+01     0.329409     0.193667  61.95  0.001415124    2.014    0.503
       199 -10.8383     55.7013    150.0485   1.3249405801e+02   3.8010604909e+01    0.3264252    0.3009786  69.81  0.001280466    1.173    0.148
       200  -9.4939     53.0061    146.4742   1.3260625604e+02   3.9180396552e+01    0.2321467    0.1575307 -58.19 0.0003435988    1.312    0.238
       201  -9.3870     49.2343    150.7587   1.3418485451e+02   3.8620610495e+01    0.1762209    0.1389694 -49.37  0.001054867    1.360    0.265
       202  -9.1686     90.2610    149.6081   1.2378493333e+02   3.3190027222e+01    0.1796902    0.1406839  28.18 0.0006964356    1.535    0.348
       203 -12.9942     67.5164    144.1996   1.2857026629e+02   3.7860708424e+01    0.7462047    0.5322074  82.33  0.003924859    1.584    0.369
       204 -10.7606    134.0000    145.0133   1.1193561459e+02   2.6219916790e+01    0.6032221    0.2052144 -52.34  0.001893844    3.074    0.675
       205 -10.7962    133.2443    140.2982   1.1106111694e+02   2.7450246736e+01    0.3750873    0.3325098 -56.60  0.001325549    1.105    0.095
       206 -12.9621     12.2949    186.3045   1.4622404251e+02   3.4400837788e+01    0.9062812     0.794665  34.90  0.002929001    1.588    0.370
       207 -11.9075      9.5211    127.5170   1.4080733894e+02   4.7688243597e+01    0.2433701    0.1755826  60.47  0.001056524    1.576    0.365
       208 -12.1943      2.7575    130.6598   1.4285723324e+02   4.7450784691e+01    0.4801817    0.2295897 -62.47  0.002751568    1.571    0.363
       209 -10.7182      2.4456    138.3076   1.4378807647e+02   4.5772912339e+01    0.3288061    0.2059904 -87.96  0.001870833    1.380    0.276
       210 -12.7378      7.2549    143.3952   1.4322584798e+02   4.4295624008e+01    0.5925274    0.2850793 -73.25  0.003300409    1.593    0.372
       211 -12.1220      3.1233    144.2349   1.4426014843e+02   4.4408704009e+01    0.4485864    0.2614579 -71.46  0.002811942    1.286    0.222
       212 -10.5140    236.3349    145.9569   9.0522051421e+01   4.0755178702e+00    0.3393363    0.2073858  47.11 0.0008686518    1.756    0.430
       213  -9.7763    158.9776    145.0602   1.0602749065e+02   2.0922550825e+01     0.224318     0.218519 -85.93            0    1.014    0.014
       214  -8.8137     93.2221    145.4166   1.2223077769e+02   3.3699532166e+01    0.1987787    0.1305909  53.73 0.0009368594    1.638    0.390
       215 -12.0772     73.8009    139.8849   1.2617555455e+02   3.8006603658e+01    0.6919339     0.510052  79.19  0.003523518    1.558    0.358
       216 -14.0033     27.3526    247.2622   1.4797880968e+02   2.0527493673e+01     1.649705    0.7989885  49.93   0.01049685    1.716    0.417
       217 -12.2012     17.6473    140.0239   1.4038523033e+02   4.4242055235e+01    0.3406595    0.2231089  58.28  0.002093746    1.695    0.410
       218 -11.8119     12.7180    137.1456   1.4121922903e+02   4.5286650886e+01    0.2742967    0.1923737  51.89   0.00179353    1.619    0.382
       219 -11.6400     60.3892    137.8398   1.2929658880e+02   4.0303458006e+01    0.3700251    0.2565781 -70.39  0.001401645    1.308    0.235
       220 -12.9789     38.2258    245.6065   1.4611828725e+02   1.9548540263e+01     1.063767    0.4036239 -68.64  0.005773399    2.462    0.594
       221 -11.5433     47.4075    138.4338   1.3274996123e+02   4.1720242956e+01    0.3938494    0.2327801  21.29  0.001993196    2.338    0.572
       222 -12.7881     45.6951    131.7817   1.3210816943e+02   4.3465666640e+01    0.5830274    0.4159755  56.28  0.003368369    1.591    0.371
       223  -9.0437    122.1385    147.9153   1.1547597041e+02   2.7911029058e+01    0.1924257    0.1764277 -25.16            0    1.250    0.200
       224 -10.4880    111.6273    136.1001   1.1555952137e+02   3.2657862316e+01    0.4014721    0.3072559  20.11  0.001449983    1.676    0.403
       225 -11.8765     19.9965    133.7625   1.3900407089e+02   4.5471877112e+01    0.3333847    0.1665972  38.97  0.001814554    2.297    0.565
       226 -11.9013     67.4345    128.2306   1.2564192161e+02   4.1642657529e+01    0.4706029    0.3677054 -82.29   0.00185196    1.332    0.249
       227  -9.8949    117.1570    128.7358   1.1245127526e+02   3.3312286817e+01    0.2978104    0.1959699 -26.07  0.001228999    2.135    0.532
       228  -9.3252    106.1778    128.6813   1.1531167383e+02   3.5386284784e+01    0.3523729    0.1115763 -56.82  0.001021028    3.734    0.732
       229 -12.1328     31.2280    126.8162   1.3511902152e+02   4.6077052783e+01    0.3436605    0.2170457  38.34  0.001573909    1.851    0.460
       230 -10.4379    209.8013    125.7335   9.0701557556e+01   1.3502684642e+01    0.2811711    0.2585412 -34.45 0.0005054199    1.067    0.063
       231  -9.3378     86.1052    126.1045   1.2012261013e+02   3.9403291392e+01    0.3112226    0.2039144  -3.08  0.001248204    2.944    0.660
       232 -13.8212      2.5087    220.5651   1.5035194731e+02   2.8254491506e+01     2.524971    0.4223987 -72.19   0.01022383    4.190    0.761
       233 -13.6177      9.9921    206.5518   1.4818162613e+02   3.0353893601e+01     1.144417    0.8468205  55.91  0.008506351    1.370    0.270
       234 -10.6635     59.0752    125.0476   1.2730427463e+02   4.3472924879e+01    0.3483872    0.1964948  25.38  0.001666414    2.266    0.559
       235 -13.0562     31.4569    117.5411   1.3355152073e+02   4.8176679866e+01    0.5509286     0.428332   7.08  0.003491134    1.695    0.410
       236 -12.9748     20.5671    121.7367   1.3716166267e+02   4.8155594020e+01    0.4939768     0.316507 -75.35  0.001682509    1.344    0.256
       237 -12.3158     24.1293    121.1803   1.3612952105e+02   4.7989594717e+01    0.3923584    0.2806624  88.64  0.002029009    1.456    0.313
       238 -10.4828     55.0375    120.7965   1.2760033032e+02   4.4953752482e+01    0.2695499    0.1915146  14.85  0.001462962    1.865    0.464
       239 -12.1114      8.6942    119.1750   1.3991853004e+02   4.9608123688e+01    0.4271565    0.1767247 -40.83  0.002024202    2.877    0.652
       240  -9.2415     86.3895    116.8009   1.1795839166e+02   4.1513425505e+01    0.2886413    0.1774201 -69.29  0.001084773    1.958    0.489
       241 -11.3960     15.4802    114.0178   1.3736522037e+02   5.0279516600e+01    0.2087567    0.1976684 -21.89  0.000452062    1.315    0.240
       242  -9.7393    231.7897    116.5648   8.4620155716e+01   1.0367546422e+01     0.191223    0.1427199  70.78 0.0004512686    1.584    0.369
       243 -11.0358    168.0722    113.2772   9.6178289473e+01   2.5661422979e+01    0.3963985    0.3114262 -77.00 0.0008393468    1.546    0.353
       244 -10.0205     50.1933    112.8781   1.2740982934e+02   4.7336511026e+01    0.1912868    0.1617485 -75.80 0.0004169444    1.174    0.148
       245  -9.1972    203.5114    111.9240   8.8538480785e+01   1.7604016536e+01    0.2327157    0.1472514 -39.39 0.0006389735    1.536    0.349
       246  -9.8702     64.9764    112.0057   1.2296775767e+02   4.5730107726e+01    0.1624288    0.1453414 -54.83  0.000348084    1.019    0.019
       247  -9.0555     83.7171    111.0322   1.1735773448e+02   4.3250775339e+01    0.1989755      0.16747 -50.07 0.0002816287    1.084    0.078
       248  -9.9723     69.8936    111.1520   1.2135807114e+02   4.5261010533e+01    0.1968103    0.1743817 -84.02 0.0002688575    1.218    0.179
       249 -11.1217     57.4333    110.2497   1.2477334970e+02   4.7086151745e+01    0.3496619    0.2442893  15.77  0.001883529    1.838    0.456
       250  -9.7083      2.3277    110.3164   1.4038751958e+02   5.1966854476e+01    0.1205045    0.0659664 -46.95 0.0007045318    1.676    0.403
       251 -10.5105     31.6731    110.9260   1.3233888185e+02   4.9654790301e+01    0.2079223     0.183625  49.47 0.0005824971    1.354    0.262
       252 -11.1892     27.3862    106.5160   1.3277509549e+02   5.1017109406e+01    0.2470552    0.2010843 -58.84  0.001647715    1.020    0.019
       253  -9.7417     13.6528    107.7111   1.3688966169e+02   5.1809558992e+01    0.1219577   0.07202711 -42.36 0.0002686927    1.659    0.397
       254  -8.4391     95.2651    106.3390   1.1291132572e+02   4.2403466327e+01    0.1465032    0.1089386 -23.69 0.0003174602    1.593    0.372
       255 -11.9949     17.3379    104.6398   1.3534201175e+02   5.2223878700e+01    0.4489978    0.1823305  30.88   0.00226274    2.901    0.655
       256  -9.0521     33.0174     99.9818   1.2987378901e+02   5.1973610445e+01    0.1563795    0.1176054 -57.28 0.0003419669    1.083    0.076
       257  -8.6622     85.9488     97.0325   1.1319320825e+02   4.5994222180e+01    0.1615364    0.1526201 -34.87  0.000943334    1.032    0.031
       258  -8.6344     80.2887     97.7312   1.1505379487e+02   4.6734842654e+01    0.1296166    0.1088911  87.20 0.0002028963    1.504    0.335
       259  -9.2735     72.0435     90.2479   1.1559225119e+02   4.9563209884e+01    0.1754349    0.1667493 -13.25 0.0002052585    1.096    0.088
       260 -12.2420    245.2385    163.4494   9.2761857842e+01  -7.0608830392e-01    0.6955487    0.4317072 -51.60  0.003009995    1.899    0.473
       261  -8.5793     50.4947     67.4394   1.1625046744e+02   5.6970946166e+01    0.1265177    0.1071513 -31.02 7.653778e-05    1.018    0.017
       262  -8.7268    124.0214     51.0104   8.8532835397e+01   4.7212613139e+01    0.1659285    0.1566906   3.46            0    1.048    0.046
       263 -10.4520    169.6974    248.6589   1.2277652451e+02  -1.1962800128e+00    0.3168316    0.1981812  18.43 0.0008284895    2.272    0.560
       264 -10.4691     81.5297    247.0432   1.3885277364e+02   1.3461882896e+01     0.333223    0.2488541  88.68  0.002250263    1.240    0.193
