#   1 NUMBER                 Running object number                                     
#   2 MAG_AUTO               Kron-like elliptical aperture magnitude                    [mag]
#   3 X_IMAGE                Object position along x                                    [pixel]
#   4 Y_IMAGE                Object position along y                                    [pixel]
#   5 X_WORLD                Barycenter position along world x axis                     [deg]
#   6 Y_WORLD                Barycenter position along world y axis                     [deg]
#   7 A_WORLD                Profile RMS along major axis (world units)                 [deg]
#   8 B_WORLD                Profile RMS along minor axis (world units)                 [deg]
#   9 THETA_WORLD            Position angle (CCW/world-x)                               [deg]
#  10 FWHM_WORLD             FWHM assuming a gaussian core                              [deg]
#  11 ELONGATION             A_IMAGE/B_IMAGE                                           
#  12 ELLIPTICITY            1 - B_IMAGE/A_IMAGE                                       
         1 -14.4138    195.4277     16.1040   6.8062011843e+01   3.4368054118e+01     2.044425     1.657654  22.99  0.007976893    1.510    0.338
         2 -10.9311     32.7038      7.1605   1.0673112220e+02   7.0827686554e+01    0.2758594   0.08576196 -37.60  0.001227176    2.764    0.638
         3 -14.1344    201.3983      8.5674   6.5230332287e+01   3.3602048280e+01     3.394767     1.682402  29.79  0.001398213    3.605    0.723
         4 -11.3520     94.7082    240.9401   1.3792204682e+02   1.5101035193e+01    0.3552666    0.1317177 -59.16  0.001613411    3.183    0.686
         5 -10.8184    162.6891    249.3832   1.2694193992e+02   3.2987695311e+00    0.2482239    0.1486224  50.14  0.001538979    1.382    0.277
         6 -11.7243    140.7542    249.8832   1.3079811814e+02   6.7195926294e+00    0.5179821    0.1346431  43.03  0.002166279    2.897    0.655
         7 -11.4816    139.0000    245.9980   1.3067856500e+02   7.5514421112e+00    0.2829251    0.1633512 -50.76  0.001728797    2.267    0.559
         8 -11.4344    126.1481    249.6004   1.3329295010e+02   9.0378111465e+00    0.3445581    0.2217587  19.81  0.001861883    2.846    0.649
         9 -11.6304    124.9700    243.9355   1.3291742610e+02   1.0064401945e+01    0.3180021    0.1862321  79.33   0.00143466    2.489    0.598
        10 -11.5781    107.4971    248.4119   1.3638658604e+02   1.2041668533e+01     0.421485    0.1849688  60.24  0.001681375    2.338    0.572
        11 -12.2405     99.5715    248.5292   1.3775057257e+02   1.3187778888e+01    0.4287788    0.3150803  45.62  0.003090082    1.272    0.214
        12 -11.7094     65.8787    250.0309   1.4348501608e+02   1.7585038181e+01    0.4525039    0.2216842  39.44   0.00257499    1.976    0.494
        13 -12.6514     81.2332    247.7494   1.4078408525e+02   1.5903901613e+01    0.8313221    0.2656136  53.58  0.004068087    2.512    0.602
        14 -11.8732     82.0093    242.8697   1.4027087164e+02   1.6587092290e+01    0.4176638    0.2057752  68.32  0.002370694    2.060    0.515
        15 -15.1679      3.8068     18.4516   1.2654010649e+02   7.1450572888e+01     19.80813      1.47697 -58.26   0.03617681   18.411    0.946
        16 -13.8290     32.4331    246.1022   1.4859694886e+02   2.2268176736e+01     1.627464    0.4983312  43.25  0.009141808    2.453    0.592
        17 -15.7863      8.8978    240.0325   1.5195666336e+02   2.5761236419e+01     7.979036     0.792374 -71.39   0.03160087    6.424    0.844
        18 -15.4598     57.5922    216.9486   1.4251998797e+02   2.4377782566e+01     6.597457    0.9708161  44.39   0.02521402    4.046    0.753
        19  -9.2533    152.6784    212.9692   1.2401885956e+02   1.0347350881e+01    0.1642118    0.1481407  55.94 0.0003388095    1.102    0.093
        20  -9.8660    229.8235    230.1272   1.1266679253e+02  -5.1418295907e+00    0.1667832    0.1424652  33.33 0.0006150008    1.269    0.212
        21 -11.2933     35.3311    230.2685   1.4728441372e+02   2.4642340775e+01    0.3137663    0.1255081  64.87   0.00106657    2.129    0.530
        22 -10.7188    192.9643    194.8037   1.1338165530e+02   5.8933564267e+00    0.8063416    0.4110913 -63.51    0.0022662    7.700    0.870
        23 -11.8270     76.7378    188.7602   1.3616022938e+02   2.7295771116e+01    0.2793619    0.2368741 -53.44 0.0009175749    1.533    0.348
        24 -11.7585     71.9540    196.0054   1.3790742007e+02   2.6504924912e+01    0.3773926    0.3045293 -59.64  0.001591679    1.526    0.345
        25 -10.5693     67.3710    196.6912   1.3889096596e+02   2.6993511151e+01    0.3715499    0.1491314  58.04  0.001547732    2.461    0.594
        26  -9.7439    120.1113    188.3961   1.2702859655e+02   2.0486884483e+01    0.3069173    0.1966205  23.19  0.001085424    2.418    0.586
        27  -9.2443    126.0855    186.1621   1.2544044728e+02   1.9872520068e+01    0.4231741    0.1478381  35.32  0.001411013    3.778    0.735
        28  -9.3043     93.6097    179.0799   1.3139069478e+02   2.6767190230e+01    0.2778729    0.1238314  65.04  0.001016965    3.437    0.709
        29 -11.1872     85.0077    176.6003   1.3293823353e+02   2.8611205927e+01    0.2345424    0.2051583  85.20 0.0003792758    1.090    0.083
        30 -13.3654     72.8914    174.0868   1.3527549496e+02   3.0906326899e+01    0.4423548    0.2687725 -46.39  0.001754584    2.239    0.553
        31 -11.1704    125.6438    174.7061   1.2373745999e+02   2.2222350412e+01    0.4993704    0.1777939  36.65  0.001722562    3.320    0.699
        32 -12.9400     50.3241    130.0423   1.3481138630e+02   4.3669528649e+01    0.5347212    0.3605795  39.87  0.001815202    1.622    0.384
        33 -13.7424     67.3335    144.2478   1.3257405123e+02   3.8281375429e+01      2.63767     1.181949  89.00  0.007883111    5.466    0.817
        34 -12.1660     91.8203    150.5826   1.2756152804e+02   3.3226534850e+01    0.2645709    0.2555029 -37.93 0.0006679574    1.293    0.227
        35 -12.6803     46.6565    148.4301   1.3817438478e+02   3.9897781299e+01    0.5178272    0.3208894 -77.36  0.002973337    1.398    0.285
        36  -9.7783    134.3068    147.7444   1.1687675971e+02   2.6170796036e+01    0.5040686    0.1348022 -53.39  0.001435181    4.397    0.773
        37  -8.6977    192.3959    144.4242   1.0346297701e+02   1.4495597813e+01    0.1428305    0.1385154  29.19 0.0001123954    1.032    0.031
        38 -10.0723    112.5749    136.4021   1.1983547175e+02   3.2824699316e+01    0.3146735     0.256585 -23.79 0.0009645997    1.632    0.387
        39 -14.1122     11.4678    207.2558   1.5008976235e+02   3.1336526995e+01     1.200401    0.7634764  55.04  0.008467968    1.322    0.244
        40 -10.2981    102.9679    151.0098   1.2494360541e+02   3.1281894013e+01    0.3327691    0.2851273 -31.72 0.0009271323    1.510    0.338
        41 -12.7862     90.6170    167.4862   1.3044605016e+02   2.9696871698e+01     2.241272    0.5956489  50.59  0.002989546    4.282    0.766
        42 -10.7013    100.3204    133.7386   1.2240443342e+02   3.5615990443e+01    0.2722238    0.2275559 -37.67  0.000396147    1.410    0.291
        43  -9.4962    108.8923    123.7603   1.1811020321e+02   3.6343567094e+01    0.1979739    0.1950988 -20.16 0.0003994575    1.153    0.133
        44 -11.1503    168.2579    113.4424   1.0112697422e+02   2.5855784510e+01    0.4200469    0.3341449 -80.02  0.001069235    1.568    0.362
        45  -9.5042    105.1937    147.2039   1.2372885879e+02   3.1741766933e+01    0.2794486    0.2094634 -32.40  0.001404768    1.814    0.449
        46 -12.9933     48.9887    229.6451   1.4494471572e+02   2.3150332401e+01    0.3782435    0.2951752 -79.96  0.001013492    1.425    0.298
        47 -11.2736    248.2409    249.2315   1.1258336916e+02  -9.8582586928e+00    0.3509781    0.1794877  49.82  0.001936806    2.634    0.620
        48 -11.1998     66.3441    243.3250   1.4294777264e+02   1.8619252413e+01    0.2090566     0.158581  77.21 0.0009952389    1.168    0.144
