#   1 NUMBER                 Running object number                                     
#   2 MAG_AUTO               Kron-like elliptical aperture magnitude                    [mag]
#   3 X_IMAGE                Object position along x                                    [pixel]
#   4 Y_IMAGE                Object position along y                                    [pixel]
#   5 X_WORLD                Barycenter position along world x axis                     [deg]
#   6 Y_WORLD                Barycenter position along world y axis                     [deg]
#   7 A_WORLD                Profile RMS along major axis (world units)                 [deg]
#   8 B_WORLD                Profile RMS along minor axis (world units)                 [deg]
#   9 THETA_WORLD            Position angle (CCW/world-x)                               [deg]
#  10 FWHM_WORLD             FWHM assuming a gaussian core                              [deg]
#  11 ELONGATION             A_IMAGE/B_IMAGE                                           
#  12 ELLIPTICITY            1 - B_IMAGE/A_IMAGE                                       
         1 -14.1379     68.6857    144.3727   9.8178292402e+01   3.7450343490e+01     4.809175     2.452453  69.78  0.004141792    4.276    0.766
         2 -13.5332    203.8714     41.7392   3.9882979716e+01   2.9740646055e+01       1.2408     1.200829  15.84  0.005868461    1.356    0.263
         3 -13.4830    215.9460     30.6817   3.6044094277e+01   2.8503388958e+01    0.9336516    0.8191842  35.51  0.003884332    1.603    0.376
         4 -11.2353      2.3952     22.9404   9.3153546994e+01   7.1382075240e+01     0.486469    0.1396721 -54.26   0.00205992    3.514    0.715
         5 -11.4001      2.6211      6.2054   8.5532529280e+01   7.3995073450e+01    0.6851372    0.1934969 -44.38  0.003191103    3.164    0.684
         6 -12.7328    241.9710      5.7395   2.8831477346e+01   2.6005573140e+01    0.7677985     0.542215 -83.83   0.00517199    1.185    0.156
         7  -8.8278     56.4862      1.5334   5.6314284446e+01   6.7193595532e+01    0.1203301   0.09571175  26.27 0.0008095668    1.006    0.006
         8  -9.6221    110.9830    203.4641   9.6778564832e+01   1.6341692993e+01    0.2137753    0.1320465  37.75 0.0003480007    1.524    0.344
         9 -10.5043    101.9564    248.6832   1.0467619840e+02   8.3826891460e+00    0.4427423    0.1825935 -66.84  0.001912618    3.199    0.687
        10 -10.0251     91.5283    250.0320   1.0698382368e+02   9.6085548079e+00    0.3072213    0.1257243  39.85  0.001437524    1.991    0.498
        11 -14.7621     39.4530    197.6221   1.1320971492e+02   2.7732706964e+01     4.342899     1.758421  70.19  0.006007225    3.858    0.741
        12 -14.0984     49.1533    187.5583   1.0981901714e+02   2.9026279089e+01     3.660431     1.587204  64.15   0.01342508    3.262    0.693
        13 -13.3682     16.5912    216.4525   1.1975746845e+02   2.5829830185e+01    0.8928245     0.504087  33.42  0.005148774    1.841    0.457
        14 -16.8957     14.7740    243.3043   1.2168785881e+02   2.0356285628e+01     7.830012     5.925707  84.25   0.05662388    1.157    0.136
        15  -9.5337    122.1571    198.9634   9.3393208307e+01   1.5500746071e+01    0.3264321    0.2355665 -74.28  0.001554191    1.677    0.404
        16 -14.8932      9.7713    207.0001   1.2057740986e+02   2.8588483792e+01     1.710191     1.172268 -75.89   0.00658381    1.328    0.247
        17 -10.2957    184.1774    212.9206   8.1870378718e+01   2.2954927790e+00    0.1981212    0.1929183  43.04  0.001246893    1.276    0.216
        18  -9.9438    147.5334    187.7386   8.5382624378e+01   1.3553805647e+01    0.5185216    0.3170959 -78.47  0.001854706    3.381    0.704
        19 -10.4515     80.9278    181.9911   1.0101048056e+02   2.6118688826e+01    0.3161449    0.3054681 -64.86 0.0009579928    1.114    0.102
        20  -9.2137     99.4203    180.9321   9.6065015074e+01   2.3490136409e+01     0.249595     0.208866  11.16 0.0006432802    1.423    0.297
        21 -10.1315    186.9617    175.3621   7.4123541465e+01   8.9929196205e+00    0.3631582    0.3106165 -43.49   0.00137519    1.188    0.158
        22  -8.3171     87.0598    177.0320   9.8643508665e+01   2.6413094220e+01    0.1985479    0.1694081 -36.40 0.0003867864    1.335    0.251
        23  -9.0683     90.0037    174.9997   9.7537224564e+01   2.6456698401e+01    0.2342277    0.1935373  73.27 0.0005805056    1.262    0.208
        24 -12.2647     78.7563    159.2329   9.7924809746e+01   3.2164138589e+01     1.115096    0.5590765  53.32 0.0003586122    2.406    0.584
        25 -12.7746     66.4669    154.7785   1.0064642151e+02   3.5077352427e+01    0.5910034    0.4272676 -52.59   0.00110918    1.341    0.254
        26  -9.9849    119.5852    245.3511   1.0058264633e+02   6.4228611954e+00    0.2800701    0.1221437 -53.77  0.001288017    2.605    0.616
        27 -10.4017    240.0880    169.1584   6.2850103203e+01   1.1866367760e+00    0.2097881    0.1829561  33.31 0.0006172848    1.344    0.256
        28 -11.4602     64.7363    172.7542   1.0390892516e+02   3.0723765968e+01    0.4810975    0.3359359 -29.08  0.002293344    1.973    0.493
        29  -8.2702    102.9678    165.0152   9.2319107964e+01   2.6803383934e+01    0.1760546    0.1701417  63.97 0.0009539237    1.031    0.031
        30 -10.1297     35.4780    160.9664   1.1023343900e+02   3.7217717139e+01    0.4369682    0.2181027  40.23  0.001400245    2.042    0.510
        31 -10.4899     32.6068    155.5060   1.1034654697e+02   3.8899893386e+01    0.3937551    0.3229308 -34.60  0.001966398    1.446    0.308
        32 -11.5830     86.0319    152.8988   9.4719815634e+01   3.2654374451e+01    0.6435138    0.4489906 -25.90  0.001695729    1.918    0.479
        33 -10.4535    133.6670    144.7040   7.9918227678e+01   2.6038510959e+01     1.169472    0.2987876 -54.18  0.002730715    5.389    0.814
        34  -9.1732    174.9469    149.2005   7.1081347557e+01   1.6689929447e+01    0.2345953    0.2107645 -86.16 0.0008489589    1.320    0.242
        35 -11.1420     53.9619    146.9955   1.0299599752e+02   3.8718149213e+01    0.5545955    0.2287609 -64.70  0.002155841    2.209    0.547
        36 -11.3911     69.5865    168.0051   1.0189586359e+02   3.1259795868e+01    0.3642762    0.3018584 -31.78  0.001068668    1.441    0.306
        37 -10.0198     32.3208    144.1574   1.0894005842e+02   4.1831215751e+01    0.3643204    0.1657457  42.10  0.001592671    2.341    0.573
        38  -9.7843     99.9625    139.7999   8.8050307470e+01   3.3624871853e+01    0.3407424    0.3132875  -7.98  0.001022653    1.202    0.168
        39  -9.1240    102.6779    136.6241   8.6563661917e+01   3.3929858393e+01    0.2829812    0.2266362 -26.98 0.0008262041    1.420    0.296
        40 -11.6708     87.8968    138.1745   9.1230740348e+01   3.6097535352e+01     0.320524     0.265462 -44.82 0.0004006097    1.195    0.163
        41  -8.3193    119.3232    212.2995   9.6147235475e+01   1.3057390560e+01    0.1373179    0.1086981  -7.32   0.00029409    1.628    0.386
        42  -8.7667     88.9518    210.4404   1.0298980323e+02   1.8201089308e+01    0.1976884    0.1751904 -83.01 0.0002953867    1.136    0.120
        43 -10.0197    105.9927    130.9933   8.4313002959e+01   3.4710228375e+01    0.4150479    0.3223946 -57.07  0.001463285    1.274    0.215
        44  -9.5703    110.2079    129.5953   8.2771091288e+01   3.4257006860e+01    0.3275664    0.2575768  -4.45 0.0008413041    1.643    0.391
        45  -9.6897     17.4639    132.5124   1.1180613474e+02   4.6091223206e+01    0.1341863    0.1115371 -71.22 0.0002018659    1.008    0.008
        46 -10.6180     44.1981    129.5746   1.0304781700e+02   4.4349195162e+01    0.3030285    0.2527731 -77.69  0.001558166    1.144    0.126
        47 -10.1382    134.8705    128.8097   7.5841510585e+01   2.9508067850e+01      0.34277    0.3198575 -69.04  0.001488756    1.108    0.098
        48  -9.5500     67.1810    125.0670   9.4835094187e+01   4.2608368854e+01    0.2396523    0.1940834 -35.52   0.00123447    1.280    0.219
        49 -10.6424     45.4628    124.5395   1.0173952644e+02   4.5495949324e+01    0.2853654    0.2238092 -81.40  0.001299733    1.300    0.231
        50  -8.6123    116.5141    123.9635   7.9608915325e+01   3.4381581572e+01    0.2238162    0.1318822 -27.95   0.00080793    2.397    0.583
        51  -8.6081    163.2522    120.9859   6.6989403124e+01   2.5165225699e+01    0.2078391    0.1294416 -43.79 0.0004788871    1.545    0.353
        52 -10.2164     97.5368    125.4378   8.5486002117e+01   3.7620064555e+01    0.3098516    0.2602926  -1.25 0.0008627475    1.408    0.290
        53  -9.1474    106.9998    118.4986   8.0969982617e+01   3.7539012796e+01    0.2206606    0.2027818 -45.60 0.0003516714    1.054    0.051
        54 -10.2864     22.5270    119.0188   1.0828465096e+02   4.9097499343e+01    0.3398937    0.1610581  41.53  0.001538391    2.425    0.588
        55  -8.3049     82.2202    116.5968   8.8098418376e+01   4.2426736185e+01    0.1971146    0.1482047  18.83 0.0003609204    1.533    0.348
        56  -9.9450    231.2462    113.8416   5.2673767060e+01   1.2446702002e+01    0.2881428    0.2353887 -46.20 0.0007632566    1.058    0.055
        57 -11.6059    245.1166    112.0776   5.0311591167e+01   1.0202562275e+01    0.3657266    0.2634138 -35.45  0.002096651    1.243    0.195
        58  -9.7740     39.4958    113.0426   1.0154620775e+02   4.9042670373e+01    0.2348291    0.1880651  52.18 0.0005137959    1.440    0.306
        59  -9.5139    205.4871    110.2498   5.5994503275e+01   1.8216717098e+01     0.288102    0.2373068  42.32  0.001015825    1.371    0.271
        60  -9.9677     33.1173    109.2706   1.0301514377e+02   5.0612409465e+01    0.2611696    0.1808634 -70.04 0.0005943075    1.359    0.264
        61 -11.8151    246.3714     99.0176   4.7402005768e+01   1.2159317870e+01     0.480927    0.2732685 -30.17  0.002371044    1.879    0.468
        62 -10.0237     38.8111    101.9879   9.9519767957e+01   5.1843514911e+01    0.3360075    0.2116835  55.47   0.00128074    2.134    0.531
        63  -9.3975    120.6382     98.2971   7.1616820879e+01   3.9353780748e+01    0.2464673    0.1912914 -85.52  0.001105439    1.754    0.430
        64  -9.3456     33.0239     96.5082   1.0044774710e+02   5.3739645014e+01     0.256834    0.1820491 -81.60   0.00103435    1.651    0.394
        65  -9.5798     12.5205     93.0040   1.0737733377e+02   5.6196392634e+01    0.1831181     0.167955 -18.62 0.0006309069    1.210    0.173
        66  -9.6942     53.4729     91.0067   9.1525049292e+01   5.2769191457e+01    0.2215033    0.1279031 -53.11   0.00102641    1.576    0.365
        67 -10.4929    243.8958     84.2166   4.4594188088e+01   1.5021664068e+01    0.2445102    0.1686071 -16.17  0.001253466    2.162    0.537
        68  -8.5723    151.9633     83.9666   5.9696872767e+01   3.5176954942e+01    0.2415598    0.1786886 -74.27 0.0005928522    1.701    0.412
        69  -9.6571     72.1909     83.1664   8.2487184356e+01   5.1823648946e+01    0.4183875    0.2501343  55.82  0.001540283    2.467    0.595
        70  -8.8155     92.8442     67.1572   7.0337084776e+01   5.1335792900e+01    0.2084149    0.1968428 -70.17  0.000539764    1.248    0.199
        71 -10.2709     13.4519     60.0279   9.9631108697e+01   6.3568657023e+01    0.2370594    0.1859389 -47.30 0.0004580302    1.108    0.097
        72 -12.8685    194.2209     48.5774   4.2754188994e+01   3.0995829271e+01    0.9398921    0.8233862  30.77  0.001140003    1.486    0.327
        73 -10.8633     95.0922    242.2861   1.0541612207e+02   1.0595592457e+01    0.4569549    0.1930884 -58.27  0.002105563    2.603    0.616
        74  -8.4283     73.2614     55.4292   7.2938063642e+01   5.7097442219e+01    0.1824898    0.1287279  47.78 0.0009364946    1.587    0.370
        75 -10.7149    193.1048    194.9612   7.6724242157e+01   4.1403611455e+00     1.054656    0.5414417 -63.85   0.00284465    7.016    0.857
        76 -10.5504    118.0516    236.9836   9.9856631826e+01   8.2340345945e+00    0.2775062    0.1845646 -51.95  0.001162629    1.700    0.412
        77  -9.1793    198.0704     23.5045   3.6215949690e+01   3.3341113389e+01    0.2111744    0.1820331  -8.60 0.0007153018    1.598    0.374
        78  -8.9110    189.4934     14.9750   3.5071252718e+01   3.6250989911e+01    0.1738393    0.1193131 -36.62  0.001018095    1.546    0.353
        79  -8.4879    169.0863    235.8189   8.8809696212e+01   6.1420053076e-01    0.1702368     0.135748  -2.35 0.0004137512    1.271    0.213
        80 -10.0774    192.0157    205.5076   7.8920083468e+01   2.3804941510e+00    0.2105285    0.1268308  34.33  0.001041602    1.616    0.381
