#   1 NUMBER                 Running object number                                     
#   2 MAG_AUTO               Kron-like elliptical aperture magnitude                    [mag]
#   3 X_IMAGE                Object position along x                                    [pixel]
#   4 Y_IMAGE                Object position along y                                    [pixel]
#   5 X_WORLD                Barycenter position along world x axis                     [deg]
#   6 Y_WORLD                Barycenter position along world y axis                     [deg]
#   7 A_WORLD                Profile RMS along major axis (world units)                 [deg]
#   8 B_WORLD                Profile RMS along minor axis (world units)                 [deg]
#   9 THETA_WORLD            Position angle (CCW/world-x)                               [deg]
#  10 FWHM_WORLD             FWHM assuming a gaussian core                              [deg]
#  11 ELONGATION             A_IMAGE/B_IMAGE                                           
#  12 ELLIPTICITY            1 - B_IMAGE/A_IMAGE                                       
         1 -12.5576    202.0182     73.9783   6.2564220357e+01   2.4345898258e+01      2.13248      1.43011 -32.52  0.009753099    1.433    0.302
         2 -15.2907    146.9240     58.7515   6.8796493891e+01   4.0683432563e+01     7.974128     3.521323  61.10   0.01977389    2.731    0.634
         3 -15.2616    198.4376      9.6264   4.4560912178e+01   3.3778781633e+01     5.788203     1.490539  74.48   0.01693031    4.524    0.779
         4 -14.8029    217.5155     34.6277   4.9277525330e+01   2.6134394378e+01     2.356965     1.371381 -43.10   0.01105664    1.628    0.386
         5 -14.5070    240.4233     22.3633   4.3662480818e+01   2.2095616640e+01     0.771776    0.5074496 -47.62  0.002126034    1.372    0.271
         6 -16.8900    243.8356     45.2525   4.8989066029e+01   1.8457039566e+01     2.305661     2.012839  -4.22   0.01353894    1.327    0.247
         7 -16.1563    239.8457    117.4135   6.7622694034e+01   8.5491022013e+00     5.140573     4.600684  14.34   0.02955203    1.129    0.114
         8 -15.4963    248.1219     17.3969   4.1783886452e+01   2.0895601460e+01     2.315148    0.7949629 -53.21  0.008734575    3.131    0.681
         9 -10.7566    162.9612     39.5370   5.9023257859e+01   3.9509559503e+01    0.6061301     0.216933 -29.76  0.002093254    2.743    0.635
        10 -14.8262     46.2205     14.3848   8.2011169248e+01   6.7271654449e+01     4.267888     1.391553  38.91    0.0183231    3.304    0.697
        11 -14.6084    219.9533     77.3129   6.0543421483e+01   1.9438830022e+01     3.587962    0.9860718 -46.09  0.009447657    4.745    0.789
        12 -15.1170    238.8866     80.3422   5.8511493843e+01   1.4571970116e+01     2.277298     1.657139 -55.08   0.01152678    1.476    0.322
        13 -12.5496      6.3707      4.5558   9.6521677313e+01   7.2951068366e+01    0.8451151    0.5192067   3.52  0.005753622    1.673    0.402
        14 -10.8446    119.9425      9.4646   5.6694572650e+01   5.3670357532e+01    0.5632479    0.3255802  33.21  0.002678534    1.722    0.419
        15 -11.5731    157.4202      6.6371   4.8907966748e+01   4.4623319028e+01    0.6765026    0.5374995  37.67  0.002004483    1.248    0.199
        16 -11.8689    137.0165      4.4432   5.1434497251e+01   4.9972241037e+01    0.7881982    0.6365536 -42.49  0.003727289    1.401    0.286
        17 -12.0916    145.6352      2.6650   4.9350843158e+01   4.7962616093e+01     1.439029    0.4520468  65.81  0.005186879    2.831    0.647
        18 -12.0137     45.3299    155.2320   1.1883840941e+02   3.7555431864e+01    0.3701572    0.3024809 -38.47  0.001283104    1.637    0.389
        19 -13.1008     53.5111    150.9912   1.1640482894e+02   3.7577118698e+01    0.8270078    0.6462784 -73.45  0.003174937    1.113    0.102
        20 -12.2451     59.7686    147.5150   1.1443177512e+02   3.7611955193e+01    0.5898111    0.3681343  89.03  0.001342179    1.729    0.422
        21 -11.3253    191.4321    152.2215   8.4842257120e+01   1.2847806346e+01    0.5693783     0.368169 -51.44  0.002581853    1.849    0.459
        22 -10.0634    203.9336    152.6452   8.2441991823e+01   1.0177741061e+01    0.2708085    0.2119564 -39.28 0.0006612815    1.330    0.248
        23 -10.9612    191.6804    192.6662   9.3036403556e+01   5.9013932139e+00    0.5885314    0.3490162 -67.04  0.002103681    4.654    0.785
        24 -10.8280    133.6317    144.9513   9.6002444829e+01   2.6229127011e+01     1.051372     0.252867 -53.72  0.002512226    6.013    0.834
        25 -10.8961    149.4837    146.4601   9.2637325244e+01   2.2732164950e+01     0.288192    0.2321599  67.07 0.0006777951    1.413    0.292
        26  -9.2937    222.7288    145.3505   7.7221091020e+01   7.5548394695e+00    0.1960731    0.1725408  52.21  0.001085952    1.324    0.245
        27 -11.4046    179.0414    142.7415   8.5256605967e+01   1.7239449103e+01    0.5007774    0.3120349 -55.63  0.001732208    2.023    0.506
        28 -10.4222    236.6615    193.8159   8.4940369691e+01  -2.2768681632e+00    0.2167623    0.2020798 -65.29   0.00112909    1.696    0.410
        29  -9.6012    192.4295    144.0887   8.2783311477e+01   1.4114064401e+01    0.2497663    0.2082661  62.00 0.0004304381    1.405    0.288
        30 -10.2440    184.9967    142.5229   8.3950921364e+01   1.5998925840e+01    0.2788989    0.2146464 -54.60 0.0008215813    1.508    0.337
        31 -12.3126    190.2399    138.4890   8.1914435241e+01   1.5616072393e+01    0.7609144    0.3638712  38.19   0.00290023    2.239    0.553
        32 -11.5875    158.1637    141.5500   8.9562344329e+01   2.1935941371e+01    0.5907987    0.3929574 -82.24  0.001822955    2.844    0.648
        33  -9.5148    151.3377    142.6471   9.1365890408e+01   2.3139872062e+01    0.1567515    0.1202642  89.23 0.0007043828    1.798    0.444
        34 -11.0145    216.5921    193.9379   8.8568260182e+01   1.1868776164e+00    0.2811685    0.2325294  43.47 0.0006702417    1.324    0.245
        35 -11.2042    211.6597    136.9587   7.7318715184e+01   1.1269068056e+01    0.4366285    0.3101815 -58.54  0.001871632    1.918    0.479
        36 -11.6945    178.5492    135.1853   8.3573963837e+01   1.8797901303e+01    0.6979613    0.3001986  57.80  0.002198764    3.446    0.710
        37  -9.7052    166.9358    134.2957   8.5892699719e+01   2.1516997825e+01     0.218093    0.2008356  34.31 0.0006725851    1.075    0.070
        38 -11.6940    190.1460    132.1756   8.0411632254e+01   1.6809634350e+01    0.5380989    0.3286524  61.67  0.002199357    2.143    0.533
        39 -11.9255    159.7531    129.2626   8.6289586296e+01   2.4104172248e+01    0.5556902      0.44306   1.68  0.002636542    1.543    0.352
        40 -11.9184    136.5571    127.5997   9.1372933312e+01   2.9395518699e+01    0.7313117    0.4009458 -58.69  0.002832995    2.226    0.551
        41 -10.4681    134.8869    120.3524   9.0011321342e+01   3.1312060328e+01    0.3345779    0.2100435 -44.51 0.0009784334    1.561    0.359
        42 -14.3463    249.1711     57.3400   5.1386173362e+01   1.5610320886e+01    0.7858286    0.3857208 -33.78  0.002249406    1.786    0.440
        43  -8.5604     96.3039    129.2830   1.0198099269e+02   3.6552383471e+01    0.1373097    0.1117539 -21.90 0.0002875578    1.556    0.357
        44  -9.9091    153.5075    125.9850   8.6924097441e+01   2.6142692007e+01     0.219611    0.1339097 -65.30 0.0007417698    2.493    0.599
        45 -11.3390    162.7601    120.5812   8.3426264084e+01   2.5204183907e+01    0.4251784    0.3048273 -61.16  0.001182594    1.707    0.414
        46 -11.2525    167.6214    115.0903   8.0901840361e+01   2.5201603817e+01    0.6396373    0.4675497  -1.22  0.001766214    1.841    0.457
        47 -10.1804    141.6947    122.0115   8.8751175199e+01   2.9523196479e+01    0.3282249    0.2016197  70.98  0.001187403    2.778    0.640
        48 -12.2328    134.7702    108.8539   8.7064613009e+01   3.3815002954e+01     1.371891    0.3003967 -43.90  0.003517327    4.438    0.775
        49 -10.2331    133.1908     98.9000   8.4724336627e+01   3.6264155008e+01    0.3226171    0.2352835 -67.19  0.000279128    1.758    0.431
        50 -10.4826    120.9792    112.3298   9.1532755240e+01   3.5901813619e+01    0.3270473    0.2528202 -69.32 0.0009518969    1.499    0.333
        51 -12.4922    123.0981    103.1730   8.8549623112e+01   3.7479754530e+01     1.117773    0.6291111 -63.70  0.004060131    2.665    0.625
        52  -9.6833    141.1536    106.1663   8.4737444192e+01   3.3001276126e+01    0.2378075    0.2132477 -11.39  0.000506687    1.186    0.157
        53 -11.1457    203.3128    103.1283   7.0360227477e+01   1.9084569450e+01    0.4926428    0.3473137  47.53  0.001442252    1.462    0.316
        54 -10.3230    146.5147    103.4890   8.2681553787e+01   3.2364437836e+01    0.3207838    0.2696511   2.24 0.0007356204    1.373    0.272
        55 -10.7788    156.5079     98.8159   7.8984748244e+01   3.1015589745e+01    0.4764714    0.2901872  42.59  0.001979794    1.694    0.410
        56 -11.2909    170.5050     92.1808   7.3932689034e+01   2.8960872522e+01    0.7700332    0.5487333  -0.15  0.003234073    1.906    0.475
        57 -10.8951    139.8738     94.2055   8.1677931304e+01   3.5759867230e+01    0.4251087    0.3733242 -13.61  0.001945853    1.197    0.165
        58 -11.4121    216.1771    190.2090   8.7932219194e+01   1.8019834625e+00    0.3348942    0.2639435 -82.82  0.001710401    2.507    0.601
        59  -9.4063    158.5140    108.9617   8.1335781681e+01   2.8519377225e+01     0.237678    0.1534031 -37.58 0.0006392771    1.532    0.347
        60 -11.5696    154.0887     89.8817   7.6958572146e+01   3.3336415195e+01    0.3420152    0.3194899   1.79 0.0006588961    1.089    0.082
        61 -10.5704    177.8955     87.8524   7.1117772873e+01   2.7954627114e+01    0.2440415    0.2341886 -11.98 0.0003580461    1.021    0.020
        62 -10.3553    208.7424     85.5197   6.4618306738e+01   2.0805983128e+01    0.4354799    0.2534541 -56.72  0.001261617    2.248    0.555
        63  -8.4984    102.7126     87.2666   8.9701159832e+01   4.4912357297e+01    0.1389113    0.1174191 -85.73 0.0001642637    1.498    0.332
        64 -10.6823    210.1676    191.1218   8.9224589665e+01   2.7520059147e+00     0.212919    0.1642752  11.85 0.0006332576    1.247    0.198
        65 -10.4600    194.1625    175.7000   8.9282388036e+01   8.2013213184e+00    0.2399787    0.2376863  25.37 0.0004407128    1.185    0.156
        66 -10.8595    200.7221    173.5004   8.7548228106e+01   7.2933458478e+00    0.3172151    0.2519315   8.73  0.001209159    1.286    0.222
        67  -8.5422     79.6172    175.5436   1.1374346252e+02   2.8701252273e+01     0.126591    0.1098328  87.77 0.0001532735    1.039    0.038
        68  -8.9513    198.9919     46.0005   5.4992780263e+01   2.9315980546e+01    0.2554182    0.2083594  65.71 0.0007018208    1.233    0.189
        69 -11.4137    198.9654     41.1296   5.3576926402e+01   2.9981765658e+01     0.318848    0.1953756 -33.16 0.0005336487    1.587    0.370
        70 -10.6135    204.6829    190.0431   9.0052121481e+01   3.9152417576e+00    0.2929419    0.1844572  55.03  0.001175872    1.980    0.495
        71  -9.9820    224.7600    188.2481   8.5980655770e+01   5.5236342972e-01    0.1866008    0.1357164  10.25 0.0005351543    1.335    0.251
        72  -8.6996    151.9837     33.0181   5.8909347722e+01   4.3173173705e+01    0.1656569    0.1573298  37.49 0.0009175518    1.006    0.006
        73  -9.8135    190.1669     35.1505   5.3099287279e+01   3.3026178688e+01    0.2397839    0.2137789  14.06 0.0006115331    1.241    0.194
        74  -9.9234    188.0151     29.2981   5.1649906438e+01   3.4307121213e+01    0.2531981    0.1987337 -13.38 0.0008107476    1.406    0.289
        75 -13.4975     16.8009    168.9614   1.2634098967e+02   3.7390616624e+01    0.7893199    0.6188313  83.47  0.004021252    1.066    0.062
        76  -8.4410     79.6728    160.2513   1.1158778533e+02   3.2045351877e+01    0.1333322   0.09105055  69.67 0.0001997438    1.547    0.353
        77 -10.5774     92.0768     25.2009   7.0503645717e+01   5.8036596670e+01     0.401835      0.21957 -25.35 0.0009535218    1.764    0.433
        78 -10.1166    128.0231    238.1251   1.1188209089e+02   9.6159591729e+00    0.1702973    0.1493977  63.34 0.0002720224    1.130    0.115
        79  -8.9546    238.9651    212.0292   8.7925470383e+01  -4.9742087445e+00    0.1606425    0.1538599  62.62 0.0007391004    1.677    0.404
        80 -10.2733    196.7448    159.0660   8.5284046897e+01   1.0536254309e+01    0.2775375      0.18752  72.73  0.001149398    2.632    0.620
        81 -10.5694    158.4344    157.2109   9.2933280842e+01   1.8729087512e+01    0.8273236    0.5124932 -85.60   0.00251512    4.437    0.775
        82 -10.9232    146.3971    142.2819   9.2424483260e+01   2.4235699479e+01    0.2997701    0.2330424 -58.88 0.0002729602    1.388    0.279
        83 -11.0689    152.1948    149.7927   9.2746032701e+01   2.1492182921e+01    0.3742664    0.2647133  79.41  0.001314488    2.136    0.532
        84 -13.0822     68.4569    144.5470   1.1186695163e+02   3.7174844092e+01     1.206146    0.9276814  83.05   0.00450642    1.290    0.225
