#   1 NUMBER                 Running object number                                     
#   2 MAG_AUTO               Kron-like elliptical aperture magnitude                    [mag]
#   3 X_IMAGE                Object position along x                                    [pixel]
#   4 Y_IMAGE                Object position along y                                    [pixel]
#   5 X_WORLD                Barycenter position along world x axis                     [deg]
#   6 Y_WORLD                Barycenter position along world y axis                     [deg]
#   7 A_WORLD                Profile RMS along major axis (world units)                 [deg]
#   8 B_WORLD                Profile RMS along minor axis (world units)                 [deg]
#   9 THETA_WORLD            Position angle (CCW/world-x)                               [deg]
#  10 FWHM_WORLD             FWHM assuming a gaussian core                              [deg]
#  11 ELONGATION             A_IMAGE/B_IMAGE                                           
#  12 ELLIPTICITY            1 - B_IMAGE/A_IMAGE                                       
         1 -15.5408      8.9563    206.3596   1.4404953203e+02   3.1748370161e+01     8.412191     1.170297 -79.17   0.03045368    6.385    0.843
         2 -13.4169      2.0701     16.3338   1.2523051236e+02   7.1305854508e+01     3.226133     0.534662 -59.08   0.01273936    3.259    0.693
         3 -13.2421    192.1577     29.9792   6.8955705129e+01   3.3351326479e+01     1.261397     1.203941  42.76   0.00691134    1.056    0.053
         4 -13.8963    205.2077     12.3631   6.1691475721e+01   3.1824420015e+01     1.872099     1.172431  31.69  0.008638781    1.817    0.450
         5 -10.7934     81.9184    248.6983   1.3459750289e+02   1.7837268400e+01    0.1721442    0.1212707  73.60 0.0009561105    1.356    0.262
         6 -11.8149    140.7478    249.5293   1.2537047872e+02   1.0251863286e+01    0.5006914    0.1577215  39.77  0.002627599    2.361    0.577
         7 -11.1832    124.9700    250.1464   1.2793608759e+02   1.2279644488e+01    0.4042894   0.07158653  41.79  0.001674792    3.846    0.740
         8 -11.8888     98.7365    249.0069   1.3199065039e+02   1.5769928606e+01    0.4100424    0.2100471  43.22  0.002701878    1.434    0.303
         9 -10.5214    100.6995    245.6715   1.3142914290e+02   1.5963502853e+01    0.1492298    0.1165791  55.63 0.0005877933    1.092    0.085
        10 -10.1224     46.5210    249.1800   1.4001117535e+02   2.1672824486e+01    0.2204726    0.1072646  70.76  0.001239854    1.860    0.462
        11 -11.2883     21.3380    240.0910   1.4336865680e+02   2.5421520033e+01    0.7609749    0.1527138 -73.57  0.004023997    4.618    0.783
        12  -9.6350     24.6992    237.9875   1.4279112839e+02   2.5415599939e+01    0.1823248    0.1105624  63.28 0.0003988443    1.149    0.130
        13 -11.8465     31.5373    250.2100   1.4225539434e+02   2.3022852912e+01     1.042731    0.1206445  38.28  0.004759039    4.727    0.788
        14 -11.7086     35.0857    244.7560   1.4151491858e+02   2.3443178615e+01    0.4421867    0.3136335  39.28   0.00378127    1.527    0.345
        15 -12.3810     11.5660    240.2458   1.4480342466e+02   2.6278480830e+01    0.7268832    0.3371125 -89.40  0.005649033    1.961    0.490
        16 -12.0543      5.7745    226.5595   1.4523606624e+02   2.8811862962e+01     0.583261    0.3554292 -71.34  0.004926925    1.894    0.472
        17 -11.1605      1.8344    240.4076   1.4620576877e+02   2.7089235469e+01    0.4548312    0.1731398  88.28  0.003250696    2.345    0.574
        18 -10.5224      1.9090    249.4543   1.4642499258e+02   2.5801276511e+01    0.2598187     0.159729  88.21  0.001912044    1.487    0.328
        19 -10.8404      5.9796    248.4940   1.4583556728e+02   2.5589701914e+01    0.3322598    0.1276253  51.66  0.001784401    1.650    0.394
        20 -11.0261    106.6196    246.9534   1.3058694143e+02   1.5050688348e+01    0.2055783    0.1084904  47.78 0.0009636419    1.379    0.275
        21 -11.6551    125.2431    243.6252   1.2731396301e+02   1.3053990799e+01    0.3823448    0.1781406  60.17  0.002101131    2.790    0.642
        22 -10.1412    249.6119    242.7934   1.0756055383e+02  -4.1225587887e+00    0.1191469   0.08857259 -20.89 0.0009554189    1.726    0.421
        23  -8.8464    186.2933    239.3316   1.1693548713e+02   5.0115656192e+00    0.1056802    0.0675552  18.80 0.0003307343    1.634    0.388
        24 -10.9109    119.5022    237.5353   1.2769934895e+02   1.4606718671e+01    0.2265352    0.1441415 -77.17  0.001580786    2.209    0.547
        25 -10.7364    238.5276    248.5180   1.0999033382e+02  -3.1041701579e+00    0.1611833    0.1283111  43.35  0.001300355    1.724    0.420
        26 -10.4612    150.9928    229.0224   1.2155929555e+02   1.1315883638e+01    0.1778861    0.1334248  40.82  0.001323463    1.013    0.013
        27  -9.1631     68.5985    235.0792   1.3582285898e+02   2.1283023324e+01    0.1790244    0.1208813  27.88  0.001319207    1.929    0.482
        28 -12.5638     40.1462    230.7165   1.4010458754e+02   2.4992140802e+01    0.2616154    0.2144311 -83.10 0.0007588225    1.446    0.308
        29 -13.9576     46.7483    221.7272   1.3857149306e+02   2.5691854700e+01     1.027605    0.5437516  50.03  0.005760851    1.415    0.293
        30  -8.9179    152.6886    212.9629   1.1934958875e+02   1.3164970766e+01    0.1444856    0.1269734  38.89 0.0002969047    1.110    0.099
        31 -11.1129    141.8286    230.3921   1.2326015477e+02   1.2457092725e+01    0.2740271    0.1324564  41.04  0.001576847    1.575    0.365
        32 -10.0413    193.5551    195.8204   1.0962812219e+02   8.9215820044e+00    0.5634312    0.2767708 -57.41  0.001793246    8.054    0.876
        33 -11.3861     65.6822    196.6798   1.3355985214e+02   2.7709538940e+01     0.277609    0.2032785 -46.05  0.001311148    1.987    0.497
        34  -9.4773    229.4851    229.4998   1.0874297643e+02  -2.3588776316e-01    0.1101068   0.07866531  24.78 0.0008103668    1.026    0.025
        35 -11.5157     71.0738    189.1766   1.3189874030e+02   2.8377298467e+01    0.2168408    0.1951193 -69.31 0.0004940475    1.347    0.258
        36 -10.8174     80.4858    176.7088   1.2880677199e+02   2.9453408624e+01     0.198171    0.1855756  82.79 0.0004528833    1.187    0.157
        37 -13.0209     67.5495    174.6310   1.3122050672e+02   3.1456218072e+01    0.3857166     0.238471 -46.59  0.001542634    2.210    0.547
        38 -11.8785     88.1186    167.6986   1.2618876918e+02   3.0124984115e+01     0.780509    0.4322148  50.32  0.004363671    1.650    0.394
        39 -11.4992     32.4523    155.7069   1.3682302234e+02   3.8903216056e+01      0.36085    0.1098044 -71.40  0.001709212    2.808    0.644
        40 -12.1210     55.7301    124.7370   1.2808602132e+02   4.3016574803e+01     1.002386    0.3875725 -83.54  0.003088057    5.632    0.822
        41 -12.6769     67.3361    143.8607   1.2780854702e+02   3.7574697045e+01    0.8405012    0.4855017  78.62  0.003513159    2.110    0.526
        42  -9.7300    100.0205    151.3919   1.2136508081e+02   3.1579367899e+01    0.2737584    0.2264168  38.88  0.001036218    1.234    0.190
        43  -9.1657    102.7484    147.0993   1.2008068673e+02   3.2016081990e+01     0.230547    0.1605817 -32.90  0.001225861    1.959    0.490
        44 -11.9329     88.4528    150.7563   1.2388518917e+02   3.3384029209e+01    0.2325031     0.223541 -39.77 0.0005948908    1.259    0.206
        45 -14.5098     55.0686    211.2417   1.3653010070e+02   2.6472665249e+01     6.550819          nan  45.62   0.02226674    6.166    0.838
        46  -9.6276    110.5682    136.9009   1.1653711327e+02   3.2821200113e+01    0.3134577    0.2174175 -26.00  0.001203892    2.082    0.520
        47 -10.3569     98.1588    133.9961   1.1898563978e+02   3.5380639085e+01    0.2312145    0.1986516 -35.98 0.0004742449    1.352    0.260
        48 -11.2755     50.3708    129.8533   1.3010174128e+02   4.2494479295e+01     0.307081    0.1788269  48.95  0.001112614    1.713    0.416
        49  -8.5366    192.3761    144.1969   1.0033238520e+02   1.6344179522e+01    0.1752138    0.1265358 -42.70 0.0005243627    1.595    0.373
        50  -9.4244    107.6044    123.6782   1.1475756744e+02   3.6017288967e+01    0.1971948    0.1868494 -22.57  0.000559653    1.172    0.147
        51 -10.5223    168.0849    113.0035   9.8144848005e+01   2.6448090026e+01    0.3196912    0.2820731 -70.52 0.0007942838    1.417    0.294
        52  -9.0793    203.4784    111.5039   9.0666798511e+01   1.9064009830e+01    0.1481678    0.1301053   8.22 2.339996e-05    1.037    0.035
        53  -9.1085    156.5064     76.5090   9.0687896528e+01   3.5492298878e+01    0.1537539    0.1455631  -1.93 2.416284e-05    1.004    0.004
        54 -10.0829    163.0788    249.0294   1.2176180746e+02   7.2492931085e+00    0.1662619    0.1190422  40.38  0.001014247    1.040    0.039
        55  -9.7360     88.5529    249.0144   1.3358612642e+02   1.7008144371e+01    0.1207539   0.08897801 -83.80 0.0004797181    1.577    0.366
