#   1 NUMBER                 Running object number                                     
#   2 MAG_AUTO               Kron-like elliptical aperture magnitude                    [mag]
#   3 X_IMAGE                Object position along x                                    [pixel]
#   4 Y_IMAGE                Object position along y                                    [pixel]
#   5 X_WORLD                Barycenter position along world x axis                     [deg]
#   6 Y_WORLD                Barycenter position along world y axis                     [deg]
#   7 A_WORLD                Profile RMS along major axis (world units)                 [deg]
#   8 B_WORLD                Profile RMS along minor axis (world units)                 [deg]
#   9 THETA_WORLD            Position angle (CCW/world-x)                               [deg]
#  10 FWHM_WORLD             FWHM assuming a gaussian core                              [deg]
#  11 ELONGATION             A_IMAGE/B_IMAGE                                           
#  12 ELLIPTICITY            1 - B_IMAGE/A_IMAGE                                       
         1  -7.4529    189.5580     11.1918   2.4611313633e+01   3.6431054458e+01    0.1364095    0.1122464 -25.46 0.0007012784    1.595    0.373
         2  -8.3617    149.4642    248.5037   8.1862033067e+01   1.6403687499e+00    0.3069563    0.1994954  60.78  0.001442979    3.025    0.669
         3  -8.7658    249.8353    249.5913   6.3106395407e+01  -9.4726884150e+00     0.171696    0.1040635 -31.90  0.001029897    1.420    0.296
         4  -8.9771     53.9494    249.1563   1.0354604420e+02   1.3590093134e+01    0.2008454    0.1641092  46.35 0.0003064988    1.034    0.033
         5  -9.3025     11.2531    239.8716   1.1248466686e+02   2.0036537222e+01    0.3682046    0.1543004  25.55  0.001772212    2.328    0.571
         6  -9.2407     19.4017    248.3246   1.1115947038e+02   1.7465779984e+01    0.4226094    0.1662381  25.39  0.001965708    2.475    0.596
         7 -10.5095      6.7080    249.6277   1.1392646467e+02   1.8403111520e+01     1.046794    0.3676413  25.43  0.004810505    2.754    0.637
         8  -9.6565     12.7822    244.1376   1.1237003661e+02   1.8983469804e+01     0.373032    0.2866845   8.71 0.0005960873    1.656    0.396
         9  -7.4989    125.5821    249.5151   8.7243331126e+01   4.5332599619e+00    0.1285003    0.1096958  15.46  6.01806e-05    1.016    0.016
        10  -8.6753    238.5029    248.5029   6.4783078950e+01  -8.3060087235e+00    0.1125204   0.07981078 -11.59 0.0008106838    1.002    0.002
        11  -8.5335    116.5252    248.0055   8.9090784783e+01   5.9924690788e+00    0.2275403    0.1594879  11.48 0.0003413418    1.422    0.297
        12  -9.7567     26.3206    246.5476   1.0954675320e+02   1.7143591681e+01    0.3907522    0.1859268  25.95  0.001965901    2.027    0.507
        13  -9.4431    245.6974    245.0671   6.3078460144e+01  -8.5099658064e+00    0.1627881     0.108712 -19.10  0.001170728    1.096    0.088
        14  -7.2591     87.4859    243.5890   9.5269421417e+01   1.0633049764e+01    0.1312023    0.1130769  30.02  0.000231631    1.030    0.029
        15  -8.5178     21.6780    241.7297   1.1028574380e+02   1.8633187342e+01    0.2089406    0.1401502 -77.11  0.001254367    1.537    0.349
        16  -8.7975    115.0350    238.2094   8.8181758353e+01   8.0776089817e+00    0.2802569    0.2464684  -6.00  0.001047339    1.151    0.131
        17  -7.5788     95.0956    239.6023   9.3030581008e+01   1.0456465772e+01    0.1810821    0.1165462  15.96 0.0005094468    1.629    0.386
        18  -9.4579     51.4825    238.6279   1.0324173782e+02   1.6094293069e+01    0.2546744    0.1827201  40.70  0.001486468    1.200    0.167
        19  -9.4301     47.1891    237.3831   1.0414467339e+02   1.6855821029e+01    0.2932473    0.1896152 -52.71  0.001604668    1.796    0.443
        20  -8.7506     56.9048    237.8399   1.0189686385e+02   1.5630261647e+01    0.1887946    0.1730542 -19.59 0.0008003131    1.309    0.236
        21  -8.8239    249.6082    237.1713   6.1227640158e+01  -7.8090462402e+00    0.1636069   0.07523456 -28.60 0.0009526633    1.735    0.424
        22  -7.1236    109.3118    237.3044   8.9401823102e+01   9.0286520720e+00     0.133829   0.09777414 -10.07 0.0002640721    1.614    0.380
        23  -7.7668     63.9199    236.3083   1.0008935377e+02   1.5118517330e+01    0.1887516    0.1381428 -37.04  0.001040285    1.703    0.413
        24  -8.3520     76.1615    235.3156   9.7058562202e+01   1.3807094802e+01    0.2658604    0.1190547  20.48   0.00107124    2.553    0.608
        25  -8.0868     41.7649    234.0860   1.0515438990e+02   1.8187185162e+01    0.2349788    0.1636248 -15.98  0.001228467    2.129    0.530
        26  -8.6300     36.0126    233.1996   1.0643962932e+02   1.9011546964e+01    0.2861238    0.1349848  39.58 0.0008840567    1.769    0.435
        27 -10.6249     17.2864    219.8561   1.0994811055e+02   2.3947512901e+01     1.021836    0.6311772  55.97  0.005654893    1.441    0.306
        28 -11.8952     20.1777    194.5461   1.0738085202e+02   2.9809890346e+01     1.186809    0.8773808  22.19   0.00664155    1.469    0.319
        29  -9.8476      2.7334    221.6847   1.1346952979e+02   2.4833700377e+01    0.5501347    0.3240619  82.55  0.003075504    1.563    0.360
        30 -10.9145     10.1893    208.3459   1.1093619585e+02   2.7316777715e+01    0.9058426    0.5964978 -46.09  0.004231215    1.851    0.460
        31 -11.0640     10.7142    201.8389   1.1038149928e+02   2.8849521694e+01    0.8691304    0.4976551 -11.07   0.00112106    2.882    0.653
        32  -9.0966     90.5575    230.4511   9.3027208113e+01   1.2971329158e+01    0.2368749    0.2064188  33.69 0.0005722372    1.028    0.028
        33  -8.2718     66.9268    228.0977   9.8539359603e+01   1.6549994377e+01    0.1935108    0.1814583  33.27 0.0002890484    1.080    0.074
        34  -8.4691     63.3196    227.7116   9.9385079236e+01   1.7083964897e+01    0.3157866    0.2085556  -3.98   0.00097391    2.182    0.542
        35  -8.5197    139.5894    225.8569   8.0748567497e+01   7.1274575215e+00    0.2313359    0.1737472  28.89 0.0003685649    1.231    0.188
        36  -7.8559     60.6261    226.1163   9.9886792692e+01   1.7773451633e+01    0.1807624    0.1162355 -53.84  0.000725553    1.712    0.416
        37  -8.4518    244.4688    225.0021   6.0107792867e+01  -5.6225903876e+00    0.1631316    0.1230396 -11.24 0.0005377918    1.081    0.075
        38  -9.0528     91.1236    224.1337   9.2108992954e+01   1.4264415329e+01    0.2137095    0.1831329  -9.59 0.0007065642    1.293    0.227
        39  -8.1968     86.9911    222.2613   9.2900583457e+01   1.5238778352e+01    0.1902829    0.1676014  30.29 0.0003173017    1.047    0.045
        40  -7.3392     50.3652    219.3009   1.0177131600e+02   2.0568312547e+01    0.1343469     0.101747 -23.85 0.0007034509    1.731    0.422
        41  -9.2084     31.0312    217.6555   1.0644715786e+02   2.3095728332e+01    0.3616351    0.2489944  -8.92 0.0008957261    2.096    0.523
        42  -9.5173     27.4945    212.6296   1.0693306761e+02   2.4652244828e+01    0.2611327    0.2249336 -67.03  0.000610725    1.239    0.193
        43  -8.8085     32.6795    210.0418   1.0541146913e+02   2.4739647261e+01    0.4410505    0.2504633 -26.01  0.001862558    2.979    0.664
        44  -8.2855     47.1364    206.3415   1.0132134581e+02   2.4042564286e+01    0.2601151    0.1984472  -8.30   0.00127297    1.693    0.409
        45  -7.4026     91.5411    204.4985   8.9365321739e+01   1.8675366550e+01    0.1436084     0.134664  41.28 1.185487e-05    1.033    0.032
        46  -7.2304     66.7178    204.7060   9.5955842458e+01   2.2032103683e+01    0.1368474      0.10742 -27.06 0.0002609378    1.536    0.349
        47  -7.0860    115.7371    203.3148   8.2956795406e+01   1.5362417269e+01    0.1381328    0.1118911  68.03 0.0002172909    1.542    0.351
        48 -10.0123      9.6025    229.9195   1.1233057049e+02   2.2368566941e+01    0.8145436    0.3809584  16.67   0.00382134    2.636    0.621
        49  -7.0649    140.3060    202.2501   7.6762378256e+01   1.1834568210e+01    0.1404047    0.1038966  -5.69 0.0002435394    1.505    0.336
        50  -7.6518     96.8866    200.1667   8.7325497754e+01   1.8918173584e+01    0.1964318    0.1665269  -4.79 0.0004806469    1.292    0.226
        51  -7.2228     88.6117    197.7147   8.9156907931e+01   2.0715370342e+01     0.152298     0.111001 -14.20 0.0007006925    1.750    0.429
        52 -10.6393     31.1800    187.7247   1.0376849244e+02   3.0471378455e+01    0.7023951    0.4274665  42.31  0.003462949    1.564    0.361
        53  -7.6347     64.5948    188.1947   9.4418519069e+01   2.6423591396e+01    0.2129676    0.1282973 -53.87 0.0006396179    1.676    0.403
        54  -8.1563      3.7652    191.1188   1.1146238679e+02   3.2078702280e+01    0.1681587    0.1409747 -53.90 0.0004868735    1.326    0.246
        55  -9.0670     26.0987    181.1406   1.0455143778e+02   3.2682918446e+01    0.3533468    0.2021381 -50.22 0.0007651024    1.851    0.460
        56  -8.5774     29.5325    180.5020   1.0350660704e+02   3.2511382696e+01    0.2557735    0.2121252 -36.78 0.0007770762    1.379    0.275
        57  -9.4854      6.1753    226.0234   1.1290385392e+02   2.3550049295e+01    0.4978718    0.2662052  17.91  0.002038516    2.173    0.540
        58  -8.8181     11.3475    183.0259   1.0884955272e+02   3.3519873564e+01    0.2276014    0.1723921  49.03    0.0012914    1.270    0.212
        59  -8.0134      4.7867    179.0090   1.1035374370e+02   3.5072566446e+01    0.1924837    0.1565769 -83.83 0.0004225907    1.099    0.090
        60  -9.6429     44.1911    177.0599   9.8855977868e+01   3.1840864389e+01    0.6442168    0.2363622 -52.88  0.002263019    2.665    0.625
        61  -8.5365      2.0813    182.2171   1.1131890357e+02   3.4454422284e+01    0.2646985    0.1879538 -46.79  0.000791501    1.585    0.369
        62  -7.1729    117.1904    177.9794   7.8212850050e+01   2.1009905762e+01    0.1907404    0.1167631 -53.32 0.0003462516    1.656    0.396
        63  -8.8021     27.2649    174.5258   1.0354388789e+02   3.4304590456e+01    0.3533775    0.2042803  47.57  0.001652501    1.722    0.419
        64  -7.4306    150.6530    174.4299   6.9176067559e+01   1.6157192305e+01    0.1468918    0.1296345 -23.12 2.383544e-05    1.079    0.073
        65  -8.4384      1.4236    172.5741   1.1082329169e+02   3.6978794718e+01    0.3427949    0.1182534 -79.58 0.0006246475    2.628    0.620
        66  -8.9842    175.2108    172.3737   6.3324344548e+01   1.2482165935e+01     0.259386    0.2391618   8.64 0.0006931977    1.109    0.099
        67  -7.8823     35.5083    173.0139   1.0093940398e+02   3.3868396715e+01    0.2056226    0.1336211 -70.90 -0.0001539262    1.456    0.313
        68  -9.3144     51.8558    170.4215   9.5695429104e+01   3.2686889035e+01    0.2870301    0.2532044 -25.75 0.0004401903    1.265    0.209
        69  -8.6513     16.6845    171.0970   1.0630709907e+02   3.6176290385e+01    0.2495852    0.1812936  41.00  0.001342627    1.380    0.276
        70  -9.1398    240.8373    173.5008   5.1836884995e+01   2.7082243489e+00    0.2431308    0.1165091 -26.20  0.001156891    2.296    0.564
        71  -8.4005      3.0458    166.1880   1.0987355542e+02   3.8527953587e+01    0.3311209    0.1336254  60.47  0.001270329    2.859    0.650
        72  -8.4099     94.0019    165.0467   8.2218344770e+01   2.8027173069e+01    0.2215572    0.2175089  13.34  0.001193417    1.017    0.017
        73  -9.7533     25.8237    163.4067   1.0276471944e+02   3.7400609770e+01    0.4453087    0.2812465  55.78   0.00126679    1.660    0.398
        74  -8.9644      9.3473    163.7905   1.0780937422e+02   3.8699232642e+01    0.2208929    0.2130481   0.16  0.001379893    1.200    0.167
        75  -8.4420     85.0323    162.0399   8.4299199603e+01   3.0232426072e+01    0.2242766    0.2207909  35.37 0.0004274935    1.020    0.019
        76  -8.1653     33.6420    162.2435   1.0020446637e+02   3.6941242999e+01     0.378488    0.1364514  15.70  0.001222017    3.748    0.733
        77  -8.6149     64.4002    161.1148   9.0429005218e+01   3.3527689354e+01    0.2626759    0.2124075  39.42  0.000407924    1.242    0.195
        78  -7.7786     95.2665    157.0134   8.0305265921e+01   2.9862692573e+01    0.2097723    0.1999718 -49.80  0.000376317    1.042    0.040
        79 -10.0564     72.6709    155.2944   8.6842753101e+01   3.3888136389e+01    0.5795848    0.3773704  10.01  0.001574296    1.959    0.490
        80  -8.7362     50.0815    156.7629   9.4245354689e+01   3.6562893075e+01    0.2829788     0.250771  -6.48 0.0005803165    1.259    0.206
        81  -8.8423     19.9834    155.9514   1.0374565770e+02   3.9929675936e+01     0.411296   0.08694988 -64.58  0.001138511    3.441    0.709
        82  -7.7656     50.6097    150.6951   9.3116139308e+01   3.8134314356e+01    0.2122196    0.1412629 -78.48 0.0005684931    1.605    0.377
        83  -8.7169     10.9886    151.0618   1.0607690690e+02   4.1966114398e+01    0.2049785    0.1827573 -71.49 0.0003137991    1.044    0.042
        84 -10.6745     68.2273    144.3925   8.6225775498e+01   3.7433330135e+01    0.8533783    0.5552184  66.91  0.003510186    2.078    0.519
        85  -9.2121     72.8162    142.3451   8.4328984441e+01   3.7285799160e+01    0.2671187    0.2206674 -70.48 0.0003263919    1.251    0.201
        86  -8.8430     22.1618    149.5154   1.0229037960e+02   4.1474671313e+01    0.4126468    0.2198764 -21.44  0.001064142    2.740    0.635
        87 -10.6049    242.7851    142.2798   4.5803613329e+01   7.5618721179e+00     0.422442    0.2731135 -29.65  0.002524216    1.423    0.297
        88  -7.7060     89.5699    142.8161   7.9109901363e+01   3.4452475253e+01    0.2185575    0.1526197 -70.24 0.0007588022    1.645    0.392
        89  -8.4147     77.9663    139.9957   8.2180823731e+01   3.7095859084e+01      0.24243    0.1815604 -21.23 0.0003065325    1.607    0.378
        90  -7.1531     30.5026    140.5176   9.8284143780e+01   4.3134529322e+01    0.1456649    0.1345165 -66.14 0.0008104064    1.010    0.010
        91  -7.3052     94.3270    138.3244   7.6668658946e+01   3.4771000893e+01    0.1648025    0.1221546 -18.12 0.0007049281    1.694    0.410
        92  -8.1722     24.8045    135.9232   9.9592015584e+01   4.4914699362e+01    0.2167996    0.1743438 -48.76 0.0002329273    1.195    0.163
        93  -8.0795     13.4922    135.4495   1.0347307316e+02   4.5973329528e+01    0.2223432    0.1877246 -15.41 0.0008138222    1.328    0.247
        94  -8.8279     10.6023    133.7794   1.0427249593e+02   4.6630676324e+01     0.273892    0.1620905 -80.02 0.0004987632    1.599    0.375
        95  -7.8566     30.1047    133.4930   9.7359173597e+01   4.5073065122e+01    0.2089838    0.1470502  15.70   0.00102065    1.572    0.364
        96 -10.1307    244.7891    130.6842   4.3361308601e+01   9.1651384259e+00     0.282771    0.2007783 -22.34  0.001470238    1.552    0.356
        97  -7.7728     67.6370    129.7175   8.3439473174e+01   4.1388959619e+01    0.1612684    0.1173021 -19.44  0.000701705    1.681    0.405
        98  -7.2582     17.3824    129.2825   1.0128537302e+02   4.7331226401e+01    0.1523818   0.09437031 -35.75 0.0007009088    1.728    0.421
        99  -7.7325    161.5339    127.4738   5.6566589626e+01   2.4237687972e+01    0.1478252    0.1381258 -50.61  0.000808902    1.033    0.032
       100  -8.3520     21.7815    121.9621   9.8577919339e+01   4.8928501197e+01    0.2213675    0.2036434  -5.22 0.0004286486    1.171    0.146
       101  -8.2210    249.6569    120.3314   4.0818981790e+01   1.0112478966e+01    0.1217322   0.07897882 -62.15            0    1.753    0.429
       102  -9.1438    246.2615    114.8714   4.0196644238e+01   1.1480222430e+01    0.2073216    0.1558385   9.44  0.001253318    2.151    0.535
       103  -7.7735     32.4134    115.1828   9.3337511945e+01   4.9728024162e+01    0.1927773    0.1714059 -24.94  0.001063853    1.135    0.119
       104  -7.7609     13.6403    115.2134   1.0062297761e+02   5.1357756267e+01    0.2006934    0.1091676 -58.47 0.0001553632    1.567    0.362
       105  -7.4653     53.5509    113.4984   8.4897780609e+01   4.7630509639e+01    0.1529907    0.1395045 -33.77 1.696534e-05    1.060    0.056
       106  -7.7317     67.2240    112.5722   7.9646996101e+01   4.5844524079e+01    0.2131372    0.1485512  14.12 0.0008119594    1.671    0.402
       107  -8.9237     17.2889    110.6879   9.8464266634e+01   5.2271815355e+01    0.2589342    0.2258967  55.94 0.0006050041    1.290    0.225
       108  -7.8092     13.2650    106.6631   9.9401791513e+01   5.3619826371e+01     0.136544    0.1019966  70.51 0.0003247061    1.589    0.371
       109  -7.6743     73.6765    104.0055   7.5140069799e+01   4.6880315233e+01    0.2097542    0.1943449 -48.76  0.000340072    1.082    0.076
       110  -8.0845     23.0834    103.4896   9.4805882800e+01   5.3656461785e+01    0.1914978    0.1397862  16.49 0.0002941316    1.467    0.319
       111  -8.0582     34.9976     99.3280   8.8980801448e+01   5.3531394602e+01    0.3518043    0.1347611 -39.94  0.001212037    2.908    0.656
       112  -8.2327      3.7868     94.3740   1.0130902195e+02   5.7360582719e+01    0.1772967    0.1195431 -12.85 0.0004701562    1.593    0.372
       113  -7.1688     18.0234     92.2688   9.4692870267e+01   5.6921371379e+01    0.1627032    0.1201067  10.23 0.0003819249    1.439    0.305
       114  -7.9504     52.0971     89.6300   7.9439165349e+01   5.3707868330e+01    0.2015477    0.1818106   7.22 0.0004885771    1.093    0.085
       115  -7.3043     41.3952     87.2057   8.3251244369e+01   5.5730938503e+01    0.1911716    0.1370386 -69.63 0.0003941022    1.642    0.391
       116  -8.3123      3.1524     80.9040   9.9155001745e+01   6.0720668040e+01    0.1880103    0.1758953  69.67 0.0005883282    1.278    0.218
       117  -8.0975      1.3509     72.7632   9.8367727596e+01   6.2757484007e+01    0.1845493   0.09732966 -54.33 0.0002835691    1.552    0.356
       118  -7.2482    209.6720     67.6950   3.4992497353e+01   2.5175321539e+01    0.1119467   0.09984317  13.71 0.0002638352    1.651    0.394
       119  -7.3121    102.6698     43.8288   4.6797120386e+01   5.2497965313e+01    0.1708245     0.123503 -46.21            0    1.529    0.346
       120 -10.5205    228.1865     40.5040   2.7612480414e+01   2.5375743965e+01    0.5237288    0.3195702 -67.73   0.00330596    1.437    0.304
       121 -10.9140    234.0669     35.5186   2.6201187135e+01   2.4921798535e+01    0.4717548    0.3321275  57.45  0.001568483    1.872    0.466
       122  -7.4076     29.6412     41.1559   7.3523492950e+01   6.6824037039e+01    0.1704675    0.1081829 -31.71 9.500846e-05    1.529    0.346
       123  -7.5801      2.3099     22.6695   8.2144211941e+01   7.3014744613e+01    0.1044267   0.09224772  43.25 -5.767117e-05    1.668    0.400
