#   1 NUMBER                 Running object number                                     
#   2 MAG_AUTO               Kron-like elliptical aperture magnitude                    [mag]
#   3 X_IMAGE                Object position along x                                    [pixel]
#   4 Y_IMAGE                Object position along y                                    [pixel]
#   5 X_WORLD                Barycenter position along world x axis                     [deg]
#   6 Y_WORLD                Barycenter position along world y axis                     [deg]
#   7 A_WORLD                Profile RMS along major axis (world units)                 [deg]
#   8 B_WORLD                Profile RMS along minor axis (world units)                 [deg]
#   9 THETA_WORLD            Position angle (CCW/world-x)                               [deg]
#  10 FWHM_WORLD             FWHM assuming a gaussian core                              [deg]
#  11 ELONGATION             A_IMAGE/B_IMAGE                                           
#  12 ELLIPTICITY            1 - B_IMAGE/A_IMAGE                                       
         1 -14.1040     56.7990     64.3716   5.8790715388e+01   5.7521442449e+01     1.685416     1.044078  -9.95  0.007050077    2.818    0.645
         2 -14.8972      6.4844     70.9405   8.4313444623e+01   6.2811472541e+01     1.159676    0.7934349 -42.94   0.00645833    1.332    0.249
         3 -14.2462    188.0779     23.2201   2.1283690160e+01   3.6159746099e+01     1.142025    0.5801417 -61.55  0.007001066    1.702    0.412
         4 -13.5431    187.5708     10.9622   1.8960132977e+01   3.7570591867e+01     0.519277    0.3528486 -49.41  0.003298509    1.404    0.288
         5 -13.1058    119.6118     26.5622   3.0099393829e+01   4.9850593401e+01    0.7659397    0.5609416  34.53  0.004633361    1.853    0.460
         6 -14.0929    122.2387     36.8702   3.2446541100e+01   4.8072860492e+01    0.8789654    0.4744121  40.96  0.003102348    2.542    0.607
         7 -12.9054      7.8748      2.5969   5.7488949974e+01   7.4381213520e+01    0.5145082    0.3386601  43.15  0.003351206    1.608    0.378
         8 -15.8836     11.3393     23.2294   6.5433038982e+01   7.1215037969e+01     1.800154     1.091476 -12.55   0.00916892    1.907    0.476
         9 -14.5574     27.1169     11.7458   5.1323822534e+01   7.0375813975e+01    0.8639801    0.5651699   7.23  0.005167141    1.819    0.450
        10 -14.6601    166.5035     28.6351   2.4414588846e+01   3.9735701169e+01    0.8662408    0.6247272  82.01  0.004149392    1.195    0.163
        11 -14.7592    147.6967     29.6754   2.6829070246e+01   4.3476151502e+01     1.079219    0.6022543  72.55  0.004688856    1.574    0.365
        12 -13.5544    140.5784     21.5756   2.5789332251e+01   4.5878245703e+01    0.8165957    0.2713746  67.50  0.003013388    2.533    0.605
        13 -14.3505    217.4436     11.9026   1.7184607031e+01   3.2147460904e+01    0.8553352     0.566597 -78.75  0.004637827    1.153    0.132
        14 -15.3756     99.1844     11.3602   2.9215133272e+01   5.5855110995e+01     1.353542    0.7291915  63.37  0.004106725    1.484    0.326
        15 -12.5496     85.5510     13.8367   3.2704084756e+01   5.8589838941e+01    0.3396371     0.311649 -68.13  0.001535754    1.250    0.200
        16 -12.4323     60.1102     15.3993   3.9917822053e+01   6.3802828359e+01     0.490386    0.2498948  41.24   0.00258123    1.819    0.450
        17 -12.1761     46.7954     12.8881   4.3413363413e+01   6.6696357128e+01    0.2810585    0.2112383  59.68  0.001456853    1.326    0.246
        18 -11.7641    123.3022     10.9681   2.5349454650e+01   5.0643519368e+01    0.2259196    0.1516172 -86.92 0.0006876737    1.358    0.264
        19 -12.0510     75.1023      9.8372   3.3717445593e+01   6.1202716545e+01    0.2207731     0.180484  -9.27  0.001030102    1.578    0.366
        20 -13.9427     41.9446      4.2370   4.1421375030e+01   6.8459575975e+01    0.6354722    0.4318354  39.50  0.003223296    1.220    0.180
        21 -12.5349    153.2576      8.6951   2.1369058202e+01   4.4539190497e+01    0.3243049    0.1818653  81.91  0.002016593    1.484    0.326
        22 -11.0910     80.4995      7.1112   3.1523576227e+01   6.0286567761e+01    0.1502485    0.1202758 -27.14  0.001025737    1.568    0.362
        23 -12.5922    118.4793      2.3241   2.3672285291e+01   5.2452472458e+01    0.4688615     0.188097  86.08  0.002083483    2.894    0.654
        24 -11.3569     67.6866      2.7228   3.2918607168e+01   6.3380401469e+01    0.2562158    0.1480588  41.37  0.001503001    1.686    0.407
        25 -11.8921     79.1786      1.8472   2.9980719132e+01   6.1004185813e+01    0.7083041          nan  59.07  0.002009697    6.023    0.834
        26 -10.9297    232.9618      1.5109   1.4692933686e+01   3.0666893533e+01    0.1353302   0.07390775  87.92   0.00100944    1.579    0.367
        27 -11.3544     61.2413      1.4658   3.4100878159e+01   6.4828559935e+01    0.3316064   0.09230673  60.86  0.001379247    2.805    0.643
        28 -12.5087    248.6054    196.4659   4.4702065682e+01   8.2746938263e-01    0.4996054    0.2020468 -48.64  0.002695265    2.140    0.533
        29 -12.8476     50.9123    248.2690   9.4009877050e+01   1.3053065635e+01    0.5383084    0.3828568 -19.62  0.002877619    1.703    0.413
        30 -12.3605      2.9501    249.5074   1.0585243592e+02   1.7327666233e+01    0.4523923    0.2974241  39.80  0.001932616    1.298    0.229
        31 -13.6988      9.7893    245.8221   1.0402225267e+02   1.7579052466e+01    0.9419926    0.4383964  44.42   0.00375173    1.840    0.457
        32 -11.5550    111.3940    156.0472   6.4171702993e+01   2.7478050503e+01    0.4710064    0.2807801 -83.76  0.001573581    3.530    0.717
        33 -11.9345     77.0643    156.7690   7.4373791782e+01   3.2807053125e+01    0.4250922    0.2857363  22.44  0.001166996    1.559    0.359
        34 -13.0680     73.5062    153.0345   7.4801723615e+01   3.4316366274e+01    0.7131301    0.4577215  23.26  0.002302507    1.631    0.387
        35 -13.1394      8.4504    148.8961   9.6630319363e+01   4.2837973158e+01    0.7245026    0.5050063  29.34  0.003626316    1.485    0.327
        36 -11.3415    103.3759    149.8030   6.5128487174e+01   3.0341076040e+01    0.3066082    0.2184135 -26.01  0.001086313    1.677    0.404
        37 -11.6746    245.1555    148.8318   3.7671231637e+01   8.7946451127e+00    0.1571647    0.1107517 -32.67  0.001097324    1.350    0.259
        38 -11.8206     60.7480    147.3378   7.7936624417e+01   3.7666837428e+01    0.4314424    0.2666105  -5.38  0.001673516    2.304    0.566
        39 -11.4305      5.2422    128.8780   9.5371496298e+01   4.8509452302e+01    0.2999735    0.1557154 -29.63  0.001254668    2.120    0.528
        40 -11.7164    133.5844    125.7270   5.2118650104e+01   3.0430196286e+01    0.2878017    0.1321997 -44.38  0.001139019    2.143    0.533
        41 -13.9494    104.6307    121.5494   5.8593498917e+01   3.6791083685e+01     1.173065    0.9528282  59.01  0.005966411    1.326    0.246
        42 -13.3989    111.8210    116.1116   5.5346558317e+01   3.6636350981e+01    0.5539191    0.4028761  53.36  0.002267952    1.434    0.303
        43 -14.5630    106.0468    104.8380   5.4175990196e+01   4.0167897989e+01     1.163174     1.031904 -84.76  0.006028609    1.214    0.176
        44 -12.4625     42.3730     90.3880   7.2348180301e+01   5.4486434315e+01    0.2986312    0.2668759 -61.34 0.0001837376    1.242    0.195
        45 -14.7355     24.5058     93.0189   8.0820850477e+01   5.6075321667e+01     1.417294     1.081011  -0.28  0.006410824    1.308    0.236
        46 -14.9887     15.4462    107.4434   8.7819024132e+01   5.3377199427e+01       1.5904     1.126432  60.81  0.006442575    1.782    0.439
        47 -12.2868     78.8993    110.3353   6.3764004107e+01   4.4060231106e+01    0.4683588    0.3440688 -89.81  0.002105757    1.941    0.485
        48 -11.6541     86.5360    114.9162   6.2412410447e+01   4.1639721046e+01    0.3171453    0.2577163  -4.30   0.00098218    1.487    0.328
        49 -12.2174     82.2084    115.3999   6.3912307575e+01   4.2300948075e+01    0.4773181    0.2635332  45.84  0.001969593    1.873    0.466
        50 -11.4757     62.9611    110.8241   6.9421239870e+01   4.6630290848e+01    0.2582503    0.1642506  55.54   0.00109131    1.971    0.493
        51 -13.4322      2.2304     96.9517   9.1819445416e+01   5.6990046014e+01    0.8302898    0.3090287 -70.98  0.003148929    2.777    0.640
        52 -11.3255    121.9668    112.0752   5.1790308092e+01   3.5530590036e+01    0.2204608    0.1803756  -4.84 0.0007004812    1.631    0.387
        53 -12.1186    136.4309    102.8921   4.6291668635e+01   3.4520993664e+01    0.4382004    0.2270451  52.79  0.001734631    1.998    0.499
        54 -13.2103     28.6672    122.1234   8.5042733109e+01   4.8325245398e+01    0.4578791    0.3357884 -51.39  0.002280283    1.289    0.224
        55 -12.0473     61.3953     97.5369   6.6668373802e+01   4.9970709535e+01    0.4669067    0.3363816  81.82  0.002084153    2.147    0.534
        56 -12.1009     52.7027     97.4639   6.9979016774e+01   5.1363996296e+01    0.4614442    0.2804742  -5.31  0.001803184    2.596    0.615
        57 -10.7873     48.6066    101.1711   7.2532259235e+01   5.1107812531e+01     0.380585    0.2269405 -61.22  0.001653605    1.842    0.457
        58 -11.9624     46.3262     98.6796   7.2831266555e+01   5.2019811709e+01    0.3011001    0.2210843 -44.87  0.001508408    1.355    0.262
        59 -11.5543    163.6895     97.7386   3.9874168962e+01   3.0156129349e+01    0.2669357     0.192044 -73.75 0.0005361473    1.504    0.335
        60 -12.6479    136.7106     94.5873   4.4282117617e+01   3.6034956000e+01    0.4649797    0.3397437  84.80  0.002380529    1.638    0.390
        61 -13.1293      5.2204    118.5254   9.3951100730e+01   5.1268116717e+01    0.8823462    0.4665272 -30.05  0.003830205    2.010    0.502
        62 -12.1867     49.1284     93.3636   7.0339684326e+01   5.2837489853e+01    0.3848748    0.3146874  79.95  0.001978446    1.619    0.382
        63 -12.5475     36.8137     92.9098   7.5363492001e+01   5.4654097430e+01    0.5091096    0.2466458  19.61  0.001459587    2.226    0.551
        64 -12.6474    188.4675     84.0185   3.3277747825e+01   2.7851261727e+01    0.4182194    0.2365976  45.09  0.002054377    2.429    0.588
        65 -13.2948    163.8261     71.5754   3.4146905486e+01   3.4476764026e+01     1.021594    0.3888179  51.42  0.004392333    2.884    0.653
        66 -12.9335    161.2082     80.4754   3.6517515024e+01   3.3579114669e+01    0.8112431     0.546769  19.05   0.00350168    3.637    0.725
        67 -14.0682    169.3822     77.2068   3.4542074465e+01   3.2505054686e+01    0.8834684    0.5205739  50.12  0.003398703    1.950    0.487
        68 -13.7792     87.4335     65.2697   4.8667171099e+01   5.1454641263e+01    0.9525451    0.5829586  23.72  0.004039214    2.563    0.610
        69 -13.7457     92.4586     57.2746   4.4851965921e+01   5.1697649376e+01    0.4930615    0.4327405  67.29  0.001742104    1.088    0.081
        70 -13.0478     54.7386     80.9063   6.4655243653e+01   5.4660537737e+01     0.691548    0.4410548 -37.42  0.002913307    1.693    0.409
        71 -13.9512     61.3587     75.5307   6.0507549164e+01   5.4614105243e+01    0.6830848    0.5229223 -25.56  0.001391182    1.474    0.322
        72 -13.3064     71.0319     75.2163   5.6907357036e+01   5.2912620179e+01    0.5539949    0.4008412  11.30  0.001087985    1.792    0.442
        73 -12.1749     77.1353     73.1162   5.4216147954e+01   5.2138168486e+01    0.5138254    0.3270105 -22.84  0.002240263    2.271    0.560
        74 -12.7317    210.5612     76.9731   2.9289457943e+01   2.5086073681e+01     0.428151    0.2384305 -76.74  0.002350891    2.199    0.545
        75 -12.0367    114.0300     79.8634   4.5703220551e+01   4.3388038120e+01    0.3759716    0.3026217 -52.52  0.001855847    1.277    0.217
        76 -12.3144    237.0207     80.0068   2.7200632367e+01   2.0468755562e+01     0.269273    0.1248972  78.77  0.001406136    3.309    0.698
        77 -12.4581    135.2881     79.3333   4.0903723709e+01   3.9035636492e+01    0.6148588    0.2904738  59.25  0.002690475    2.173    0.540
        78 -12.5353    109.4998    249.2260   7.9621293917e+01   6.2845120254e+00    0.3406771     0.277591  25.93  0.002043519    1.161    0.139
        79 -11.5475     41.6126     75.7130   6.8602334025e+01   5.7779237236e+01    0.2893908     0.192999 -50.93 0.0008221164    1.592    0.372
        80 -12.6101     28.5970    245.2123   9.9354805376e+01   1.5998954489e+01    0.4502006    0.2533198  38.05  0.002294831    1.534    0.348
        81 -14.2014      5.0793     63.3784   8.3134105861e+01   6.4558284859e+01      0.75998    0.6031765   2.14  0.003978208    1.147    0.128
        82 -12.1223     19.0201     86.0490   8.1723053705e+01   5.8276041143e+01    0.3162225     0.260611   4.75 0.0003728639    1.155    0.134
        83 -13.4707     66.5299     49.6774   5.0333554091e+01   5.8162157563e+01    0.7176133    0.5664967  82.84  0.004010505    1.717    0.418
        84 -13.3526    199.4614     69.6541   2.9135873705e+01   2.8069475884e+01    0.5275044    0.3291969  56.71  0.002749296    1.872    0.466
        85 -12.4969    134.5066     66.3970   3.7863363170e+01   4.1307394090e+01    0.5336078    0.3156572  49.95  0.002209484    1.739    0.425
        86 -11.0469    117.8867     72.1782   4.2778033398e+01   4.3899321972e+01     0.208011    0.1746021  89.40 0.0007226036    1.215    0.177
        87 -11.9412    214.9736     71.4916   2.7834060926e+01   2.5149246065e+01    0.1552543    0.1035728  72.86   0.00103909    1.609    0.378
        88 -12.1099     39.0577     67.8650   6.7364176392e+01   5.9741618384e+01    0.4094135    0.1770045  35.33  0.001723907    2.131    0.531
        89 -11.8793    158.7098     64.3657   3.3309783584e+01   3.6597804129e+01    0.4010908    0.1716307 -56.04  0.001747996    2.582    0.613
        90 -11.6604    100.0127     65.0844   4.5147021656e+01   4.8860758404e+01    0.2148556    0.1950976  66.49 0.0009339752    1.023    0.023
        91 -11.6624    199.8683     61.6651   2.7569079404e+01   2.9137812016e+01    0.1952786    0.1434838 -44.85  0.001209574    1.376    0.273
        92 -13.1200     78.9704     60.2752   4.9701439510e+01   5.4007827980e+01    0.4545731    0.4308208  31.97  0.002782281    1.078    0.072
        93 -12.2003     34.6679     60.1063   6.6907808439e+01   6.1876853820e+01    0.4587663    0.1935438 -35.92  0.001812148    2.920    0.657
        94 -12.2742     38.9678     59.8777   6.4842761567e+01   6.1283372132e+01    0.3135993    0.2067825  61.52  0.001453071    2.468    0.595
        95 -11.8124     24.8541     59.2125   7.1410947332e+01   6.3371284373e+01     0.377002    0.2244772 -41.72  0.001941582    1.691    0.409
        96 -11.8203    111.1189     58.6810   4.0650731321e+01   4.7497326464e+01    0.2246893    0.2053218  36.94 0.0003948341    1.249    0.200
        97 -14.5792    119.9542     54.8277   3.7710135702e+01   4.6163043831e+01    0.8835347    0.5561075  55.13  0.004256561    1.473    0.321
        98 -11.4049     17.7219     55.2477   7.3851406276e+01   6.4989100441e+01    0.2967089    0.1719602 -52.78  0.001527448    1.861    0.463
        99 -12.4375    135.9345     50.7863   3.3706779497e+01   4.3298909312e+01    0.4451571    0.3142346 -42.67  0.002046409    1.513    0.339
       100 -13.7704    103.1696     50.3210   4.0095176136e+01   5.0440857730e+01    0.8924871    0.5403334 -63.02  0.001296145    2.167    0.538
       101 -13.2773     97.6147     49.8158   4.1279302426e+01   5.1709222613e+01    0.5460167    0.3352636 -49.56  0.002263469    1.831    0.454
       102 -13.6635    177.7611     56.8682   2.9111988568e+01   3.3909527151e+01    0.7804174    0.3990197 -54.27  0.003446786    1.774    0.436
       103 -11.8056    151.9808     46.7798   3.0263253073e+01   4.0458602319e+01    0.2292154    0.1599132  74.55 0.0007563623    1.298    0.229
       104 -12.9897    158.1627     43.1984   2.8607092385e+01   3.9651148272e+01    0.4538584    0.4096839  57.42  0.002678971    1.387    0.279
       105 -11.5456     38.6381     46.1542   6.0208284690e+01   6.3729076444e+01    0.1728577    0.1161562 -28.42 0.0007181781    1.662    0.398
       106 -12.0234     11.6241     43.5075   7.3293218970e+01   6.7853487102e+01    0.4270555    0.2044903  12.87  0.001971871    2.233    0.552
       107 -12.7920      3.6596     42.8190   7.7808880041e+01   6.8769077843e+01    0.5335776    0.3513063   7.74  0.003140455    1.351    0.260
       108 -14.0543    212.2951     40.9930   2.2601272038e+01   2.9689323648e+01     1.537478    0.4754614  77.40  0.006487841    4.443    0.775
       109 -13.6420     98.5274    239.1263   8.1019579237e+01   9.6828488361e+00     0.830898    0.4283677  26.55  0.003839122    1.744    0.427
       110 -14.1210     91.5336    231.6429   8.1831352149e+01   1.2175060223e+01    0.6555877    0.5713373 -55.84  0.003812884    1.249    0.200
       111 -12.4770    246.6681    235.3234   5.0738725684e+01  -4.9221933926e+00    0.3118546    0.1780475 -27.72   0.00217021    1.307    0.235
       112 -11.9946    135.0423     39.3552   3.0979230187e+01   4.4996933996e+01    0.4484734    0.2359063  78.13  0.001749085    1.999    0.500
       113 -12.4075    109.9922     41.9984   3.6193540366e+01   5.0093167341e+01    0.3642325     0.165757  59.03 0.0006658192    1.917    0.478
       114 -12.9739    113.6409     37.9046   3.4307185322e+01   4.9818942949e+01    0.3213609    0.2878918  82.79  0.001092894    1.064    0.060
       115 -12.8168     23.4416    216.3522   9.8481436116e+01   2.3444567031e+01    0.8736416     0.442061  43.88  0.003923469    1.851    0.460
       116 -13.1243    131.3519     33.5200   3.0068737624e+01   4.6504197361e+01    0.4020094    0.3683892  27.94  0.001574003    1.480    0.324
       117 -12.2031     40.5296     40.3357   5.7176725002e+01   6.4337641214e+01    0.4902467    0.2297149  38.46  0.002328981    1.861    0.463
       118 -12.7328     32.8628     40.1037   6.0657664264e+01   6.5611699280e+01    0.3518935    0.2409065  22.61 0.0007175119    1.340    0.254
       119 -12.6373     75.9293     37.0185   4.3020098768e+01   5.8049443257e+01    0.4309542    0.2510236  49.33   0.00120895    1.469    0.319
       120 -11.8248     70.9411     36.2219   4.4246737324e+01   5.9182727038e+01    0.2598244    0.2202885  77.06 0.0009300275    1.318    0.241
       121 -12.7716    242.3745     36.0757   1.9630509722e+01   2.5405942794e+01    0.3972806    0.1940022  84.10  0.002285352    2.113    0.527
       122 -12.4290    104.6977     35.7255   3.5473263051e+01   5.2041447445e+01    0.3587147    0.1643675 -25.75  0.001548834    3.302    0.697
       123 -13.7398     26.4770    225.8844   9.8433984217e+01   2.0783825760e+01    0.9273291    0.4097611 -50.52  0.003874507    2.489    0.598
       124 -13.9733     20.6637    224.0145   9.9834922129e+01   2.1787955607e+01    0.7430734    0.6339216  20.76  0.003345108    1.185    0.156
       125 -13.7346     65.6031    223.2136   8.7626930731e+01   1.7254164069e+01     1.278831    0.8165717  47.49  0.006143665    1.618    0.382
       126 -13.1758     45.0228     33.4985   5.2584843581e+01   6.4551467039e+01    0.9295979    0.3712568  43.36  0.004176582    2.134    0.531
       127 -13.8571     64.4244    214.0846   8.6865393957e+01   1.9630789013e+01    0.6412302    0.4201849  55.94  0.002993215    1.734    0.423
       128 -12.9508     59.4024    212.7781   8.8107576242e+01   2.0550712922e+01    0.4766607    0.2618195 -47.60  0.001367005    1.912    0.477
       129 -12.0169     94.2670    217.9847   7.9297350823e+01   1.4972719417e+01    0.2019343    0.1915687 -11.65  0.001169829    1.045    0.043
       130 -13.7648    216.5897     28.2924   2.0043608594e+01   3.0479315005e+01    0.4233445    0.2211362 -66.87   0.00274338    1.584    0.368
       131 -12.2831    249.3897    216.3924   4.7584299474e+01  -2.3149461400e+00     0.206312    0.1541669 -36.77  0.001595434    1.197    0.164
       132 -13.6550     57.7267     26.6949   4.5082398629e+01   6.3032252065e+01     1.080753     0.287798  48.21  0.003642946    3.005    0.667
       133 -12.2455     30.5617     25.4701   5.5830872835e+01   6.8113002709e+01    0.3334605    0.1726701  30.25  0.001715721    1.799    0.444
       134 -12.3467     35.4104     23.4692   5.2675402544e+01   6.7565032865e+01    0.2695262    0.2018548  24.63 0.0009176393    1.192    0.161
       135 -12.3860    237.5032    214.8511   4.9079606509e+01  -1.0510929746e+00    0.3100605    0.1701087 -50.54  0.001873499    1.882    0.469
       136 -12.9849      4.5159    212.0685   1.0333120521e+02   2.6162710058e+01    0.5625973     0.241294 -62.80  0.002420079    2.234    0.552
       137 -12.5989     49.1085     20.1857   4.5604191386e+01   6.5466072809e+01    0.6329126    0.1446501  52.17  0.002167646    3.916    0.745
       138 -11.7182     70.9269     16.4803   3.7184816372e+01   6.1455928900e+01     0.210641    0.1982614  68.92 0.0007145544    1.161    0.139
       139 -12.8296     72.3684    206.9995   8.3743586038e+01   2.0427968983e+01    0.5032799     0.349427 -69.24  0.001832885    1.567    0.362
       140 -11.4147    175.9513     13.7471   2.0413677057e+01   3.9499072189e+01     0.151847    0.1096005 -82.15  0.000205288    1.069    0.064
       141 -12.2228     57.4449    202.9623   8.7471666077e+01   2.3279403980e+01    0.6169248    0.3201079  87.69  0.002195836    3.106    0.678
       142 -13.6238     16.0755    197.9019   9.9017179782e+01   2.8883546124e+01     1.218462    0.2315288 -55.16  0.003532876    4.430    0.774
       143 -13.9820     29.8823    169.3954   9.1763878513e+01   3.5333701475e+01     1.123269    0.7670293 -26.98  0.004675127    1.678    0.404
       144 -13.7788     22.2369    180.7810   9.5527703213e+01   3.2939628017e+01    0.9109471    0.4445137 -61.76  0.003799731    1.901    0.474
       145 -15.5202      8.3022    183.2505   1.0008303782e+02   3.3439163739e+01     1.756315     1.263987 -44.01  0.009040576    1.462    0.316
       146 -15.7434     10.0817    175.3348   9.8819513675e+01   3.5451984256e+01     1.984357     1.568308 -86.53   0.01061296    1.230    0.187
       147 -13.2294     38.9031    194.8438   9.1958291111e+01   2.7498016666e+01    0.6264877    0.4099079  43.60  0.002960753    1.509    0.337
       148 -11.8308     48.9899    181.2068   8.7182297195e+01   3.0030781955e+01    0.3621227     0.209204 -53.15  0.001557264    1.692    0.409
       149 -11.4851    198.9978    181.5020   4.9884672859e+01   8.7764485261e+00    0.1543209    0.1084087  64.30 0.0008101508    2.505    0.601
       150 -12.2605    124.5015    166.6747   6.2822297159e+01   2.2797233190e+01    0.6133464    0.3420893 -59.62   0.00256243    1.963    0.491
