#   1 NUMBER                 Running object number                                     
#   2 MAG_AUTO               Kron-like elliptical aperture magnitude                    [mag]
#   3 X_IMAGE                Object position along x                                    [pixel]
#   4 Y_IMAGE                Object position along y                                    [pixel]
#   5 X_WORLD                Barycenter position along world x axis                     [deg]
#   6 Y_WORLD                Barycenter position along world y axis                     [deg]
#   7 A_WORLD                Profile RMS along major axis (world units)                 [deg]
#   8 B_WORLD                Profile RMS along minor axis (world units)                 [deg]
#   9 THETA_WORLD            Position angle (CCW/world-x)                               [deg]
#  10 FWHM_WORLD             FWHM assuming a gaussian core                              [deg]
#  11 ELONGATION             A_IMAGE/B_IMAGE                                           
#  12 ELLIPTICITY            1 - B_IMAGE/A_IMAGE                                       
         1 -12.6945    226.8451      7.5319   3.4712923077e+02   2.9641761767e+01     1.139009    0.3960257 -52.95  0.005942134    2.107    0.525
         2 -12.8992    244.7791     38.5057   3.5250870247e+02   2.2999183342e+01     1.279831    0.7836511 -61.22  0.007657459    1.390    0.281
         3 -12.5451    227.9741     48.4605   3.5576580904e+02   2.4717340582e+01     1.597076      0.49244 -43.04  0.007374709    2.306    0.566
         4 -12.4337    246.5841      4.3573   3.4567316203e+02   2.6430673966e+01    0.6953503    0.4312916 -80.07  0.005024245    1.508    0.337
         5 -11.4786    206.2362     41.6873   3.5608355107e+02   2.9720425111e+01    0.8481624    0.3634275 -66.91  0.003608234    3.001    0.667
         6 -12.9101    244.9717     16.6156   3.4814085141e+02   2.5437221796e+01    0.7825619    0.6735007  84.98  0.005023587    1.441    0.306
         7 -11.1822    142.9611     28.9542   3.5966303477e+02   4.5515795461e+01    0.5372317    0.3930491  87.83  0.002510809    1.288    0.224
         8 -11.6959    184.4478     22.7708   3.5335639755e+02   3.6600291508e+01    0.7837024    0.5391522  83.02  0.004713832    1.407    0.289
         9 -10.9891    205.0808     21.3437   3.5142766183e+02   3.2402147717e+01    0.5304756    0.2639782 -42.35  0.002941464    1.593    0.372
        10 -12.3285     94.4214     12.0274   1.6866690444e+00   5.9536862958e+01     1.000953    0.6490051 -68.02   0.00370782    1.769    0.435
        11 -11.4328     22.6302     12.6564   3.1522383035e+01   7.5025265321e+01    0.3366748    0.2710657 -17.32  0.001658572    1.238    0.192
        12 -12.5425    205.3449      7.0721   3.4810101189e+02   3.3878500283e+01     1.255224    0.5639868 -79.22   0.00650445    2.204    0.546
        13 -11.8344    168.1244      9.9946   3.5131600734e+02   4.1658466059e+01    0.7725359    0.3463637 -79.94  0.003484004    2.380    0.580
        14 -11.3986    180.3235      2.7804   3.4851528462e+02   3.9617251577e+01    0.3833626    0.2930905 -59.46  0.002532523    1.068    0.064
        15  -9.8561     45.7108     12.6859   1.7665306640e+01   7.0806144813e+01    0.2436699    0.1858114 -78.54 0.0009344023    1.967    0.492
        16  -9.5979    125.3945      5.5741   3.5418344085e+02   5.2390103995e+01    0.2679575    0.0652483 -39.87 0.0009626449    3.414    0.707
        17 -11.1304    166.1913      1.9783   3.4924502501e+02   4.2884792601e+01    0.5556782    0.1800642  79.81  0.002298114    2.884    0.653
        18 -10.3224     39.9360      2.4790   1.3864461343e+01   7.3214055275e+01    0.4476323    0.2515339  62.65  0.002244222    1.912    0.477
        19 -10.8203     29.1322      8.3903   2.4127804589e+01   7.4576057420e+01    0.2499191    0.2252809  22.24 0.0004844808    1.044    0.042
        20  -9.8835     80.2656      1.5679   3.5990392289e+02   6.4016850618e+01    0.3408875    0.1036732  65.40  0.001298388    2.661    0.624
        21  -9.2136    185.6103    202.1667   3.2569431578e+01   7.3851107000e+00    0.1738763   0.09735971 -30.37 0.0009475435    1.710    0.415
        22 -10.1330    247.0802    249.0956   2.9448035355e+01  -5.0704937233e+00    0.1986363   0.09602445 -28.47  0.001403078    1.663    0.399
        23 -10.9680    165.9268    198.1212   3.5720467289e+01   1.0617782175e+01    0.5007423    0.2866358 -41.42  0.002681967    1.721    0.419
        24 -10.8733    248.5490    196.0653   2.1427592611e+01   1.1116747511e+00    0.4669743      0.19972 -36.71  0.002626864    1.894    0.472
        25  -9.8897    227.5133    198.9739   2.4965348585e+01   2.9304470636e+00    0.1717381   0.08979942 -34.78  0.001038091    1.606    0.377
        26 -10.4127    226.9835    191.0160   2.3749692922e+01   4.0959071372e+00    0.2845507    0.1479212 -10.24  0.001434367    2.665    0.625
        27  -9.9642    206.5035    188.6861   2.6645483559e+01   6.8701042633e+00    0.3306161     0.200614 -33.94  0.001989301    1.435    0.303
        28  -9.9930     97.9423    187.1956   4.9713155631e+01   2.2472903042e+01    0.2226125    0.1909355 -26.92  0.001255454    1.287    0.223
        29  -9.3332    122.5039    181.5642   4.2651646747e+01   2.0064277282e+01    0.2357257     0.139275 -68.28  0.001023648    2.364    0.577
        30  -9.7325    249.8876    180.8850   1.8784020597e+01   2.9582749939e+00     0.206705    0.1197749 -35.90  0.001376325    1.407    0.289
        31  -9.8333     85.3399    180.5941   5.2135468762e+01   2.5774066045e+01    0.3205672     0.232742  87.28   0.00159262    1.687    0.407
        32 -10.2346    179.3620    170.0679   2.8220025359e+01   1.3628232901e+01    0.3974986    0.3046302 -71.66  0.002165225    2.059    0.514
        33 -11.2883    124.5201    167.2908   3.9708016450e+01   2.2806591143e+01    0.7280675    0.4615853 -65.36  0.003333297    1.967    0.492
        34 -10.6569      8.7560    168.9673   7.3343539759e+01   3.7344328061e+01    0.3514613    0.1797429  74.75  0.001611858    1.900    0.474
        35  -9.1357    192.7720    164.0859   2.4643851336e+01   1.2687134703e+01    0.2149331     0.129937 -19.36  0.001082893    1.932    0.482
        36 -10.1683    180.3169    157.9565   2.5752018885e+01   1.5639134677e+01    0.3950044    0.2025438  36.09  0.001883549    2.107    0.525
        37 -10.4638    111.1153    155.5614   4.1007062676e+01   2.7650581074e+01    0.4182279    0.3110604 -85.81  0.001369335    1.776    0.437
        38 -11.0592    207.5360    155.5296   2.0537567256e+01   1.1963961169e+01    0.3723958    0.2657962  37.55   0.00229361    1.601    0.375
        39  -9.4527     72.3250    155.3648   5.2164854196e+01   3.3825910938e+01    0.4015579    0.2254442 -44.03  0.001671258    2.044    0.511
        40 -10.7641    247.0928    149.9111   1.3827108630e+01   7.5254412100e+00    0.4013237    0.2613085 -46.30  0.002641532    1.545    0.353
        41  -9.8923    189.4789    150.5236   2.2624147609e+01   1.5519224150e+01    0.1300043    0.1139919 -27.19 0.0001680113    1.015    0.015
        42  -9.2087    149.2960    141.5361   2.8772978875e+01   2.4022465739e+01    0.2650825    0.1383253  45.33  0.001133874    2.034    0.508
        43 -11.1076    246.8605    135.9366   1.1326367987e+01   9.5318494908e+00    0.4163733    0.3306669 -54.97  0.002992511    1.488    0.328
        44 -10.0538    230.6187    136.8038   1.3565331879e+01   1.1605508187e+01    0.3269926    0.1541334 -32.36  0.001692662    1.848    0.459
        45  -9.5786    204.6690    133.9948   1.6777606955e+01   1.5933019301e+01    0.2124037   0.08588582 -54.32  0.000705088    4.334    0.769
        46 -10.7000    133.1202    131.4129   3.0338299286e+01   2.9154396960e+01    0.4260207    0.3306861 -68.09  0.001909025    1.476    0.323
        47 -10.2558    222.8872    127.0226   1.2715250549e+01   1.4226086031e+01    0.2903801     0.199642 -51.45  0.001464499    1.478    0.323
        48 -11.3076    108.3092    124.5395   3.5323149336e+01   3.5443328569e+01     1.198371    0.6867952 -67.67  0.004603223    2.324    0.570
        49 -10.3528    100.1180    124.1100   3.7611858351e+01   3.7083864371e+01    0.9120345    0.7628046 -20.32  0.004104395    1.424    0.298
        50 -10.9654    242.8730    121.6878   9.1421290236e+00   1.2112155365e+01    0.2441736    0.1373468 -41.16  0.001468127    1.397    0.284
        51  -9.5706    145.0480    120.8492   2.5104780380e+01   2.9088148185e+01    0.2218603    0.1970295  85.41 0.0005122995    1.267    0.211
        52  -9.5732     78.5049    118.5381   4.3223784143e+01   4.2342859178e+01    0.3184133    0.1517107 -58.12  0.001191073    2.097    0.523
        53 -10.6728    245.8056     98.6652   4.3835127394e+00   1.4964118236e+01    0.3153186    0.2256548  67.74  0.002144655    1.873    0.466
        54 -11.7450    248.4967    105.1348   5.3525396914e+00   1.3664304587e+01    0.5611989    0.2772959 -38.60  0.003250487    1.518    0.341
        55 -11.9413    248.4673    113.1629   6.8866459207e+00   1.2541482054e+01    0.4369468     0.373747 -27.92  0.003315994    1.164    0.141
        56  -9.7464    194.2462    113.7939   1.4158102915e+01   2.1091585061e+01     0.179215    0.1495368 -13.50 0.0009365035    1.346    0.257
        57 -11.9462    107.9939    108.6546   3.1549469546e+01   3.9212213505e+01     1.102507    0.6741317 -74.21  0.004142012    2.528    0.604
        58  -9.8409      6.7948    119.4060   7.0478686487e+01   5.0725572220e+01    0.2343655     0.183349  -1.33  0.001266463    1.478    0.323
        59  -9.1179    127.3745    114.1244   2.7697479883e+01   3.4053416940e+01    0.2182457     0.137965 -57.73 0.0008281841    1.695    0.410
        60 -12.2063    236.3277    107.0827   7.0710729831e+00   1.5187823264e+01     0.713925    0.2703477 -47.39  0.003304825    2.430    0.589
        61 -11.5940      6.3387    109.3142   6.9694226635e+01   5.3517118218e+01    0.4680136    0.2345605 -66.98  0.002036147    1.767    0.434
        62  -9.3563    167.6697    103.8895   1.6409014267e+01   2.7889114644e+01    0.3094012    0.1549436 -59.78  0.001151088    2.873    0.652
        63  -9.0685    151.3474    104.7049   1.9816723887e+01   3.1064812862e+01    0.1483121     0.112322 -82.09 0.0003173657    1.673    0.402
        64  -9.3421    128.0841    102.1207   2.4456264390e+01   3.6481503660e+01    0.2291703    0.2117898  -2.17 0.0008286505    1.253    0.202
        65 -10.6011     46.1776     99.2935   5.1095578206e+01   5.2377977657e+01    0.4837942    0.3332535  73.91  0.001705147    1.788    0.441
        66 -10.2666    110.5275    100.0446   2.8555214869e+01   4.0641209822e+01    0.3207221    0.2363099  49.07  0.001428324    1.369    0.270
        67 -12.2914     20.1703     95.0241   6.1725382851e+01   5.6407041345e+01    0.7096462    0.4922911  58.14  0.002832263    1.563    0.360
        68 -10.6745     32.2596     95.7542   5.6378810705e+01   5.5025965158e+01    0.5073635    0.2936672  85.94  0.002059091    2.251    0.556
        69  -9.5252    191.0028     96.5037   1.0767402668e+01   2.4607440897e+01    0.1897786    0.1335043  56.91  0.001042832    1.619    0.383
        70  -9.4763      1.6766     93.3251   7.0051140796e+01   5.8121816973e+01    0.1474566   0.09282242  57.56 0.0007048071    1.687    0.407
        71 -12.0175    230.0024     86.3889   3.5796610631e+00   1.9196735830e+01    0.7850431    0.3713062 -44.86  0.004167691    1.683    0.406
        72 -12.1182    237.1945     79.7299   1.4767733672e+00   1.8950849150e+01    0.9333087    0.5235163 -69.50  0.004980248    2.439    0.590
        73 -12.1116    235.2103     71.6285   4.8417681295e-03   2.0392775587e+01     0.782414    0.5560228  79.65  0.005192615    1.708    0.414
        74 -10.6150    178.7203     85.3277   9.9896882646e+00   2.8909587588e+01    0.5399442    0.2588245 -55.76  0.002215987    2.411    0.585
        75 -11.0717    249.7274     79.5986   2.8354916728e-01   1.6982010255e+01    0.8385015     0.182479 -35.73  0.003233209    3.531    0.717
        76  -9.1427     60.1624     97.6689   4.5002988009e+01   5.0744297335e+01    0.3260444    0.1206892  40.22  0.001103938    2.633    0.620
        77  -9.6621    156.8026     82.8288   1.3085713197e+01   3.3995998655e+01    0.2039038    0.1618409 -76.73 0.0006807339    1.354    0.261
        78  -9.5618    113.9969     80.8065   2.2083170476e+01   4.3988391148e+01    0.3268882    0.2091016 -58.45  0.001420512    1.716    0.417
        79  -9.3150     89.6147     81.1244   2.9468772801e+01   4.9239229803e+01    0.2647679    0.2035134  58.62  0.000703359    1.353    0.261
        80 -10.7193    132.0222     78.6381   1.6995405093e+01   4.0321253232e+01    0.5011163    0.3449646 -85.33  0.001667285    1.950    0.487
        81  -9.6357    136.5376     79.4936   1.6239669181e+01   3.9132772438e+01    0.2343132    0.2132977  36.31 0.0007121915    1.258    0.205
        82 -10.9294    210.8656     77.8719   3.8833857121e+00   2.3801180200e+01    0.4711098    0.2485236 -65.34  0.002179056    2.543    0.607
        83 -10.2574    159.8104     68.8074   8.7713923434e+00   3.5730225246e+01    0.2631276    0.2157683 -71.43 0.0007656197    1.184    0.156
        84 -11.9916    175.2071     76.6355   8.3627378515e+00   3.1082677841e+01    0.8619788    0.5493749  82.01  0.004173288    1.989    0.497
        85 -11.7583    165.0383     77.1373   1.0126056723e+01   3.3184220205e+01    0.6616593    0.3680425  57.62   0.00307934    1.906    0.475
        86 -11.0225    163.3159     71.8610   9.0136923912e+00   3.4445005124e+01    0.3506882    0.2856114 -66.15  0.001913637    1.172    0.147
        87 -10.6004     54.4134     72.3684   4.0288962598e+01   5.7932824514e+01    0.4722761    0.3090884  64.31  0.001511932    2.090    0.522
        88  -9.2255     74.2608     73.6191   3.2510927751e+01   5.4026542079e+01    0.2092218    0.1428194  32.83 0.0007441487    1.583    0.368
        89 -10.8481    132.6628     66.0092   1.3088516500e+01   4.2467558842e+01    0.4674764    0.4124585  59.89  0.001566361    1.163    0.140
        90  -9.2813     82.0079     70.0587   2.8481744157e+01   5.3223506574e+01    0.2458118    0.1866294  85.70 0.0009705573    1.711    0.415
        91  -9.1942     39.4892     68.0316   4.6003152044e+01   6.1246106648e+01    0.2223036    0.1390072 -57.52 0.0007590527    1.570    0.363
        92  -9.4613     50.6536     65.8640   3.9873497986e+01   6.0067496403e+01    0.3453394      0.16424 -43.46  0.001352755    2.221    0.550
        93 -10.9824    123.8399     63.3147   1.4194824017e+01   4.5022641092e+01    0.5796354    0.2981709 -54.37  0.002309288    2.194    0.544
        94  -9.8459     56.4669     65.4661   3.7077644141e+01   5.9172992096e+01    0.2766179    0.1274742  47.66   0.00103776    2.380    0.580
        95 -10.5425    231.7763    245.2188   3.1196738241e+01  -3.3485286811e+00    0.2507286    0.1060583 -41.57  0.001487789    2.637    0.621
        96 -11.0423    248.3702    225.2904   2.5910320780e+01  -2.4803068548e+00    0.4225697    0.2503761 -44.04  0.002858171    2.261    0.558
        97 -12.4124    241.4444     54.8013   3.5602942188e+02   2.1560375910e+01    0.9832929    0.5595953 -53.34  0.006134076    1.429    0.300
        98 -10.8346    242.4381    244.4002   2.9483635063e+01  -4.1695478606e+00    0.2641064    0.1446396   1.97  0.001857869    1.625    0.385
        99 -11.9624    247.7088    237.7184   2.7786306780e+01  -3.8598655316e+00     0.686098    0.2842579 -36.69  0.004350138    2.157    0.536
       100  -9.6132    158.6630     63.5681   7.5183865299e+00   3.6839450506e+01    0.3407911    0.1729545 -62.49  0.001336316    2.583    0.613
       101  -9.3635     99.6372     64.4149   2.0849115444e+01   5.0484154912e+01    0.2227755     0.172547 -88.14 0.0008512427    1.545    0.353
       102 -10.2814      2.1712     62.1733   6.5333089927e+01   6.6272687974e+01    0.1838154     0.154616  64.86  0.001076882    1.318    0.241
       103  -9.9365     77.7006     60.6789   2.6723176765e+01   5.6065324083e+01    0.3114603    0.2785932 -23.06  0.001313504    1.238    0.192
       104 -10.7775    176.5487     57.3419   3.1990928711e+00   3.3801021294e+01    0.4785441    0.3541339 -61.17  0.002709177    1.235    0.191
       105 -10.4923    119.7731     55.5947   1.2615084206e+01   4.7317854168e+01    0.3886355    0.3231214  61.56  0.001902705    1.178    0.151
       106 -10.0407    207.7087     55.0961   3.5905323102e+02   2.7655611775e+01     0.283009    0.2388113  -8.43   0.00131691    1.612    0.380
       107 -10.8811    107.9699     53.6243   1.4803364717e+01   5.0482692958e+01    0.6406936    0.3545643  66.78  0.002633732    2.006    0.502
       108 -10.9325     96.9269     49.3153   1.6228249098e+01   5.3839740337e+01    0.5875967    0.2907393 -44.92  0.001817199    2.083    0.520
       109 -11.4102    223.8218    243.8841   3.2248937882e+01  -2.4819776118e+00    0.3060724    0.1604873   0.59  0.001940979    1.907    0.476
       110 -10.8345    179.0533     38.0994   3.5785501018e+02   3.5918245879e+01    0.5582901    0.2538151 -39.38  0.002638756    1.894    0.472
       111 -10.1028    133.0801     38.6172   4.3177241192e+00   4.6667692297e+01    0.3411927    0.2182254 -59.15  0.001124683    1.604    0.377
       112  -9.5415    104.6772     35.4807   8.9553832574e+00   5.4119042999e+01    0.2476144     0.131753 -33.62  0.001083596    1.994    0.499
       113  -9.6999    144.3443     46.8414   5.0086010628e+00   4.2760069854e+01    0.3204654    0.1734449 -62.62  0.001258205    2.174    0.540
       114 -10.4931    116.4099     36.9366   6.9013253086e+00   5.1016256207e+01    0.5575596    0.2758334  43.30  0.002232653    2.517    0.603
       115 -10.9938    164.8084     30.6867   3.5742031629e+02   4.0093463002e+01    0.6316685    0.3002601 -77.47  0.002591369    2.736    0.635
       116  -9.8691     38.3435     33.4735   3.3103258261e+01   6.8885959564e+01    0.3183173    0.1250212  41.76 0.0009153846    2.481    0.597
       117 -11.5285    209.2624    240.4489   3.4131848038e+01  -6.8751908086e-01    0.5163886    0.2990685 -36.68  0.003496835    1.721    0.419
       118  -9.6970    155.2759    239.9107   4.3905110197e+01   5.1349368211e+00     0.160086    0.1306424 -10.17 0.0006397445    1.151    0.131
       119 -10.4762    232.4326    238.4086   3.0149526140e+01  -2.6091477767e+00    0.2350425    0.1323674 -12.36  0.001623255    1.530    0.346
       120  -9.9058     56.2335     26.6053   2.0597474799e+01   6.6657413637e+01    0.3660219    0.2124882  71.76  0.001461274    2.934    0.659
       121 -10.6774    222.7082    236.3443   3.1371410466e+01  -1.4643827521e+00     0.237794    0.1223322 -37.79  0.001518512    1.893    0.472
       122  -9.3381     35.6193     22.9343   2.9166443733e+01   7.1210729532e+01    0.2242045    0.1704862  25.56 0.0006642832    1.283    0.220
       123 -10.5729     20.9968     22.6693   3.8745868951e+01   7.3529806152e+01    0.2228922    0.1932586 -85.11  0.001346932    1.614    0.381
       124  -8.9145     96.7949     27.3841   7.6344193489e+00   5.7162035683e+01    0.2020006    0.1168456  53.86  0.000727343    1.615    0.381
       125 -10.9486     12.9966     20.6569   4.3884496493e+01   7.4906900640e+01    0.2679868    0.2382859  -3.47 0.0009119757    1.026    0.026
       126 -11.7623    227.8294    229.0530   2.9520882132e+01  -1.0462964516e+00    0.4248777    0.2787548 -10.44  0.003132718    1.205    0.170
       127  -9.5832    172.5894    233.7504   3.9726909124e+01   4.0916681716e+00    0.1423429    0.1089225 -47.24 0.0009547749    1.664    0.399
       128  -9.5629    191.6317    226.7905   3.5233117435e+01   2.9756032530e+00    0.1435159    0.1004762 -43.30 0.0006034116    1.679    0.405
       129  -9.0237    174.3257    220.1664   3.7466222125e+01   5.9434829860e+00     0.227254   0.09058484 -37.23  0.001076138    2.532    0.605
       130 -10.3936    249.5213    216.5717   2.4457130865e+01  -1.5425150524e+00    0.2310516    0.1624135 -36.88  0.001702889    1.606    0.378
       131 -11.6910    238.2296    214.9684   2.5848051375e+01  -2.7978922289e-01    0.3659197    0.2636956 -24.84  0.002065892    1.202    0.168
       132  -9.7811    186.5849    212.7602   3.4053593345e+01   5.6191138917e+00    0.1539799    0.1075141 -46.16 0.0008977858    1.677    0.404
       133  -9.6498    141.3815    216.1893   4.3581897752e+01   1.0708770174e+01    0.1621152    0.1224715 -61.88 0.0009543069    1.746    0.427
       134 -10.2844    239.4244    205.3937   2.4198227770e+01   8.2599018397e-01    0.2780254    0.1686219 -25.52  0.001520934    1.289    0.224
       135  -9.3498     71.9276    206.2895   5.8817739355e+01   2.1708145255e+01    0.1983207     0.157466  30.21  0.001146677    1.137    0.121
