#   1 NUMBER                 Running object number                                     
#   2 MAG_AUTO               Kron-like elliptical aperture magnitude                    [mag]
#   3 X_IMAGE                Object position along x                                    [pixel]
#   4 Y_IMAGE                Object position along y                                    [pixel]
#   5 X_WORLD                Barycenter position along world x axis                     [deg]
#   6 Y_WORLD                Barycenter position along world y axis                     [deg]
#   7 A_WORLD                Profile RMS along major axis (world units)                 [deg]
#   8 B_WORLD                Profile RMS along minor axis (world units)                 [deg]
#   9 THETA_WORLD            Position angle (CCW/world-x)                               [deg]
#  10 FWHM_WORLD             FWHM assuming a gaussian core                              [deg]
#  11 ELONGATION             A_IMAGE/B_IMAGE                                           
#  12 ELLIPTICITY            1 - B_IMAGE/A_IMAGE                                       
         1 -12.4390      3.5754     44.7850   8.6482837451e+01   6.5150057722e+01    0.7940032    0.2588233 -68.04  0.003541018    3.059    0.673
         2 -11.3921     17.5453     20.6366   7.3371851424e+01   6.8792463173e+01     0.429564    0.2764181 -24.80     0.001582    1.365    0.268
         3 -11.1481      2.0219     20.4898   8.0407523015e+01   6.9807471790e+01    0.2910969    0.1715303 -58.86 0.0008004923    1.526    0.345
         4  -9.6056     72.5558     13.7964   4.7927371808e+01   6.3085355892e+01    0.2539557    0.1093094 -33.93   0.00110205    2.212    0.548
         5 -11.2458     34.5603     12.0576   6.2156501559e+01   6.8616115163e+01    0.2977798    0.2537735  12.23  0.001676984    1.325    0.245
         6 -11.7242     29.3503      8.1526   6.2724901592e+01   6.9747363707e+01    0.3870105    0.2454336  -5.03  0.002147171    1.580    0.367
         7 -11.1750    235.2958     14.5957   1.6871509488e+01   2.4021418287e+01    0.3075502    0.2141531  56.95  0.001565313    1.498    0.333
         8 -10.6429     83.1429     15.5343   4.5174786121e+01   6.0999346112e+01    0.3039645    0.1798678   8.03 0.0009158645    2.105    0.525
         9  -9.5200      8.5280      9.0238   7.3092106636e+01   7.1381701631e+01     0.188417    0.1388958  88.99 0.0009158418    3.574    0.720
        10 -10.8400      3.9446      7.6440   7.4816516552e+01   7.1901350193e+01    0.2925699    0.2077699 -31.19  0.002245388    1.041    0.039
        11 -10.0608     13.2113     12.4254   7.2199216686e+01   7.0496175082e+01    0.2369518    0.1377444  34.11  0.001521676    2.316    0.568
        12 -11.5569    208.0549     12.7655   1.9279993468e+01   3.1131017956e+01     0.315077    0.2778845 -14.14 0.0004396562    1.304    0.233
        13 -10.9235    203.3537     12.4879   1.9754817042e+01   3.2385591646e+01    0.3918919    0.2080398  87.54  0.001641262    2.158    0.537
        14 -10.0380    200.5151      1.4489   1.6991417363e+01   3.4242205901e+01    0.2484257    0.1374901  38.37  0.001094778    2.238    0.553
        15 -10.3723    196.8154      9.8370   1.9792047795e+01   3.4376597622e+01    0.2489205    0.1952357 -87.82 0.0006768694    1.246    0.197
        16 -11.3880    197.2896      5.3152   1.8443932760e+01   3.4708752638e+01    0.3802345    0.1889688  67.03   0.00132325    1.789    0.441
        17 -11.2770    194.0105      5.0176   1.8744771866e+01   3.5596499137e+01    0.3977358     0.259705  24.54  0.001597108    2.019    0.505
        18 -12.2615    194.3233     11.7078   2.0641979146e+01   3.4836735642e+01    0.4853179    0.4399226 -62.00  0.002543698    1.116    0.104
        19 -11.2031    191.2930      9.9223   2.0505683341e+01   3.5819657826e+01     0.378647    0.2246854 -22.43 0.0003230773    1.869    0.465
        20 -10.1634    248.7954     12.0556   1.5015386133e+01   2.1050986494e+01    0.2021813    0.1507968 -62.35 0.0003221965    1.213    0.176
        21 -12.0827    125.9940     10.8668   3.1793780878e+01   5.2427476805e+01    0.3009582    0.2685863 -57.35  0.000279422    1.347    0.257
        22 -10.1313     91.5268     11.8625   4.0993664406e+01   5.9841667593e+01    0.3758014    0.1370653  38.30  0.001465682    2.848    0.649
        23 -10.9607     44.7216     10.3508   5.6984283518e+01   6.7667429196e+01    0.3758498    0.2402606   5.36  0.001768364    1.638    0.390
        24 -10.9524    171.5869     10.4061   2.3371278574e+01   4.0962626586e+01    0.3528243    0.1798405 -41.29  0.001522497    2.099    0.524
        25  -9.6857     97.4601     10.4730   3.8691918068e+01   5.8802353816e+01    0.2413186    0.1830026 -31.09  0.001239025    1.418    0.295
        26  -9.3846     98.2850      7.3096   3.7105902435e+01   5.8968164913e+01    0.1896174    0.1526075  36.50 0.0002513905    1.128    0.113
        27 -10.2847     51.2134     10.7426   5.4499158875e+01   6.6756634612e+01    0.2398214    0.1506543  28.29 0.0005947935    1.602    0.376
        28 -10.2834     56.0359      8.6177   5.1590803420e+01   6.6354406315e+01    0.2490172    0.1639024   4.49 0.0009831908    1.520    0.342
        29 -10.2294    148.4396      9.2952   2.6777590162e+01   4.7064304437e+01     0.254027    0.1421705 -13.04  0.001045043    2.076    0.518
        30  -9.9078    182.3124      9.6918   2.1619941433e+01   3.8210412735e+01    0.1468734    0.1016487 -66.02 0.0002729734    1.624    0.384
        31 -11.3869    116.8896      8.5256   3.2927708853e+01   5.4782062081e+01     0.284667    0.2559775   2.72 0.0006751234    1.110    0.099
        32  -9.8503     16.4559      8.4854   6.8979019101e+01   7.0879846537e+01    0.2009385    0.1017896 -35.03 0.0008500439    1.518    0.341
        33 -11.9005     19.6195      2.4062   6.4649808480e+01   7.1529524753e+01    0.3288579     0.202427  -7.06  0.001744232    1.589    0.371
        34  -9.8098     12.3924      1.9967   6.8077293558e+01   7.2201630965e+01    0.2004945    0.1799243  89.99  0.001494946    2.227    0.551
        35  -9.8889    165.3665      7.8162   2.3476941769e+01   4.2846341385e+01    0.1817862    0.1335599   2.50 0.0009217276    1.612    0.380
        36  -9.7263     88.8817      6.4022   3.9368548989e+01   6.0961988118e+01     0.206218    0.1379076 -10.09 0.0006682578    1.460    0.315
        37  -9.4223    246.9891      5.9697   1.3735513441e+01   2.2148118779e+01    0.1559659    0.1310054 -82.61 0.0009555464    1.070    0.065
        38 -10.5787    104.8754      3.9369   3.3942782441e+01   5.7903620629e+01    0.2613138    0.1892972  17.51  0.000997566    1.333    0.250
        39 -10.3144     59.7552      3.2740   4.7593270304e+01   6.6447685485e+01    0.2316822    0.1942781  63.83  0.001239536    1.945    0.486
        40  -9.4840     38.8894      3.9126   5.6397212302e+01   6.9271268553e+01    0.1373442    0.1191476 -12.66 0.0003742601    1.278    0.218
        41 -11.2601    150.0330      2.6728   2.4191211596e+01   4.7275707658e+01    0.3819327    0.2261567  82.10  0.001328005    1.956    0.489
        42 -10.8833    162.4870      1.9389   2.1987863269e+01   4.4139625757e+01    0.3373065    0.1965502 -89.38  0.001464639    2.104    0.525
        43 -10.8659    123.1443      1.7261   2.8853468511e+01   5.3966914786e+01    0.2316546    0.1710006  52.19  0.001287289    1.210    0.173
        44 -10.0711    169.2417      1.3923   2.0838845475e+01   4.2430563724e+01    0.2884154    0.1130787  63.82  0.001143446    2.149    0.535
        45  -9.8229     80.3634      1.3752   3.9643439770e+01   6.3111269952e+01    0.1478831    0.1138446  48.50 0.0004768855    1.395    0.283
        46  -9.4844     28.7709      1.3251   5.9710452693e+01   7.0778099113e+01    0.1519277   0.08999071  17.22 0.0007078193    1.737    0.424
        47 -10.6792     29.0104    143.0458   9.4503337636e+01   4.2324528715e+01    0.1725525    0.1348475 -86.65   0.00120347    1.005    0.005
        48 -10.3369    110.0441    250.5722   8.9685488191e+01   1.1249675999e+01    0.1697569   0.08379045  46.56 0.0005349806    1.550    0.355
        49 -10.6188     28.2631    250.4576   1.0239581110e+02   2.1943644634e+01    0.2176309   0.06737921  44.48  0.001075097    2.471    0.595
        50 -11.8660     18.4112    248.2660   1.0371142218e+02   2.3347001821e+01    0.2578626    0.2037953 -89.48  0.002289856    1.465    0.317
        51 -12.1300      3.2446    247.7622   1.0582311991e+02   2.4950526511e+01     0.448638    0.2808821  66.05  0.003080148    1.089    0.082
        52 -12.6837     10.7695    243.9619   1.0461773291e+02   2.4820098157e+01    0.5144413    0.2071087  89.23   0.00338095    2.112    0.526
        53 -12.3291      5.5363    240.1912   1.0521072039e+02   2.5948341411e+01    0.3885641    0.2828797  38.60  0.003285614    1.925    0.481
        54  -9.4869    236.1951    138.3951   4.7660633541e+01   5.6806045527e+00    0.1871591    0.1360675  57.31 0.0009247556    1.586    0.369
        55  -9.7525     95.8718    133.8728   7.7102449448e+01   3.5837599784e+01    0.1941507    0.1544527  88.72 0.0007334455    1.300    0.231
        56  -9.3998    213.9089    134.0000   5.0683029501e+01   1.1196356101e+01    0.2477498   0.08212564  49.79 0.0008072613    2.976    0.664
        57 -10.5599     41.0638    128.2368   8.9855953102e+01   4.4400928365e+01    0.2674129    0.1114574 -48.58  0.001205629    2.695    0.629
        58 -11.0361     11.2888    127.7066   9.6966404270e+01   4.7132918156e+01    0.3154437    0.1240531 -74.25  0.001646252    1.966    0.491
        59  -9.4510    226.4810    124.5393   4.6142216392e+01   9.9886372529e+00    0.1441572    0.1391026  -9.46 0.0001417776    1.055    0.052
        60 -11.3403     25.3837    122.2793   9.2959120915e+01   4.7195091403e+01    0.2907358     0.201204  66.35    0.0018814    1.494    0.331
        61 -11.5380      9.9609    120.7567   9.6560686372e+01   4.8728910345e+01    0.3076526    0.2157432  71.56 0.0002115827    1.399    0.285
        62 -10.1205     86.3655    118.7877   7.6569084418e+01   4.0744837428e+01    0.2006274    0.1156483 -48.90 0.0005061312    1.686    0.407
        63 -10.2612     69.1485    116.6930   8.0732643141e+01   4.3701797901e+01    0.2214799    0.1611809 -72.48 0.0005699192    1.284    0.221
        64 -10.7012      1.9596    113.9112   9.7793360614e+01   5.0730758806e+01    0.1962043    0.1193185 -76.25            0    1.222    0.182
        65 -10.9548     13.2199    108.2213   9.4295001832e+01   5.1222372490e+01    0.2118881    0.1232603 -81.92  0.000902884    1.461    0.315
        66 -10.6864     44.3547    110.1515   8.6259548094e+01   4.8114386727e+01    0.1752344    0.1640844 -50.14 0.0003905113    1.222    0.182
        67 -10.2539     27.4040    108.1850   9.0534691668e+01   5.0139861119e+01    0.1721915   0.09548549 -79.28 0.0006986905    1.652    0.395
        68 -10.6229     39.1258    105.1814   8.6862921366e+01   4.9750208270e+01    0.1849689    0.1405993 -53.35 0.0007868646    1.230    0.187
        69  -9.7262     66.7396    104.4377   7.8973756055e+01   4.6787673473e+01    0.1654646    0.1314857  12.49 0.0009424933    1.650    0.394
        70 -10.9320     13.1314    103.6951   9.3738848697e+01   5.2214817995e+01    0.2205678    0.1260749 -65.35 0.0007585697    1.336    0.251
        71 -10.0196      1.4273    104.0343   9.6864191809e+01   5.2879960678e+01    0.1762805   0.08012944 -70.20   0.00101384    1.599    0.374
        72  -9.4463    186.4360    102.7929   4.8317807212e+01   2.3192121532e+01    0.2128376    0.1515972 -21.34 0.0006294252    1.614    0.380
        73 -10.0038    247.4341    101.4731   3.7099357939e+01   9.0319293624e+00    0.1426146    0.1311485 -16.55 0.0002354302    1.031    0.030
        74 -12.6205    197.1497     97.5440   4.4780559104e+01   2.1516212015e+01    0.2931535    0.2846382  52.27 0.0003911881    1.036    0.035
        75  -9.7183     61.3308     99.3305   7.9453863543e+01   4.8621675187e+01    0.1344135   0.09259582 -33.52 0.0007051874    1.718    0.418
        76 -10.1026     37.1839     95.9068   8.5797721588e+01   5.1998756514e+01    0.1845823    0.1447647 -83.66 0.0004221353    1.246    0.197
        77 -12.1991     20.1121     93.0382   9.0261348866e+01   5.4047297402e+01    0.4047957    0.2674448 -40.13  0.002572064    1.636    0.389
        78  -9.6122     93.6488     94.8193   6.9083518864e+01   4.4907677041e+01    0.2017469     0.125502 -59.71 0.0004932019    1.659    0.397
        79 -11.4266     10.9163     93.3000   9.2928703623e+01   5.4619136874e+01    0.2722323    0.1589198 -59.52 0.0004247792    1.343    0.255
        80 -11.6473      7.0783     90.6236   9.3640211186e+01   5.5432368184e+01    0.3483332    0.1393497 -67.85 0.0004378816    1.829    0.453
        81 -11.8828    125.1663     93.0899   5.9973507928e+01   3.9311412014e+01    0.2604026    0.2517439  21.87 0.0002669229    1.071    0.067
        82  -9.8604     44.5898     94.1135   8.3288338268e+01   5.1674072212e+01    0.2537265    0.1449264 -79.07  0.001011287    2.023    0.506
        83 -10.1766     30.7974     93.6426   8.7257049418e+01   5.3068742584e+01    0.2501864    0.2234235  83.98  0.001652582    1.210    0.174
        84 -10.4363    105.8525     91.7677   6.4841238693e+01   4.3405503301e+01     0.273601    0.1871942 -73.52 0.0007470729    2.017    0.504
        85 -11.3878     58.0824     91.3332   7.8686358988e+01   5.0796014453e+01    0.3010856    0.2001348 -30.44 0.0007990102    1.835    0.455
        86  -9.8681     83.2343     90.1819   7.0914303520e+01   4.7600660507e+01    0.1947489    0.1727358 -31.25 0.0005572915    1.163    0.140
        87 -10.3508    159.9956     89.0516   5.0261548407e+01   3.2215549050e+01    0.2469839    0.1926511 -79.91 0.0005582015    1.660    0.398
        88 -10.7183     65.9677     88.5260   7.5663411404e+01   5.0427456652e+01    0.2885149    0.1383968 -31.47  0.001051367    3.607    0.723
        89  -9.9841     30.0884     84.6798   8.5830390366e+01   5.5092586754e+01    0.1537177    0.1342016 -55.00 0.0004014759    1.114    0.102
        90 -10.0511     17.9239     84.7180   8.9545324988e+01   5.6011526100e+01    0.2192835     0.117674 -49.30 0.0009471999    1.619    0.382
        91  -9.4712     34.7943     84.3941   8.4323979033e+01   5.4748982582e+01    0.1431298    0.1155619  -7.15 0.0004749032    1.569    0.363
        92 -10.7631      8.4799     83.3609   9.2163651335e+01   5.6908358775e+01    0.3652725    0.1638793 -32.77  0.001827763    3.074    0.675
        93  -9.8488      2.5057     83.5131   9.3958352807e+01   5.7209954766e+01    0.1134169   0.08377995 -67.11 0.0002693541    1.018    0.018
        94  -9.7974    250.4051     80.7320   3.1599105746e+01   1.1522072837e+01    0.1907071    0.1313396 -21.79 0.0005447677    1.501    0.334
        95  -9.8035    178.4236     81.1675   4.3991057338e+01   2.9102409708e+01    0.2122093    0.1442202 -47.91 0.0003172717    1.550    0.355
        96 -10.5332     66.2141     80.1141   7.3501119696e+01   5.2220219785e+01    0.3416752    0.2170741 -22.51  0.001421286    2.177    0.541
        97  -9.0089     43.2238     80.6755   8.0899808709e+01   5.4761513457e+01    0.1174947   0.08682386 -81.35 0.0001556047    1.505    0.336
        98 -10.4900     48.0710     78.9573   7.8965336056e+01   5.4632728041e+01    0.1889795     0.155266 -48.99 0.0003622304    1.057    0.054
        99 -11.8946      4.9156     74.7482   9.1887049915e+01   5.8939942676e+01    0.3292892    0.2083624 -67.07  0.002209612    1.190    0.160
       100  -9.8752     22.5993     76.7612   8.6649673335e+01   5.7391183102e+01    0.1638589    0.0954849 -72.90 0.0004047918    1.590    0.371
       101 -11.6099     12.8114     76.4639   8.9698225453e+01   5.8119221940e+01    0.2933145    0.1984606 -10.20  0.001915671    1.992    0.498
       102  -9.9952    177.0023     76.3347   4.2883111733e+01   3.0310142435e+01    0.2324351    0.1985513  53.47 0.0009586363    1.156    0.135
       103 -10.8421     53.5244     75.4758   7.6364280643e+01   5.4777014611e+01    0.3504987    0.2409626  24.58  0.001710837    1.740    0.425
       104 -10.2660     86.4369     78.4988   6.6812323733e+01   4.9588021098e+01    0.3800474     0.266351  71.61  0.001788612    2.198    0.545
       105 -11.2788    151.2293     72.2254   4.7302293656e+01   3.7460944059e+01    0.2735703    0.2644429 -10.00 0.0002186279    1.040    0.038
       106 -10.1221     93.3607     71.5800   6.2676608964e+01   4.9841740826e+01    0.3393171    0.2044972  54.94  0.001529924    2.126    0.530
       107  -8.8536     34.4232     73.0000   8.2023440853e+01   5.7239412743e+01    0.2327847     0.070707  26.22  0.000948444    4.046    0.753
       108 -10.7627     11.1286     71.9208   8.9423129166e+01   5.9185344147e+01     0.166883     0.125701 -76.82  0.000313955    1.233    0.189
       109  -9.2487    105.9434     71.8050   5.9024161500e+01   4.7489642024e+01    0.1842099    0.1135699  42.34 0.0005773819    1.696    0.410
       110 -10.9182     81.0061     67.5643   6.5279946802e+01   5.2696556711e+01    0.3963602    0.1716422 -47.62            0    2.117    0.528
       111  -9.4659     87.5041     75.4481   6.5610043087e+01   5.0046901348e+01    0.2299692    0.2045912 -16.44 0.0005325341    1.162    0.139
       112  -9.9830     46.3890     69.1788   7.7118404113e+01   5.6892484911e+01    0.2717297    0.2006152  46.23  0.001015343    1.679    0.404
       113 -12.4730      6.6812     65.0142   8.9611488899e+01   6.0885486195e+01    0.9413591  0.003186601 -55.51  0.003377935    4.163    0.760
       114 -10.0650     11.0274     59.5317   8.7030712291e+01   6.1775139954e+01    0.2002028    0.1567115 -16.08  0.001459494    1.495    0.331
       115 -10.7137     12.2069     55.6954   8.5777499679e+01   6.2490293589e+01    0.2790988    0.1261565 -40.13 0.0008554513    2.015    0.504
       116 -10.9060     58.8348     66.2298   7.2138249020e+01   5.6082299198e+01    0.3885051    0.1519535 -48.67  0.001162797    2.146    0.534
       117  -9.4055    211.5507     67.5062   3.4013675100e+01   2.2920238823e+01    0.1483904    0.1468803 -48.91 8.963577e-05    1.023    0.022
       118 -14.2405     20.3989     58.2057   8.3418316639e+01   6.1443728427e+01    0.5093518    0.2968502 -47.95  0.001293587    1.349    0.258
       119 -11.1557     13.1429     48.6644   8.3775360014e+01   6.3849695082e+01     0.574652     0.231193  32.10   0.00305851    3.077    0.675
       120 -10.7191    191.4865    249.4915   7.5875885574e+01  -1.6208934415e+00    0.2127139    0.1300116  20.42  0.001113234    2.020    0.505
       121  -9.9297     55.0645     61.2276   7.1979712142e+01   5.7559803273e+01    0.1956224    0.1493218 -29.71 0.0003105799    1.255    0.203
       122 -10.3205     58.6431     58.8933   7.0046681659e+01   5.7589974665e+01    0.2601026    0.1804583  27.87  0.001493469    1.640    0.390
       123 -10.0518     39.0260     61.3587   7.7605890258e+01   5.9254327129e+01    0.1635059    0.1411595 -41.46  0.000474061    1.071    0.066
       124  -9.6555     90.8528     59.7972   5.9704403421e+01   5.2577630351e+01    0.1876364    0.1605802 -57.37    0.0007731    1.316    0.240
       125 -10.4265    145.7846     58.9925   4.4391943088e+01   4.1085545015e+01    0.2667487    0.2160114  49.77 0.0009629357    1.214    0.176
       126  -9.2672     65.7293     59.2788   6.7736758497e+01   5.6586839824e+01    0.1173092    0.1010097 -77.83 0.0006891696    1.490    0.329
       127  -9.6652     48.9830     59.3698   7.3556218075e+01   5.8633713954e+01    0.1760154    0.1540908  61.87  0.001144853    1.494    0.331
       128  -9.6854     63.8967     64.3778   6.9904364133e+01   5.5812998747e+01    0.4820703    0.2045092 -63.35  0.001570468    4.500    0.778
       129  -9.3915    130.7058     57.2995   4.7529456817e+01   4.4930917100e+01    0.1453893     0.118884 -72.91 0.0002702856    1.569    0.363
       130 -10.7356     71.9289     56.8977   6.4882525447e+01   5.6173982929e+01    0.2267681     0.186291 -50.64 0.0003569304    1.238    0.192
       131  -8.9269     68.3286     56.2487   6.5889387896e+01   5.6817451081e+01    0.1309574    0.1174601 -32.07 0.0001730774    1.050    0.048
       132 -10.3677     32.9395     55.6079   7.8237425065e+01   6.0982553001e+01     0.224792    0.1334016 -37.73 0.0007284794    1.523    0.343
       133  -9.4067     36.3605     54.2801   7.6624331452e+01   6.0940253568e+01    0.1956327    0.1503958 -25.23 0.0006022056    1.291    0.225
       134 -10.2656     38.5681     51.4924   7.5008744068e+01   6.1284524019e+01     0.225733    0.1546727 -44.00 0.0004978401    1.178    0.151
       135 -13.2460    114.5562     53.2193   5.0447899183e+01   4.9182857351e+01    0.3451944    0.3120751  21.78 0.0006068795    1.088    0.081
       136 -13.1064    106.0408     50.1841   5.1808813833e+01   5.1454211004e+01    0.4219878    0.3443784  60.67 0.0007308552    1.464    0.317
       137 -12.2378     67.1112     52.5018   6.5075727026e+01   5.7705271516e+01    0.4420818    0.2289113  31.63  0.001333063    2.191    0.544
       138 -10.5836     44.9861     52.3919   7.2920400561e+01   6.0456004563e+01     0.224631    0.1425889 -40.30 0.0005509543    1.327    0.246
       139  -9.3610    181.9564     52.0249   3.4654293712e+01   3.2976501042e+01    0.1810888    0.1767633 -40.03 0.0003967116    1.050    0.047
       140 -10.0592    148.9357     52.1638   4.1425941038e+01   4.1425604403e+01    0.2269268    0.2062817 -80.10 0.0005384344    1.243    0.195
       141 -10.8071    138.5977     50.1166   4.3148126841e+01   4.4266278049e+01    0.4106452    0.2793713  28.89  0.001253794    1.676    0.403
       142 -10.0989    137.5405     46.7599   4.2253884026e+01   4.5044452471e+01    0.3722178    0.1676906  63.98  0.001273797    2.959    0.662
       143  -9.5207    232.3288     50.3028   2.6343584235e+01   2.0236687235e+01    0.1447507     0.109818  28.75 0.0002986739    1.648    0.393
       144 -12.2901    119.3920     47.3783   4.7074824454e+01   4.9114267050e+01    0.2746722    0.2560951   0.25 0.0002989665    1.017    0.017
       145  -9.9585     88.8520     49.1283   5.6671678970e+01   5.4877475527e+01     0.191218    0.1789756 -33.72 0.0002753893    1.142    0.124
       146  -9.5415    145.3021     48.0852   4.0891328435e+01   4.2957876067e+01    0.1983543     0.188742 -17.03            0    1.065    0.061
       147 -10.4284     74.6591     47.6394   6.0814279724e+01   5.7489569193e+01    0.2252959    0.2156611 -51.14 0.0007678618    1.253    0.202
       148 -10.3647    155.0529     46.9855   3.8372239878e+01   4.0692056786e+01    0.2499464    0.2192557 -33.61 0.0007864836    1.172    0.147
       149 -11.0581     68.8485     46.2601   6.2327480592e+01   5.8611628080e+01    0.3049829    0.2167812  -5.88  0.001069101    1.626    0.385
       150 -10.7298     26.2683     44.9227   7.7734909077e+01   6.3658300477e+01    0.3078225    0.2327111 -59.65  0.002083869    1.297    0.229
       151 -10.6722     30.0014     42.0895   7.5424628918e+01   6.3892137640e+01      0.45041    0.2424124 -64.71  0.002336423    2.270    0.560
       152 -11.0773     16.8553     42.3834   8.0691478627e+01   6.4845766805e+01    0.4170515    0.1958072 -53.44  0.001478309    1.594    0.373
       153  -9.9705    221.1066     43.1467   2.5937980524e+01   2.4038654372e+01    0.2028055    0.1919466  40.17 0.0002719563    1.155    0.134
       154 -12.0757     86.7804     53.8446   5.8982864215e+01   5.4389246511e+01    0.4080403    0.2809143  29.00 0.0009084003    1.579    0.367
       155 -10.2656    202.0090     41.7166   2.8262325067e+01   2.9177050424e+01    0.2078671    0.1848087  70.12 0.0002669982    1.090    0.082
       156 -11.0679    184.1479     40.5644   3.0779935874e+01   3.4044231559e+01    0.3858355    0.3260751  82.90  0.001406974    1.220    0.180
       157 -12.4459    141.5493     41.1243   3.9370994011e+01   4.4919384572e+01    0.2885881    0.2624251  54.67 0.0003537163    1.101    0.092
       158  -9.7283     86.6003     42.2011   5.4869673047e+01   5.6463021218e+01    0.1836987    0.1184932 -25.37 0.0002671815    1.536    0.349
       159 -10.5628     37.1183     41.7758   7.2541953585e+01   6.3297129508e+01    0.3184733    0.2044286   8.16  0.001350378    1.885    0.470
       160 -11.3262     79.1328     45.4719   5.8529157783e+01   5.7165445973e+01    0.2347794    0.2170571 -26.19 0.0003687157    1.121    0.108
       161 -10.4493    170.5996     40.1466   3.3053197327e+01   3.7667914036e+01    0.2680469    0.2175816 -80.57            0    1.413    0.292
       162 -12.8858    121.2409     37.3103   4.2947288848e+01   5.0249868641e+01    0.4227254    0.3665839 -20.25  0.001117031    1.144    0.126
       163  -9.7415      8.3804     38.7346   8.3071790484e+01   6.6075571051e+01    0.1610658    0.1266752  31.72 0.0009450923    1.686    0.407
       164  -9.5090     39.9463     65.4527   7.8352149496e+01   5.8319939265e+01    0.1565709     0.122024  24.16 0.0003468423    1.532    0.347
       165  -9.9110     49.9480     33.5142   6.4622508480e+01   6.3388180645e+01      0.18521    0.1377153 -35.05 0.0003361193    1.140    0.123
       166  -9.7526     40.8376     34.5660   6.8599156015e+01   6.4239697493e+01    0.1485477    0.1139371  19.86 0.0005566325    1.452    0.311
       167 -10.8048     28.6219     33.1671   7.3067603564e+01   6.5673373596e+01    0.2244057    0.1410444 -25.95 0.0005409278    1.500    0.334
       168 -11.5235    205.9936     32.2783   2.4995796927e+01   2.9376068853e+01    0.2549013    0.2373106 -59.42 0.0002978631    1.065    0.061
       169 -10.0348    144.5790     31.8268   3.5461744931e+01   4.5457704712e+01    0.2885017    0.2049015 -55.06  0.001364831    1.717    0.418
       170 -10.3412    144.3194     28.0432   3.4188255799e+01   4.6008615289e+01    0.2852434    0.2440194  61.35 0.0007058376    1.160    0.138
       171 -11.5266    135.8532     29.3597   3.6501714102e+01   4.7922759988e+01    0.3094293    0.2502872 -50.60 0.0003173378    1.425    0.298
       172 -10.5126     38.9112     30.4537   6.7865322682e+01   6.5166937635e+01    0.2043362    0.1372341 -33.85 0.0003618944    1.208    0.172
       173 -12.7029      9.3616     29.4367   7.9984358129e+01   6.7772785878e+01    0.2882845     0.213034  34.17   0.00173264    1.836    0.455
       174  -9.5125    188.3260     30.3498   2.7007698231e+01   3.4278344527e+01    0.1577206    0.1074737  31.64   0.00070488    1.756    0.431
       175  -9.2783     59.4099     30.4936   5.9830808755e+01   6.2667290464e+01    0.1287183    0.1021398 -17.10 0.0001878752    1.084    0.078
       176  -9.6016     44.5422     30.5295   6.5618646425e+01   6.4537269212e+01    0.1220779   0.09840087 -26.22   9.8601e-05    1.014    0.014
       177 -10.0111     54.1866     29.0502   6.1245145967e+01   6.3605674913e+01    0.1721111    0.1491394 -39.17 0.0004228629    1.292    0.226
       178  -9.9603     80.9349     26.8934   5.0724856252e+01   5.9854536451e+01    0.1964003    0.1705515 -10.51 0.0005298742    1.051    0.049
       179 -10.0420     68.4334     26.5856   5.4921956599e+01   6.1960354895e+01    0.2113781    0.1905751 -32.33 0.0009931201    1.277    0.217
       180 -10.2436    216.9396     25.6877   2.1754085436e+01   2.7351154770e+01    0.1976911    0.1730042  86.11 0.0003779579    1.078    0.073
       181  -9.8200    128.4741     31.8418   3.9127405889e+01   4.9354496712e+01    0.2910501     0.165264  26.21  0.001186639    2.265    0.559
       182 -11.7626     91.3075     27.2269   4.7529329181e+01   5.7917939801e+01    0.4256753    0.3194385 -34.35 0.0004550256    1.357    0.263
       183  -9.5012    103.8537     19.0948   4.0528240450e+01   5.6476361490e+01    0.2813546    0.1684119  17.34 0.0007743108    2.028    0.507
       184  -9.8541    102.5740     26.0700   4.3708734814e+01   5.5848358896e+01    0.2420608    0.1615458 -20.39  0.001242847    1.492    0.330
       185 -10.0562    102.2909     22.5732   4.2380792074e+01   5.6366552273e+01    0.2474516    0.2051817  47.71  0.001012515    1.257    0.204
       186  -9.6497     75.9501     26.2637   5.2148108907e+01   6.0797958534e+01    0.1816246     0.152158   3.26  0.001127638    1.073    0.068
       187  -9.6208     18.5840     26.2674   7.4941657568e+01   6.7728171870e+01    0.1674231   0.07586961 -42.49 0.0008290162    1.663    0.399
       188 -10.1690    188.5010    248.4777   7.6246359968e+01  -1.0123058944e+00    0.2173521    0.1223243  59.23 -7.511013e-07    2.282    0.562
       189  -9.3131     12.5014     19.9965   7.5430578287e+01   6.9265546208e+01    0.1632592   0.08745272 -51.18 0.0005114286    1.539    0.350
       190  -9.5771    230.1330    247.2052   6.9107708198e+01  -7.5423400872e+00     0.143354    0.1114762  39.35 0.0005108396    1.273    0.214
       191  -9.7969      6.7887     20.1500   7.8104607622e+01   6.9602312298e+01    0.2317623    0.1411346 -34.32   0.00159688    1.293    0.227
       192  -9.9637     51.4335     24.7259   6.0564918889e+01   6.4660621965e+01    0.1604979    0.1334086 -24.58 0.0009630222    1.106    0.096
       193  -9.5993    191.4640     24.5527   2.4805661970e+01   3.4155012981e+01    0.1450821    0.1354328  72.81 0.0001290106    1.016    0.016
       194  -9.6580    185.8626     24.2022   2.5523811924e+01   3.5679937651e+01     0.198001    0.1621847  38.54 0.0003238116    1.292    0.226
       195  -9.1397    119.4145     24.5686   3.8617759414e+01   5.2394444147e+01       0.1385    0.1277784  19.89 0.0001140445    1.023    0.023
       196  -9.6563     34.2731     23.9785   6.7310773384e+01   6.6749893429e+01    0.1632602    0.1231062 -26.77  0.000360394    1.046    0.044
       197  -9.9049    128.2851     23.0345   3.5902468710e+01   5.0527215214e+01    0.1907293    0.1748283  14.87 0.0002740417    1.048    0.046
       198 -10.1448    200.2683     21.9431   2.2826309484e+01   3.2138204090e+01    0.1913489    0.1856688  88.97 0.0003835316    1.059    0.056
       199  -9.4802    132.1260     20.5930   3.4122246398e+01   4.9900651904e+01    0.2005272     0.116706  45.63 0.0004855076    1.586    0.369
       200  -9.5150    184.4831     19.4960   2.4297898149e+01   3.6588961915e+01    0.1447411    0.1344755  72.18 8.628283e-05    1.004    0.004
       201  -9.3497    119.9873     18.9842   3.6318440972e+01   5.2941082100e+01    0.1673934    0.1456872  37.77 0.0003732207    1.062    0.059
       202 -11.0960     69.9118     18.1104   5.0773467972e+01   6.2951990125e+01    0.3164938    0.1781981  42.65  0.001676858    1.870    0.465
       203 -10.9779     75.1660     17.9736   4.8883056349e+01   6.2096459778e+01    0.2977016     0.187888  38.21 0.0006633237    1.573    0.364
       204  -9.4364    224.4966    247.5112   7.0081440198e+01  -6.6955627448e+00    0.1158924   0.08552777  30.21 0.0001442722    1.005    0.005
       205  -9.6594     54.4572     18.4867   5.6716079006e+01   6.5214540257e+01    0.1233273    0.1000349 -13.16 9.246833e-07    1.014    0.014
       206 -10.2712     37.5342     17.5211   6.3259282581e+01   6.7453831376e+01    0.2249473    0.1607146 -31.52 0.0008014594    1.154    0.133
       207  -9.9019     39.4753     14.5307   6.1119876724e+01   6.7694528954e+01     0.191329    0.1403256 -20.79 0.0005209402    1.087    0.080
       208 -10.0356    170.9250    246.8128   7.9020714055e+01   2.0876944767e+00    0.1837702    0.1309803  32.91   0.00110959    1.308    0.235
       209 -10.1227    116.1127    246.8143   8.8324291807e+01   1.0893211353e+01     0.173143    0.1208483  65.36 0.0006845975    1.234    0.190
       210 -10.8256     51.8855    243.9986   9.8496453975e+01   2.0246544923e+01    0.2610652     0.146544 -89.86  0.001829589    1.632    0.387
       211  -9.6755    125.2963     17.0044   3.4305848721e+01   5.1935225657e+01    0.1856287    0.1700299  18.55 0.0002973383    1.042    0.040
       212 -10.6851    238.0450     16.9701   1.7193210923e+01   2.3076728947e+01    0.2305487    0.1828866 -41.59 0.0003224321    1.221    0.181
       213  -9.8752    170.0279     15.5286   2.5249600566e+01   4.0840580600e+01    0.3047598    0.1405852 -57.69  0.001038798    3.397    0.706
       214 -11.1050    160.5482     15.8201   2.6899568808e+01   4.3286188581e+01    0.4136993    0.1721148  57.56  0.001058149    2.074    0.518
       215 -10.3487     38.9945    242.2756   1.0037404661e+02   2.2059771034e+01     0.219581   0.08522674  75.78 0.0009010984    2.754    0.637
       216  -9.8490     60.5044     15.8329   5.3207741267e+01   6.4729073782e+01    0.1897797    0.1389728  34.87  0.001179177    1.457    0.313
       217  -9.3601     61.1863    240.6305   9.6811310355e+01   1.9636155023e+01    0.1364005   0.08634017  41.33 0.0004823699    1.699    0.412
       218  -9.8120      1.4638    141.5366   1.0039374066e+02   4.4904528199e+01    0.1101195   0.07992377 -87.99 1.939407e-05    1.004    0.004
       219 -10.6345     13.8845     15.9379   7.3270392493e+01   6.9862968471e+01     0.192832    0.1645601 -22.50 0.0008364246    1.207    0.171
       220  -9.4269    204.1667    235.4049   7.1744311125e+01  -2.0313594929e+00     0.159897   0.09324735  47.60 0.0005498005    1.514    0.340
       221  -9.8440    174.2483    235.3661   7.6958039004e+01   3.0457454726e+00    0.1114323   0.08496916  14.90 0.0006948482    1.619    0.382
       222  -9.9312    146.9797    244.0269   8.2788130150e+01   6.4039061470e+00    0.1724989    0.1307154  23.73 0.0008127904    1.685    0.406
       223 -12.3480      4.0894    233.3404   1.0514282538e+02   2.7218975797e+01    0.3358251    0.1684798  52.63  0.002534587    1.542    0.351
       224 -10.1673    245.1749    229.8887   6.3938720675e+01  -8.0866205789e+00    0.3662196   0.09454358  40.81  0.001509141    3.087    0.676
       225 -10.9073    140.1102    227.9724   8.2084006371e+01   9.9264515590e+00    0.2639475    0.1724075 -75.51  0.001533355    2.074    0.518
       226  -9.9252     32.1845    233.1486   1.0090620955e+02   2.4355590770e+01    0.1424764    0.1083398  72.69 0.0004400266    1.177    0.151
       227 -11.0269      1.5087    223.9888   1.0513631591e+02   2.9045734256e+01    0.1393287   0.08694617  80.30 0.0003541762    1.114    0.102
       228  -9.5146     17.6867    227.7031   1.0285457740e+02   2.6832804221e+01   0.08267789   0.07039303 -79.60 0.0003467417    1.602    0.376
       229 -10.7040     12.5648    226.7609   1.0359128781e+02   2.7510286389e+01    0.1366406   0.06774943  83.19  0.000367558    1.573    0.364
       230  -9.7625    223.4375    226.5166   6.7057683468e+01  -4.1955856588e+00    0.1212887   0.09510235  27.92 0.0001172432    1.011    0.011
       231  -9.2240    241.3684    225.2762   6.3815251590e+01  -6.9873930017e+00    0.1256046     0.072869  20.29 0.0007007119    1.679    0.405
       232  -9.0787     61.4232    224.5098   9.5590298951e+01   2.2350737292e+01    0.1124076   0.08039992  70.41 0.0001147442    1.036    0.035
       233  -9.7740    130.8288    221.3465   8.2956140306e+01   1.2542648795e+01    0.1816677   0.09776967  39.40 0.0009549449    1.741    0.426
       234 -10.9804      7.7888    220.1876   1.0401378239e+02   2.9115003645e+01    0.1690859   0.08828466 -89.48 0.0006375563    1.490    0.329
       235 -10.2659      1.9603    218.9835   1.0485350003e+02   2.9871194168e+01    0.1666327   0.07481258  68.37 0.0007206008    1.660    0.398
       236 -10.5075     85.9305    215.0258   9.0461398027e+01   2.0690790767e+01    0.1713303    0.1339313  69.22            0    1.019    0.018
       237  -9.4250    205.4333    211.7353   6.7821528475e+01   7.9002760342e-01    0.1582103    0.1173859 -13.15  0.000939315    1.592    0.372
       238  -9.6456     20.2754    209.4493   1.0145954016e+02   2.9809613172e+01    0.1407046   0.07035606  55.93 0.0009305939    1.586    0.369
       239  -9.3794     86.2701     10.3361   4.1904209993e+01   6.1035216452e+01    0.1340243   0.08745507  12.99 0.0001969521    1.596    0.374
       240 -10.1432     39.2203    207.0756   9.8094293230e+01   2.8214185876e+01    0.1568757    0.1211689  86.45 0.0006126877    1.159    0.138
       241  -9.5358    124.0823    205.8911   8.2265397463e+01   1.6325076516e+01    0.1518255    0.1322102  45.25 0.0009881828    1.216    0.178
       242  -9.3471     46.4328    202.5057   9.6476905793e+01   2.8239684700e+01     0.113488    0.0835029  76.20 0.0001055288    1.015    0.015
       243  -9.3665    194.0078    201.4854   6.8198006995e+01   4.3393238590e+00    0.2046158    0.1120622  42.86 0.0005962703    1.551    0.355
       244 -11.2275      4.2046    201.1384   1.0365596907e+02   3.2874001743e+01    0.1485683    0.1103124 -89.62 0.0006221544    1.222    0.182
       245  -9.4836     22.4904    200.5243   1.0054423549e+02   3.1243548211e+01    0.1086458    0.0762782  77.13 -7.425977e-06    1.017    0.017
       246  -9.4382      1.1722    191.2819   1.0365257078e+02   3.4981619447e+01    0.1531784   0.05547346 -89.60 0.0006659076    2.352    0.575
       247  -9.1506     18.4869    182.4783   1.0005963171e+02   3.5123415859e+01    0.1090281   0.08037546  83.74 0.0008098746    1.036    0.035
       248 -10.1362     13.6435    181.1141   1.0085436763e+02   3.5843909652e+01    0.2481001   0.09515147 -88.96  0.001284919    2.399    0.583
       249  -9.1023     22.6682    179.6944   9.9083520626e+01   3.5274173186e+01   0.09844529   0.07641056 -57.89 0.0003783263    1.661    0.398
       250  -9.3603     68.9922    178.3523   8.9836433205e+01   3.0185920809e+01    0.1760356    0.1087523  12.28 0.0007014119    4.605    0.783
       251  -9.5082      3.5016    177.5373   1.0247177749e+02   3.7432832822e+01    0.1060892   0.07560066  84.30 1.969782e-05    1.024    0.024
       252 -10.0330      1.5750    171.0153   1.0242717492e+02   3.8877689290e+01    0.1611485   0.07764278 -80.84 0.0004589398    1.581    0.367
       253 -10.2269      1.6300    158.0607   1.0157434946e+02   4.1479837691e+01    0.1496723     0.103063 -88.78 0.0006296975    1.057    0.054
       254 -11.4444      5.5510    153.7912   1.0048735613e+02   4.2054062439e+01    0.3969954    0.2197378  31.11  0.002595396    2.252    0.556
       255 -10.8272      6.3619    145.2290   9.9652270704e+01   4.3773703308e+01    0.1676279    0.1325923  78.09  0.000528488    1.153    0.133
