#   1 NUMBER                 Running object number                                     
#   2 MAG_AUTO               Kron-like elliptical aperture magnitude                    [mag]
#   3 X_IMAGE                Object position along x                                    [pixel]
#   4 Y_IMAGE                Object position along y                                    [pixel]
#   5 X_WORLD                Barycenter position along world x axis                     [deg]
#   6 Y_WORLD                Barycenter position along world y axis                     [deg]
#   7 A_WORLD                Profile RMS along major axis (world units)                 [deg]
#   8 B_WORLD                Profile RMS along minor axis (world units)                 [deg]
#   9 THETA_WORLD            Position angle (CCW/world-x)                               [deg]
#  10 FWHM_WORLD             FWHM assuming a gaussian core                              [deg]
#  11 ELONGATION             A_IMAGE/B_IMAGE                                           
#  12 ELLIPTICITY            1 - B_IMAGE/A_IMAGE                                       
         1 -12.5368    186.1042     58.4765   8.9562417591e+00   3.0323767590e+01      2.01408     1.126921  43.44  0.006521266    2.257    0.557
         2 -12.5687    207.7962     40.8737   1.8639663996e+00   2.7758163792e+01    0.6932825    0.6209377  57.56  0.001088135    1.323    0.244
         3 -12.3622    232.7492     16.4966   3.5424090487e+02   2.5305942416e+01    0.8380175    0.6949464 -50.01  0.004569187    1.111    0.100
         4 -11.2352    119.0359      9.9314   3.2339938446e+00   5.3839764431e+01    0.7089741     0.441466  51.95  0.003417118    1.555    0.357
         5  -7.7875    220.5629      3.4821   3.5194632680e+02   2.9128467995e+01    0.1196389   0.09679507 -59.16 0.0001108423    1.053    0.050
         6  -9.7161    103.0021      4.0624   3.5575488669e+00   5.8725600798e+01     0.216335    0.1918874  78.49 0.0004976165    1.036    0.035
         7  -8.3000    171.6827      2.3381   3.5464767009e+02   4.0577827460e+01    0.1480843   0.07970169 -59.73 0.0007048721    1.703    0.413
         8  -9.4298     11.7790      2.3785   4.7444495299e+01   7.8830121028e+01    0.1785086    0.1062534  12.83 0.0008164034    1.682    0.405
         9  -9.5745    247.3959    167.8331   2.4271500911e+01   3.2480322755e+00    0.1688676   0.08713721 -23.16 0.0009546867    1.703    0.413
        10 -10.4176    247.6088    249.2713   3.7214398287e+01  -5.9968765741e+00    0.2799931    0.1585612  18.59  0.002113361    1.390    0.281
        11 -15.7842     67.2460    145.8996   6.1566363648e+01   3.7219785461e+01     14.20873     9.408133  81.84   0.04456607    1.824    0.452
        12 -10.0125    192.7248    194.3074   3.8102683995e+01   7.0192363705e+00    0.6726964    0.3980831 -60.10  0.002753237    4.476    0.777
        13 -16.2367      6.3250    205.6079   8.3890618432e+01   2.9663017781e+01     3.503784     1.999032 -80.40   0.01158221    1.835    0.455
        14  -8.8655     36.8019    163.0815   7.3259120365e+01   3.6656136458e+01    0.3402956    0.1924663   2.98  0.001445013    2.568    0.611
        15  -9.7095     75.3851    248.3604   7.0243028389e+01   1.4205354816e+01     0.374108    0.1689101 -62.67  0.002022766    2.811    0.644
        16 -10.2705     96.1518    247.3773   6.5645259014e+01   1.1853689553e+01    0.4035531    0.2409055   2.52  0.002077887    2.508    0.601
        17  -9.1415    186.0000    226.9724   4.4521720252e+01   3.3091903643e+00    0.2557037   0.07954321 -43.83  0.001091087    3.923    0.745
        18 -10.9769     89.6219    149.1049   5.5055726875e+01   3.2938262404e+01    0.6566281    0.5308394  -2.49  0.002040183    1.524    0.344
        19 -10.9497    134.1653    144.0071   4.1486047866e+01   2.6001298540e+01     1.251051    0.4614577 -50.91  0.004240915    3.020    0.669
        20  -8.5671      1.4589    151.9883   8.3382353193e+01   4.2427426235e+01    0.1926477    0.1147804 -88.10 0.0005975225    1.535    0.348
        21  -9.1739    167.0592    226.0485   4.8096946472e+01   5.8935120860e+00    0.1883761    0.1509933  17.77   0.00120615    1.082    0.075
        22  -8.9803    124.7119    141.0781   4.3356474266e+01   2.8459601372e+01     0.208758    0.1970634 -25.34 0.0004066158    1.109    0.099
        23 -11.3244     90.8357    135.9208   5.2226217997e+01   3.5961925661e+01    0.4530744    0.3597636  51.21 0.0006032819    1.231    0.188
        24  -9.7563     96.4972    133.5174   4.9964085758e+01   3.5542156904e+01    0.3978918     0.332676  65.77  0.001264256    1.279    0.218
        25 -10.4663    103.3443    136.2774   4.8441147741e+01   3.3620094299e+01      0.69891    0.4608499  -9.21   0.00265347    2.633    0.620
        26  -9.6679    181.4857    181.2948   3.8025428447e+01   1.0705648061e+01    0.3986031    0.1959201 -37.75  0.001907527    2.068    0.516
        27  -9.2410    180.2872    175.2557   3.7167648327e+01   1.1882568752e+01    0.2716993    0.2205351 -68.55  0.001510105    1.984    0.496
        28 -14.6713     11.9788    247.9190   8.3787499769e+01   2.0948165244e+01    0.4138491    0.2503381 -50.75  0.002581842    2.583    0.613
        29  -9.8651    184.3145    215.9490   4.3206002119e+01   5.0427185180e+00    0.3341562    0.1099497 -45.92   0.00136878    3.988    0.749
        30  -9.9310    135.7341    129.0138   3.7756948514e+01   2.8890500068e+01    0.5958817    0.2639251 -40.78  0.002163483    2.436    0.589
        31  -9.3959    112.2413    128.3284   4.4071341572e+01   3.3791443422e+01    0.3262352    0.2693866 -26.94 0.0007656222    1.381    0.276
        32  -8.9483     94.3520    127.6938   4.9412819109e+01   3.7359355905e+01     0.264272     0.225681  67.99 0.0003824799    1.246    0.198
        33  -9.9258     99.2428    124.1673   4.7083612254e+01   3.7305508888e+01    0.3009388    0.2697921  -9.59 0.0006587493    1.269    0.212
        34 -10.6846    242.0092    120.6382   1.5966228628e+01   1.0329491216e+01     1.212895    0.2771075 -45.60  0.002771283   10.181    0.902
        35  -9.3736    161.3455    118.9269   2.9246533512e+01   2.5589174582e+01    0.4584267    0.2795253 -67.15  0.001597666    2.891    0.654
        36  -9.1518    143.8506    181.1664   4.6180896001e+01   1.6786220287e+01    0.2781703    0.2017719 -67.43  0.001170426    2.008    0.502
        37  -8.9153    108.3058    118.4760   4.2943475475e+01   3.6884135992e+01    0.3568918    0.2447789 -69.18  0.001303568    1.822    0.451
        38  -7.9068    173.4303    209.4520   4.4359232455e+01   7.4784936950e+00    0.1249912     0.101792  13.99 0.0001144311    1.044    0.042
        39  -8.9025    161.5394    129.9079   3.1794531789e+01   2.3439603599e+01    0.3946359    0.2544963 -65.77 0.0008357411    2.448    0.591
        40  -9.8404    116.4403    110.9161   3.8623660614e+01   3.6938636177e+01    0.4734069    0.3366523  54.14  0.002106583    1.458    0.314
        41 -11.0094    123.6575    175.4044   5.0126509828e+01   2.1278931607e+01    0.4541019    0.3706653 -39.09  0.001678085    1.351    0.260
        42  -9.6547    239.1818    175.3673   2.6831495656e+01   3.3282279172e+00    0.1453181    0.1038239  39.41 0.0009546478    1.741    0.425
        43 -10.2148    120.3095    102.7798   3.5343994212e+01   3.7913780586e+01    0.6535792    0.3710764 -34.98  0.002523447    2.079    0.519
        44 -17.5446      6.2451    239.3193   8.4776148599e+01   2.3007883404e+01     2.794942     1.691794  11.64   0.01177235    2.080    0.519
        45  -9.2241    139.9578    172.9442   4.5667259874e+01   1.9017351375e+01    0.4840074    0.3025315 -72.32  0.001979058    3.000    0.667
        46  -8.0972    147.4580    174.5076   4.4170823416e+01   1.7442171389e+01    0.1407345     0.125343  19.56 0.0001491792    1.017    0.017
        47  -9.3350    220.9130    175.3261   2.9721769222e+01   5.7769325795e+00    0.2103339     0.150037 -33.09  0.001236761    1.383    0.277
        48  -9.2750     72.5607    204.0422   6.7153912144e+01   2.2901622103e+01    0.2484597    0.2005178  84.47 0.0007981746    1.386    0.279
        49  -8.0156    157.5212     71.9138   1.7452245327e+01   3.5100621848e+01    0.2093054    0.1462942 -36.26 0.0003130695    1.434    0.303
        50 -10.3361    241.3335    247.9284   3.7992348582e+01  -5.2710126743e+00    0.2232665    0.1405244 -32.06  0.001673245    1.906    0.475
        51 -12.1769    200.1411     46.9245   4.1825594621e+00   2.8688717923e+01    0.9022237    0.6545669 -72.07  0.003278082    1.378    0.274
        52  -8.0217     78.9375    251.0000   6.9668103158e+01   1.3345958453e+01    0.2021426   0.05158664  29.83 0.0007968738    2.904    0.656
        53  -9.0215    188.2945    170.1670   3.4629695772e+01   1.1435707226e+01    0.3070367    0.1486335 -43.62  0.001413793    2.216    0.549
        54 -10.2798    102.5447    247.8749   6.4307453539e+01   1.0979533183e+01    0.3827338    0.2829769  75.03  0.002137248    1.880    0.468
        55  -8.3683    141.9696     42.2800   1.1100233319e+01   4.3747543137e+01     0.214669    0.1815817  71.01 0.0004518396    1.116    0.104
        56 -10.7686    110.4634    246.8039   6.2501189034e+01   1.0155437250e+01    0.3334073    0.2295011  67.81  0.001791109    2.102    0.524
        57  -7.9538    105.0192     20.9234   1.0623094790e+01   5.6458014773e+01    0.1663485    0.1618421  84.06 0.0003859715    1.084    0.077
        58  -8.1766     89.0063     20.3784   1.4581308615e+01   6.0728973639e+01     0.198965     0.169525  62.12  0.001075572    1.078    0.072
        59  -9.6218     54.6192    167.1363   6.8277931763e+01   3.3598098870e+01    0.4371378    0.2810659  35.70  0.001459548    1.383    0.277
        60  -9.2667     50.9417    163.5296   6.8994372881e+01   3.4938427153e+01    0.4696457    0.1915935  43.44  0.001501694    2.135    0.532
        61  -9.4798     71.4536    241.5221   7.0606400518e+01   1.5844783865e+01    0.2184649    0.1779546 -63.60  0.001354087    1.587    0.370
        62 -10.4826    230.9822    168.2651   2.6808016800e+01   5.3600313887e+00    0.4064254    0.1659908 -45.14  0.001771114    3.255    0.693
        63  -8.6054     61.6585    240.3166   7.2707839480e+01   1.7202655833e+01    0.2179134    0.1435169 -87.59  0.001359376    1.875    0.467
        64 -10.5324    213.4830     22.4094   3.5684701958e+02   2.8685970999e+01    0.2491924    0.1837443 -16.23  0.001473603    1.656    0.396
        65  -8.4451     62.5587    237.4642   7.2312569249e+01   1.7611916229e+01    0.3171448    0.1716149  54.45  0.001560166    1.710    0.415
