#   1 NUMBER                 Running object number                                     
#   2 MAG_AUTO               Kron-like elliptical aperture magnitude                    [mag]
#   3 X_IMAGE                Object position along x                                    [pixel]
#   4 Y_IMAGE                Object position along y                                    [pixel]
#   5 X_WORLD                Barycenter position along world x axis                     [deg]
#   6 Y_WORLD                Barycenter position along world y axis                     [deg]
#   7 A_WORLD                Profile RMS along major axis (world units)                 [deg]
#   8 B_WORLD                Profile RMS along minor axis (world units)                 [deg]
#   9 THETA_WORLD            Position angle (CCW/world-x)                               [deg]
#  10 FWHM_WORLD             FWHM assuming a gaussian core                              [deg]
#  11 ELONGATION             A_IMAGE/B_IMAGE                                           
#  12 ELLIPTICITY            1 - B_IMAGE/A_IMAGE                                       
         1 -14.9254    181.8280    137.0359   6.2922746706e+01   1.7848784220e+01     4.038528     2.501656 -24.47   0.01479406    2.113    0.527
         2 -14.2050    164.4697    127.2057   6.4333034970e+01   2.3493540807e+01     4.051782      2.36122 -14.87   0.01246364    4.132    0.758
         3 -13.0932    134.5339    148.6155   7.6537944259e+01   2.4837167620e+01     4.359021     1.601298 -60.72   0.01016344    5.882    0.830
         4 -15.0908    153.0458    105.7785   6.1579049727e+01   3.0455095424e+01     4.648351     3.409127 -21.27   0.02119593    1.722    0.419
         5 -13.9612    126.3355     86.0788   6.2691254493e+01   4.0368073401e+01     4.204791     2.061056  27.87   0.01229703    4.391    0.772
         6 -14.0121    127.3892     74.2480   5.8970422600e+01   4.2331435327e+01     4.116573     2.201143  29.03    0.0145795    3.113    0.679
         7  -9.8610     12.1555     11.6766   7.8579484214e+01   7.2249097440e+01    0.1737167    0.1384658 -22.59 0.0006437204    1.280    0.219
         8  -9.2314     90.8079      8.6092   4.6019829558e+01   5.9246282818e+01    0.1756856    0.1078627  69.34 0.0004087375    1.695    0.410
         9  -8.8643    149.7422    246.1363   9.0502388825e+01   1.3277707195e+00    0.2445308    0.1648735 -22.76  0.001311757    1.793    0.442
        10  -8.2892    141.4733    249.9966   9.2811062162e+01   1.8531868942e+00    0.1643821    0.1292403 -49.25 0.0003509783    1.477    0.323
        11  -7.6705    132.6998    250.7288   9.4791064170e+01   3.0030150900e+00    0.1239977   0.09351089   2.77  0.000207143    1.528    0.346
        12  -8.3466     88.8250    250.2163   1.0421613359e+02   9.4086503616e+00     0.158382    0.1438246   6.96  0.000398038    1.314    0.239
        13  -8.3805     75.9102    250.4948   1.0701296000e+02   1.1119569575e+01    0.1798956    0.1085687  36.99 0.0003319794    1.440    0.305
        14  -8.1841     24.6157    250.4959   1.1756146741e+02   1.7380697306e+01    0.1402339    0.1077371  29.29 0.0001283423    1.512    0.339
        15  -8.8756     21.7180    248.1212   1.1798891044e+02   1.8175695337e+01      0.17157    0.1261411  64.53 0.0004043248    1.069    0.064
        16  -7.7955     15.2629    250.7007   1.1938802443e+02   1.8329736016e+01    0.1192018   0.06525701  63.39 0.0002379505    1.513    0.339
        17  -7.6907    130.3613    247.2892   9.4841738078e+01   3.9746882540e+00    0.1319114   0.09567403   1.60 0.0007025595    1.692    0.409
        18  -9.4944     93.6437    246.2900   1.0274531626e+02   9.5084286205e+00    0.4626195    0.2478912  37.23  0.001565058    1.595    0.373
        19  -9.2114     81.7286    246.2493   1.0533824168e+02   1.1180511920e+01    0.2036632    0.1905183 -43.33 0.0003617976    1.307    0.235
        20  -9.4709     71.6928    242.9968   1.0719356960e+02   1.3207412405e+01    0.2150058    0.1702102  33.03 0.0004435418    1.258    0.205
        21  -8.9210     75.4751    245.0180   1.0657106521e+02   1.2283216340e+01     0.217119    0.1506137  49.76 0.0005869179    1.242    0.195
        22  -8.5232     78.5757    243.4636   1.0573912670e+02   1.2179780738e+01    0.2130346    0.1520677  26.90 9.239878e-05    1.458    0.314
        23  -9.9243     42.3052    245.1409   1.1363102936e+02   1.6473535759e+01    0.2857457    0.2586474  -0.79 0.0005355534    1.544    0.352
        24 -10.4829     33.3925    246.4112   1.1554894175e+02   1.7242790510e+01    0.2232231    0.2144564  23.13 0.0005617738    1.394    0.283
        25  -8.8466     37.4340    243.5187   1.1451912921e+02   1.7381008102e+01    0.1841677    0.1718374 -47.69  0.001202396    1.439    0.305
        26  -7.9957     12.8205    247.3672   1.1967970245e+02   1.9255980094e+01    0.1348703     0.103195  30.04 0.0003358627    1.533    0.348
        27  -8.0916      7.6342    247.5085   1.2068111573e+02   1.9745950117e+01    0.1129498   0.08760002  73.16 0.0001390733    1.060    0.056
        28  -8.1053    155.5435    246.5244   8.9322744295e+01   4.1147408427e-01    0.1311193    0.1098773  12.49 0.0008073661    1.078    0.072
        29  -8.5067    136.0497    246.0077   9.3434557987e+01   3.3702748349e+00    0.1963994    0.1474829  -5.21 0.0004768528    1.593    0.372
        30  -8.6874    134.0140    242.5060   9.3397285420e+01   4.3222104096e+00    0.1938932      0.18231  68.99 0.0003916794    1.235    0.191
        31  -8.4687    119.0392    246.3567   9.7189293454e+01   5.8180235783e+00     0.185371    0.1439679  33.11   0.00042843    1.124    0.111
        32  -9.5638    104.3248    245.8096   1.0034918106e+02   8.0730099862e+00    0.2528151    0.1822198  26.92 0.0007071516    1.346    0.257
        33  -8.0969     86.2784    246.3204   1.0435611880e+02   1.0536811605e+01    0.1177374   0.09918242 -16.06 0.0002552729    1.580    0.367
        34  -9.7948     58.0901    243.4594   1.1017092140e+02   1.4886262430e+01    0.2682319    0.2130031 -51.23  0.001133809    1.561    0.359
        35  -9.4100     56.7663    239.2457   1.1008396690e+02   1.5939444133e+01    0.2557769     0.209401 -46.38  0.001336714    1.558    0.358
        36  -9.3773     50.3814    245.2615   1.1195580375e+02   1.5474778032e+01    0.2048878    0.1629001  52.32   0.00031635    1.075    0.069
        37  -9.8495     50.7121    239.7336   1.1142986247e+02   1.6592554752e+01    0.4152701    0.3380284  -0.07  0.002488673    1.776    0.437
        38  -8.2559     66.5528    244.9319   1.0848968395e+02   1.3488929477e+01    0.1667114    0.1199421 -74.11 0.0005888508    1.480    0.324
        39  -9.9883    227.1234    243.8079   7.4696968213e+01  -8.7742678551e+00    0.2850858    0.1365939  37.48  0.001131447    2.329    0.571
        40  -8.1548    196.7053    244.6568   8.0594135314e+01  -5.0555582819e+00    0.1297729   0.08333062  -6.40 0.0003914901    1.663    0.399
        41  -7.8175    128.6584    244.6836   9.4865784841e+01   4.7119295745e+00     0.132857   0.09759059  -2.69 0.0007048495    1.710    0.415
        42  -9.1458    113.0260    243.2548   9.8119949742e+01   7.3014013799e+00    0.2223609    0.1872712 -34.10 0.0007018225    1.393    0.282
        43  -8.8986     22.8063    242.1936   1.1741327653e+02   1.9285010287e+01    0.2547919     0.135754 -80.32  0.001389829    1.790    0.441
        44  -9.0978     17.2428    242.5971   1.1854923190e+02   1.9785938121e+01     0.323379    0.1921029 -40.57  0.001131347    2.942    0.660
        45  -8.9573      3.5608    243.0595   1.2124068212e+02   2.1051251912e+01    0.1983603    0.1398586 -62.79   0.00132111    1.679    0.404
        46  -8.2592    146.3896    242.8268   9.0748425507e+01   2.4164859723e+00    0.1762244    0.1171148 -34.39 0.0009416656    1.704    0.413
        47  -9.3617     36.9478    235.0999   1.1399740246e+02   1.9225446806e+01     0.202196     0.161226 -81.03 0.0003605161    1.250    0.200
        48 -10.2213     36.0182    229.1044   1.1373481280e+02   2.0641074046e+01    0.3025116    0.2070126  41.80 0.0003930611    1.347    0.258
        49  -9.1729     30.1370    227.9002   1.1491466699e+02   2.1566623291e+01     0.381874    0.2089361 -55.10  0.001998678    2.132    0.531
        50  -9.7063     27.8905    223.6562   1.1508588625e+02   2.2757276519e+01    0.3887791    0.1773578 -73.55  0.001531387    2.060    0.515
        51  -8.8206     35.4606    239.4319   1.1463263653e+02   1.8468460918e+01    0.1922504    0.1637488  54.15 0.0005592306    1.136    0.120
        52 -11.2061     31.3301    234.0954   1.1511329090e+02   2.0078639631e+01    0.3522217    0.2397571 -86.06 0.0005385521    1.375    0.273
        53  -9.4071     27.6591    241.9863   1.1641778539e+02   1.8803031922e+01    0.1982334    0.1789841 -57.55 0.0006383382    1.444    0.307
        54  -9.0697     31.4117    240.5398   1.1555132282e+02   1.8691696064e+01    0.2270481    0.1780499  86.09  0.000528636    1.171    0.146
        55  -8.2721     10.8506    243.1206   1.1983559046e+02   2.0327012072e+01    0.1370078    0.1242611  80.77 0.0002675538    1.267    0.211
        56  -8.5241    141.5465    241.9656   9.1676074553e+01   3.2961951768e+00    0.1770511    0.1301333 -46.94 0.0004209646    1.525    0.344
        57  -7.8578    102.2867    242.3337   1.0038545082e+02   9.0564000076e+00    0.1250741    0.1004848 -13.24 0.0005112267    1.624    0.384
        58  -8.1980     98.4266    241.7513   1.0117303587e+02   9.7327090678e+00      0.15938    0.1231005 -46.82 0.0003822287    1.514    0.340
        59  -8.4357     87.5559    242.5341   1.0366829947e+02   1.1124075913e+01    0.1299853      0.11272  49.76 0.0001596222    1.007    0.007
        60  -9.0747     83.4733    241.3020   1.0443605237e+02   1.1947958565e+01    0.2174591    0.1807286  34.57 0.0003778768    1.167    0.143
        61  -8.6784     63.6224    241.2119   1.0877688747e+02   1.4644452418e+01    0.3053937    0.1500364 -73.77  0.001170889    2.244    0.554
        62  -7.9684    126.5156    241.4875   9.4907696282e+01   5.6374180232e+00    0.1327897    0.1166965  27.02 -5.216342e-06    1.039    0.037
        63  -8.3439    122.1943    241.2229   9.5828137252e+01   6.3349044087e+00     0.188901    0.1532924  32.52 0.0004556915    1.087    0.080
        64  -8.0723    122.7019    237.7187   9.5245629841e+01   6.9416289912e+00    0.1630498    0.1160743 -56.04 0.0002097759    1.591    0.372
        65  -8.1156     91.3893    240.8082   1.0262749258e+02   1.0933919365e+01     0.158395    0.1209979 -50.55 0.0003162757    1.517    0.341
        66  -9.6107     67.7836    238.9263   1.0765098808e+02   1.4578655073e+01    0.2806778    0.1903268 -86.49 0.0006541366    1.589    0.371
        67  -8.2873    226.0091    239.0128   7.4113554056e+01  -7.9430807723e+00    0.1471091    0.1132652 -12.82 0.0004218588    1.073    0.068
        68  -8.7972    118.1078    239.1046   9.6456906718e+01   7.3600130716e+00    0.1953006    0.1676092  10.29 0.0003762483    1.243    0.195
        69  -9.4904    104.3405    237.5753   9.9346919456e+01   9.7148865644e+00    0.3689939    0.2505329   4.70  0.001810564    2.128    0.530
        70  -8.6285    107.3035    233.5448   9.8166146904e+01   1.0099602539e+01    0.1740913    0.1225781  24.07 0.0007426936    1.457    0.314
        71  -9.4703     77.3444    238.1886   1.0546355761e+02   1.3443631183e+01    0.2233416    0.1884782  39.54 0.0004768589    1.130    0.115
        72  -8.5865    134.1472    232.1174   9.1892791629e+01   6.2944527666e+00    0.1974423    0.1692616   5.36 0.0003409335    1.207    0.171
        73  -8.5681    111.9158    238.2754   9.7734218723e+01   8.4501024196e+00     0.182319    0.1559467  30.42 0.0004387104    1.090    0.082
        74  -9.5700     42.1580    236.3604   1.1298454749e+02   1.8346097271e+01    0.3409628     0.269637 -44.33  0.001472929    1.689    0.408
        75  -7.9540     17.5058    233.5573   1.1795513626e+02   2.1673574625e+01    0.1585574    0.1003708 -69.46  0.000598769    1.596    0.373
        76  -8.8756     17.2383    237.3660   1.1824148699e+02   2.0886584255e+01    0.1976183    0.1563185  87.07    0.0013518    1.155    0.134
        77  -8.2846     21.3914    238.2693   1.1745457632e+02   2.0262029351e+01    0.1564212    0.1067917 -66.77 0.0009687986    1.572    0.364
        78  -8.5782     20.8478    235.1959   1.1737163915e+02   2.0974880464e+01    0.1998382     0.135562  80.72 0.0003546244    1.280    0.219
        79  -8.3004    166.6586    237.6843   8.5635855381e+01   3.3082958933e-01    0.1371621   0.09342926  -2.43  0.000704817    1.708    0.414
        80  -8.8263    156.9544    236.7833   8.7570006363e+01   1.9352069155e+00    0.1976934    0.1583144   8.35 0.0004465709    1.207    0.172
        81  -8.9228    134.8924    236.7336   9.2392943910e+01   5.2844820556e+00    0.2125915    0.1772829 -19.98 0.0006895786    1.334    0.250
        82  -9.6024    101.9294    228.3946   9.8732104164e+01   1.1981839529e+01    0.2482454    0.2044775 -45.49 0.0002009031    1.375    0.272
        83  -9.4505     95.5524    235.8809   1.0112139203e+02   1.1350354865e+01    0.2279051    0.2191003 -48.84 0.0007179095    1.196    0.164
        84  -9.3967     99.5361    233.1170   9.9880537372e+01   1.1342883778e+01    0.2710604    0.2321028  78.22  0.001062446    1.246    0.198
        85  -9.4335    130.0660    235.5787   9.3303653064e+01   6.2430019673e+00    0.3811493    0.2348139 -22.02  0.001729946    2.464    0.594
        86  -8.0595      8.5594    237.4794   1.1998377627e+02   2.1732043774e+01    0.1163228   0.09320334  73.23 0.0001167846    1.060    0.057
        87  -8.4159      1.8640    237.4947   1.2129744146e+02   2.2367880403e+01    0.1482425    0.1020849  39.47 0.0004056778    1.440    0.305
        88  -7.6352    189.7077    236.3129   8.0647732515e+01  -2.7554605031e+00    0.1126778    0.1019732  57.79 0.0004365406    1.592    0.372
        89  -9.2240    146.1003    236.0171   8.9815163698e+01   3.7158090675e+00     0.198731    0.1748204  10.71 0.0004053899    1.075    0.070
        90  -8.1047    120.3008    235.3243   9.5459500627e+01   7.7787644108e+00     0.132288    0.1020032  -8.85 0.0003370114    1.633    0.388
        91  -9.8156     90.7669    234.2786   1.0201458481e+02   1.2377671273e+01    0.2465189    0.2055041 -38.11 0.0003933628    1.455    0.313
        92  -7.7006     82.2721    235.3546   1.0405634782e+02   1.3357611352e+01    0.1242677     0.100973 -26.59 0.0004072648    1.640    0.390
        93  -8.4482     52.5395    235.4617   1.1066784757e+02   1.7279362003e+01    0.2013969    0.1582998  55.15 4.824072e-05    1.084    0.078
        94  -9.6681     49.3106    234.3848   1.1127795978e+02   1.7911048644e+01    0.3706152    0.2180849 -41.97  0.001653446    2.541    0.606
        95  -9.6470     58.2395    221.3959   1.0806099934e+02   1.9671598579e+01    0.5255316    0.3043933 -40.28  0.002046985    2.521    0.603
        96  -9.8157     62.8686    221.2779   1.0697613621e+02   1.9095190325e+01    0.2334247    0.2216505 -76.18 0.0003368217    1.181    0.153
        97  -9.0215     54.5812    231.2285   1.0983823641e+02   1.7943668971e+01     0.253894    0.2083697 -46.70   0.00106381    1.527    0.345
        98  -9.1190     57.6935    226.7048   1.0871249265e+02   1.8547679425e+01    0.2960129    0.2025388  -2.36  0.001444778    2.495    0.599
        99  -8.4671    180.3121    234.3319   8.2245617330e+01  -1.0820593701e+00    0.1359515   0.09132528  -5.53  0.000704398    1.676    0.403
       100  -8.8828    170.4746    233.5244   8.4172728285e+01   5.0138407169e-01    0.2186265    0.1133478 -33.73  0.001011612    2.155    0.536
       101  -8.5859    162.4902    233.7170   8.5904233355e+01   1.6597787049e+00    0.2271595     0.123367 -40.33 0.0007747926    1.960    0.490
       102  -8.9346    140.0872    233.3065   9.0740828207e+01   5.1491659061e+00    0.2008305    0.1743188 -16.92 0.0002739649    1.228    0.186
       103  -8.8254    125.8928    234.3461   9.4066079499e+01   7.1220760597e+00    0.1974247    0.1529075  30.87 0.0005914118    1.164    0.141
       104  -8.5172    126.5780    230.3548   9.3346423174e+01   7.8131642981e+00    0.2041271    0.1253081 -41.37 0.0007404299    1.857    0.462
       105  -9.5534     77.1953    233.2214   1.0496777626e+02   1.4518876506e+01    0.2330431    0.2086045 -38.54 0.0005328302    1.373    0.271
       106  -8.8162     79.9343    229.3459   1.0391624504e+02   1.4974541190e+01    0.2057697    0.1792542 -54.49 0.0004057015    1.306    0.234
       107  -8.7473     75.6751    227.0045   1.0463239996e+02   1.6081062097e+01    0.2367812    0.1749803  39.86 0.0003419432    1.239    0.193
       108  -8.6949     68.0706    220.1761   1.0564330519e+02   1.8650853200e+01    0.1804857    0.1750421  26.44 0.0002876192    1.205    0.170
       109  -9.5048     73.0269    222.3794   1.0472892130e+02   1.7476177577e+01    0.2680719    0.2070181 -64.51 0.0003786283    1.363    0.266
       110  -9.3241     75.4075    218.1355   1.0367992208e+02   1.8105680649e+01    0.2392706    0.1837524  39.19 0.0003905322    1.227    0.185
       111  -8.9485     71.5061    216.9117   1.0446405053e+02   1.8927316047e+01    0.2215229    0.1871604  14.57 0.0004799493    1.414    0.293
       112  -9.7741     72.6126    232.1988   1.0589356565e+02   1.5367702560e+01     0.320704     0.246317  -5.89  0.001179136    1.914    0.478
       113 -10.2871     71.5343    227.5106   1.0563940486e+02   1.6538492131e+01    0.4059637    0.2286129 -53.41 -3.667387e-05    1.983    0.496
       114  -8.5668    152.8654    232.9437   8.7868720555e+01   3.2603775523e+00    0.2024784    0.1627072  -2.31  0.000397557    1.296    0.229
       115 -10.5714    114.6085    232.3656   9.6348112206e+01   9.2399739448e+00    0.3004626    0.2262457  24.12 0.0001814926    1.321    0.243
       116  -7.7652    166.3237    232.3372   8.4865306168e+01   1.3331953690e+00    0.1392482   0.09550409  -5.46 0.0007051033    1.717    0.418
       117  -8.9553    121.8193    231.1959   9.4546725777e+01   8.3765258625e+00    0.2138562    0.1915144 -20.88 0.0003834052    1.242    0.195
       118 -10.0796     92.5256    227.8459   1.0083778436e+02   1.3493032975e+01    0.3692545    0.2716002  47.02  0.001149848    1.229    0.186
       119  -9.4474     84.0303    231.8036   1.0325927199e+02   1.3866156485e+01    0.2202316    0.2003559  70.22 0.0003547698    1.075    0.069
       120  -8.0304     87.6867    229.6705   1.0217434531e+02   1.3802303275e+01    0.1806293    0.1340721  17.11 0.0004184949    1.585    0.369
       121  -9.9186     99.5366    223.6794   9.8673545370e+01   1.3353855559e+01    0.2848707    0.2250051 -33.29 0.0008851428    1.540    0.351
       122  -8.3834     95.5766    223.5260   9.9582208821e+01   1.3980316226e+01    0.2142472    0.1878417  37.10 0.0005099884    1.089    0.082
       123  -7.9793    194.4822    231.4234   7.8882721300e+01  -2.6132391047e+00     0.129655     0.107712   2.47 0.0001408275    1.017    0.016
       124  -8.2674    187.5013    230.9562   8.0216007064e+01  -1.5416790407e+00    0.1904391   0.09784614 -22.46 0.0008091436    2.620    0.618
       125  -9.2498    146.5591    230.3918   8.8864873185e+01   4.7117917640e+00    0.2375837    0.2027018  12.97 0.0003045856    1.112    0.100
       126  -8.7310     66.8131    230.7557   1.0705337405e+02   1.6462119671e+01    0.1786799    0.1709419  41.37 0.0005433058    1.188    0.159
       127  -8.9479    132.5379    229.1463   9.1819710041e+01   7.1313744497e+00    0.4467126     0.252533   4.35  0.001629617    3.587    0.721
       128  -9.7515    176.3974    227.5294   8.1948365060e+01   6.8625674513e-01    0.3177425     0.113821 -40.73  0.001246281    2.913    0.657
       129  -8.3544    158.8398    228.8031   8.5916528057e+01   3.1188478063e+00    0.1979258    0.1622993   2.22 0.0003887648    1.204    0.169
       130  -9.7966    152.6361    227.4382   8.7060562808e+01   4.3353711782e+00    0.3116269     0.248589  -8.98 2.930505e-05    1.343    0.255
       131  -9.0382    156.6180    223.8547   8.5608072779e+01   4.4004953807e+00     0.278734    0.1967322 -22.14  0.001235235    1.610    0.379
       132 -12.7894    140.9241    214.2394   8.7583287255e+01   8.8303632439e+00     2.372707     1.508351 -42.15   0.01160197    1.671    0.402
       133 -12.1140    156.0320    211.4742   8.3672322570e+01   6.9286587149e+00     2.621741     1.442141  -6.50  0.008058566    4.873    0.795
       134 -11.7067    119.9028    139.1633   7.8279980699e+01   2.9970780941e+01     1.258295     1.042071 -31.71  0.006107565    1.283    0.221
       135 -12.1764    111.6340    133.5318   7.9278513150e+01   3.2936619165e+01     2.000608     1.561223  -8.25  0.009100447    1.652    0.395
       136 -12.5269    189.7011    192.9500   7.2983408633e+01   5.0559429780e+00     1.518862     1.248517  82.46  0.004552849    1.925    0.480
       137  -9.3317    119.7888    211.1661   9.2068331046e+01   1.2926893953e+01    0.2501009    0.2275792 -12.46 0.0003643399    1.198    0.165
       138  -8.5200    120.2924    219.2829   9.3181740144e+01   1.1089829990e+01    0.2026568    0.1872364  15.67 0.0001899539    1.096    0.087
       139  -9.7591    119.9618    215.2881   9.2659804698e+01   1.2000286285e+01    0.2754808    0.2423219 -13.13 0.0003796946    1.272    0.214
       140  -8.1984    229.3819    227.5072   7.1567766969e+01  -6.6342333602e+00    0.1221021   0.09626521 -12.29 0.0001285999    1.031    0.030
       141  -8.7632    210.2076    226.9969   7.5049994330e+01  -4.0570835026e+00    0.2097262    0.1213183 -16.26 0.0005467408    1.955    0.488
       142  -9.0901     46.5184    225.6027   1.1112744432e+02   2.0185969701e+01    0.2750996    0.1829198 -41.24  0.001007462    2.095    0.523
       143  -9.1588     42.0587    225.7033   1.1213079218e+02   2.0696205346e+01     0.234614    0.1894348  68.06 0.0004742077    1.053    0.051
       144  -8.6537     19.7829    227.2076   1.1707500851e+02   2.2823268733e+01    0.1801207    0.1345868  70.49 0.0004937429    1.097    0.088
       145  -9.3268      9.3433    225.8549   1.1917323676e+02   2.4159093206e+01    0.2947622    0.2792486 -89.71  0.002176434    1.308    0.235
       146  -9.0690     14.7427    223.2365   1.1788238650e+02   2.4212277300e+01    0.2146553    0.1860937 -37.42 0.0003194329    1.612    0.380
       147  -8.2012    184.4494    226.4841   8.0095955158e+01  -3.2415355172e-01    0.1346276    0.1120875  -0.19 0.0008073003    1.070    0.066
       148  -8.8832    162.0158    225.2267   8.4648354577e+01   3.2994209286e+00    0.2522236    0.2005773 -67.18    0.0013923    1.709    0.415
       149  -9.9302    126.6618    224.8154   9.2521476211e+01   8.9268940054e+00    0.2629805    0.2353227 -36.35 0.0006664488    1.213    0.176
       150  -9.4661    119.9762    224.2375   9.3981096081e+01   1.0093729805e+01    0.2389274     0.202733 -24.56 0.0002706099    1.344    0.256
       151  -9.6528     65.6986    225.4026   1.0675471163e+02   1.7792247241e+01    0.2147904     0.204698  63.04  0.000290077    1.135    0.119
       152  -8.5477    190.4175    224.7950   7.8586926672e+01  -9.0403570322e-01    0.1832478     0.112168 -29.18 0.0006878509    1.648    0.393
       153  -8.7546    167.4449    225.0267   8.3440013423e+01   2.4994712422e+00    0.1938494    0.1651696  17.79 0.0003453306    1.056    0.053
       154  -9.1462     91.8507    221.8793   1.0024734092e+02   1.4895184564e+01    0.2592928    0.2039517 -53.99  0.000420377    1.388    0.280
       155  -9.6963     98.1184    218.5132   9.8320865486e+01   1.4702528108e+01    0.4085195    0.2157901  40.97  0.001548195    1.714    0.416
       156  -9.2463     89.1296    210.1916   9.9367461840e+01   1.7943551249e+01     0.261756    0.2353242  64.39  0.000287703    1.057    0.054
       157 -10.3222     98.6486    211.6068   9.7241598977e+01   1.6173364858e+01    0.3543167    0.2916687 -79.82 0.0007160081    1.312    0.238
       158 -10.6625     92.9631    211.3877   9.8594521411e+01   1.7091402377e+01    0.7924799    0.2975085 -47.64  0.001332833    3.114    0.679
       159 -10.4591     85.0764    223.6858   1.0206327363e+02   1.5484702834e+01     0.258357    0.2340733 -36.42 0.0004172062    1.309    0.236
       160  -9.3157     87.7414    220.3407   1.0102350461e+02   1.5841382929e+01    0.2522544    0.1948575 -58.57 0.0003011721    1.386    0.278
       161  -9.6540    105.0344    223.1032   9.7307489238e+01   1.2645074384e+01    0.2440566    0.2160149  18.68 0.0003585662    1.190    0.160
       162  -9.1589     78.9752    223.1935   1.0343212337e+02   1.6464215021e+01    0.2039669    0.1850285 -86.73  0.000343734    1.128    0.113
       163  -8.6980     37.3516    221.8580   1.1285579823e+02   2.2109544015e+01    0.1942441    0.1681305  54.69 0.0004889046    1.127    0.113
       164 -10.1092     44.7977    218.9309   1.1091587433e+02   2.1905004029e+01    0.4093305    0.2879551   2.09  0.001371896    2.214    0.548
       165  -8.7941     40.4873    219.4319   1.1194271119e+02   2.2299431147e+01    0.1970723    0.1517292 -69.98 0.0002753806    1.320    0.242
       166  -9.6073     51.7424    212.5944   1.0868777301e+02   2.2526035342e+01    0.2317413    0.2149376 -52.87  0.000701623    1.277    0.217
       167  -8.5636     53.2960    219.6992   1.0903419415e+02   2.0687032850e+01    0.2641769    0.1505014  46.99 0.0002177723    1.572    0.364
       168  -9.4616     54.0633    215.9494   1.0848154195e+02   2.1453509172e+01    0.3431329    0.2435382  -9.45  0.001602082    2.308    0.567
       169 -10.5853     42.9831    213.8184   1.1086292297e+02   2.3302696175e+01    0.4458583    0.3653781 -12.52  0.001538089    1.743    0.426
       170  -8.9095     46.9484    212.9925   1.0985762433e+02   2.3021478281e+01    0.1832885    0.1734901 -62.84 0.0003270399    1.242    0.195
       171  -8.5665      1.9228    221.7849   1.2047552128e+02   2.5744624895e+01    0.1638834    0.1429785 -81.61 0.0004890986    1.262    0.208
       172  -9.4784      1.2553    218.3581   1.2042615729e+02   2.6564389232e+01    0.4571251    0.1107429 -70.70   0.00184279    3.338    0.700
       173  -9.3993      6.6448    220.2788   1.1940844778e+02   2.5647576613e+01    0.3892905    0.1698532  72.21 0.0008039739    2.257    0.557
       174  -9.1224      5.0000    215.5610   1.1947758525e+02   2.6856658192e+01    0.3449081    0.1196508 -79.68  0.001530258    2.573    0.611
       175  -9.0302    174.6474    221.1530   8.1250032265e+01   2.1090380085e+00    0.1859354    0.1150311 -32.03 0.0004006391    1.687    0.407
       176  -9.2990    123.9133    220.2794   9.2483358373e+01   1.0304927741e+01    0.2368925    0.1952419 -40.27 0.0003366013    1.320    0.243
       177  -8.9741    126.4601    216.6891   9.1341590404e+01   1.0658059482e+01    0.2481846    0.2070455  10.26  0.000688542    1.280    0.219
       178  -8.9549    109.0747    219.2914   9.5827069172e+01   1.2848783374e+01    0.2150123    0.1975297 -57.57 0.0002998371    1.176    0.149
       179  -9.3959    106.0090    210.2192   9.5252117178e+01   1.5340767803e+01    0.2360185    0.2024204 -45.34 0.0003143622    1.264    0.209
       180  -9.0199    106.5540    215.5365   9.5892597610e+01   1.4065573873e+01    0.2365839    0.2059203  18.28 0.0005837727    1.215    0.177
       181  -9.1279    104.4570    218.5286   9.6815016098e+01   1.3730222824e+01    0.2461627    0.1992823 -61.67 0.0006918493    1.326    0.246
       182  -9.3559    102.9161    214.4375   9.6609385429e+01   1.4875663391e+01    0.2747173    0.2288285 -69.86 0.0003574376    1.286    0.223
       183  -9.0181    163.6392    218.2662   8.3138841039e+01   4.3690784589e+00    0.4038914    0.2223617 -14.60  0.001479872    3.445    0.710
       184  -9.4031     81.7359    218.7321   1.0224858269e+02   1.7073186254e+01    0.2197442    0.2016261  80.38 0.0004024818    1.075    0.070
       185  -8.4880     79.9512    214.7657   1.0218698933e+02   1.8233140847e+01    0.1908938     0.184383 -14.57 0.0002984031    1.217    0.178
       186  -8.2162     16.4668    219.4344   1.1726461414e+02   2.4893343317e+01    0.1227659    0.1012495  75.22 0.0001101465    1.035    0.034
       187  -8.4742    157.0098    217.7509   8.4516423496e+01   5.5230426783e+00    0.1885587    0.1655819  18.94 0.0002801926    1.043    0.041
       188  -9.0125     36.7442    217.2785   1.1260609168e+02   2.3224544255e+01    0.2016578    0.1603953 -85.10 0.0003487851    1.171    0.146
       189  -9.0082    178.9793    216.2116   7.9481970354e+01   2.3546024920e+00    0.3034828    0.1934729   2.34  0.001431145    2.003    0.501
       190  -8.5433    169.7223    217.2688   8.1644638905e+01   3.6005255740e+00      0.18475    0.1445828  -6.77 0.0004668546    1.319    0.242
       191 -12.0437    158.1381    195.4431   8.0333477798e+01   9.8778327503e+00     1.511648    0.9900922  26.08  0.007163972    1.586    0.370
       192  -9.2691     65.8440    215.9012   1.0569501802e+02   1.9930154674e+01    0.2062814    0.1817706  46.86  0.000284768    1.108    0.097
       193  -9.1456     69.1308    212.7269   1.0454685023e+02   2.0221194700e+01    0.2196226    0.2049939 -20.16 0.0004158996    1.316    0.240
       194  -9.2629     13.1602    215.5026   1.1771871567e+02   2.6108193940e+01       0.2081    0.1653286 -74.40 0.0004728861    1.269    0.212
       195  -8.1181    200.4005    214.7488   7.4830262442e+01  -6.1392277164e-01    0.1874772    0.1102335 -29.44   0.00093848    1.677    0.404
       196 -10.0152     84.7634    214.2567   1.0096327747e+02   1.7653429057e+01    0.2331665    0.2172125  23.81 0.0002457545    1.174    0.148
       197  -8.3660     68.1909    208.5571   1.0428321703e+02   2.1328472332e+01    0.1965127    0.1307472  34.89 0.0003402272    1.467    0.318
       198  -9.2142     64.6790    206.4990   1.0489926542e+02   2.2292734928e+01    0.2738239    0.2371803 -27.06  0.000274027    1.461    0.315
       199  -9.6335     61.2894    214.1178   1.0658154107e+02   2.0948480109e+01    0.3530663    0.2257745 -55.33  0.001824321    1.682    0.406
       200  -8.7696     64.9138    211.6392   1.0543739167e+02   2.1046511823e+01    0.2427708    0.1802839  68.10 0.0006161654    1.318    0.241
       201  -8.9609     56.9169    199.8521   1.0604400063e+02   2.4915066687e+01    0.1990001    0.1847663  82.84 0.0002994472    1.064    0.060
       202  -9.7703     61.0541    203.8147   1.0547730470e+02   2.3417626132e+01    0.4088375    0.2781321  -9.58  0.001878064    2.465    0.594
       203 -10.0248     55.6995    204.0071   1.0681842753e+02   2.4065912857e+01    0.4191262    0.2743408 -47.15   0.00212001    1.790    0.441
       204  -9.7804     57.0402    211.5388   1.0731689096e+02   2.2103539056e+01     0.279001    0.2392714  20.07 0.0004449021    1.374    0.272
       205  -9.1648     56.4834    207.5725   1.0702135713e+02   2.3112780218e+01    0.2948395    0.2282409   9.19 0.0008035374    1.695    0.410
       206  -7.8267    193.3226    214.3123   7.6174261429e+01   5.1277561644e-01    0.1394662   0.09449761  -6.15 0.0004620735    1.655    0.396
       207  -8.5808    186.9821    214.0190   7.7422499919e+01   1.5263209730e+00    0.2098106    0.1467218  -3.65 0.0003519089    1.584    0.369
       208  -9.0792    119.6188    194.6084   8.9416344871e+01   1.6690999708e+01    0.2436981    0.2363749  -3.44 0.0006551226    1.064    0.060
       209  -8.6478    118.8995    206.8636   9.1607661736e+01   1.4024388672e+01    0.2107636    0.1892617  -5.55 0.0003019545    1.222    0.181
       210  -8.6496    122.4986    207.4568   9.0832477970e+01   1.3303352586e+01    0.2551422    0.1928487  34.63 0.0005268482    1.250    0.200
       211  -8.7020    119.7000    198.8913   9.0117162207e+01   1.5693089027e+01     0.242369    0.1933016 -39.10   0.00041037    1.347    0.258
       212  -9.5885    120.8274    202.9842   9.0514803012e+01   1.4577152760e+01      0.30617    0.2391467  29.11 0.0002943126    1.257    0.204
       213  -8.7652    116.5259    201.5314   9.1333054874e+01   1.5617488751e+01     0.208173    0.1700273  -9.84  0.000273563    1.477    0.323
       214  -9.1778    102.1465    197.0595   9.4210251409e+01   1.9001128493e+01    0.2400559    0.2030459  31.55 0.0003150697    1.179    0.152
       215  -9.5458    124.8700    210.9445   9.0819618844e+01   1.2150399434e+01    0.2479942    0.2189939  -8.04 0.0004165422    1.239    0.193
       216  -9.3770    126.7744    206.3757   8.9629192834e+01   1.2837454138e+01    0.2646446    0.2214959 -23.17 0.0002834551    1.334    0.251
       217  -9.3916    109.7160    196.0283   9.2134671104e+01   1.8013110283e+01    0.2666241    0.2607847  80.95 0.0003557355    1.038    0.037
       218 -10.1667    111.6975    213.1470   9.4310610472e+01   1.3786089976e+01    0.2726581    0.2409425 -19.57  0.000317821    1.288    0.224
       219 -10.3522    114.9500    207.5201   9.2669308226e+01   1.4519775300e+01    0.5716853    0.2635085 -55.65  0.002329841    2.279    0.561
       220 -10.3323    109.7335    203.2107   9.3275914372e+01   1.6342907571e+01    0.3292672    0.2781661  50.83 0.0006375853    1.156    0.135
       221 -10.0958    105.9602    198.5165   9.3478360886e+01   1.8042965887e+01    0.3186438    0.2347691 -56.54 0.0003150652    1.401    0.286
       222  -8.7278     29.0215    214.0147   1.1408717201e+02   2.4833337354e+01    0.1856873    0.1618298  80.90 0.0003086191    1.077    0.072
       223  -9.9048    170.4504    210.8341   8.0369111779e+01   4.7186476589e+00    0.3920482    0.2470049 -17.96  0.001275709    2.023    0.506
       224  -8.7756    167.6001    208.2195   8.0529815860e+01   5.6901772494e+00    0.2044316    0.1881474  23.84 0.0004056027    1.103    0.093
       225  -8.9232     74.3284    213.1463   1.0334363374e+02   1.9403940939e+01    0.2111082    0.1792065  27.25 0.0004868002    1.269    0.212
       226  -8.7284    180.6376    211.2776   7.8263457419e+01   3.0166301473e+00    0.2252263    0.1585527 -28.30  0.000497016    1.418    0.295
       227 -12.5109     63.7999    161.8373   9.8971740002e+01   3.3630558289e+01     1.573538     1.319554  29.94  0.008431522    1.280    0.219
       228 -10.2689     66.3017    193.1317   1.0283234746e+02   2.5318664368e+01    0.2480661    0.2296005  41.52 0.0003390465    1.134    0.118
       229 -10.5548     55.3980    169.1532   1.0248149187e+02   3.2842284979e+01    0.3723381    0.2896099 -66.18 0.0005424282    1.203    0.169
       230 -12.3187     26.7119    207.0080   1.1404450513e+02   2.6717616906e+01     2.238113    0.6243839  34.35  0.008897676    3.052    0.672
       231 -12.7235     33.6247    197.4583   1.1155087753e+02   2.8268924482e+01     1.471388     1.372304  20.64  0.009460983    1.309    0.236
       232 -12.9903     28.7734    126.5554   1.0408900795e+02   4.6850809874e+01     2.797506     1.125694  42.35   0.01110851    2.845    0.649
       233 -11.1419     63.7148    173.9761   1.0086581749e+02   3.0504247783e+01      1.26846    0.7229131 -10.41  0.004237771    4.124    0.758
       234 -10.9897     56.6487    186.6575   1.0450878179e+02   2.8214337452e+01     0.748858    0.4209929  30.69  0.002827489    1.850    0.459
       235 -11.8015     35.1798    173.6918   1.0864854379e+02   3.4039524701e+01     1.332009    0.5649161 -87.65  0.004752712    3.189    0.686
       236 -12.8707     11.2047    146.2041   1.1225203782e+02   4.3267289948e+01     1.879532     1.077078 -52.66   0.00966238    1.625    0.385
       237 -11.7287     24.2965    140.6557   1.0762692735e+02   4.3627041024e+01     1.249977    0.6014093  -3.45  0.004649488    3.803    0.737
       238 -12.0959     42.0925    131.7580   1.0058470146e+02   4.4163757473e+01     1.628489    0.7280347 -42.39  0.006362001    2.440    0.590
       239 -12.5960     11.1152    131.4853   1.1052315837e+02   4.7021511511e+01     1.308035      1.02866 -37.30  0.005374356    1.350    0.259
       240 -12.3913     27.0756    177.4523   1.1121846586e+02   3.3919303310e+01     2.216691    0.5104243 -59.34  0.007596538    3.432    0.709
       241 -11.0592     22.8925    170.9698   1.1165254867e+02   3.5964507728e+01    0.5406936     0.398663  88.17  0.002769362    1.233    0.189
       242 -11.7365     47.1042    147.5491   1.0164055262e+02   3.9486491890e+01     1.627706    0.4542989 -68.91  0.004728639    4.052    0.753
       243 -12.4381     56.2255    148.3650   9.8991901317e+01   3.8150395818e+01     1.481182     1.021608  46.83   0.00723357    1.535    0.349
       244 -10.7985     78.8008    143.8843   9.1273986500e+01   3.6093855268e+01    0.6685444    0.3804533 -27.52  0.002406058    2.775    0.640
       245 -13.5302     13.6784    174.7971   1.1444496103e+02   3.5826902449e+01     3.083668     1.098294 -62.90   0.01309424    2.344    0.573
       246 -12.9293     19.1210    154.3187   1.1087774603e+02   4.0557231410e+01     2.284722      1.17256 -27.16  0.009431646    3.100    0.677
       247 -13.4697     40.3731    162.1220   1.0576229467e+02   3.6455441432e+01     2.296232     1.558748  88.63   0.01150334    1.526    0.345
       248 -11.5143     75.8840    150.5758   9.3450270276e+01   3.4814905942e+01     0.995003    0.5374789  25.30   0.00400659    2.153    0.535
       249 -12.4094     69.6619    136.9756   9.2712570956e+01   3.9260112212e+01     1.695667    0.8882273 -51.76   0.00703453    1.779    0.438
       250 -11.9574     62.0350    139.6416   9.5630743890e+01   3.9651838296e+01     1.054302    0.7631326  63.36  0.004009057    1.627    0.385
       251 -12.4391     63.5598    128.2389   9.2880868848e+01   4.2377572447e+01     1.547636     1.053744  10.26  0.007077011    1.851    0.460
       252  -7.9390     67.6799    249.7211   1.0868940402e+02   1.2366081871e+01    0.1121594   0.09731176  -6.46 0.0005270496    1.580    0.367
       253  -7.9495    176.7009    211.6721   7.9169814613e+01   3.5622519883e+00    0.1422941   0.09981484  -8.64 0.0003911112    1.638    0.389
       254  -9.8969     36.2771    210.1923   1.1209404730e+02   2.4926142518e+01    0.2963016    0.2128031 -12.13  0.001357939    2.244    0.554
       255  -8.1974     14.8155    211.2080   1.1706354777e+02   2.6933563058e+01    0.1530459    0.1341706 -70.02 0.0003124082    1.280    0.219
       256  -9.2404    193.8700    209.5814   7.5216816185e+01   1.2819867393e+00    0.2740866    0.1808866 -11.65  0.001007627    1.739    0.425
       257 -10.2170     78.1773    208.3007   1.0180437516e+02   1.9990115299e+01    0.5198833    0.2450986 -44.41 0.0008093964    2.736    0.635
       258  -9.0108     75.8610    204.5732   1.0189808334e+02   2.1203564740e+01    0.4237559    0.2501428 -33.59   0.00178528    2.592    0.614
       259  -9.3873     82.7471    201.4594   9.9760225674e+01   2.0947525346e+01    0.2355646    0.2096178 -46.83 0.0003264101    1.240    0.194
       260 -10.0474     80.0256    196.8085   9.9805536098e+01   2.2469517844e+01    0.4841693    0.2452174 -52.27  0.001387527    2.040    0.510
       261  -8.7587     88.5749    196.4909   9.7575564625e+01   2.1265352103e+01     0.378279    0.2616164   6.06  0.001712368    2.063    0.515
       262  -8.8095     86.7929    193.1681   9.7541881339e+01   2.2342851891e+01    0.3104652    0.2357304 -10.68 0.0003455817    1.825    0.452
       263  -9.0824     90.4868    191.1369   9.6278264128e+01   2.2269561558e+01    0.2325978    0.1727262 -54.77 0.0005886885    1.372    0.271
       264  -9.1456     91.0144    187.5115   9.5575791085e+01   2.3075141665e+01    0.2603517    0.1967603 -42.19 0.0004841973    1.459    0.314
       265 -10.0935     80.8455    191.5258   9.8841671367e+01   2.3639885653e+01    0.2897047     0.249506 -17.78 0.0006334819    1.425    0.298
       266  -8.8816     77.8160    188.7762   9.9233420547e+01   2.4766320598e+01    0.2039231    0.1917982 -35.89 0.0004314215    1.194    0.163
       267  -9.5774     84.3462    206.4019   1.0003363314e+02   1.9538739073e+01    0.2474675    0.2332608 -21.17   0.00119763    1.235    0.190
       268 -10.5066     88.4281    202.7286   9.8511012235e+01   1.9796318126e+01    0.5362943    0.3191178 -72.24  0.001909665    1.895    0.472
       269  -9.8841      1.9314    209.8620   1.1979756924e+02   2.8423048419e+01    0.2871985    0.2298131 -80.38  0.001071511    1.200    0.166
       270  -9.1415      4.6925    206.6966   1.1900262049e+02   2.8909882359e+01    0.2171312    0.1584196  63.30 0.0004113117    1.181    0.153
       271  -8.3645    225.0816    208.5267   6.9012926227e+01  -3.0531968657e+00    0.1990739    0.1398986 -31.41 0.0006302717    1.252    0.201
       272  -8.9373    109.9982    208.6497   9.4047178121e+01   1.5062042764e+01    0.2203087    0.1938305 -35.88   0.00045948    1.251    0.201
       273  -8.5885     72.6937    209.1180   1.0325073180e+02   2.0574047007e+01    0.1824281    0.1673178 -76.78 0.0003653966    1.122    0.109
       274  -8.1492    188.6789    208.7365   7.6127648053e+01   2.2349779401e+00    0.1367664   0.09699119  -2.12 0.0002377741    1.555    0.357
       275  -8.5484    176.7542    207.4480   7.8405045049e+01   4.3606232623e+00    0.1832132    0.1254236  19.10 0.0003458796    1.512    0.339
       276  -9.4069     43.9308    207.0952   1.0999570846e+02   2.4774568596e+01    0.1911734    0.1730712  81.77 0.0002769582    1.075    0.070
       277  -8.1639    242.0020    206.4890   6.5666722477e+01  -4.9571223507e+00    0.1701391   0.09427018   6.41 0.0006846655    2.505    0.601
       278  -9.5050    183.5567    205.5390   7.6615203700e+01   3.6383476425e+00    0.2164771    0.1826058 -40.45  0.001012866    1.240    0.193
       279  -9.1600    181.7629    202.1880   7.6379739343e+01   4.5665135950e+00    0.4646892    0.2000624 -38.50  0.001697463    2.361    0.576
       280  -9.1312    104.8245    205.5616   9.4848173677e+01   1.6589679873e+01    0.2325785     0.196317 -56.82 0.0003337568    1.241    0.194
       281  -9.1504     39.0176    205.7245   1.1103626697e+02   2.5673446109e+01     0.210006     0.170084 -83.31 0.0004494296    1.143    0.125
       282  -8.8112    189.3894    203.7509   7.5072424937e+01   3.0516077597e+00     0.324227    0.1769307 -20.01  0.001266381    2.600    0.615
       283  -9.1958     70.9046    204.7879   1.0315604022e+02   2.1850111727e+01     0.216341    0.1903495 -75.31 0.0004063049    1.138    0.121
       284  -8.1215    113.5176    248.5694   9.8670775198e+01   6.2051801746e+00    0.1300251    0.1118592  34.17 0.0001447283    1.035    0.034
       285  -9.1216    175.7822    202.7056   7.7753275017e+01   5.4384862073e+00    0.2389018    0.2074769 -28.62 0.0004530419    1.121    0.108
       286 -10.5992     97.3956    202.4817   9.6231580118e+01   1.8475937360e+01    0.2817491    0.2458728  31.95  0.001561687    1.146    0.128
       287  -9.7079    129.3583    201.0437   8.8118861225e+01   1.3585932107e+01    0.4499176    0.2240053 -38.86  0.001625314    2.414    0.586
       288  -9.2779    129.5563    194.5377   8.6947794961e+01   1.5012845672e+01     0.291257    0.2422976 -33.67 0.0003010606    1.276    0.216
       289 -10.2495     67.6761    200.9914   1.0348733785e+02   2.3208392891e+01    0.2692548    0.2356115 -56.04 0.0003220966    1.233    0.189
       290  -7.6304    217.6463    201.6747   6.9132550393e+01  -8.5100804412e-01    0.1397381   0.09064341  -7.62 0.0007046937    1.765    0.433
       291  -8.7684    108.7802    247.7295   9.9602325181e+01   7.0543342124e+00    0.2018141     0.166604 -40.49 0.0008218729    1.430    0.301
       292  -9.6742    134.0369    200.4280   8.6886045914e+01   1.2931511757e+01    0.2554163    0.2105211 -47.70 0.0003031553    1.259    0.206
       293  -8.9914    186.4866    199.3047   7.4851416284e+01   4.3570779297e+00    0.2457495    0.1728688 -24.64 0.0008139265    1.440    0.305
       294  -8.9416     93.0539    198.4224   9.6721515288e+01   2.0112495580e+01    0.2183101     0.193949 -51.19 0.0003096645    1.193    0.162
       295  -9.6815     73.8499    198.8387   1.0165340301e+02   2.2868523711e+01     0.245126    0.2106533  66.78 0.0002704614    1.106    0.096
       296  -8.3492    210.2472    198.2260   6.9890749958e+01   8.4507414335e-01    0.1579635     0.153511 -24.30 0.0003426856    1.282    0.220
       297  -9.4463    180.8981    196.5663   7.5516577204e+01   5.8011847315e+00    0.5137104    0.1791865 -42.31  0.001561508    2.806    0.644
       298  -9.6461    124.0348    197.4785   8.8811655309e+01   1.5286406587e+01    0.2559324    0.2114624 -47.81 0.0003409395    1.254    0.202
       299  -9.3468    114.1776    197.8469   9.1314285714e+01   1.6852423372e+01    0.2522678    0.2168493 -16.84 0.0002308674    1.337    0.252
       300  -9.5183     94.6596    193.7890   9.5609723040e+01   2.0973437007e+01    0.2450905    0.2289664 -53.14 0.0004835916    1.125    0.111
       301  -8.6386     97.6708    197.9655   9.5483109306e+01   1.9498931858e+01    0.1957758    0.1810634 -72.79  0.000274526    1.104    0.094
       302  -8.4799     98.4475    194.5112   9.4751562695e+01   2.0199802037e+01     0.215425    0.1755015 -25.59 0.0001253393    1.480    0.324
       303  -8.6491    231.7277    197.1390   6.5742626644e+01  -2.0702588346e+00     0.240552    0.1474525   0.25  0.001204843    2.100    0.524
       304  -9.2149    223.6578    196.1304   6.6996890275e+01  -7.6066492853e-01    0.3336186    0.2214803  17.07  0.001832204    1.644    0.392
       305  -9.5389    151.2824    185.5637   8.0061440038e+01   1.3202713912e+01    0.2766359    0.2394618   5.17  0.000631768    1.205    0.170
       306  -9.5450    164.6397    171.6927   7.4202486058e+01   1.3798532841e+01     0.292157    0.2372185 -20.66 0.0005047687    1.303    0.233
       307  -8.8934    148.5242    190.8302   8.1708463096e+01   1.2538040630e+01    0.2444714    0.2204826   7.93 0.0006611429    1.105    0.095
       308  -9.8622    163.5674    176.5954   7.5444863020e+01   1.2936517978e+01    0.4576847    0.2702231 -25.78  0.001208851    2.230    0.551
       309  -9.9031    145.1431    194.7646   8.3232545352e+01   1.2269136039e+01    0.2843243    0.2600974 -15.27 0.0004222678    1.101    0.092
       310 -10.0260    145.3485    188.2726   8.1983440902e+01   1.3660153408e+01    0.8464031    0.4359314 -25.97  0.002785342    3.553    0.719
       311  -8.6105    158.8008    181.1800   7.7453344275e+01   1.2809748616e+01    0.2267617    0.1920246 -16.56 0.0003633261    1.231    0.187
       312  -9.6562    159.1785    174.1717   7.5962955979e+01   1.4268371196e+01    0.3124554    0.2537872 -27.75 0.0003751746    1.261    0.207
       313  -9.5823    152.9748    173.0930   7.7197586684e+01   1.5655475748e+01    0.2619562    0.2096463 -35.02 0.0003040336    1.254    0.203
       314  -9.1328    150.7279    181.0120   7.9310170429e+01   1.4306160445e+01    0.4279688    0.2657619  18.15  0.001193979    2.108    0.526
       315  -9.7295    155.5596    179.2291   7.7820932024e+01   1.3822387733e+01    0.4690739    0.3111712 -30.84  0.002120965    1.673    0.402
       316  -8.9209    152.4688    177.4907   7.8202331972e+01   1.4770189355e+01    0.2571261    0.2283335 -25.54 0.0004903811    1.127    0.113
       317  -9.2283    155.2578    188.5452   7.9701605863e+01   1.1848865035e+01    0.2851823    0.2186238 -12.61  0.000598717    1.515    0.340
       318  -9.4084    157.6687    184.9827   7.8458620405e+01   1.2190014568e+01    0.2681783    0.2494802  17.16 0.0003398339    1.050    0.047
       319 -10.2128    142.6317    183.4711   8.1726429984e+01   1.5216954280e+01    0.3153729    0.2930579  -4.94 0.0001619847    1.086    0.080
       320  -9.1096    134.0074    195.5155   8.6035466754e+01   1.4027564917e+01    0.2250545    0.2119493 -29.99 0.0003249997    1.085    0.078
       321  -9.0695    134.5172    192.0147   8.5286487562e+01   1.4725315900e+01    0.3085921    0.2374439 -39.61 0.0004049471    1.350    0.259
       322  -9.5137    138.2779    189.7578   8.3961228461e+01   1.4575737721e+01    0.2929959    0.2598891 -21.31 0.0005989305    1.176    0.150
       323  -9.4184    138.4686    185.5606   8.3134447234e+01   1.5488987687e+01    0.4051204    0.2608939 -42.87  0.001839944    1.590    0.371
       324  -8.9870     12.7217    195.9786   1.1643485830e+02   3.0717161512e+01    0.1895318    0.1650736  68.79 0.0003649505    1.110    0.099
       325  -8.5273    201.5890    195.2190   7.1010737526e+01   2.7211791652e+00    0.1964472    0.1586418 -24.86  0.000443984    1.118    0.106
       326 -12.2114     49.5906    201.4487   1.0804005132e+02   2.5448316471e+01     1.433241    0.6963342 -58.25  0.006058375    2.033    0.508
       327  -9.2902     74.0609    194.0153   1.0094990379e+02   2.4016041402e+01    0.2100117    0.1970076  74.71 0.0003741797    1.020    0.019
       328  -9.6975    124.9209    192.2428   8.7688037053e+01   1.6333018797e+01    0.2535172     0.221745 -25.04 0.0003398196    1.235    0.191
       329  -9.6168    115.3139    192.0558   9.0061270420e+01   1.8012356162e+01     0.263152    0.2308609  -4.40 0.0004780009    1.288    0.224
       330  -8.1419    210.4545    192.4178   6.8755659298e+01   1.8581270266e+00    0.1359981    0.1146679 -13.16 9.467157e-05    1.055    0.052
       331  -9.0732    110.4074    191.0548   9.1136046284e+01   1.9071715991e+01    0.2264392    0.2018176  16.35 0.0004330823    1.193    0.162
       332  -8.6306    113.8592    187.1816   8.9591189747e+01   1.9410354322e+01    0.2186567    0.1941076   1.44 0.0002696129    1.254    0.203
       333  -9.8915    103.3278    189.1820   9.2639686953e+01   2.0691368586e+01    0.3848415    0.2415186 -42.17  0.001359161    1.778    0.438
       334  -9.3498    109.2254    186.9515   9.0741709330e+01   2.0248713240e+01    0.5726522    0.2401715  45.85  0.001368633    2.490    0.598
       335  -8.5042    104.7228    184.6692   9.1518572347e+01   2.1552768465e+01    0.2636889     0.166849 -39.80  0.001017631    1.806    0.446
       336  -8.9206    215.8277    190.3853   6.7354647312e+01   1.4043573028e+00    0.1790578    0.1521274   3.58  0.000778177    1.138    0.121
       337  -9.2596    202.4610    187.5600   6.9372001342e+01   4.0104335930e+00    0.2222587    0.1951222  34.30 0.0007439504    1.266    0.210
       338  -8.0087    205.5566    188.9638   6.9038067995e+01   3.2547103276e+00    0.2216665    0.1764529   7.61 0.0003688705    1.276    0.217
       339  -8.8438    206.4763    185.0424   6.8100799330e+01   3.8377481993e+00    0.3101828    0.1448145 -31.80  0.001172242    2.294    0.564
       340  -8.9164    129.8649    177.8275   8.3800445130e+01   1.8814837275e+01    0.2774237    0.1972228 -44.97 0.0004560235    1.423    0.297
       341  -9.2479    130.9209    189.0084   8.5624637652e+01   1.6035379768e+01    0.2398058    0.2081416  31.57 0.0003025706    1.126    0.112
       342  -7.9776    130.2576    181.6602   8.4430669177e+01   1.7848977415e+01    0.2252358    0.1479916  39.96 0.0002504946    1.495    0.331
       343  -8.9417    126.3652    188.1494   8.6600379866e+01   1.7028253975e+01    0.2749413    0.1930517  47.30 0.0003991403    1.453    0.312
       344  -9.4998    129.3475    185.1034   8.5300318260e+01   1.7210971334e+01    0.3325219    0.2814947 -22.14   0.00041409    1.300    0.231
       345  -9.3384     81.3422    176.1870   9.6356625902e+01   2.7399891414e+01    0.3375069    0.2470956  20.96  0.001623785    1.567    0.362
       346  -9.4897     68.9534    182.1096   1.0062228611e+02   2.7708426931e+01    0.2456461    0.1972925 -61.02 0.0003033345    1.226    0.184
       347 -10.5725     83.6413    168.8520   9.4496790320e+01   2.8912907376e+01    0.4343821    0.3160357 -49.43 0.0002362004    1.388    0.279
       348  -9.9981     89.0465    167.0207   9.2664483139e+01   2.8524251855e+01    0.2798866    0.2462808  32.66 0.0003086718    1.176    0.150
       349  -9.9313     72.7311    187.0708   1.0032666322e+02   2.5926915854e+01    0.2652448    0.2354923 -75.29 0.0001975809    1.095    0.087
       350 -11.1424     76.8423    170.7891   9.6721220782e+01   2.9452805855e+01    0.5979814    0.4721109  45.47  0.001340718    1.267    0.211
       351  -9.3444     79.8950    164.1219   9.4733785535e+01   3.0703778766e+01    0.2914796    0.2477608  32.90 0.0006890591    1.226    0.185
       352  -9.8341     74.9618    164.0476   9.6127998256e+01   3.1466357875e+01    0.3063338    0.2593809 -24.86 0.0003098181    1.381    0.276
       353  -9.4728     88.8878    163.1220   9.2002827315e+01   2.9543359412e+01    0.3600974    0.2659509  20.43 0.0002762328    1.558    0.358
       354  -9.7270     85.5112    160.1451   9.2416360520e+01   3.0847660228e+01    0.3609411    0.2804622 -24.04 0.0002963648    1.577    0.366
       355  -9.3740     80.7924    184.8723   9.7866718012e+01   2.5297080926e+01    0.2867052    0.2582698 -16.68 0.0003504359    1.308    0.236
       356 -10.0043     85.3521    178.6825   9.5670415652e+01   2.6154560750e+01    0.8350601    0.4357921 -26.76  0.002516574    4.498    0.778
       357  -9.6928     90.9016    172.6298   9.3140033434e+01   2.6804238845e+01    0.3212599    0.2070114 -55.09  0.001451443    1.524    0.344
       358 -10.7511     73.8768    180.1159   9.9001429614e+01   2.7511859490e+01    0.8103269    0.5369552  89.37  0.002800475    1.801    0.445
       359  -9.1350     78.8418    180.1853   9.7669738299e+01   2.6765004918e+01    0.2679762     0.202486 -63.83 0.0002778227    1.297    0.229
       360  -8.0151    237.5214    187.4467   6.2937474978e+01  -1.2468544144e+00    0.1310706    0.1032116 -18.49 7.654097e-06    1.097    0.089
       361 -10.4358    120.3026    186.1461   8.7766262523e+01   1.8549386534e+01     0.349454    0.2597028  36.66  0.001703629    1.314    0.239
       362 -12.6387     45.4842    176.9256   1.0625479378e+02   3.2057466276e+01     1.668144     1.128597 -42.44  0.007261796    1.717    0.418
       363  -7.9742    243.5064    185.9800   6.1663446668e+01  -1.8283789587e+00    0.1928391   0.09050304 -23.93 0.0008103306    2.686    0.628
       364  -9.0657    226.2338    178.1875   6.3120825377e+01   2.0015703936e+00    0.2712775    0.1611449 -11.01  0.001044595    2.438    0.590
       365  -8.5235    224.1290    181.8472   6.4201560415e+01   1.6702975353e+00     0.241409    0.1610509 -30.00 0.0008326513    1.336    0.251
       366  -9.7789    222.4994    185.5050   6.5197340535e+01   1.2668111414e+00     0.277348     0.141708 -29.48  0.001018363    1.983    0.496
       367 -10.4134    218.7471    183.6600   6.5524472259e+01   2.1664249567e+00    0.4338129    0.3340108   0.66  0.001883585    1.363    0.267
       368  -9.8490     85.9506    185.3085   9.6565004300e+01   2.4405797013e+01    0.2703221     0.216453 -52.74 0.0003073274    1.279    0.218
       369 -10.3439     89.6759    181.0563   9.4893414464e+01   2.4884445250e+01    0.2733647    0.2503363  -1.33 0.0003272397    1.246    0.197
       370  -7.9320    229.3273    185.3155   6.3946877096e+01   2.8840791011e-01    0.1352106   0.09075286 -10.37 0.0007044509    1.673    0.402
       371 -13.6444    191.8238    157.3133   6.5347095939e+01   1.1768982624e+01     2.332609     1.353751 -43.50    0.0106145    1.599    0.374
       372 -10.0377    194.9777    178.6351   6.9107232470e+01   6.9594776507e+00     0.411308    0.1823002 -37.49  0.001081312    2.212    0.548
       373  -9.1742    162.8493    183.2547   7.6932879790e+01   1.1636998203e+01    0.2570327    0.2002565 -33.19 0.0003553393    1.279    0.218
       374 -10.5423    210.2524    180.6244   6.6514982865e+01   4.0556493175e+00    0.4622276    0.2777843 -51.90  0.002214552    1.880    0.468
       375  -9.5283    134.6198    181.7502   8.3360677096e+01   1.7047504660e+01    0.2616857    0.2266845 -20.11 0.0004603668    1.243    0.195
       376  -8.8730    198.9958    180.9570   6.8764354256e+01   5.8330711241e+00    0.2112793    0.1813462 -18.60 0.0004841558    1.068    0.063
       377  -9.9541    204.3360    167.7562   6.5066989412e+01   7.4775943352e+00    0.4669895    0.3209306   3.90  0.002139963    1.965    0.491
       378  -9.6560    205.3790    176.2588   6.6581881974e+01   5.6716505215e+00     0.262536    0.1883346 -14.52  0.001350084    1.538    0.350
       379 -10.0936    202.5487    173.4037   6.6557363888e+01   6.6922296640e+00     0.359581    0.3103167 -20.02  0.002082144    1.067    0.063
       380  -8.8399    124.0034    166.3293   8.3043743935e+01   2.2617870481e+01    0.2489545    0.2024522 -41.42 0.0003294724    1.249    0.200
       381 -10.0985    122.1262    178.9458   8.5982103502e+01   1.9934912313e+01    0.4425418    0.3458587 -10.80 0.0005896125    1.608    0.378
       382  -9.3735    124.4123    174.8328   8.4613444887e+01   2.0505855735e+01    0.2537303    0.2433279 -20.13 0.0003477714    1.068    0.063
       383  -7.8194    235.7193    179.7139   6.1779847294e+01   3.2669912510e-01    0.1271882   0.08838783 -13.42  0.000213706    1.519    0.342
       384  -9.4768    145.6253    178.4827   8.0034581531e+01   1.5799692158e+01    0.2826558    0.2390681 -14.64 0.0002236395    1.288    0.223
       385  -8.6084    148.4924    175.4680   7.8745845652e+01   1.5952890549e+01    0.2433891     0.202423 -58.33 0.0007225745    1.285    0.222
       386  -9.2918    145.6678    173.7216   7.9076990678e+01   1.6869755846e+01    0.2129561    0.1874033  -6.71 0.0003321421    1.215    0.177
       387  -8.5368    148.5189    172.4153   7.8124038343e+01   1.6636174083e+01    0.2831545     0.229306 -14.51 1.372012e-05    1.404    0.288
       388  -9.3032    138.7539    177.3410   8.1487504624e+01   1.7314237549e+01    0.5493516    0.3408419  69.54  0.001969009    2.926    0.658
       389  -8.4115    138.7043    174.2779   8.0895500419e+01   1.8029138361e+01    0.2543471    0.2126034 -69.72  0.000247747    1.355    0.262
       390  -9.0755    218.5459    177.6161   6.4384832440e+01   3.2924356056e+00    0.3020099    0.1873949  15.25 0.0009444038    2.148    0.534
       391  -8.6831    134.8500    176.6062   8.2312577515e+01   1.8196029352e+01    0.2334288    0.2002399 -32.28 0.0004773031    1.206    0.171
       392 -10.3342    119.0082    169.5757   8.4997971642e+01   2.2744239194e+01    0.3644591    0.2967343 -74.36 0.0005903017    1.377    0.274
       393  -8.3409    109.8279    177.4140   8.8898452271e+01   2.2455275899e+01    0.2077792    0.1880877  26.45 0.0001935931    1.134    0.118
       394  -9.1077    113.1570    174.7431   8.7527978786e+01   2.2528399436e+01     0.222438     0.216413   6.57 0.0004243649    1.063    0.059
       395  -9.7412    112.1954    169.7385   8.6835316050e+01   2.3921541441e+01    0.5423704    0.2468204 -57.57  0.001984169    2.300    0.565
       396  -9.0899    115.4656    166.0562   8.5244471533e+01   2.4240679355e+01    0.2524548     0.212017  15.87 0.0003996194    1.322    0.244
       397  -8.7825    103.0673    177.0897   9.0633154495e+01   2.3686055315e+01    0.2152018    0.2119572 -57.68 0.0003422562    1.040    0.038
       398  -8.3819     94.5405    176.9639   9.2899235516e+01   2.5127703403e+01    0.2140932    0.1456656 -58.68 0.0003366809    1.461    0.316
       399  -9.3634     98.5936    175.0908   9.1478722381e+01   2.4929470266e+01     0.290145    0.2401789  18.92 0.0004188657    1.340    0.253
       400  -9.2466    117.7940    175.4567   8.6446324211e+01   2.1538649558e+01    0.2479599    0.2056545 -51.96 0.0002764313    1.212    0.175
       401 -10.2076    232.6082    173.0902   6.1031368063e+01   1.9382602285e+00    0.4883443    0.2788581  -5.03  0.001966059    3.344    0.701
       402  -7.9755     99.2848    248.3439   1.0174504151e+02   8.3015876589e+00    0.1222085   0.09849256 -13.61 0.0007017638    1.642    0.391
       403 -10.0070    107.1304    172.1098   8.8639396292e+01   2.4222879317e+01    0.3039828    0.2534927 -42.27 0.0004229862    1.243    0.195
       404  -9.6152    129.6502    172.9928   8.2914931481e+01   1.9991779666e+01    0.2669331    0.2213759  31.36 0.0002232721    1.215    0.177
       405  -7.7880    241.6850    172.6909   5.9450445962e+01   6.6786798665e-01    0.1299858   0.08879316 -12.78 0.0007029849    1.631    0.387
       406  -8.1182    219.0182    172.0107   6.3193849831e+01   4.2426446693e+00     0.161904    0.1399413 -25.04 0.0003171773    1.006    0.006
       407  -9.0191    124.9318    170.5163   8.3637501214e+01   2.1442604964e+01    0.2739537    0.2188241 -57.88 0.0003644528    1.283    0.221
       408  -9.6499    142.9519    169.9352   7.8972834244e+01   1.8240711038e+01    0.2847748     0.235659 -22.31 0.0002877596    1.317    0.241
       409  -8.8557    138.0635    169.7926   8.0154070412e+01   1.9187466278e+01    0.3213322    0.2461552  -9.24  0.001239942    1.653    0.395
       410  -8.7037    135.0213    166.7928   8.0306236727e+01   2.0457716313e+01     0.226189    0.2168658 -33.29 0.0002599104    1.036    0.035
       411  -8.8492    133.8889    170.8655   8.1417996417e+01   1.9712747983e+01    0.2256019    0.1983917 -16.08 0.0003878849    1.231    0.188
       412  -9.6757     95.7362    170.6970   9.1472078272e+01   2.6502662827e+01    0.2754555    0.2385772 -38.83 0.0005642094    1.228    0.186
       413 -10.0364    101.4101    169.4064   8.9684432833e+01   2.5875006865e+01    0.2763418    0.2553736 -19.87 0.0008984471    1.183    0.155
       414 -10.4341    229.2461    165.7934   6.0172185476e+01   3.7498935195e+00    0.4570039    0.2382826 -24.58  0.001624506    2.394    0.582
       415  -8.8911    234.1173    162.1064   5.8630047222e+01   3.6465510868e+00     0.231649    0.1578943 -20.87 0.0005388559    1.542    0.352
       416  -9.9831    151.9827    167.2541   7.6232544275e+01   1.7149989091e+01    0.5467775     0.215125 -48.03   0.00182082    2.501    0.600
       417  -9.0917    204.3490    179.8602   6.7496184172e+01   5.1574477813e+00    0.2044843    0.1889053  33.76 0.0005193521    1.232    0.188
       418  -8.4587    248.0692    167.0949   5.7368358357e+01   7.0046766637e-01    0.1815733    0.1417543 -58.28 0.0004916966    1.586    0.370
       419  -9.3059    164.9839    166.3535   7.3015142937e+01   1.4892462039e+01    0.2729782    0.2082109 -34.06 0.0003495667    1.306    0.234
       420  -9.1148    147.9956    167.0355   7.7145450140e+01   1.7954037483e+01    0.2253843    0.2117513 -13.30  0.001200301    1.068    0.064
       421  -9.9191    129.0050    166.1375   8.1707558465e+01   2.1737381380e+01    0.2727574    0.2154795 -44.50 0.0002999238    1.266    0.210
       422  -9.2890    106.8955    166.1812   8.7579750390e+01   2.5732673429e+01     0.243362    0.2157908 -36.54  0.000270934    1.181    0.153
       423  -7.9573    217.4388    166.4121   6.2359789133e+01   5.5323788294e+00    0.1372499    0.1172985 -22.41 0.0002070127    1.065    0.061
       424  -9.9595    122.9338    148.8568   7.9643240752e+01   2.7042344504e+01    0.2950364     0.252045 -16.16 0.0003407287    1.330    0.248
       425  -9.9321    111.4923    152.6464   8.3583004520e+01   2.8268951229e+01    0.3657192    0.2825719  16.29 0.0002205132    1.528    0.346
       426 -10.0940    100.4260    162.6786   8.8683654283e+01   2.7730334511e+01    0.3232985     0.285315  -4.50 0.0002660119    1.300    0.231
       427  -9.2027    108.8250    157.4339   8.5314921721e+01   2.7566035281e+01    0.2740734    0.2346701 -28.80 0.0003084672    1.272    0.214
       428  -9.5172    106.9530    150.4625   8.4387335128e+01   2.9640485238e+01    0.2895511    0.2488093 -30.02 0.0003296339    1.252    0.201
       429  -8.6782     92.7915    161.6150   9.0619652007e+01   2.9287890753e+01    0.2225204    0.2081063 -20.69 0.0003672168    1.162    0.140
       430  -9.9050    114.3122    157.1449   8.3750701663e+01   2.6640038741e+01    0.3130938    0.2609023 -22.60 0.0004445497    1.366    0.268
       431  -9.8130    116.9678    152.0195   8.1945672227e+01   2.7406394016e+01    0.4915608    0.3358673  -5.78  0.001693373    2.356    0.575
       432  -9.1727     95.7971    164.8396   9.0381674836e+01   2.7969752532e+01    0.2407331    0.2106551  14.29 0.0004470772    1.270    0.213
       433  -9.0912     96.4664    161.4678   8.9557069525e+01   2.8710278012e+01     0.302689    0.2416274 -42.18 0.0005049947    1.301    0.231
       434  -9.1021    104.5323    157.5472   8.6528959649e+01   2.8303327786e+01    0.2828991    0.2680095 -30.60 2.204883e-05    1.096    0.088
       435  -9.8905     99.9504    156.9556   8.7695247904e+01   2.9254276644e+01    0.3020053    0.2568812 -31.63 0.0003473773    1.277    0.217
       436  -9.8844    103.0649    153.5310   8.6123117385e+01   2.9570143249e+01    0.3439011    0.2620667 -50.56 0.0007347778    1.289    0.224
       437  -9.5916    119.6675    163.0416   8.3520646499e+01   2.4211733849e+01    0.2648904    0.2412518  18.81 0.0001749659    1.152    0.132
       438  -9.5847    146.7559    162.1125   7.6413141435e+01   1.9314062799e+01    0.2602561    0.2322549   7.36 0.0003479909    1.196    0.164
       439  -9.5391    111.1850    162.4969   8.5690479484e+01   2.5886278440e+01    0.2707629     0.226966 -35.65 0.0003966739    1.262    0.208
       440  -8.7693    132.8739    161.8945   7.9837738307e+01   2.2018067418e+01    0.2230699    0.2018909 -16.81 0.0002879084    1.174    0.148
       441  -8.4105    107.0132    161.7029   8.6672535782e+01   2.6826404705e+01    0.2047974    0.1963383  29.00 0.0003485032    1.069    0.065
       442  -9.2220    124.3735    160.2713   8.1705815669e+01   2.4009586456e+01     0.248165     0.221785 -18.42 0.0004730033    1.212    0.175
       443  -8.4878    212.9772    159.6592   6.1794066923e+01   7.5466953892e+00    0.2960195    0.1746948 -63.87  0.001027888    2.863    0.651
       444  -9.5134    207.5369    158.8051   6.2619334501e+01   8.6503351547e+00    0.2861371    0.2468891  36.66 0.0007696354    1.280    0.219
       445 -10.3387     79.5824    157.6879   9.3676876499e+01   3.2410087743e+01    0.2969163    0.2497807 -39.39 0.0005102207    1.260    0.206
       446  -8.8947     75.7579    155.4675   9.4390931197e+01   3.3567059073e+01    0.2518363    0.2178457 -36.29 0.0004462454    1.240    0.194
       447  -8.8498    119.5624    158.4553   8.2605204699e+01   2.5348472891e+01    0.2544633     0.225291  43.02 6.885733e-05    1.139    0.122
       448  -9.1004    122.2134    155.7735   8.1332597267e+01   2.5504181449e+01     0.242022    0.2226201 -19.12   0.00042604    1.153    0.133
       449 -10.1424     91.0618    156.8634   9.0205836194e+01   3.0785058085e+01    0.3525181    0.2994402 -66.71 0.0004518667    1.169    0.145
       450  -8.6989    237.7900    156.3311   5.6895817834e+01   4.0949856857e+00    0.2186235    0.1379322 -25.04 0.0007563499    1.648    0.393
       451  -9.9647    227.7569    155.1513   5.8297439659e+01   5.9090883752e+00    0.3046034    0.2004173 -27.17  0.001352182    1.514    0.339
       452  -8.0205    214.6910    156.7436   6.0884947956e+01   7.8044422827e+00    0.1325399    0.1020128  -5.98 0.0001642205    1.520    0.342
       453  -9.2611    152.9329    155.3401   7.3462100859e+01   1.9654391672e+01    0.2795677    0.2141208 -38.23  0.000336651    1.298    0.230
       454  -8.9530    127.0365    155.5063   7.9998535725e+01   2.4653167411e+01     0.321017    0.2182025 -66.01  0.001107259    1.730    0.422
       455  -8.7874    217.6996    155.0913   6.0010545377e+01   7.6004816969e+00    0.1952446    0.1508144 -37.89 0.0003145879    1.133    0.117
       456  -8.9758    204.8854    154.0170   6.2114452487e+01   1.0046727990e+01    0.2107839    0.1874392 -30.15 0.0004347356    1.022    0.022
       457  -9.4909     95.9209    153.9757   8.8244987752e+01   3.0701964153e+01    0.2662959    0.2357367   0.92 0.0003484208    1.284    0.221
       458  -9.4842     97.9137    150.0372   8.6871212776e+01   3.1355295531e+01    0.2502597    0.2337428 -23.21 0.0003266509    1.137    0.120
       459  -9.8045     84.6871    153.9833   9.1497192392e+01   3.2561921892e+01     0.256831     0.253374  83.94 0.0003596329    1.033    0.032
       460  -9.9511     84.9883    148.4184   9.0321822233e+01   3.3942773359e+01    0.3128852    0.2553616 -34.25 0.0005768047    1.326    0.246
       461  -9.5773    208.6318    152.3563   6.1071036349e+01   9.6992204384e+00    0.3125651    0.2252645 -71.96  0.001173135    2.035    0.509
       462 -10.8715    214.0846    147.4724   5.9065454541e+01   9.6637304781e+00     0.514074    0.3084037 -32.44  0.001531856    1.636    0.389
       463  -9.1354    103.9047    141.1115   8.3229147095e+01   3.2524831488e+01    0.3083455    0.2101166 -47.54 0.0005173596    1.440    0.306
       464  -9.3233    102.9275    147.5157   8.4903023701e+01   3.1103300156e+01    0.2780899    0.2085679 -50.02 0.0003380996    1.305    0.234
       465  -9.6260    106.3103    144.9311   8.3380239264e+01   3.1134846225e+01    0.3600035    0.2670892  25.10  0.001240869    1.497    0.332
       466  -9.6987    111.3408    146.7908   8.2367109672e+01   2.9744514302e+01    0.2814974     0.264098 -44.83 0.0004035698    1.056    0.053
       467  -8.6701    113.3850    142.8305   8.0919428921e+01   3.0334502144e+01    0.2434083    0.2065967 -22.91 0.0003523355    1.313    0.238
       468  -8.7740    226.6333    146.1947   5.6662711711e+01   7.7272085657e+00    0.1944645    0.1113499 -33.24 0.0002579872    1.655    0.396
       469  -8.4466    206.2846    145.7070   6.0093410611e+01   1.1407178715e+01    0.1938566    0.1555583 -19.31 0.0004064546    1.329    0.248
       470  -9.2857    208.8150    142.8553   5.9025768449e+01   1.1493968476e+01    0.2148934    0.1911009   8.75 0.0004871342    1.260    0.206
       471  -9.3728     98.7113    145.3574   8.5657651741e+01   3.2395796557e+01    0.2644025     0.241471 -28.82 0.0002695116    1.151    0.131
       472  -8.8677    223.7325    150.0309   5.7931985398e+01   7.5149617008e+00    0.1880526    0.1534139 -36.31 0.0003502368    1.057    0.054
       473  -8.7693     98.7244    140.9512   8.4700728507e+01   3.3500128003e+01    0.2249473    0.2029888 -25.49 0.0002735837    1.179    0.152
       474  -8.3258     96.3309    138.2809   8.4818043077e+01   3.4594343697e+01    0.2341182    0.2164798 -22.57  0.000358415    1.141    0.123
       475  -9.4396    101.0686    137.1160   8.3159915266e+01   3.4035019329e+01    0.2491963    0.2372633 -36.89 0.0003436413    1.052    0.050
       476  -9.0149     88.9686    144.2543   8.8290793957e+01   3.4351932145e+01     0.234542    0.2159613 -46.71 0.0002998692    1.073    0.068
       477 -10.7249     92.2549    139.7105   8.6345081756e+01   3.4946414945e+01    0.5328325    0.2775535 -50.94 0.0003770215    1.840    0.457
       478  -8.6630     85.0265    143.7646   8.9368750042e+01   3.5129029435e+01    0.2264228    0.2024485 -23.92 0.0004087289    1.215    0.177
       479  -8.8203     86.8665    140.8282   8.8202717649e+01   3.5575159612e+01    0.2283955    0.2225799 -62.32 0.0002944609    1.009    0.009
       480  -8.0818    247.7710    143.0127   5.2753562324e+01   4.8568368498e+00    0.1738569   0.08897261 -40.97 0.0003128418    1.592    0.372
       481  -9.0832    195.4114    142.8176   6.1511233544e+01   1.4010672424e+01    0.2823831     0.198543  42.83  0.001242337    1.552    0.356
       482  -9.9146    230.4091    141.4272   5.5076371906e+01   7.9536441085e+00    0.2839533    0.2089955 -19.83  0.001560771    1.513    0.339
       483  -9.9273     91.0842    148.2044   8.8479772546e+01   3.2990296498e+01    0.2571374    0.2287759 -41.31 0.0003369462    1.140    0.123
       484  -8.4007    246.2796    137.3665   5.1858660387e+01   6.0625382658e+00    0.1296106   0.09102447 -18.84 0.0003895549    1.682    0.406
       485  -9.2045     78.4733    136.5549   8.9871272806e+01   3.8025743294e+01    0.2691574    0.2401798 -30.85  0.001405958    1.172    0.147
       486  -8.4428    219.9283    136.3561   5.5726951368e+01   1.0706559122e+01    0.1737186    0.1672089 -32.96 0.0004177148    1.108    0.098
       487  -9.4859     87.8246    135.7347   8.6815867922e+01   3.6706360627e+01    0.2533681    0.2284781 -55.35 0.0003229197    1.072    0.067
       488  -8.8459     83.1687    135.9547   8.8291070445e+01   3.7424371850e+01    0.2263026    0.2128914 -49.55 0.0004709871    1.031    0.030
       489  -9.4454    205.9488    134.8113   5.7804415477e+01   1.3575716788e+01    0.2410688    0.2003059  80.91 0.0007676302    1.504    0.335
       490 -10.3378     97.3841    131.9856   8.3080469255e+01   3.5974868816e+01    0.4253563    0.2699445 -53.51  0.001404977    1.539    0.350
       491  -8.7433    212.5524    132.5444   5.6158445167e+01   1.2767429808e+01    0.1406607    0.1239566 -44.79 -2.051314e-05    1.021    0.020
       492  -9.0677     87.9088    130.6591   8.5658221001e+01   3.7968445021e+01    0.2407517    0.2019854 -40.66 0.0003153421    1.188    0.158
       493  -9.7325     86.7130    116.0949   8.2574280639e+01   4.1759790482e+01    0.3420224    0.2526539  23.61  0.001345196    1.492    0.330
       494  -9.5462     82.5225    119.4137   8.4729227515e+01   4.1668506613e+01    0.4690633    0.3567702 -68.18  0.002236025    1.446    0.308
       495  -9.3921     76.9975    123.0336   8.7363691636e+01   4.1677157050e+01    0.5204464    0.3036747 -20.79  0.001757558    2.931    0.659
       496 -10.0693     90.7746    121.3164   8.2574829688e+01   3.9779810327e+01    0.3740836    0.3080082  74.86  0.001304918    1.473    0.321
       497  -8.6103     86.4820    121.5305   8.3974950204e+01   4.0476613761e+01    0.2706212    0.2081314 -33.98 -1.881851e-05    1.369    0.269
       498  -9.2173     82.2246    122.7886   8.5626513991e+01   4.0886472498e+01    0.3528313    0.2485701 -46.32 0.0004215909    1.370    0.270
       499 -10.3274     81.0705    130.0738   8.7657347138e+01   3.9255170152e+01    0.3106154    0.2703506 -37.38 0.0003869907    1.156    0.135
       500  -9.0812     81.7389    126.6486   8.6674609996e+01   4.0006017798e+01    0.2450347    0.1959966   8.19 0.0005047852    1.466    0.318
       501  -9.7410     92.8305    129.0188   8.3770174828e+01   3.7522510724e+01    0.2659006    0.2350904 -28.76            0    1.180    0.153
       502  -9.8530    206.3881    128.9415   5.6443363971e+01   1.4617888876e+01    0.2105851    0.1915699  77.59 0.0004026153    1.244    0.196
       503  -8.7667     50.1042    128.4234   9.7342627760e+01   4.4093234384e+01    0.2450015    0.1785319 -48.72 0.0004520498    1.282    0.220
       504  -8.0280    212.0010    127.0180   5.5057294286e+01   1.3910934092e+01    0.1682698    0.1452212 -44.30 0.0003491311    1.026    0.025
       505 -12.3523    177.1597    124.6416   6.1016843339e+01   2.1356847704e+01     1.340908    0.8713805  16.21  0.005257688    2.706    0.630
       506  -9.4220     87.1852    126.0511   8.4823050268e+01   3.9240461296e+01    0.2369072    0.2190658  25.07 0.0003381712    1.124    0.111
       507  -9.9633     96.7498    123.3549   8.1227868014e+01   3.8207862062e+01    0.2817847    0.2458091 -20.48 0.0003052132    1.241    0.194
       508 -10.1023     33.5674    117.7753   1.0094083058e+02   4.8627845434e+01    0.4963086     0.245162 -71.51  0.000319241    2.095    0.523
       509  -9.4913     37.6918    122.3179   1.0035988170e+02   4.7058225643e+01    0.2714329     0.187755 -35.38  0.001141178    1.516    0.340
       510  -9.6237     39.2418    118.2865   9.9071102503e+01   4.7917631683e+01    0.2949244    0.2127096 -48.84 0.0003918143    1.256    0.204
       511  -8.4843     37.0411    114.9811   9.9198569053e+01   4.8981046654e+01    0.2157336    0.1663389 -41.10 0.0003511948    1.231    0.188
       512  -8.2328    208.3288    123.3176   5.4871523994e+01   1.5310283135e+01    0.1391885     0.109997  -4.84 0.0005842408    1.682    0.405
       513  -8.7396      2.9309    123.3659   1.1211243814e+02   4.9593819359e+01    0.1697587     0.152714 -52.56 0.0005108949    1.134    0.118
       514  -9.5514    202.7960    121.1671   5.5350104129e+01   1.6802241560e+01    0.1936595    0.1622031 -20.35 0.0004270618    1.341    0.254
       515  -8.3481     71.0175    248.5079   1.0786751167e+02   1.2171051352e+01    0.1778804     0.109754  36.44 0.0009793059    1.437    0.304
       516  -9.9684     97.2909    117.8086   7.9691973841e+01   3.9443965014e+01    0.3049678    0.2570055   4.06 0.0004566668    1.362    0.266
       517  -9.8597     92.9499    115.2569   8.0392134362e+01   4.0850484560e+01    0.3641939     0.230664 -48.81 0.0004636422    1.532    0.347
       518  -9.4766     71.7838    105.0590   8.4730908354e+01   4.6881048698e+01    0.2847255    0.2502843 -18.18 0.0002483445    1.162    0.139
       519 -10.2550     65.4666    103.3981   8.6503333129e+01   4.8243229159e+01    0.4999974    0.3717289  82.35  0.001084233    1.969    0.492
       520  -9.8501     74.7946    117.7810   8.6856798032e+01   4.3329302049e+01    0.2868048    0.2479129 -46.27 0.0003934722    1.100    0.091
       521  -9.1891     64.6053    117.7155   9.0244758512e+01   4.4884344628e+01    0.4433639    0.2458532 -29.92  0.001600055    2.437    0.590
       522  -9.3546     69.0401    116.5317   8.8478219172e+01   4.4525476837e+01    0.2859934     0.234757 -35.50 0.0003695598    1.214    0.176
       523  -9.6102     62.1058    112.8832   8.9986153423e+01   4.6437231670e+01    0.2925061    0.2315585 -27.56 0.0004286326    1.330    0.248
       524  -8.6807     72.7900    114.1363   8.6651245614e+01   4.4538856366e+01    0.2249982    0.1719606 -19.94 0.0003209315    1.513    0.339
       525 -10.0546     69.6629    110.3502   8.6786575328e+01   4.5943531732e+01    0.3978328    0.2924535 -69.95  0.001160571    1.552    0.356
       526  -9.4137     65.4884    109.4674   8.8004987758e+01   4.6784103678e+01    0.2589148    0.2540012  58.47 0.0005065291    1.111    0.100
       527  -9.9184     58.7186    117.6029   9.2218844108e+01   4.5734245576e+01    0.2706586    0.2314859 -40.61 0.0002847355    1.117    0.105
       528  -8.4049     48.5007    114.9948   9.5184029326e+01   4.7694497293e+01    0.2015533    0.1665112 -54.44 0.0003525291    1.103    0.094
       529  -8.0406     48.5389    111.5818   9.4436462369e+01   4.8539451956e+01    0.2073466    0.1699823  69.82 0.0001409716    1.478    0.323
       530  -9.2454     52.9787    116.2949   9.3905827404e+01   4.6814762538e+01    0.2561579    0.1927429 -50.81 0.0003841317    1.214    0.176
       531  -8.9328     52.2896    112.6800   9.3356037375e+01   4.7802719674e+01    0.2495423    0.1887518 -66.74 0.0007865007    1.336    0.251
       532  -9.6870     17.0074    117.0575   1.0653866349e+02   5.0240506901e+01    0.2020253    0.1704248 -56.23 0.0003391968    1.039    0.037
       533  -9.8626     28.4552    114.6192   1.0214822808e+02   4.9905284725e+01    0.2604824    0.2087425 -42.94 0.0004576195    1.167    0.143
       534  -9.1142     32.6803    112.1297   1.0018835872e+02   5.0131378076e+01    0.2327375     0.202761 -26.96 0.0004239735    1.172    0.147
       535  -8.4891      1.4680    114.9829   1.1152520247e+02   5.1759788691e+01    0.1914556    0.1064263 -69.11 0.0003403093    1.471    0.320
       536  -9.8700     43.2505    113.2343   9.6658868664e+01   4.8747002485e+01    0.2567878    0.2178912 -38.61 0.0003027812    1.123    0.109
       537  -9.1173     77.9588    113.1075   8.4679003040e+01   4.3961469150e+01      0.22062    0.2046522 -28.04 0.0003330229    1.061    0.058
       538 -11.7918     63.3916    188.6122   1.0299448810e+02   2.6836827035e+01     1.732885    0.6336799 -58.62  0.006575176    2.534    0.605
       539  -9.8654     14.1837    112.0259   1.0672072960e+02   5.1701520679e+01     0.296625    0.1374261 -55.99  0.001146325    1.734    0.423
       540  -9.3212     17.8219    108.6431   1.0486789063e+02   5.2274835302e+01    0.2340962    0.1866906  12.88  0.001153767    1.433    0.302
       541 -10.5166    211.6515    111.3911   5.1691740824e+01   1.6871869062e+01    0.3491509    0.2357952  28.02   0.00149353    2.216    0.549
       542  -9.0906     81.9375    111.9561   8.3081806807e+01   4.3575627743e+01    0.2206413    0.2107041 -32.61 0.0002981763    1.008    0.008
       543  -9.7587     56.6671    111.7664   9.1616939204e+01   4.7459446483e+01    0.2636391    0.2351919 -29.75 0.0002582898    1.102    0.092
       544  -9.1985     54.2410    107.3498   9.1451952133e+01   4.8861877448e+01    0.2643717    0.2021352 -39.79 0.0003591828    1.241    0.194
       545  -9.1735     17.9271    103.0731   1.0384175425e+02   5.3634051166e+01    0.2152968    0.1719484 -35.26 0.0003194306    1.201    0.168
       546 -11.0909     11.8673    106.0624   1.0657598700e+02   5.3331152579e+01    0.6217386    0.3296975 -59.02  0.003087058    1.522    0.343
       547  -9.1447      6.0090    112.0361   1.0956988718e+02   5.2229314295e+01    0.1945688    0.1620918 -61.19 0.0003189341    1.007    0.007
       548  -9.2669      8.7533    109.0330   1.0816264125e+02   5.2802317923e+01    0.2326151    0.1608903 -78.28 0.0003664272    1.379    0.275
       549  -9.1110     89.9981    110.3352   8.0062112269e+01   4.2550491152e+01    0.2675161    0.2004927 -35.29 0.0003354612    1.377    0.274
       550  -8.4584     90.7346    106.7028   7.8873090989e+01   4.3264581703e+01    0.2286149    0.2030218 -26.56            0    1.140    0.123
       551  -9.3918     38.8968    110.2149   9.7583732797e+01   4.9975427713e+01    0.2555463    0.1798505 -53.50 0.0004648223    1.254    0.203
       552  -8.6970     35.5590    108.4562   9.8425464054e+01   5.0757726737e+01    0.2025037    0.1941035 -26.94 7.289186e-05    1.096    0.088
       553  -9.1792     24.4684    105.4842   1.0188226649e+02   5.2522116132e+01    0.3824959    0.1787589  41.31  0.001146999    2.556    0.609
       554  -9.0347     22.8630    101.1800   1.0164638153e+02   5.3706601139e+01    0.2466973    0.1268847 -45.91 0.0005972447    1.706    0.414
       555  -9.8759     24.6858    110.3514   1.0270979870e+02   5.1301879015e+01    0.2915856     0.227804  -9.17 0.0002325493    1.442    0.306
       556  -8.4844     21.7180    107.6888   1.0329451122e+02   5.2207009995e+01    0.2192693     0.164659 -57.50 0.0001951102    1.138    0.121
       557  -8.5925     74.3693    110.1133   8.5132229484e+01   4.5264461268e+01     0.205496    0.1835012 -51.29 0.0004809809    1.088    0.081
       558 -10.8025     96.3533    106.8773   7.7147515756e+01   4.2180329575e+01    0.5627999    0.3482057 -20.03  0.002123093    2.540    0.606
       559  -9.6434    100.0933    100.0924   7.4139057827e+01   4.2988307253e+01    0.4219609    0.2933291  25.55 0.0008901483    1.639    0.390
       560  -8.6052     31.8818     95.8969   9.7113170402e+01   5.4169379819e+01     0.273879     0.179507  65.79 0.0003659458    2.318    0.569
       561  -9.4907     35.8673    101.4191   9.6823838142e+01   5.2446846787e+01    0.4036573    0.2512192 -79.26  0.001801578    2.038    0.509
       562 -10.4033     57.4201    100.8169   8.8724324991e+01   5.0006395710e+01    0.5646915    0.4603829  18.74  0.001563577    1.294    0.227
       563  -9.9552     41.0972    104.3311   9.5526385087e+01   5.1182694294e+01    0.3222969    0.2534335 -64.27  0.001359871    1.246    0.197
       564  -9.9669     44.4127    107.8753   9.5100046730e+01   4.9941554640e+01    0.3309018    0.2217415 -36.84 0.0004803535    1.486    0.327
       565  -9.9831     49.5422    105.2263   9.2646430805e+01   4.9975777007e+01    0.3770005    0.2730032  18.18 0.0003052073    1.512    0.339
       566  -8.2929     29.1472    109.1151   1.0087458774e+02   5.1214053856e+01    0.1741868     0.154424  85.21 0.0002889229    1.258    0.205
       567  -8.6240    210.3003    107.2912   5.0999191567e+01   1.7884215101e+01     0.129668    0.1092954  -3.41 0.0002064903    1.565    0.361
       568  -9.7023     59.9262    107.0228   8.9356215533e+01   4.8173513601e+01    0.2639757    0.2129045  24.04 0.0003899499    1.312    0.238
       569  -9.4602    250.3108    106.0651   4.5128167974e+01   1.0686605200e+01    0.1882848    0.1359164 -47.16 0.0007002215    1.117    0.105
       570 -12.7758    142.8176    136.4853   7.1647222328e+01   2.5981259023e+01     1.642368     1.418804 -24.15  0.008209024    1.244    0.196
       571 -10.5122     85.0933    105.0966   8.0270588618e+01   4.4648609279e+01    0.3390743     0.293179 -66.34 0.0005662325    1.262    0.207
       572 -10.2707     77.5511    105.1844   8.2800224087e+01   4.5918108875e+01    0.3083332    0.2430756 -28.56  0.000368642    1.327    0.246
       573  -8.5384     80.8751     99.0589   8.0040987839e+01   4.6771319891e+01     0.207354    0.1975711 -82.30  0.001136442    1.174    0.148
       574  -9.2274     74.0046    100.9709   8.2896982186e+01   4.7483601182e+01    0.2421776    0.2075078  -2.72 0.0003287013    1.243    0.196
       575  -8.3174     77.6463    100.2596   8.1459880526e+01   4.7046649487e+01    0.2280291    0.2038514  73.60 0.0003506825    1.332    0.249
       576  -8.4257      4.5360    106.5287   1.0927622576e+02   5.3667430033e+01    0.1315854    0.1068072 -57.60 8.983295e-05    1.026    0.025
       577  -9.9589     92.5679    102.0020   7.7020405877e+01   4.4001489631e+01    0.4816019    0.3382255  54.17  0.001290955    1.641    0.391
       578  -7.8572      1.2843    103.6677   1.1001150289e+02   5.4539457783e+01    0.1241136   0.09037326  73.36 0.0003193675    1.616    0.381
       579  -9.6735     61.4687    247.6576   1.0982017189e+02   1.3589517555e+01    0.2079875    0.1818175  52.46 0.0004114068    1.096    0.088
       580  -8.5057     46.3383    100.9457   9.2817750487e+01   5.1398140182e+01    0.1979149    0.1613433 -46.37 0.0004134186    1.107    0.097
       581  -8.3447     30.4996    100.1147   9.8557827571e+01   5.3290520920e+01    0.1942023    0.1209931 -58.70 0.0003040385    1.418    0.295
       582 -10.9365    241.0217     96.9760   4.4463904319e+01   1.3810772536e+01    0.3273231    0.2407824 -21.21  0.001853754    1.777    0.437
       583  -9.6648     86.0769     98.7361   7.8221369694e+01   4.5927293584e+01    0.2971742    0.2073334 -37.68 0.0003493251    1.446    0.309
       584  -9.0074     88.4114     94.1235   7.6158310461e+01   4.6525061936e+01    0.2443729    0.2116392  -7.95 0.0004377032    1.228    0.186
       585  -8.9387     67.1916     98.3189   8.4572037649e+01   4.9172907411e+01    0.2367657    0.1822955 -36.46 0.0006978041    1.258    0.205
       586  -9.9716    249.5269     97.0651   4.3447496776e+01   1.2288815581e+01    0.2912315    0.1025696 -40.68  0.001245364    2.343    0.573
       587 -10.2298    249.2417     92.3371   4.2548269621e+01   1.3098239855e+01    0.2248322    0.1554377 -49.24   0.00080228    1.165    0.142
       588  -9.6714     50.6785     97.3616   9.0334851952e+01   5.1714367154e+01    0.2465838    0.2081728 -31.39 0.0003209033    1.117    0.105
       589  -9.2236     39.8680     97.2272   9.4367600957e+01   5.3027624243e+01    0.2462263    0.1749444 -47.71 0.0003252618    1.248    0.199
       590  -8.3098     41.3472     93.7438   9.2969668945e+01   5.3685106642e+01     0.213099    0.1314929 -57.78 0.0004071924    1.524    0.344
       591  -8.4988     17.4734     98.0256   1.0306875566e+02   5.4890283900e+01    0.1959895    0.1760519  80.68 0.0004902332    1.291    0.226
       592  -8.4260     18.5146     93.9661   1.0187161305e+02   5.5782715637e+01    0.1853803    0.1440639 -52.85 0.0003041669    1.092    0.084
       593 -10.2134     15.0046     93.4725   1.0313677379e+02   5.6156583446e+01    0.6375314    0.2109667 -55.28  0.002648975    2.257    0.557
       594  -9.5836     74.8269     94.4198   8.0825410703e+01   4.8843500110e+01    0.2594186    0.2226296 -14.97 0.0005265577    1.197    0.164
       595  -9.3221     45.6498     96.3757   9.1975704524e+01   5.2566962058e+01    0.2511779    0.2024811 -32.77 0.0003332717    1.170    0.146
       596  -9.2072    104.9307     90.7078   7.0000451731e+01   4.4030830054e+01    0.4338796    0.2654216 -63.07   0.00173443    2.286    0.563
       597  -8.4283    100.7616     89.9435   7.1037560972e+01   4.5035141323e+01    0.2224323    0.1949588  -7.58 0.0003473604    1.229    0.186
       598  -8.4165     94.7046     91.2714   7.3310760782e+01   4.5949913138e+01    0.2370359     0.201502  37.37 0.0001925399    1.175    0.149
       599  -9.8413     94.3146     95.7609   7.4724728595e+01   4.5057808933e+01    0.3150527    0.2581596 -55.03  0.000664887    1.283    0.221
       600 -10.1265    100.3567     94.0680   7.2356553768e+01   4.4245368035e+01    0.7028337    0.3211752  49.74  0.002569119    2.455    0.593
       601  -9.1484     62.7402     95.5475   8.5428865170e+01   5.0480789192e+01    0.2373642    0.2041564 -31.84 0.0005351813    1.099    0.090
       602  -9.7309     27.8903     94.6190   9.8370668790e+01   5.4847484255e+01    0.3639924    0.2039589  -5.62  0.001645607    2.358    0.576
       603  -9.5493    228.0098     95.3140   4.5805436371e+01   1.6507332953e+01    0.1786474    0.1604034 -70.28 0.0005611188    1.097    0.088
       604 -10.2438    196.7302     95.1927   5.0440776859e+01   2.2865381088e+01    0.3062436    0.1887548  55.26  0.001474221    1.727    0.421
       605 -11.1752    116.8205    120.2410   7.4563905235e+01   3.5071303949e+01    0.7143896    0.4858344  14.76 0.0003824941    2.110    0.526
       606  -8.9669      3.4349     95.4759   1.0793631084e+02   5.6395143796e+01    0.1829363    0.1447424  81.67  0.000112297    1.462    0.316
       607  -8.2204      3.4932     92.4266   1.0739888686e+02   5.7115396757e+01    0.1289148    0.1042999 -51.02 3.617051e-05    1.026    0.026
       608  -9.7592     80.9728     93.2621   7.8388927388e+01   4.8052834102e+01    0.2504142    0.2030065 -35.76 0.0003248739    1.208    0.172
       609  -8.1698     68.5531     94.2245   8.2979782386e+01   4.9899641824e+01    0.1942646    0.1294813 -38.10 0.0003682571    1.478    0.324
       610  -9.1014     55.6033     93.5058   8.7508838058e+01   5.1962740042e+01    0.2820122    0.2102844 -30.38  0.001307718    1.334    0.250
       611  -9.7871     60.6865     89.7078   8.4589509387e+01   5.2107910725e+01    0.4223682    0.2806064  52.74  0.001409522    1.955    0.488
       612  -9.0427    130.6237     91.9571   6.3258287946e+01   3.8257891778e+01    0.2328298    0.2076836  30.38 0.0004005953    1.183    0.155
       613  -9.1836     48.9737     91.4128   8.9459513559e+01   5.3314724477e+01    0.2456527    0.1798498 -41.66 0.0003924564    1.248    0.199
       614  -7.9489      8.2761     92.2935   1.0552668617e+02   5.6875356284e+01    0.1338232   0.07780012 -41.22 0.0002564401    1.525    0.344
       615  -9.2278    224.7665     91.0132   4.5327599634e+01   1.7854839688e+01    0.2454129    0.1309504 -77.05 0.0009064216    3.678    0.728
       616  -8.4283     66.5015     91.0245   8.2827692963e+01   5.0939040809e+01    0.2068501    0.1367269 -48.08 0.0003540026    1.448    0.309
       617  -8.1467     21.8394     91.3790   1.0003316676e+02   5.6133414524e+01    0.1663795    0.1192539  -8.38 0.0003804983    1.528    0.346
       618  -9.9733     71.4317     88.8290   8.0434111003e+01   5.0641588143e+01    0.2643617    0.2320981 -15.73 0.0005009841    1.122    0.109
       619  -8.8019     43.2123     89.7856   9.1258586690e+01   5.4389276351e+01    0.1893671    0.1771108 -37.37 0.0004153748    1.076    0.071
       620 -10.5427    199.0948     88.2926   4.8452294207e+01   2.3575028047e+01    0.3549903    0.2055837  42.89  0.001044163    2.174    0.540
       621  -9.2561     88.0241     88.3609   7.4612836924e+01   4.7836964295e+01    0.2558094    0.2051947 -33.65 0.0005199637    1.247    0.198
       622  -8.3829     29.5578     89.4568   9.6548848674e+01   5.5906619774e+01    0.1360043    0.1167327 -40.26 0.0001039384    1.008    0.008
       623  -8.3738     71.2244     97.2632   8.2866093968e+01   4.8785351781e+01     0.213902    0.1867604 -18.95 0.0004069037    1.147    0.128
       624  -8.2604     11.8466     89.1614   1.0352975475e+02   5.7387853747e+01    0.1810483    0.1245239 -40.36 0.0003558229    1.275    0.216
       625  -9.8338    249.8847     87.2302   4.1470366407e+01   1.3794522463e+01    0.2210457    0.1544999 -20.89  0.001066638    2.041    0.510
       626  -9.2515     83.3269     87.0300   7.5782477391e+01   4.8981737558e+01    0.4840795    0.2436217 -31.87  0.001035016    2.529    0.605
       627 -10.4263    243.3087     83.1573   4.1405606479e+01   1.5618473515e+01    0.2628174    0.1632731 -27.47  0.001035302    2.043    0.511
       628 -10.3868     94.9285     85.8049   7.1626915803e+01   4.7049075874e+01    0.4074067    0.2446343  41.81  0.001155931    1.655    0.396
       629  -9.7477     65.2505     85.8953   8.1821956704e+01   5.2264518041e+01    0.4148478    0.3096059  56.87  0.001508349    1.737    0.424
       630  -8.3966     59.5356     83.5391   8.3268051138e+01   5.3637283766e+01    0.1938869    0.1314262  40.04 0.0001498446    1.594    0.373
       631  -8.1960     67.4439     82.5650   8.0037347345e+01   5.2636741185e+01     0.208853    0.1595875 -16.54 0.0001156317    1.412    0.292
       632  -9.5693     35.1930     91.5338   9.4820260432e+01   5.4866693224e+01     0.256663    0.2227606   6.79 0.0008990466    1.216    0.177
       633  -8.6667      5.9593     87.0692   1.0546834702e+02   5.8236459168e+01    0.1900595    0.1535523 -45.96 0.0003133198    1.042    0.040
       634  -8.8964     76.2088     86.1610   7.7969186289e+01   5.0420236967e+01    0.2123138     0.185764  -9.00 0.0005151096    1.149    0.130
       635  -9.1729     35.3318     86.2547   9.3469968704e+01   5.6071138234e+01    0.2108303    0.1689002  -9.65 0.0005505657    1.273    0.214
       636  -8.2304     21.8897     86.5505   9.8952593261e+01   5.7255727414e+01    0.1705526     0.127655   8.90 0.0002821383    1.452    0.311
       637 -12.4064    135.9525    123.6264   7.0268581139e+01   3.0332566620e+01     1.167965     1.095067 -40.66  0.004197571    1.055    0.053
       638  -9.0290    107.4464     85.0891   6.7603328030e+01   4.4654118827e+01    0.2272364    0.1997032  25.85 0.0004189623    1.161    0.139
       639  -8.9421     15.9622     85.0999   1.0103650016e+02   5.8048166371e+01    0.1969339    0.1589514 -40.08 0.0003377724    1.064    0.060
       640 -14.1109    176.1012    170.9811   7.1507074851e+01   1.1841554922e+01      3.02454     2.480886 -60.69   0.01575666    1.393    0.282
       641  -8.2500     80.0408     84.0544   7.6012079903e+01   5.0197380473e+01    0.1690923    0.1589439  -4.57            0    1.009    0.009
       642  -8.4526     40.9077     83.8454   9.0614322247e+01   5.6004720616e+01    0.2059171    0.1604088 -24.15 0.0002747455    1.236    0.191
       643  -8.4905     27.7638     84.0384   9.5978701685e+01   5.7321146512e+01    0.1828575    0.1508248 -43.15 0.0002912467    1.050    0.047
       644 -11.2821    193.8513     78.0718   4.6869881503e+01   2.6447275723e+01    0.3672821    0.3078833 -52.80  0.001827799    1.109    0.098
       645 -10.3986    190.6389     76.7019   4.7043985781e+01   2.7383285234e+01    0.2559992     0.212794  13.83  0.001117766    1.731    0.422
       646  -9.0418    102.8737     82.8052   6.8274711672e+01   4.6057490760e+01    0.2311815    0.1969933 -22.50  0.000353469    1.236    0.191
       647  -8.6777    104.5166     78.9543   6.6614070013e+01   4.6468689195e+01    0.2061056    0.1934288  31.27 0.0003300753    1.035    0.034
       648  -9.0300     88.9909     82.4469   7.2522186507e+01   4.8882259755e+01    0.2284736    0.1927746 -25.50 0.0001398023    1.202    0.168
       649  -9.8767     93.0223     78.3639   6.9963097432e+01   4.8917370079e+01    0.4052198    0.2782623   6.52   0.00170412    2.072    0.517
       650  -8.2732     97.5989     81.4420   6.9471671259e+01   4.7400378693e+01    0.2120414    0.1728241  -7.46 0.0001007851    1.401    0.286
       651  -8.8994     99.0033     78.0212   6.7987105726e+01   4.7786062011e+01    0.2511282    0.2273683  88.52 0.0003163712    1.319    0.242
       652  -8.4789     71.5027     83.1856   7.8751062767e+01   5.1845532312e+01    0.2035675    0.1369857 -44.12 0.0006161261    1.443    0.307
       653  -9.2590    115.5183     81.6575   6.4287140104e+01   4.3602662203e+01    0.2583428    0.2317526  27.43 0.0005331102    1.141    0.124
       654  -8.2305     56.3024     81.9765   8.4045710061e+01   5.4441697941e+01    0.1932904    0.1655286 -33.01 0.0002293225    1.078    0.073
       655  -8.3317     51.7748     81.7818   8.5743289843e+01   5.5108385426e+01    0.1668139    0.1616366  74.11 0.0002974931    1.256    0.204
       656  -8.0926     34.4667     82.3810   9.2828400693e+01   5.7038196093e+01    0.1347472    0.1159754 -28.07 0.0001059104    1.043    0.041
       657 -10.5461    154.1313     79.6457   5.4417106729e+01   3.5208419948e+01    0.5934837     0.304994 -29.25  0.001852773    2.503    0.601
       658  -9.7680    150.1121     80.8445   5.5593736755e+01   3.5924616265e+01    0.3521188    0.2598521  81.93  0.001374542    1.627    0.385
       659  -9.2199    150.6857     75.6917   5.4057103100e+01   3.6702838634e+01    0.2035497     0.182618  46.70 0.0005829378    1.156    0.135
       660  -9.3188    109.7291     81.0173   6.5723062046e+01   4.4971601510e+01     0.249031    0.2059124  34.81 0.0001896094    1.210    0.173
       661  -8.7571     14.7536     81.3781   1.0071881010e+02   5.8987568344e+01    0.1644533    0.1137306  -9.21 0.0002679836    1.545    0.353
       662  -8.6794      2.3821     80.7900   1.0572061590e+02   5.9876418784e+01    0.1844159   0.08895253 -54.83 0.0005135348    1.596    0.373
       663 -12.4337    112.5324    114.7765   7.4384642721e+01   3.7199725495e+01     1.829805    0.7965403  40.22  0.006537153    2.347    0.574
       664 -11.6319    105.9708     50.5631   5.7076693196e+01   5.1012994895e+01    0.9911872    0.6107101   4.42  0.004009761    2.928    0.659
       665  -9.5424    115.0765     59.3184   5.7517891267e+01   4.7639038092e+01    0.3291703    0.2184275 -25.50  0.001344333    1.754    0.430
       666  -9.4987    110.8569     55.0960   5.7265002363e+01   4.9245225184e+01    0.3078166    0.2524311 -80.33  0.001641267    1.543    0.352
       667  -9.5779     81.8391     78.3087   7.3635983325e+01   5.1051425822e+01    0.5860622    0.4102006  42.57  0.002082633    1.451    0.311
       668  -8.7726     86.7399     68.2437   6.8768188436e+01   5.2064651351e+01    0.2884376     0.224037  20.92 0.0005662154    1.343    0.256
       669 -10.1745     94.4918     66.3434   6.5662900562e+01   5.0869619009e+01    0.6978623    0.4318462  10.73  0.002075681    2.767    0.639
       670  -8.4679     90.4109     66.5210   6.7009266124e+01   5.1657997681e+01    0.1844075    0.1788926  10.27 0.0001581491    1.064    0.060
       671  -8.9257    107.0943     60.4888   6.0038654603e+01   4.9212664333e+01    0.3083422     0.156599  40.56  0.001288382    1.992    0.498
       672  -8.6350     90.2370     74.3811   6.9606789504e+01   5.0234583793e+01    0.3480623     0.197735 -21.04  0.001331939    2.693    0.629
       673 -10.1835     86.3126     72.3539   7.0244361729e+01   5.1378914001e+01    0.4679606    0.4282308  81.70  0.002626669    1.348    0.258
       674  -9.7945    104.8844     69.0270   6.3409294622e+01   4.8228584190e+01    0.3797134    0.2819304 -20.22  0.001284343    1.560    0.359
       675  -9.4864    101.1865     66.2391   6.3598258084e+01   4.9502830310e+01    0.4122843    0.2668256 -55.71 0.0007069905    1.950    0.487
       676  -9.7452    103.2332     62.8243   6.1892070922e+01   4.9656136794e+01    0.4033034    0.2664259 -48.01  0.001219207    1.688    0.408
       677  -9.4857     75.2430     79.3664   7.6256428615e+01   5.2008891030e+01       0.2512    0.2142386 -22.00  0.001372979    1.151    0.131
       678  -9.2435     38.0368     80.0226   9.0744828630e+01   5.7179191008e+01    0.2022882    0.1784745 -28.75 0.0004289097    1.013    0.013
       679 -13.2054    135.1802    109.1589   6.6764927835e+01   3.3686632439e+01      2.00419     1.464384 -47.26  0.009350252    1.356    0.263
       680  -8.4070     60.1534     79.5932   8.1869425708e+01   5.4392228640e+01    0.2012672    0.1375212  29.57 0.0003714773    1.488    0.328
       681  -8.2220     58.0146     76.9966   8.1904853441e+01   5.5254896216e+01    0.1909074    0.1750289 -20.47 0.0003288557    1.036    0.035
       682  -8.5649     28.2119     78.8996   9.4508336343e+01   5.8436387534e+01    0.1789179    0.1678808 -44.74 0.0006478094    1.151    0.131
       683  -8.5319    111.1122     59.8468   5.8733356224e+01   4.8436028313e+01    0.2793429    0.1854364  19.92 0.0003761647    2.082    0.520
       684  -8.4065     69.5577     78.4986   7.8031206756e+01   5.3146052048e+01    0.1435849    0.1307054 -12.03 0.0001027063    1.025    0.025
       685  -9.1563     43.7634     77.3698   8.7668739429e+01   5.7090815551e+01    0.2463347    0.2082157 -12.99  0.000800318    1.119    0.107
       686  -8.8150     23.7975     80.1210   9.6658031238e+01   5.8561659972e+01    0.1807272    0.1287409 -32.51 0.0003462219    1.276    0.216
       687  -8.5313      7.7885     78.2842   1.0295921006e+02   6.0144488753e+01    0.1800041     0.116565 -39.08 0.0005004356    1.322    0.243
       688  -9.7077    113.7847     76.0486   6.3076871313e+01   4.5036703178e+01    0.3897176    0.2543252 -40.74  0.001729964    1.577    0.366
       689 -11.7599    164.6126    143.9628   6.8206424531e+01   1.9851994686e+01     1.782293    0.8353962 -27.92  0.005240226    4.038    0.752
       690  -8.2394     54.0989     77.1089   8.3462462655e+01   5.5792351185e+01    0.2071165    0.1649792 -19.77 0.0003601359    1.224    0.183
       691  -8.9378     63.8900     78.9867   8.0275850558e+01   5.3951218349e+01    0.2107744    0.1847093 -18.85 0.0003209044    1.072    0.067
       692 -10.1616    122.6765     67.8929   5.8241821067e+01   4.4508385322e+01     0.407496    0.2418476  43.51  0.001255419    1.671    0.402
       693  -9.3148    108.0888     75.9312   6.4644327718e+01   4.6287220550e+01    0.2441058    0.2302315  69.30 0.0007517373    1.136    0.120
       694  -9.7027    120.1141     63.8667   5.7653032995e+01   4.5764802052e+01    0.4234432    0.2847161  29.64  0.001180507    1.789    0.441
       695  -9.5351    110.0701     70.8318   6.2501127837e+01   4.6792620152e+01    0.4413187    0.3095408 -21.18  0.001165499    1.724    0.420
       696  -9.9067    115.9870     68.7158   6.0227689803e+01   4.5866905641e+01     0.261169     0.225927  14.35 0.0003361493    1.281    0.219
       697  -8.7639    109.0420     66.3376   6.1373724054e+01   4.7804716770e+01    0.2145491    0.1890019  13.98 0.0004822886    1.207    0.172
       698  -9.5334    112.8173     64.0789   5.9624509855e+01   4.7361087699e+01    0.2540686    0.2230998  22.02 0.0003081394    1.194    0.162
       699  -8.7518     48.6750     76.0265   8.5291723965e+01   5.6756375605e+01    0.1931514    0.1592058 -36.47 0.0003769371    1.113    0.102
       700  -9.0774    102.4977     74.3339   6.5783573175e+01   4.7765237793e+01    0.2395138    0.2110349  19.72  0.000297841    1.158    0.136
       701  -8.2554     65.7594     75.4290   7.8479567816e+01   5.4391249486e+01     0.181263    0.1310674  18.25 0.0003086661    1.457    0.313
       702  -9.4970     73.8652     73.1488   7.4792021683e+01   5.3496131190e+01     0.219118    0.2033786  -4.02 0.0002847608    1.011    0.011
       703  -7.9173     69.3700     74.2311   7.6766121310e+01   5.4044554952e+01    0.1425599    0.1037016   4.12 0.0003690202    1.599    0.375
       704  -9.0233     10.4433     74.5106   1.0099463806e+02   6.0823827073e+01    0.1896812    0.1486188 -44.44 0.0001140798    1.046    0.044
       705  -8.9501    207.3215     73.3045   4.3803349623e+01   2.4314225603e+01    0.1233993    0.1074157  18.20 0.0003711944    1.635    0.388
       706  -9.6765     97.3423     71.7816   6.6537699624e+01   4.9303639639e+01    0.2726402    0.2244532  21.16 0.0004404054    1.266    0.210
       707  -9.0220    238.6841     71.6837   3.9615191664e+01   1.8256008084e+01    0.1106997   0.09935868  -0.87 0.0004292277    1.649    0.394
       708  -9.0391     79.5745     70.2427   7.1842277680e+01   5.3040113037e+01    0.2500623    0.1899524 -10.52 0.0006263186    1.491    0.329
       709  -8.3411     50.3022     71.0557   8.3123172431e+01   5.7574227510e+01      0.18561    0.1596761 -25.00 0.0004976335    1.050    0.047
       710  -7.9488     42.5643     71.5185   8.6440424710e+01   5.8478266659e+01    0.1348815    0.1189273 -23.54 8.247932e-05    1.022    0.022
       711  -9.0883     37.0117     70.3802   8.8435460823e+01   5.9368792750e+01    0.2495041    0.1864588 -66.59  0.001166985    1.654    0.395
       712  -8.2977     23.4642     71.4810   9.4586575968e+01   6.0494505414e+01    0.1328781    0.1085948 -32.38 0.0001659059    1.037    0.035
       713 -13.0486    118.4626    103.0601   6.9581622695e+01   3.8591963086e+01     2.871666     1.901848 -10.81   0.01101212    2.556    0.609
       714  -9.8400    221.9022     69.3310   4.1054014981e+01   2.1909488369e+01    0.2443457    0.1171692  72.72  0.001097833    2.510    0.602
       715  -8.4656     74.0135     68.7092   7.3297161926e+01   5.4328626899e+01    0.1901655    0.1673948  15.16 0.0003129919    1.079    0.073
       716  -8.0989     58.5696     69.2166   7.9250365341e+01   5.6757165827e+01    0.1765621    0.1210768 -31.60 0.0002423919    1.428    0.300
       717  -8.3693     64.0223     72.2436   7.8125940536e+01   5.5310567924e+01    0.2028205    0.1568244  61.09 0.0005002343    1.796    0.443
       718  -8.0696     64.5255     65.9980   7.5898570240e+01   5.6448734770e+01    0.1956409    0.1306253 -40.05 0.0003519893    1.470    0.320
       719  -7.9386     44.5363     66.6104   8.4099688237e+01   5.9237162360e+01    0.1323759    0.1175441 -11.96 -2.269383e-05    1.035    0.034
       720  -8.6007     81.7413     65.2916   6.9463297569e+01   5.3556544270e+01     0.185918    0.1517647   5.10 0.0003409748    1.291    0.225
       721  -8.3955     76.6685     64.9628   7.1107934966e+01   5.4553414595e+01    0.1896129    0.1696615 -24.94 0.0002429163    1.111    0.100
       722  -8.6207     71.7705     64.8837   7.2832912733e+01   5.5438466913e+01    0.2019237    0.1704739  -5.60 0.0003286541    1.167    0.143
       723  -8.3476     70.6864     69.3082   7.4697529980e+01   5.4789857134e+01    0.2933481    0.1259841 -52.02  0.001095734    2.837    0.648
       724  -9.6730     87.0744     62.8854   6.6878770054e+01   5.2960730363e+01    0.3307885    0.2790543 -70.48  0.001142809    1.564    0.361
       725  -9.0289     88.7101     58.4709   6.4853668094e+01   5.3393152935e+01    0.2823322    0.2263931 -26.41  0.001189026    1.292    0.226
       726  -8.0652     24.3160     64.7100   9.2323784473e+01   6.1851427350e+01     0.115189    0.1007223  61.55 0.0002518723    1.593    0.372
       727  -8.3041     66.9413     62.3122   7.3742833974e+01   5.6738684604e+01    0.1885378    0.1571925  17.65 0.0002651443    1.138    0.121
       728  -8.0350     58.2174     62.3834   7.7126482466e+01   5.8130220635e+01    0.1388784   0.09361399 -20.57  0.000490852    1.606    0.377
       729  -8.4241     41.2076     60.9011   8.3670843017e+01   6.0787643561e+01     0.183752    0.1366314 -16.52 0.0006833127    1.289    0.224
       730  -9.7763    137.9547     49.2778   4.9143839362e+01   4.3872305039e+01    0.1991867    0.1673949  62.44 0.0002571992    1.098    0.090
       731 -11.2666    133.6921     52.3695   5.0957711760e+01   4.4427060091e+01    0.4808938    0.2871253 -41.64  0.002294032    1.765    0.433
       732  -8.6779    122.9964     59.9608   5.5727055207e+01   4.5743909706e+01    0.1917031    0.1866235  57.76  0.001123977    1.032    0.031
       733 -10.5000    125.0015     56.7820   5.4262854010e+01   4.5782168421e+01    0.3172883     0.292524 -51.85   0.00184354    1.152    0.132
       734  -9.1630     95.0461     59.1515   6.3105657448e+01   5.1991831387e+01    0.4269447    0.1964263  35.42  0.001647953    2.491    0.598
       735  -8.7761     80.7653     60.0917   6.8032745913e+01   5.4662635069e+01    0.2486805    0.1806307  36.83 0.0003283802    1.311    0.237
       736  -8.2956     77.6972     60.6807   6.9291993420e+01   5.5133241824e+01    0.1420117    0.1322487  11.78 0.0002523404    1.042    0.040
       737  -7.9292     72.6786     60.7346   7.1090197901e+01   5.6032587651e+01    0.1392579    0.1017207   6.12 0.0001810661    1.559    0.358
       738  -8.2772     62.4236     60.0690   7.4689839808e+01   5.7894347854e+01    0.1909019    0.1268137 -37.81 0.0003422355    1.481    0.325
       739 -10.3229    109.6650    226.3271   9.6666063230e+01   1.1248638003e+01    0.3338105    0.2353311 -37.58 0.0006168004    1.698    0.411
       740  -7.9071     49.3016     58.7179   7.9496096155e+01   6.0130426742e+01    0.1185287    0.1072198  65.78 0.0002660064    1.550    0.355
       741  -7.7505     32.2742     58.3110   8.6768331717e+01   6.2340701976e+01    0.1333997   0.08505659 -22.94 0.0004356416    1.554    0.356
       742  -8.2176    105.0247     57.0600   5.9494007717e+01   5.0217185857e+01    0.1665885    0.1548856  35.75 0.0003711935    1.005    0.005
       743  -8.1327     57.3936     57.5525   7.5786876205e+01   5.9148654678e+01    0.1344663    0.1174186  -6.77 0.0001310441    1.025    0.024
       744 -11.3135    166.1219     53.8513   4.5252765639e+01   3.6572708080e+01    0.4312768    0.2639886 -61.67  0.001075424    1.848    0.459
       745  -9.3604    120.1278     55.2988   5.4972138029e+01   4.7126525149e+01     0.258246    0.2005438  23.08 0.0009688326    1.509    0.337
       746  -9.0409     82.6896     56.0902   6.5998033585e+01   5.4973780850e+01    0.2362785    0.1841503  48.82  0.001100456    1.328    0.247
       747  -8.4220     62.7075     55.0497   7.2814138863e+01   5.8742116428e+01     0.185119    0.1578717 -20.77 0.0003791889    1.125    0.111
       748  -9.6727     99.8854     52.7742   5.9518122193e+01   5.1996044432e+01    0.5047199    0.1749578 -35.87  0.001832276    3.095    0.677
       749  -8.2360     95.7079     53.3626   6.0941688330e+01   5.2788184508e+01    0.3635403    0.1286973 -30.66  0.001214775    3.690    0.729
       750  -8.4075     68.9666     53.7217   6.9975377999e+01   5.7903643613e+01    0.3265907    0.1573337  33.03  0.001084213    2.128    0.530
       751 -10.0269    113.8952     52.9061   5.5765357074e+01   4.8900980241e+01    0.4960658    0.2901596  15.83  0.001822085    3.430    0.708
       752  -9.7835    113.4695     47.9304   5.4254477831e+01   4.9728333074e+01    0.4220331    0.2976745 -75.50  0.002014918    2.089    0.521
       753  -9.7688    115.4999     44.5145   5.2639938142e+01   4.9748501869e+01    0.3979405    0.2555054  82.76  0.001776742    2.306    0.566
       754  -8.4234     86.7507     52.4535   6.3395734782e+01   5.4765111507e+01     0.182858    0.1217939  33.84 0.0003076334    1.464    0.317
       755 -10.0087    122.5928     50.2411   5.2789701055e+01   4.7315638883e+01    0.3629423    0.1961668 -45.66  0.001624349    2.058    0.514
       756 -10.0821    123.7403     45.4511   5.1018182642e+01   4.7728706804e+01    0.4414207    0.1602147 -31.58  0.001638182    3.136    0.681
       757  -8.1204    119.3206     51.2654   5.3891401903e+01   4.7916115041e+01    0.1404674    0.1023434  29.87 0.0002062144    1.557    0.358
       758  -8.5780     91.0537     51.3188   6.1646031705e+01   5.4071293699e+01    0.1887548    0.1629442  37.28 0.0004186465    1.072    0.068
       759  -8.0084     95.2489     48.6559   5.9453538742e+01   5.3604062431e+01    0.1291105      0.10774 -70.44 0.0001938655    1.575    0.365
       760  -7.7662     19.7294     48.3333   8.9373928175e+01   6.5516588634e+01    0.1059756   0.09899919  82.29 0.0003103663    1.592    0.372
       761 -12.0108    144.6865    150.9491   7.4496669439e+01   2.2283439962e+01     1.396116     1.126556 -62.27  0.005606194    1.336    0.251
       762  -8.5888     90.9643     47.0725   6.0180357742e+01   5.4732812945e+01     0.158986     0.147626  19.35 0.0004114725    1.040    0.038
       763  -8.3238     73.7438     46.2757   6.5529991813e+01   5.8240314709e+01    0.1813831    0.1400128  12.48 0.0005089158    1.318    0.241
       764  -9.3071    145.6254     43.7585   4.6049124520e+01   4.2822779499e+01    0.1804448    0.1218865 -47.61 0.0002713286    1.561    0.359
       765 -11.1493    131.1679     57.2419   5.2980850894e+01   4.4284401848e+01    0.7786405    0.3935212  71.04  0.002898064    2.861    0.651
       766  -8.4274    127.3413     44.2950   4.9860803656e+01   4.7051038183e+01    0.1422039    0.0998013  32.28 0.0002065949    1.659    0.397
       767  -8.6771     84.9340     43.7231   6.0849379928e+01   5.6452419268e+01    0.1833906    0.1582306  37.23 0.0002767204    1.071    0.066
       768  -8.5756    113.6054    223.1621   9.5309692933e+01   1.1312529780e+01       0.2468    0.2117099 -23.87 0.0002641866    1.348    0.258
       769  -8.8147     71.8393     41.8223   6.4529130848e+01   5.9263802504e+01    0.1958393    0.1583311  11.70 0.0003715873    1.191    0.160
       770  -8.2823    118.3066     41.6827   5.1056633210e+01   4.9491016706e+01    0.1356053     0.104557 -77.98 0.0003162796    1.631    0.387
       771  -8.2804     90.4965     41.4904   5.8326647762e+01   5.5630555519e+01    0.1357901    0.1212046  31.65 9.710528e-05    1.004    0.003
       772  -9.8517    133.0697     39.9362   4.7328136058e+01   4.6288726443e+01    0.2394485    0.1800881  48.30 0.0007019262    1.279    0.218
       773  -7.9287     77.5368     40.4767   6.2057269235e+01   5.8378132816e+01    0.1352882    0.1164437  20.71  2.26086e-05    1.048    0.046
       774  -8.0130     40.4475     39.9608   7.6452130261e+01   6.4633808182e+01     0.156023    0.1136159 -65.46 0.0008075164    2.486    0.598
       775  -9.6265    116.1907    219.7314   9.4211420106e+01   1.1641183975e+01    0.3605944    0.3254474  67.79  0.001349216    1.174    0.148
       776  -8.7501    126.9835     39.0194   4.8294628345e+01   4.7831550495e+01      0.16198    0.1448732  61.47 0.0003273206    1.010    0.009
       777  -9.6171    108.5250     38.8178   5.2459692406e+01   5.2085643504e+01    0.2436698    0.2240978  44.14 0.0007990429    1.025    0.024
       778  -9.1057     97.0425     38.7384   5.5455467672e+01   5.4618652132e+01    0.1930153    0.1765046  -5.17 0.0002698266    1.157    0.136
       779  -8.0736     85.3164     39.3402   5.9121130017e+01   5.6992487385e+01    0.1408749   0.09602088  17.92 0.0006531695    1.706    0.414
       780  -8.3463    190.3719     37.2732   3.7667516793e+01   3.3257395219e+01    0.1769725    0.1052006 -48.75 0.0008376848    1.586    0.369
       781  -8.5827    103.8283     37.1636   5.3086082498e+01   5.3344275919e+01    0.1828189    0.1432105  29.91            0    1.298    0.230
       782  -9.4576    112.6180     34.7974   5.0119560023e+01   5.1672135084e+01    0.2488087    0.1714319  58.19 0.0006096382    1.317    0.240
       783  -9.4991    150.0219     34.5215   4.2656982526e+01   4.2967750761e+01    0.2102513    0.1192082  64.72 0.0006464272    1.585    0.369
       784  -9.2211    105.2338     32.8769   5.1248212720e+01   5.3568034604e+01    0.1922752    0.1758567  80.62 0.0006626483    1.203    0.169
       785  -9.6596    100.0175     33.4766   5.2789593084e+01   5.4646123276e+01    0.1873063    0.1757212  -2.37 0.0006967101    1.148    0.129
       786  -9.2447     76.9811     29.7923   5.8134185734e+01   5.9908624036e+01    0.2015012    0.1502959  27.98  0.000498208    1.242    0.195
       787  -8.4171    118.3243     29.3577   4.7048509035e+01   5.1014636510e+01    0.1406855   0.09259169  31.42  0.000704463    1.773    0.436
       788  -8.0649    105.4847     26.3899   4.8940024788e+01   5.4267247012e+01    0.1325481    0.1117871  48.60 0.0002020406    1.038    0.037
       789  -8.3537    102.0000     24.9782   4.9283220277e+01   5.5199160558e+01    0.1945953   0.07533553 -28.14 0.0008008738    2.932    0.659
       790  -8.0268      4.6828     24.6636   8.8710540146e+01   7.0956803670e+01    0.1250156   0.06697894 -22.06  0.000704844    1.699    0.411
       791  -7.8044    127.7115     17.2715   4.1377690175e+01   5.0124421034e+01     0.123081   0.09160722 -78.93 0.0003051038    1.508    0.337
       792  -8.8030     73.7228     16.4239   5.3807017900e+01   6.2066741221e+01    0.1882156   0.09570724  42.84 0.0009545753    1.667    0.400
       793  -9.3341    224.1584    247.1598   7.5779723628e+01  -8.9008102446e+00    0.1466607    0.1293249  -8.65 0.0004793162    1.316    0.240
