#   1 NUMBER                 Running object number                                     
#   2 MAG_AUTO               Kron-like elliptical aperture magnitude                    [mag]
#   3 X_IMAGE                Object position along x                                    [pixel]
#   4 Y_IMAGE                Object position along y                                    [pixel]
#   5 X_WORLD                Barycenter position along world x axis                     [deg]
#   6 Y_WORLD                Barycenter position along world y axis                     [deg]
#   7 A_WORLD                Profile RMS along major axis (world units)                 [deg]
#   8 B_WORLD                Profile RMS along minor axis (world units)                 [deg]
#   9 THETA_WORLD            Position angle (CCW/world-x)                               [deg]
#  10 FWHM_WORLD             FWHM assuming a gaussian core                              [deg]
#  11 ELONGATION             A_IMAGE/B_IMAGE                                           
#  12 ELLIPTICITY            1 - B_IMAGE/A_IMAGE                                       
         1 -13.5152     25.0426     73.2022   1.1115170470e+02   5.8296876355e+01     2.413042    0.7839389 -48.37  0.006221094    2.382    0.580
         2 -13.0608     57.6307     67.1950   9.8103751334e+01   5.6296436368e+01     2.156222     1.553378  52.25  0.007750012    1.872    0.466
         3 -11.7179     47.9321     20.7054   8.4305272282e+01   6.6114615623e+01     1.342791     1.154292 -75.76  0.008193488    2.218    0.549
         4 -11.9761     57.4297      5.1477   7.2804774561e+01   6.6772827276e+01     1.333656     0.663933  33.65  0.004278847    1.934    0.483
         5 -12.1169     36.8018     41.4942   9.7535863539e+01   6.3851997633e+01     1.446453    0.8283244 -15.21  0.007401585    2.179    0.541
         6 -12.5862     55.1462     36.7694   8.8345560622e+01   6.2522359069e+01    0.8965628    0.7741271  41.91  0.005389338    1.523    0.343
         7 -12.7513     71.4224     30.6168   7.9667649976e+01   6.1063279292e+01      1.89611    0.9538366  39.16  0.009061207    2.067    0.516
         8 -13.2952     81.0908     54.6885   8.5828619576e+01   5.5334371631e+01     1.882352     1.807808  38.01  0.007438798    1.252    0.201
         9 -11.4904    110.4071     30.6236   6.7536575007e+01   5.3454541974e+01    0.9472418    0.6015411  71.00  0.004191012    2.321    0.569
        10 -12.7795    114.2633     20.0726   6.2289276067e+01   5.3892026613e+01     2.366433     1.222018  12.72  0.008945243    2.981    0.665
        11 -11.9696    129.5810     20.5643   5.8965990236e+01   5.0228100469e+01     1.199054    0.8668277  29.33  0.005191005    1.378    0.274
        12 -13.0496    100.1454      7.3624   6.0453040347e+01   5.8367547690e+01    0.7052792     0.560005  45.82 0.0007824389    1.198    0.165
        13 -11.8973    112.3392      7.8387   5.7714072150e+01   5.5593411360e+01     1.092251    0.3731016  64.81  0.003803066    3.464    0.711
        14 -10.8807     42.4228      3.1392   7.7851239992e+01   6.9275692317e+01    0.3002945    0.1944708 -18.53 0.0008384727    1.281    0.219
        15 -12.2014    118.0869     49.8477   7.2839871093e+01   4.8902096804e+01     1.460483    0.9554365 -46.66  0.006709102    1.715    0.417
        16 -10.5138    133.9232     52.8760   6.9858716516e+01   4.4774493221e+01     1.814903     0.725008 -17.78  0.004223015    6.510    0.846
        17 -10.7999    162.6906     52.1188   6.3216099496e+01   3.7780233132e+01      2.32593     1.242491  83.62  0.007099675    4.055    0.753
        18 -12.7914     91.5775     24.8831   7.0518456545e+01   5.8178281216e+01     2.360204    0.9390608 -20.69  0.008731506    3.025    0.669
        19 -11.3968     69.4581     19.3422   7.5327188296e+01   6.3014921428e+01    0.9703866    0.5024872  24.04  0.004464335    2.292    0.564
        20 -12.2035    101.9408     55.3042   7.9435627480e+01   5.1379885744e+01     1.505924     0.962485  -8.42  0.005254007    2.104    0.525
        21 -11.0493    193.0532     33.9165   5.2309277261e+01   3.2435393178e+01    0.9473599    0.4636376  -8.83  0.002605777    3.309    0.698
        22 -10.5840    226.6371     28.7644   4.6669322213e+01   2.4617080162e+01    0.6815129     0.432369 -54.51  0.003399602    1.558    0.358
        23 -11.0838    213.6319      4.9637   4.1741485889e+01   3.0421417810e+01    0.8561521    0.3694468  75.82  0.001920288    2.262    0.558
        24 -10.4822    202.7949     25.8764   4.8661437699e+01   3.0906984053e+01    0.6250051    0.5325648 -48.07  0.003513907    1.150    0.131
        25 -10.2958    203.9902     17.6954   4.6207225085e+01   3.1526127953e+01    0.6397899    0.3295681  27.68  0.002380647    3.340    0.701
        26 -11.3271    213.9649     26.8371   4.7579901242e+01   2.7971365004e+01     1.188978    0.6878687  -4.95  0.005005401    2.547    0.607
        27 -10.8478    221.4651     11.9318   4.2820517609e+01   2.7785304275e+01    0.3814995    0.3233178 -70.62   0.00105493    1.088    0.081
        28 -10.3328    226.2375      7.8230   4.1332730090e+01   2.7055754447e+01    0.4760013    0.3225106   6.34  0.002047421    2.137    0.532
        29 -10.5552    210.8568     17.4131   4.5360208865e+01   2.9823979721e+01    0.4530647    0.2884041  62.53  0.001172629    1.520    0.342
        30  -9.4476    250.0519      7.6221   3.9349061021e+01   2.1531805514e+01     0.293217    0.1974478 -54.11  0.001371673    1.303    0.232
        31  -9.8528    248.6745      2.1890   3.8203293270e+01   2.2407279366e+01    0.2960768    0.1989499 -64.20 0.0009711462    1.343    0.256
        32  -9.4315    239.0134     15.0654   4.2005183174e+01   2.3251519028e+01    0.3212492    0.1943096 -57.99  0.000946336    1.588    0.370
        33 -10.0820    243.6346     12.0030   4.0877019768e+01   2.2517530611e+01    0.3976935     0.324596  -5.35  0.001775995    1.540    0.351
        34 -10.0863    243.8603      5.0944   3.9228246489e+01   2.3198996327e+01    0.4428202    0.1973658 -30.53  0.002092564    2.096    0.523
        35 -12.4617      7.8414     26.2306   1.0484640472e+02   6.9115655557e+01    0.8750672    0.5339855 -13.16  0.005638616    1.727    0.421
        36  -9.9343     31.4564     12.0334   8.7444439088e+01   6.9455994186e+01    0.3446802      0.15927 -29.34  0.001326167    1.867    0.464
        37 -11.9350     30.0842     22.6874   9.3019090092e+01   6.7914547231e+01      1.15523    0.4417934 -46.62  0.005005124    2.355    0.575
        38 -12.3496     24.6470      6.3513   8.7857146559e+01   7.1033411819e+01    0.7310853    0.3411708 -35.43  0.001519367    1.738    0.425
        39 -11.8277     18.9020     13.6844   9.4314288647e+01   7.0469607607e+01    0.4347627    0.3063556 -13.80   0.00167113    1.225    0.183
        40 -11.9973     13.4763      5.9662   9.3389787140e+01   7.2162326710e+01    0.8075355    0.4316163 -31.14  0.005031775    1.426    0.299
        41 -11.2442      2.0369      2.5746   9.7965569915e+01   7.3571993131e+01    0.3833035    0.2812211 -30.34  0.001823528    1.104    0.094
        42 -12.7507      3.0156     17.6946   1.0403737404e+02   7.0962625013e+01    0.3746987    0.2273833 -30.80 0.0008089532    1.303    0.232
        43 -12.5717      3.8870      9.9691   1.0038564538e+02   7.2244539433e+01    0.5161142    0.2701412 -35.31  0.001536907    1.397    0.284
        44 -10.2847    213.5060     12.0485   4.3633736334e+01   2.9735667705e+01    0.4735321    0.2974722  83.03  0.001426571    1.592    0.372
        45  -9.6077    179.9099     14.7271   4.8329231791e+01   3.8034700750e+01     1.191335   0.06661071  64.26  0.002743385    6.557    0.847
        46 -10.1415    176.6575     20.3243   5.0526965891e+01   3.8288386011e+01    0.6129781    0.3833448 -61.96  0.002771727    1.934    0.483
        47  -9.9617    187.4578     21.2738   4.9307081619e+01   3.5379047985e+01    0.7268695    0.4332688  14.21  0.002291731    2.521    0.603
        48 -11.0538    178.6319     27.6230   5.2523447390e+01   3.6945846935e+01    0.6584337    0.4127427  15.31  0.002814924    2.231    0.552
        49  -8.7924    156.9755      5.5581   4.8610230598e+01   4.4832577961e+01    0.8816012    0.3246915  47.98  0.003374646    2.517    0.603
        50 -10.4940    164.7160      4.9606   4.7305356890e+01   4.2895954167e+01    0.5943016    0.4550748  27.37  0.002589598    1.419    0.295
        51  -9.7774    181.8735      5.1060   4.5145729198e+01   3.8457599872e+01    0.5049725    0.3681094  79.23  0.002358123    1.310    0.237
        52  -9.8962    167.5596     12.6803   4.9410482044e+01   4.1442846260e+01    0.5701251    0.2998359  74.45  0.002458663    1.968    0.492
        53 -11.5195    159.0316     19.8271   5.3110785912e+01   4.2912371503e+01    0.9699081    0.7464027   1.42  0.004928005    1.456    0.313
        54  -8.7706    173.6233     10.1306   4.7744403343e+01   4.0119832382e+01    0.3670036    0.2619058  11.10   0.00125055    1.700    0.412
        55  -8.5554    174.3089      4.7499   4.5969280069e+01   4.0440500520e+01    0.4710182    0.1643181  46.91  0.001703596    2.943    0.660
        56  -9.8409    147.1689     23.8389   5.6616070454e+01   4.5500484434e+01    0.7131387    0.4486605 -24.56  0.002690668    1.642    0.391
        57 -11.3261    149.4182     16.2572   5.3523615877e+01   4.5749358172e+01     0.856549    0.6024987  20.31  0.002074885    1.593    0.372
        58  -9.8877    231.2608     19.1707   4.3733671661e+01   2.4624080388e+01    0.4674005    0.3828476 -53.21  0.002084802    1.116    0.104
        59 -11.2484    233.2980     10.1587   4.1299074042e+01   2.5125889002e+01    0.4294153    0.3571405  16.92 0.0001732772    1.562    0.360
        60 -10.2889    199.2027     15.9878   4.6280542040e+01   3.2929001493e+01    0.4205042    0.2282773  62.04  0.001645072    1.721    0.419
        61  -9.3403    199.5385     11.2724   4.4904133114e+01   3.3333106728e+01    0.3357165    0.2387342  80.20  0.001771237    1.358    0.264
        62 -10.8784    199.7541      4.9964   4.3118908806e+01   3.3894384110e+01    0.6195292    0.4235182 -44.04  0.002097495    1.452    0.311
        63  -9.1396     86.9307     10.0416   6.5292577815e+01   6.0868400025e+01    0.4286182    0.2303763   7.44  0.001908822    2.336    0.572
        64 -10.0429     77.9104      9.0922   6.7617314990e+01   6.2730872027e+01     0.292745     0.243978   4.41  0.001169722    1.042    0.040
        65  -8.6278     77.5047      4.5118   6.5536908698e+01   6.3283256034e+01    0.2746754    0.1663932  20.26  0.001454057    1.617    0.381
        66  -9.2810    189.8635      8.2656   4.5141025398e+01   3.6105501494e+01    0.4681531    0.1535647  51.39  0.001686768    2.950    0.661
        67  -8.8764    139.1424      8.1677   5.2432218366e+01   4.9118010368e+01    0.2069062    0.1902762 -72.12 0.0008515846    1.237    0.192
        68 -10.6937    132.5004      4.4527   5.2246201531e+01   5.1086858584e+01    0.5150182    0.2962102  45.50  0.001903458    1.560    0.359
        69 -11.1957    138.8573      2.3132   5.0333756833e+01   4.9690878265e+01    0.3674416    0.2867465   7.74 0.0005062573    1.362    0.266
        70  -8.5633    122.9352      4.4184   5.4061219805e+01   5.3409558659e+01    0.1968239    0.1194892  56.56 0.0004457395    1.480    0.324
        71  -8.2255     82.4842      2.4956   6.3053934405e+01   6.2504341602e+01    0.1311914    0.1080212  16.93 1.836422e-05    1.001    0.001
        72 -12.8509     12.5699    127.7874   1.2347388958e+02   4.6808630408e+01      1.12344    0.9110717 -80.24  0.000610437    1.075    0.070
        73  -9.0301    184.2686    250.2502   1.0348583300e+02  -9.4944353511e-01    0.1904342   0.07553525  48.38 0.0009006049    2.412    0.585
        74  -8.9643    161.8167    250.1500   1.0735753918e+02   2.5820337408e+00    0.1584034    0.1200905  25.87  0.001083878    1.330    0.248
        75  -9.6193    151.4684    249.8004   1.0911040903e+02   4.2472933718e+00    0.2119364     0.166035  59.05 0.0009162612    1.279    0.218
        76 -12.2635     52.1371     92.6320   1.0661835462e+02   5.1314453678e+01     2.272278    0.6105564 -49.40  0.008115358    3.051    0.672
        77 -11.9076     37.5935     92.3470   1.1111347426e+02   5.2894397493e+01    0.8614913    0.7755904   4.81  0.004666426    1.366    0.268
        78  -9.5198    235.4765    249.3396   9.4688933594e+01  -8.5979829323e+00    0.2166843    0.1138957  38.14  0.001249182    1.560    0.359
        79 -10.9122     40.5192     78.6406   1.0712351038e+02   5.5722337929e+01    0.8363415    0.6428236  41.65  0.005133864    1.595    0.373
        80 -11.0834      6.4998     55.8227   1.1393555422e+02   6.3276775595e+01     1.010704    0.6266914 -72.24  0.005080147    1.545    0.353
        81 -11.1857     19.0369     60.2134   1.1024236506e+02   6.1565998208e+01    0.6169732    0.4696596 -22.42  0.004143606    1.402    0.287
        82 -11.2047     23.9346     52.7157   1.0635397814e+02   6.2778928100e+01    0.5581812    0.3528776 -76.79  0.002939808    2.183    0.542
        83  -9.1222    124.9772    249.2415   1.1362991653e+02   8.3974173002e+00     0.176116    0.1206401  23.46  0.001001067    1.993    0.498
        84 -10.0215    107.2245    248.2809   1.1657404088e+02   1.1170372224e+01    0.4089803    0.2022614  62.87  0.002219767    2.219    0.549
        85  -9.1026     30.7151    247.6162   1.2893007749e+02   2.1057750355e+01    0.1661161    0.1008798 -73.85  0.001250706    1.716    0.417
        86 -11.5660     41.1891     50.2121   9.8792291819e+01   6.1695535579e+01     0.931996    0.4317057  21.22  0.004372873    2.759    0.638
        87  -9.6881      3.4295    246.6609   1.3292153394e+02   2.3990503012e+01    0.1967623    0.1133911 -71.90  0.001532148    1.876    0.467
        88  -9.4135     91.4018    245.7454   1.1902692144e+02   1.3819866211e+01    0.1320718    0.1001507 -61.89 0.0009533755    1.641    0.391
        89  -8.9703     58.3270    246.6314   1.2455277667e+02   1.8019423883e+01    0.1168621   0.05744492  66.70 0.0007034418    1.812    0.448
        90  -9.9329    142.3194    243.6652   1.0998599093e+02   6.5471201192e+00    0.2654196    0.1892556  30.28 0.0009582695    1.448    0.310
        91  -9.0808    217.4548    246.6274   9.7292905668e+01  -5.6477032977e+00    0.1920843    0.1704989 -50.37  0.001416385    1.786    0.440
        92  -8.6984    211.2595    239.5982   9.7297267148e+01  -3.8949964756e+00    0.1951916    0.1278954  -1.89  0.001183153    1.801    0.445
        93 -10.5665     14.8529    237.1036   1.3082682149e+02   2.4476337226e+01    0.3771971    0.1568546  84.80 0.0006702829    2.141    0.533
        94 -12.5608     11.5687    109.8632   1.2161392727e+02   5.0953538103e+01    0.9975198    0.7230732 -19.85  0.006497513    1.923    0.480
        95 -12.2148     20.0747     99.7433   1.1776504122e+02   5.2666159639e+01     1.187981    0.5515819 -49.08  0.006153203    1.932    0.482
        96  -9.4182     12.6500    232.0515   1.3092851888e+02   2.5564224454e+01    0.2290427    0.1152819  56.37  0.001623188    1.488    0.328
        97  -9.1558     55.2201    237.7742   1.2444861456e+02   1.9884976751e+01    0.1319577     0.119767  74.09  0.001082864    1.400    0.286
        98  -8.3375     45.8784    150.1517   1.1809113699e+02   3.8642258595e+01    0.1611609    0.1289743 -59.62  0.000358162    1.289    0.224
        99  -9.9133     66.4887    148.2100   1.1290976257e+02   3.6592901313e+01    0.3246567    0.2448496  40.55  0.001900556    1.453    0.312
       100  -9.9655     70.4313    142.5576   1.1106119668e+02   3.7368758845e+01    0.2749436    0.2076042  65.39 0.0008782108    1.366    0.268
       101 -10.2244     80.1689    141.4394   1.0844141158e+02   3.6255469224e+01     0.242296    0.2069455 -65.06  0.000316424    1.095    0.087
       102 -11.0424     35.3195    109.6707   1.1497890405e+02   4.9093266183e+01    0.6735088    0.4532039  29.99  0.003412212    1.811    0.448
       103  -9.9426     34.6882    129.9950   1.1819984246e+02   4.4427648103e+01    0.9137086     0.305636 -76.20  0.003371384    3.411    0.707
       104 -11.5653     53.7352    133.8161   1.1389009544e+02   4.1511296388e+01     1.515732    0.7400019  78.38  0.005448865    3.997    0.750
       105 -10.3974     56.1876    125.7201   1.1193844153e+02   4.3115453867e+01    0.3814963    0.2519439 -66.96  0.001521474    1.308    0.235
       106 -11.3965     47.6344    128.9197   1.1470986598e+02   4.3345818422e+01    0.9630235    0.3510751 -57.24  0.004171078    2.261    0.558
       107 -11.2312     43.0736    114.6209   1.1362979684e+02   4.7176356796e+01    0.7673055    0.5069065 -25.32  0.002687978    2.178    0.541
       108 -11.4012     41.6684    128.4715   1.1619241959e+02   4.4085758480e+01     0.660593    0.3245594 -83.17 -5.119154e-05    2.324    0.570
       109 -11.0243     30.2886    119.4273   1.1787326263e+02   4.7283818473e+01    0.7992879    0.4839909  38.87  0.003315151    1.899    0.473
       110 -10.0072    181.9716    235.4020   1.0183330817e+02   1.3236706586e+00    0.3929601    0.1568406  52.19  0.001629273    3.174    0.685
       111 -10.8024     59.4967    120.4860   1.1012376089e+02   4.3943941503e+01    0.3263053    0.3087079  30.84  0.002104023    1.264    0.209
       112 -10.7444     65.6227    130.7508   1.1030973063e+02   4.0758101352e+01    0.3345464    0.2728811 -63.00  8.26533e-05    1.103    0.094
       113 -11.7566     67.3371    122.4001   1.0834001703e+02   4.2492203792e+01    0.9695659    0.4821298 -46.23  0.004333199    2.057    0.514
       114 -10.0716     72.8492    129.4225   1.0817391644e+02   4.0096746075e+01    0.2977494    0.2081294 -70.26  0.001019435    1.341    0.254
       115  -8.6217     80.9591    125.0228   1.0517109000e+02   3.9960446332e+01    0.2033155    0.1637842 -27.15 0.0005528331    1.532    0.347
       116  -8.8555     75.3128    125.0021   1.0668276013e+02   4.0786480443e+01    0.2764717     0.150817  61.47  0.001032294    2.583    0.613
       117  -8.8377    227.0042    231.6658   9.3338165386e+01  -5.4221926416e+00    0.1720354    0.1163067  29.85 0.0004100233    1.178    0.151
       118  -9.7048     91.7497    120.8614   1.0139131028e+02   3.9250199248e+01    0.4289993    0.4023879 -76.02  0.002003617    1.039    0.038
       119  -9.6732     92.6682    115.4669   9.9932092982e+01   4.0348754781e+01    0.5348722    0.3125915 -76.89  0.002070066    2.694    0.629
       120 -10.6560     19.3457    118.4376   1.2064039204e+02   4.8426130464e+01    0.4494315    0.1998063 -67.91  0.001329523    1.717    0.418
       121  -8.5508    132.4565    119.4552   9.0394005623e+01   3.2010669080e+01    0.1512251    0.1476504 -43.38 8.392423e-05    1.007    0.007
       122  -9.7516     98.4664    113.5211   9.7882448265e+01   3.9818482522e+01    0.4153917    0.2659745  40.41  0.001951792    1.675    0.403
       123  -8.6598    106.4468    119.5299   9.7145105767e+01   3.7036960646e+01    0.2183903    0.1365562 -59.68 6.585786e-05    1.644    0.392
       124  -9.6686    104.7383    116.5573   9.6900503503e+01   3.8021489249e+01    0.2479775    0.1814471  63.09 0.0007109102    1.628    0.386
       125  -9.0670    116.1807    116.9655   9.3955892545e+01   3.5806229007e+01    0.2454348    0.2160784  45.63 0.0003171975    1.184    0.156
       126  -9.3010    108.3755    114.1991   9.5352079239e+01   3.7896634392e+01    0.3538584    0.1311087 -52.35  0.001204864    2.672    0.626
       127  -9.9516    107.8465    109.4499   9.4312096325e+01   3.9066399770e+01    0.3938088    0.2542388 -34.86  0.001289145    1.702    0.412
       128  -8.8558    104.3788    109.2091   9.5201193342e+01   3.9755504900e+01    0.2206625    0.1785934 -53.70 0.0005116828    1.170    0.145
       129  -9.2736     81.7079    114.8884   1.0284167110e+02   4.2215472753e+01    0.3067579    0.2118533  13.79   0.00145717    2.091    0.522
       130  -9.3207     69.2676    135.7437   1.1022401588e+02   3.9108636786e+01    0.1722167    0.1467336 -45.18 0.0003672314    1.298    0.229
       131  -9.4103    236.9979    135.5056   7.2411211706e+01   6.2588459233e+00     0.211469    0.1395119  45.88  0.001039708    1.611    0.379
       132 -10.6061     56.4370    113.2635   1.0962829899e+02   4.6011476833e+01    0.4422184    0.2018394  40.50  0.002009471    2.430    0.588
       133  -9.7177    132.3860    110.8888   8.8210360721e+01   3.3883008831e+01    0.5803848    0.3409169  45.95  0.001376056    1.757    0.431
       134  -9.5808    124.9685    111.0401   9.0157658054e+01   3.5384102473e+01    0.2227599    0.2207157 -56.70            0    1.030    0.029
       135 -10.2667     73.9581     89.4371   9.9001122985e+01   4.9215557396e+01    0.7435701    0.3285238  42.33  0.003075899    2.587    0.614
       136 -12.3228     81.7140     75.4427   9.2554870296e+01   5.1086502325e+01     0.502009     0.412665 -53.26 0.0001361758    1.217    0.179
       137 -10.2940     75.1609    107.1207   1.0297109567e+02   4.4990263177e+01    0.3269197    0.2810086   2.67 0.0007163613    1.428    0.300
       138 -10.7042     77.8595    102.1068   1.0101179983e+02   4.5756672191e+01    0.7326481    0.3348368  34.31  0.003044425    2.508    0.601
       139  -9.7352     82.5798     89.8751   9.6459937145e+01   4.7810689958e+01    0.3863294    0.2964174 -79.84  0.001378483    1.675    0.403
       140 -10.5831     84.1190     97.2796   9.7957465522e+01   4.5902313023e+01    0.9984856     0.296822  35.94  0.003242037    3.899    0.743
       141  -9.7973    149.3251    106.8225   8.2921583043e+01   3.1045285149e+01    0.5453816    0.2551084 -36.39  0.001966297    2.224    0.550
       142  -9.6210    113.8066    107.0224   9.2067994962e+01   3.8482747153e+01    0.3026483    0.2417557 -46.03 0.0009694481    1.189    0.159
       143  -9.9265    134.2947    103.7132   8.5787798494e+01   3.5011207243e+01    0.6046202    0.3046209 -52.12  0.002250612    2.197    0.545
       144 -11.6854     89.2619     89.6319   9.4365982858e+01   4.6778708713e+01    0.8352495     0.657847  62.43  0.001746223    1.581    0.368
       145 -10.7513    142.0193    101.9372   8.3352307715e+01   3.3691382565e+01    0.5233436    0.3871377  16.99  0.000910339    1.729    0.422
       146  -9.7036    105.4475    103.1650   9.3349712990e+01   4.0919387791e+01    0.3630553    0.1368831 -46.13   0.00112001    2.484    0.597
       147  -9.2853    171.0257    102.5805   7.6762706298e+01   2.6858239892e+01    0.4120122    0.2661133  21.99  0.001611029    2.168    0.539
       148  -8.5640    160.2659    102.6327   7.9190139384e+01   2.9381087349e+01    0.1608943    0.1232586 -67.71 0.0006989372    1.655    0.396
       149  -9.9008     59.3234    101.9056   1.0647542641e+02   4.8318310696e+01    0.4210771    0.2141615  32.57  0.001076327    2.282    0.562
       150  -9.4326     63.6975     98.5732   1.0441372056e+02   4.8538805126e+01    0.3762237    0.2773521  85.45  0.001967345    1.751    0.429
       151 -10.6875      4.5293     99.1926   1.2217983501e+02   5.3816567750e+01    0.5222119     0.265779 -71.00  0.003009181    1.464    0.317
       152  -8.9022      3.6920     92.7186   1.2154143521e+02   5.5322143398e+01    0.1695056    0.1191853 -48.46  0.000538172    1.363    0.267
       153  -9.2738      1.3271     90.8068   1.2197543929e+02   5.5878482150e+01    0.3122154   0.08121162 -68.61 0.0006498055    2.640    0.621
       154  -9.7823      5.4437     87.0035   1.2017395591e+02   5.6507855124e+01    0.4139941    0.1998992 -48.97  0.002329034    1.778    0.438
       155  -9.4834      1.7638     84.5820   1.2094267654e+02   5.7246309460e+01    0.2329668    0.1959653 -51.66 0.0009344055    1.221    0.181
       156  99.0000      7.9968     83.2037   1.1876959607e+02   5.7213961049e+01    0.4094561    0.2193287  49.01  0.002277526    2.472    0.595
       157 -10.0771    115.9474    100.1043   8.9628632959e+01   3.9586722996e+01    0.4920546    0.3061266   1.98  0.001630487    3.673    0.728
       158  -9.4955    121.9030     99.7084   8.7911485284e+01   3.8472448172e+01    0.3500898    0.2355578 -19.27  0.001460935    2.009    0.502
       159  -8.6470    110.9449    100.5115   9.1112743243e+01   4.0473290630e+01    0.2068639    0.1508279  42.33 0.0003006668    1.453    0.312
       160  -9.6647    155.3130     98.3261   7.9124570227e+01   3.1391626928e+01    0.4490463    0.2610667  47.76  0.001645151    1.750    0.429
       161  -9.6363    160.4686     96.6593   7.7455022641e+01   3.0508767333e+01    0.4980486     0.337001  24.51  0.001554818    1.889    0.471
       162  -9.9720    156.1793     94.5469   7.7836260422e+01   3.1934136024e+01    0.8654342    0.3279072  41.22  0.002720108    3.021    0.669
       163  -9.0770    132.3132     96.9238   8.4387240843e+01   3.6867843270e+01    0.2975527    0.2141639 -25.49 0.0009120844    1.543    0.352
       164  -9.7307    140.7355     95.5376   8.1849428522e+01   3.5294827176e+01    0.3692153     0.306491  47.75 0.0008744173    1.244    0.196
       165  -9.2812    135.9913     92.9664   8.2296586038e+01   3.6879384717e+01    0.2299773    0.2190403 -17.12            0    1.031    0.030
       166  -8.9829    226.9639     95.5164   6.4227925603e+01   1.4885604139e+01    0.2139757    0.1488248  54.32 0.0005747124    1.554    0.357
       167 -10.4846    114.6022     94.4900   8.8423089438e+01   4.1068943643e+01    0.3724929    0.3482581 -64.67  0.002015317    1.129    0.114
       168  -8.3621    189.0005     94.5136   7.0766865174e+01   2.4040206323e+01    0.2176055    0.1273036  29.65 0.0008056564    2.300    0.565
       169 -10.1501    124.4473     82.0139   8.2010712869e+01   4.1625301031e+01    0.4773751    0.3277995 -51.35  0.001968752    1.552    0.356
       170 -11.0661    122.6708     92.4247   8.5626593375e+01   3.9863124693e+01    0.6688366    0.4181112  52.38  0.002121818    1.778    0.438
       171 -11.2907    120.2611     86.7956   8.4608757135e+01   4.1539226106e+01    0.8726918    0.3598646  49.96  0.003045686    2.722    0.633
       172  -9.1435    174.8834     93.2057   7.3288934486e+01   2.7708019326e+01    0.2349989    0.2150043 -68.61 0.0005187483    1.210    0.174
       173 -11.3979    106.5317     88.7426   8.9031383001e+01   4.3875254996e+01     1.321006    0.5752066 -29.74  0.003895838    4.045    0.753
       174 -10.3697    124.1562     74.8310   7.9812864743e+01   4.3102537444e+01    0.6872868    0.2680962  43.96  0.002378782    2.664    0.625
       175 -12.0491    117.3298     68.6076   7.9631161647e+01   4.5763754934e+01     1.069616    0.8151495  -5.05   0.00317024    1.532    0.347
       176 -10.3033    125.8504     69.9749   7.7772033329e+01   4.3652207524e+01    0.3689073    0.3017026 -72.77  0.001004588    1.595    0.373
       177  -9.3755    125.6831     64.8469   7.6098447766e+01   4.4631418398e+01    0.3396326    0.2476097 -10.36 0.0007270134    1.595    0.373
       178 -10.5669    107.2246     67.9690   8.2295478843e+01   4.7976740015e+01    0.6118801    0.4265544 -63.47  0.002729846    2.006    0.502
       179 -10.7669    111.6515     63.8399   7.9611175837e+01   4.7851726406e+01    0.5230373    0.3943086  -8.97  0.001306833    1.497    0.332
       180 -11.4946    103.8781     80.1409   8.7209427966e+01   4.6195115765e+01     0.790831    0.5243567 -15.04  0.002523067    2.075    0.518
       181 -11.5234     99.1778     77.0535   8.7640281062e+01   4.7719103234e+01     1.330981    0.5612164  39.60  0.005026355    2.584    0.613
       182 -11.2173     69.1444    105.6459   1.0439168412e+02   4.6175181727e+01    0.8146563    0.3571499 -37.48   0.00295563    3.220    0.689
       183  -8.0800    194.3383     89.7033   6.8388166150e+01   2.3593551936e+01    0.1582364     0.122086 -71.15  0.000703169    1.656    0.396
       184  -8.2390    187.4760     89.4581   6.9645862158e+01   2.5315137020e+01    0.1557727    0.1505526 -37.96 0.0001568218    1.042    0.040
       185 -10.5513    131.4987     62.1393   7.3669221899e+01   4.3787926274e+01    0.8291763    0.4326094  67.21  0.001866342    3.246    0.692
       186 -10.2038    150.6904     59.4887   6.8189314409e+01   3.9635611058e+01    0.5169469    0.3500204  53.92  0.002338418    1.488    0.328
       187 -10.9638    150.5044     66.3468   7.0481237538e+01   3.8527449393e+01    0.7232696    0.4492226 -39.41  0.002854907    1.595    0.373
       188 -11.0873    140.6782     68.8519   7.3622596344e+01   4.0452407279e+01    0.9901333    0.5117243  54.94  0.003850506    2.074    0.518
       189  -8.9366    131.9241     67.4986   7.5365250655e+01   4.2736477696e+01    0.2976312    0.2345067  65.08  0.001043713    1.495    0.331
       190  -9.3765    139.9478     72.7512   7.5068437829e+01   3.9916154716e+01    0.3165247    0.2585908 -48.63 0.0004299984    1.287    0.223
       191 -10.9083    144.0655     87.0405   7.8512470653e+01   3.6236567187e+01    0.7491228    0.6919191  29.23  0.002821735    1.101    0.092
       192 -12.0627    147.0206     75.4313   7.4208559363e+01   3.7750087875e+01    0.7530988    0.6052943  51.13  0.003659144    1.278    0.218
       193  -9.6799    112.2880     88.4181   8.7302263444e+01   4.2823153399e+01    0.2938304    0.1814174 -32.73   0.00126024    1.705    0.414
       194  -9.5088    132.1916     86.5872   8.1370945855e+01   3.9015597012e+01    0.2983105    0.2479699  21.83  0.001317068    1.316    0.240
       195 -11.0199    133.7337     80.5962   7.9127796728e+01   3.9858070043e+01    0.5469109    0.4890773 -53.70  0.001170895    1.187    0.158
       196  -8.1528     67.6230     86.7342   1.0028006055e+02   5.0716602139e+01    0.1389069    0.1003807 -20.45 0.0006987859    1.676    0.404
       197  -9.1247    224.5122     84.9356   6.1857039865e+01   1.7153894048e+01    0.2328189    0.2066409  82.73 -0.0002764666    1.283    0.221
       198  -9.0768     75.8324     84.0925   9.6961578143e+01   5.0129682682e+01    0.2622303    0.1834002  41.11  0.001058043    1.619    0.382
       199  -9.1733    173.0220     83.0145   7.0715460000e+01   3.0027936165e+01    0.2384265    0.2256134 -29.15 0.0005290049    1.034    0.032
       200 -10.6879    161.1816     81.8239   7.2920673240e+01   3.3153186245e+01    0.5112317    0.3386747  50.42 0.0006421774    1.531    0.347
       201  -9.8580    101.1811     88.1414   9.0403687475e+01   4.5008388072e+01    0.2344964    0.2275009  31.15 0.0002354228    1.111    0.100
       202  -9.8274    216.7181     78.6432   6.1415437534e+01   2.0003210055e+01    0.4258598    0.2430673 -45.92  0.001805506    1.771    0.435
       203 -10.2637    189.8910     77.1911   6.5660204408e+01   2.6840306039e+01    0.6875062     0.307109  38.04  0.001779717    3.015    0.668
       204  -9.0955      5.3574     77.6561   1.1868477848e+02   5.8596971330e+01    0.2137294    0.1912033  89.48  0.001607291    1.275    0.216
       205 -10.5531      3.1531     74.1543   1.1880810372e+02   5.9486041840e+01    0.5498309    0.1904319 -43.00  0.001874442    2.671    0.626
       206  -9.1723    204.1939     75.9534   6.2748303312e+01   2.3487721485e+01    0.3597101    0.1874068  39.48  0.001150635    2.305    0.566
       207  -9.6381    163.8209     75.3374   7.0358384812e+01   3.3674630089e+01     0.311467    0.2542157 -81.94 0.0006741048    1.541    0.351
       208  -8.6534    219.2386     74.5942   5.9922038380e+01   2.0036195562e+01    0.2918471    0.1611666 -42.78  0.001232486    1.740    0.425
       209 -10.8246    101.4355     69.3509   8.4471420593e+01   4.8844919080e+01    0.6462275      0.52049  42.24  0.003391928    1.333    0.250
       210 -10.0675    177.1796     69.5502   6.5827574115e+01   3.1319017674e+01    0.6217146     0.541441  25.96  0.002301713    1.216    0.177
       211  -9.7967    158.3894     38.1568   5.9427211062e+01   4.0868778159e+01    0.7201943    0.7032877 -73.71  0.001544652    1.084    0.078
       212 -10.6741    143.5957     58.2231   6.9388189135e+01   4.1582289550e+01    0.2947979    0.2662587   2.06 0.0002870608    1.113    0.102
       213  -8.6060    135.6792    231.3247   1.0969200148e+02   9.4718118412e+00    0.1224981    0.0818009  66.26 0.0007046527    1.679    0.405
       214 -10.8695    152.8198     43.5677   6.2370160289e+01   4.1541560992e+01    0.6007581    0.4436355  75.35  0.002841335    1.581    0.368
       215 -10.3254    147.6962     34.8907   6.0417551959e+01   4.4017038761e+01     1.004355    0.4188464  44.77  0.003702977    2.409    0.585
       216  -9.4140    202.2329    228.9982   9.7247860554e+01  -1.1491846101e+00    0.2007509    0.1422224  34.58 0.0003924537    1.148    0.129
       217 -10.5593    164.9538     68.0586   6.7853789954e+01   3.4651402272e+01    0.8977112    0.5569897  75.23  0.003492605    2.293    0.564
       218 -10.3428    166.1133     62.9220   6.5994224376e+01   3.5212324544e+01    0.6825193    0.3569198 -42.79  0.002675766    1.961    0.490
       219 -10.6809    140.5997     51.9283   6.7933348734e+01   4.3323489320e+01    0.5480468    0.4266652  53.90  0.001570245    1.303    0.233
       220 -10.7263    154.3309     49.9351   6.4210052315e+01   4.0228965006e+01    0.6984779    0.4590433  10.41  0.002895767    2.098    0.523
       221 -10.9037    147.1722     53.8358   6.7083419119e+01   4.1414089770e+01    0.5838518    0.3116501  55.44  0.001664887    1.886    0.470
       222 -10.7307    145.1130     49.2233   6.5967081853e+01   4.2636633945e+01    0.4663864    0.3542348  76.04 0.0008657161    1.606    0.377
       223 -11.3862    141.6589     44.5926   6.5127345343e+01   4.4177950808e+01    0.5560405    0.4064477 -20.18  0.001048716    1.408    0.290
       224 -10.1880    135.9296     41.7735   6.5428687148e+01   4.5984579798e+01    0.3693734    0.2975024  89.20  0.001144689    1.613    0.380
       225  -9.9465     84.2109     67.4655   8.9214640947e+01   5.2324533758e+01    0.3912055    0.2349849  41.54  0.001252936    1.841    0.457
       226  -8.6110     50.4571    227.4912   1.2451723015e+02   2.2258849574e+01    0.1093553   0.08215314  70.80 8.942467e-05    1.024    0.023
       227 -11.4096     58.0595     48.2246   9.1631487963e+01   6.0048248090e+01    0.7750887    0.7055709  73.12  0.004850715    1.597    0.374
       228  -8.8273     23.1768    225.8209   1.2894352161e+02   2.5601710766e+01     0.129507     0.110136  87.46  0.001084589    1.368    0.269
       229  -8.4278    207.1493     61.2046   5.8106134805e+01   2.5057523638e+01    0.2108553    0.1655711 -54.47 0.0005214745    1.315    0.240
       230  -9.1893    212.1790     59.2610   5.6792204475e+01   2.4093485488e+01    0.2952215    0.2041637 -15.37 0.0009556634    1.644    0.392
       231  -9.5060    201.5369     59.4836   5.8503976421e+01   2.6726638292e+01    0.3813546    0.2874659   8.74   0.00145695    1.670    0.401
       232  -9.2921    179.6802     44.6491   5.7680249050e+01   3.4485068638e+01    0.3570668    0.2351362  22.65  0.001090995    1.998    0.499
       233 -10.5647    196.0134     48.6533   5.6226350462e+01   2.9709297003e+01     1.391684    0.4167794  57.58  0.004535519    3.069    0.674
       234 -10.8120    174.7596     56.0684   6.2133918238e+01   3.4090014711e+01     1.076911    0.6655888   8.11  0.002646125    2.596    0.615
       235 -10.2751    172.7683     48.0733   5.9980619602e+01   3.5789676092e+01     0.541541    0.3637085  61.71  0.002482036    1.498    0.332
       236  -9.8820    198.0268     54.5201   5.7627765868e+01   2.8352567404e+01    0.2686621    0.2595409  -7.10 0.0003538738    1.070    0.065
       237 -10.2203    193.3233     53.8473   5.8191308418e+01   2.9652674490e+01    0.4577132    0.3416753  80.94  0.001247205    1.521    0.343
       238 -10.9414    185.0275     55.9252   6.0223048696e+01   3.1473341254e+01    0.5172164    0.4580994 -10.23 0.0003257349    1.186    0.157
       239 -10.8290    183.3128     51.8650   5.9284280234e+01   3.2516950011e+01     0.436307    0.2776839  54.61 0.0007125114    1.547    0.353
       240  -8.8467    220.8092     59.6026   5.5629178305e+01   2.1921523415e+01    0.3018727      0.14987  63.90  0.001228666    2.159    0.537
       241  -9.5806    222.3520     56.3214   5.4526801305e+01   2.2020213376e+01    0.3982861    0.2889653 -89.33  0.001662577    1.632    0.387
       242  -8.6243    159.1117     58.7174   6.6103656838e+01   3.7659390470e+01    0.2854864    0.1857855  58.25 0.0007890008    1.577    0.366
       243  -8.9955    137.5849     59.0423   7.1098852321e+01   4.2890930893e+01    0.2772611    0.1953906  36.13 0.0004832852    1.476    0.323
       244  -9.3693    112.1808     57.7437   7.7326736776e+01   4.8843905964e+01    0.3349825    0.2082744  -0.42  0.001299089    2.548    0.608
       245  -9.4934    243.7972     55.2781   5.1506589155e+01   1.7108491853e+01    0.4230316    0.2059733 -41.80  0.001641062    1.831    0.454
       246  -9.7161    233.6617     55.3371   5.2769945675e+01   1.9450837936e+01    0.3053089     0.253482  68.92 0.0007690773    1.280    0.219
       247  -9.9937    211.4858     50.4017   5.4421952002e+01   2.5540869445e+01    0.4751433    0.2766404 -20.24  0.001475456    1.929    0.482
       248  -8.9077     65.9002     50.9285   8.9738438382e+01   5.8435036154e+01    0.1984047    0.1537913 -18.74  0.001131873    1.213    0.176
       249 -10.1587    224.5152     48.2044   5.2059604712e+01   2.2629711688e+01     0.399895    0.2459219 -48.35  0.001111034    1.591    0.371
       250  -9.3261    219.7236     42.9643   5.1263475392e+01   2.4509328019e+01    0.3283787    0.2315527 -32.80  0.001053239    1.360    0.265
       251  -8.5296     16.6260     50.5522   1.0864402362e+02   6.3763126939e+01    0.1771801    0.1133714   1.74  0.001081379    1.922    0.480
       252  -9.0873     17.1549     45.9341   1.0711350087e+02   6.4671128658e+01    0.5481175    0.1585974 -58.12  0.002289521    2.798    0.643
       253  -8.0608     22.3144     40.6104   1.0329229725e+02   6.5344891309e+01    0.4073856    0.2351087  56.81  0.001821475    4.208    0.762
       254  -9.6483     10.9893     41.8815   1.0849662164e+02   6.5894824258e+01    0.7889353    0.3718663  -9.45  0.003917201    3.076    0.675
       255 -11.4084     16.1374     31.5280   1.0288997599e+02   6.7560379021e+01    0.5733963    0.2515216 -56.50 0.0007428513    2.110    0.526
       256  -9.2178     12.0289     34.0000   1.0558739081e+02   6.7377091428e+01    0.1977282    0.1459278   9.71  0.000932141    1.588    0.370
       257  -8.9501    112.0241    225.5007   1.1335467099e+02   1.4150299072e+01    0.1808449   0.07846121  57.57 0.0008100418    2.551    0.608
       258  -8.3029    126.1609     47.3513   6.9817532825e+01   4.7466974619e+01    0.4472964    0.2549466  48.92  0.001944253    1.729    0.422
       259  -9.1432    127.6305     44.2945   6.8333447055e+01   4.7591764518e+01    0.4029622    0.2536368  80.36  0.001554427    2.809    0.644
       260  -9.5573    130.5829     40.9893   6.6402173135e+01   4.7381000782e+01    0.4247601    0.2223511 -31.74  0.001782726    1.885    0.470
       261 -10.4629    207.0802     45.4831   5.3663285266e+01   2.7329251202e+01    0.3828477    0.3143731 -20.20 0.0007435305    1.278    0.217
       262  -9.4952    214.2777     41.8552   5.1665700025e+01   2.6007793878e+01    0.4935347    0.3018268  -3.19  0.002056747    2.409    0.585
       263  -9.2613     98.7106    223.8667   1.1563003047e+02   1.6440273956e+01     0.227933    0.1290754  32.16  0.001221999    2.118    0.528
       264  -9.2158     53.2887    224.0008   1.2377435595e+02   2.2545413583e+01    0.1576057    0.1172188  77.79 0.0007935273    1.081    0.075
       265  -8.9493     41.1405    221.2768   1.2566912810e+02   2.4472277365e+01     0.195822    0.1024052 -62.12   0.00121021    2.132    0.531
       266  -8.5175     34.0116    219.4809   1.2676458112e+02   2.5598545641e+01    0.1167543   0.09654738   0.68 0.0005885962    2.425    0.588
       267  -8.6474      3.4441    213.9512   1.3153113480e+02   2.9668881175e+01    0.1565828   0.05567295  76.32 0.0008078476    2.667    0.625
       268 -11.0294    219.0555     34.1229   4.8955253562e+01   2.5816138348e+01    0.5572907    0.3806292  56.88  0.001297411    1.499    0.333
       269  -9.2812     26.4842    212.0225   1.2757396535e+02   2.7791472385e+01    0.1613923   0.08586773 -81.99  0.001037953    1.607    0.378
       270  -8.9297     13.5548    212.0552   1.2977042344e+02   2.9078470314e+01    0.1570303   0.08023672 -84.33  0.001029633    1.602    0.376
       271  -9.4330    244.3489    204.3843   8.5607921197e+01  -4.8960613027e+00    0.1887676    0.1188931   9.28  0.001054991    1.584    0.369
       272  -9.1610    165.6879     42.5390   5.9502902735e+01   3.8397592555e+01    0.3923532    0.2017253  46.89 0.0009676164    1.934    0.483
       273  -9.0943    220.2702     46.9264   5.2266350285e+01   2.3841728433e+01    0.2158004    0.2018388 -59.62 0.0002547633    1.018    0.017
       274  -9.0814    235.7698     39.4236   4.8414607594e+01   2.1096935490e+01    0.2546393    0.1801188 -35.37 0.0008067686    1.311    0.237
       275 -10.3011    180.7523     37.9365   5.5411025314e+01   3.5110904484e+01    0.5151479    0.3806919 -41.20  0.002182003    1.366    0.268
       276  -9.5127    174.4054     38.9945   5.6800771704e+01   3.6620740108e+01    0.3942372    0.1992075  47.53  0.001588207    1.980    0.495
       277  -9.5930     17.7010    202.0957   1.2848206864e+02   3.0571149912e+01    0.1846069    0.1344131  88.67   0.00102391    1.124    0.111
       278  -9.1160    198.1933     37.3000   5.2570947347e+01   3.0681041951e+01    0.2295728    0.1717061  46.68 0.0006495471    1.395    0.283
       279  -9.4802    124.9862     34.8967   6.5483292674e+01   4.9556278847e+01    0.4049784    0.2977269  18.09  0.002006456    1.462    0.316
       280  -9.0298    234.0159    200.2310   8.6623148530e+01  -2.6798428465e+00    0.2346429    0.1463958 -13.13  0.001277141    1.686    0.407
       281  -8.4311    169.4813    200.5015   9.8759814355e+01   8.6965302087e+00    0.1327268    0.1167496  42.72  0.000809549    1.065    0.061
       282 -10.2674    246.8835     33.2567   4.5708488596e+01   1.9297063900e+01    0.5486646    0.2667798  61.76  0.001700714    2.124    0.529
       283  -8.1975    230.7029    197.3463   8.6664845665e+01  -1.7395293541e+00    0.1117182    0.1053668 -77.19 0.0007034367    1.675    0.403
       284 -10.7613    246.5114     19.1112   4.2328674053e+01   2.1067104913e+01    0.8095831    0.2719225  73.00   0.00314492    3.148    0.682
       285  -9.0189     27.5533    193.7989   1.2614257545e+02   3.1223726017e+01    0.1961063     0.140485 -81.86  0.001390665    1.217    0.179
       286  -9.3946     12.3415    191.6308   1.2878937816e+02   3.3129796125e+01    0.2485768    0.2100262  -9.86   0.00185791    2.160    0.537
       287 -10.8060    235.7559     32.5398   4.6664671418e+01   2.1970232964e+01    0.5533658    0.4352563  12.16  0.003008237    1.668    0.401
       288  -9.8566    238.0884     25.8879   4.4756589196e+01   2.2227409714e+01    0.3080489    0.2371231 -66.13 0.0009672993    1.242    0.195
       289 -10.3119    241.1308     22.7259   4.3685570219e+01   2.1888905140e+01    0.4448098    0.2400157 -43.66  0.001482549    1.648    0.393
       290  -8.8189    130.4978     35.0126   6.4214297578e+01   4.8233565791e+01    0.1957355    0.1831776  -4.04  0.001096566    1.057    0.053
       291 -10.5547    135.0319     34.0269   6.2813807168e+01   4.7269376718e+01    0.3129175    0.2723424  39.02 0.0005719375    1.091    0.084
       292 -10.0440    138.8814     31.8706   6.1181729508e+01   4.6604839396e+01    0.2945406    0.2407933 -11.93  0.001549105    1.251    0.201
       293  -8.8072    215.8285    189.4008   8.7840748764e+01   1.9832587149e+00    0.1937371    0.1099424  31.40 0.0009440238    1.671    0.402
       294  -9.5600      1.4451    188.3090   1.3055532772e+02   3.4741538293e+01    0.1944923   0.07697523 -75.55  0.001119528    1.998    0.500
       295  -9.2626    244.9418    187.4299   8.2257249059e+01  -2.8220876388e+00    0.1952277    0.1618725 -16.42 0.0004744076    1.206    0.171
       296  -9.8172     11.5791    184.9632   1.2850398893e+02   3.4536755843e+01    0.2365438    0.1312967 -61.02  0.001378043    1.917    0.478
       297 -11.4596     24.6375     34.1743   1.0005237539e+02   6.6384189672e+01    0.3167391      0.25475 -59.19   0.00082501    1.478    0.323
       298 -11.0994     23.8297     26.4570   9.7459954001e+01   6.7862271542e+01    0.3685773    0.2772543 -18.49  0.001329185    1.167    0.143
       299  -9.0547     36.3183    185.3045   1.2379438759e+02   3.2034403241e+01    0.1038081   0.08324627 -53.44 0.0001961536    1.628    0.386
       300 -10.0726      6.2993    182.6549   1.2933851493e+02   3.5464970814e+01    0.2570962    0.1252252  87.69 0.0008326244    1.670    0.401
       301 -10.2626      1.7083    177.6839   1.2988953046e+02   3.6855784649e+01     0.472838     0.114954 -80.60  0.001986295    3.537    0.717
       302  -8.8067     32.3322    183.6848   1.2444009334e+02   3.2792173054e+01    0.1236215   0.06752141  69.38  0.000704624    1.684    0.406
       303  -8.5595     18.1594    182.4079   1.2708717151e+02   3.4456523778e+01    0.1517918   0.08013043  53.13 0.0007067231    1.704    0.413
       304  -8.8511     36.9576    179.4716   1.2315505152e+02   3.3183697435e+01    0.2231722    0.1221497  68.84  0.001266373    1.740    0.425
       305  -8.9579     79.6582    177.0448   1.1393156301e+02   2.8373925285e+01    0.2467348    0.1460844 -51.97  0.001285365    1.864    0.463
       306  -8.6209    193.6401    176.1146   8.9468931878e+01   8.2331825060e+00      0.19191    0.1720698  -0.24 0.0006020227    1.086    0.079
       307  -9.7809    172.5618     31.4576   5.4700653218e+01   3.8063185231e+01    0.5112009    0.2611962  38.09  0.002000194    2.327    0.570
       308  -9.3076      7.5045    174.3983   1.2857668962e+02   3.7054245535e+01    0.1940244    0.1319398 -89.44 0.0005730081    1.100    0.091
       309  -8.6305    185.3346     17.7419   4.8525399496e+01   3.6313287006e+01    0.1999119    0.1730183 -33.00 0.0002761255    1.198    0.165
       310  -8.9984    246.0028    171.4883   7.8834260100e+01  -8.2799818678e-01    0.1963148    0.1220689  38.87  0.001032574    1.589    0.371
       311  -9.6908    182.7152     27.3251   5.1819227933e+01   3.5918578976e+01    0.2758656    0.2063601 -43.63 0.0005177681    1.363    0.266
       312  -9.0501    155.8737     32.1911   5.7879903370e+01   4.2284995570e+01     0.265612    0.2178876   7.27  0.001371953    1.322    0.243
       313 -10.1949     36.7496     27.0756   9.1926091469e+01   6.6462062028e+01    0.2056713    0.1670339   3.26 0.0003309048    1.241    0.194
       314  -8.8616    198.9104     31.8986   5.0898839914e+01   3.1177822013e+01    0.2235204    0.1908967  35.86 0.0006452533    1.282    0.220
       315 -10.1524    167.3967     24.8767   5.3412590484e+01   4.0187374238e+01    0.7154273    0.3566738  38.85  0.002322668    2.310    0.567
       316  -9.3644     33.5942    169.5615   1.2293223073e+02   3.5650178269e+01    0.2479848    0.1571099 -24.71  0.001214252    3.636    0.725
       317  -9.2281     18.7103    165.6753   1.2568446790e+02   3.7920827796e+01    0.3418959    0.1623935  62.37  0.001877863    2.065    0.516
       318  -9.2441     15.4430    160.0482   1.2589651626e+02   3.9420097430e+01     0.259979    0.1136838 -73.63 0.0008634184    1.801    0.445
       319  -7.9757    153.0691     23.1241   5.5273881179e+01   4.4080692225e+01    0.2885497    0.2719341 -20.90 0.0006920199    1.109    0.098
       320 -10.4393     18.3405    159.2975   1.2521933177e+02   3.9330999282e+01    0.1965418    0.1844111  82.78  0.001106789    1.326    0.246
       321 -10.0190     11.5374    164.9254   1.2709609152e+02   3.8705420538e+01    0.2876746    0.1433148  51.08  0.001728164    1.913    0.477
       322 -10.1347      2.7631    161.2764   1.2861030390e+02   4.0185753489e+01    0.3651185    0.1699807 -71.29  0.002173528    1.692    0.409
       323  -9.0817      1.8568    156.1734   1.2843040038e+02   4.1340637559e+01    0.2169412    0.1193693 -78.24 0.0008283469    1.378    0.274
       324  -9.0266      9.2887    158.5932   1.2706834643e+02   4.0246211225e+01    0.2314679    0.1156433 -51.29 0.0009444855    2.411    0.585
       325  -8.8046     45.2252    155.7671   1.1892590388e+02   3.7446836765e+01    0.1699141    0.1078314  16.94  0.000896121    2.484    0.597
       326  -9.8121    248.7620     25.7742   4.3722043545e+01   1.9779055244e+01    0.3173314    0.2608815  38.78  0.001886408    1.512    0.339
       327  -8.4223    140.7367     23.3627   5.7697841515e+01   4.7170632602e+01    0.2039572    0.1190215  49.31 0.0003205394    1.579    0.367
       328  -8.4638     85.3727    154.2782   1.0932234776e+02   3.2548597172e+01    0.1285699    0.1067829 -20.00 0.0007008903    1.694    0.410
       329 -10.1820     24.4124    153.9007   1.2340296409e+02   3.9969418852e+01     0.209172     0.151282 -63.44 0.0006989567    1.347    0.258
       330 -10.8697     13.7910    151.4852   1.2551370593e+02   4.1424583469e+01    0.4948883    0.3391767  68.90  0.003342457    1.340    0.254
       331  -8.8119     15.1906    141.7026   1.2428748912e+02   4.3476959190e+01    0.3680419    0.1295196 -85.38   0.00150976    3.136    0.681
       332  -9.9821     46.5526    144.6303   1.1722106098e+02   3.9827188452e+01    0.4016775    0.2782238 -29.02  0.002191643    2.238    0.553
       333  -8.6691     86.2554     16.1068   6.8268096699e+01   6.0326844149e+01    0.2694052    0.1630595  52.35  0.001187744    1.777    0.437
       334  -8.2686     61.5601     15.5923   7.6454081400e+01   6.4822682564e+01    0.1257174    0.1051297  -4.53 -2.55144e-05    1.076    0.070
       335  -9.1580     67.0906     13.4514   7.3385780645e+01   6.4177911901e+01    0.3625683    0.1204934  47.08  0.001457845    3.154    0.683
       336 -10.3319     30.6568    151.4430   1.2175232684e+02   3.9928323060e+01    0.2581931    0.2083269 -69.03  0.001213992    1.209    0.173
       337 -11.8102     21.1695    146.8724   1.2343321352e+02   4.1821703649e+01    0.5503109    0.4122665 -74.20   0.00261025    1.133    0.118
       338 -10.4223     21.8519    137.5748   1.2229523016e+02   4.3853781071e+01    0.3790546    0.2481577 -26.18  0.002156717    2.490    0.598
       339 -10.3858     29.4670    135.9906   1.2027161337e+02   4.3539440514e+01     0.566498    0.2947086 -37.37  0.002681419    3.023    0.669
       340 -10.7108     29.8637    142.9118   1.2099230200e+02   4.1926009710e+01    0.4508034    0.2946276 -46.92  0.002683782    1.791    0.442
       341 -11.1425     39.4629    147.0975   1.1922174301e+02   4.0025039687e+01     0.596541    0.3895906 -41.25  0.003081327    2.015    0.504
       342 -10.4026     37.1952    143.2708   1.1929289209e+02   4.1128993034e+01    0.3590455    0.2766786  33.87  0.001370733    1.575    0.365
       343 -11.6274      5.4323    144.3181   1.2673208365e+02   4.3646387967e+01    0.7069245    0.3609779 -82.03  0.002769382    1.524    0.344
