#   1 NUMBER                 Running object number                                     
#   2 MAG_AUTO               Kron-like elliptical aperture magnitude                    [mag]
#   3 X_IMAGE                Object position along x                                    [pixel]
#   4 Y_IMAGE                Object position along y                                    [pixel]
#   5 X_WORLD                Barycenter position along world x axis                     [deg]
#   6 Y_WORLD                Barycenter position along world y axis                     [deg]
#   7 A_WORLD                Profile RMS along major axis (world units)                 [deg]
#   8 B_WORLD                Profile RMS along minor axis (world units)                 [deg]
#   9 THETA_WORLD            Position angle (CCW/world-x)                               [deg]
#  10 FWHM_WORLD             FWHM assuming a gaussian core                              [deg]
#  11 ELONGATION             A_IMAGE/B_IMAGE                                           
#  12 ELLIPTICITY            1 - B_IMAGE/A_IMAGE                                       
         1  -8.4825     18.7015     17.7010   1.2363555667e+02   7.1970530373e+01    0.4508536    0.2404399  -3.60  0.002157533    2.596    0.615
         2  -8.0002    130.3751     13.5188   7.8167127153e+01   5.1117009186e+01    0.3129114   0.08037653 -35.59 0.0009593018    3.601    0.722
         3  -9.3082     79.8831     12.0610   9.0481227422e+01   6.3351973887e+01    0.6013331    0.2728189 -47.44  0.002192383    3.297    0.697
         4 -10.2614     50.2560     11.6376   1.0246009844e+02   6.9075902427e+01    0.3414955    0.2973112 -57.58 0.0005747451    1.564    0.361
         5  -7.9328    123.0000      8.9539   7.7654027733e+01   5.3459872565e+01    0.2400827   0.08067895 -20.37 0.0008096228    2.992    0.666
         6  -8.0965     27.6834      8.7458   1.1336333163e+02   7.2799001996e+01    0.2697315   0.08793201 -40.24  0.001076906    2.659    0.624
         7  -8.0548     40.4840      7.6150   1.0514066286e+02   7.1267156620e+01     0.222754    0.1886099  88.30  0.000825138    2.116    0.527
         8  -7.2686    137.2519      7.3408   7.4401073038e+01   4.9945011528e+01    0.1487284    0.1009753  26.41 0.0002604243    1.574    0.365
         9  -8.0017    109.6979      7.7098   7.9909564632e+01   5.6922900375e+01    0.1504134   0.09861862  29.46 0.0002216585    1.566    0.362
        10  -8.4451     57.2771      5.7136   9.5648266131e+01   6.8725302404e+01    0.2328622    0.2083634  81.45  0.001360257    1.654    0.395
        11 -10.5203     60.0521      2.8201   9.2669163177e+01   6.8581925579e+01     0.241011    0.2127166   6.00 0.0002315513    1.060    0.057
        12  -9.3521     14.1727      3.3630   1.1940741317e+02   7.5229409056e+01    0.4532666    0.2048448 -33.56  0.002200932    2.085    0.520
        13  -7.6532     18.4645      2.5431   1.1581899398e+02   7.4961273244e+01    0.1662351    0.1094019   6.42 0.0001015199    1.666    0.400
        14  -7.5570      6.5172      6.4710   1.2673876628e+02   7.5224347668e+01    0.1245042   0.09430111 -39.03 0.0001562599    1.034    0.032
        15  -8.5709     76.8857      3.9284   8.7013174636e+01   6.4987965524e+01    0.3702502    0.1883674  70.71  0.001413086    3.297    0.697
        16  -7.4303     34.6752      4.6974   1.0663477937e+02   7.2590455269e+01    0.1329524   0.08785859  -7.57  0.000414241    1.639    0.390
        17  -8.7475    106.0454      3.0165   7.8494821624e+01   5.8279374592e+01    0.2235765    0.2125369   5.31   0.00132036    1.072    0.067
        18  -7.8730    115.9786      1.4574   7.5674984566e+01   5.5933019937e+01    0.2135432     0.135282  64.74 0.0009962638    1.555    0.357
        19  -7.8404     67.5226      1.5462   8.8925218726e+01   6.7242670493e+01    0.1362862    0.1189035   6.43  2.07855e-05    1.019    0.019
        20  -8.2895     39.8155      1.7126   1.0174863795e+02   7.2292467388e+01    0.2416673    0.1034021  34.10 0.0006904785    2.562    0.610
        21  -7.4429    221.3029    237.3039   1.1592375826e+02   1.6059056972e+00    0.1073801    0.0605749  11.91            0    1.595    0.373
        22  -9.9920    248.4031    249.0297   1.1338497008e+02  -2.6000225209e+00    0.3696446    0.1857435  -9.31  0.002559424    1.985    0.496
        23 -10.3708    238.5614    248.7057   1.1480385590e+02  -1.4570588739e+00    0.2715723    0.1707689  19.21  0.002150062    1.077    0.072
        24  -9.8838    207.8407    249.8669   1.1970589944e+02   2.0727493198e+00    0.3363683    0.1289307  35.55  0.001995223    1.962    0.490
        25  -9.7076    216.9957    249.7701   1.1825023660e+02   9.7996346980e-01     0.363019    0.1219604  29.87   0.00197102    2.355    0.575
        26  -9.0295    219.5031    244.4903   1.1717234640e+02   1.1586951616e+00     0.170171    0.1068878  -5.20 0.0008818295    1.551    0.355
        27  -8.9105    187.5186    250.4822   1.2306050113e+02   4.5020670895e+00    0.1699419    0.1190456  25.27 0.0008750149    1.025    0.024
        28  -9.4207    186.8662    245.2195   1.2253826791e+02   5.1240431969e+00    0.3099461    0.1750431 -10.06  0.001688948    2.430    0.588
        29  -9.5759    180.5367    249.4754   1.2409233905e+02   5.4718487655e+00    0.1906433    0.1397747   7.47  0.001283101    1.303    0.232
        30  -9.3134    161.3091    249.3145   1.2729576851e+02   7.8903018491e+00    0.2325237    0.1372923  13.44  0.001510878    1.940    0.485
        31  -9.4229    164.7019    246.0771   1.2636316968e+02   7.8280824213e+00    0.2168005    0.1353687  19.14 0.0005909459    1.476    0.323
        32  -9.5927    153.2469    250.4592   1.2878554160e+02   8.7650278656e+00      0.44733   0.07669818  36.02  0.001701727    4.345    0.770
        33  -8.5145    194.8546    236.8738   1.2016387299e+02   4.9825414165e+00    0.1643458    0.1109287  12.58 0.0007542655    1.279    0.218
        34  -8.0395    146.7400    242.2039   1.2903885725e+02   1.0558663501e+01    0.1400271    0.1005045  19.08 0.0005467225    1.305    0.234
        35  -8.7971    226.5309    250.2318   1.1683198160e+02  -1.8978079446e-01    0.1834628   0.09736427  28.81 0.0005756753    1.361    0.265
        36  -8.9972    160.0630    235.3008   1.2593150268e+02   9.6810620065e+00    0.2570316    0.1339856  21.19  0.001486024    2.028    0.507
        37  -8.5440    244.0061    235.0020   1.1209145436e+02  -9.3131804081e-01    0.1600556   0.08698207  11.87 0.0004299431    1.539    0.350
        38  -7.1902    209.3111    235.6887   1.1762780080e+02   3.2607998703e+00   0.09250436   0.07477353  38.87 0.0003772232    1.627    0.386
        39  -7.9204    204.4408    234.7037   1.1829142169e+02   3.9794454771e+00    0.1344839   0.08649415  -8.39 0.0009394807    1.624    0.384
        40 -10.0942    188.7594    232.6453   1.2063878289e+02   6.2266349955e+00    0.3555391    0.2272918 -36.73  0.002498624    1.971    0.493
        41  -8.7391    178.9473    234.9626   1.2260973325e+02   7.2515379411e+00    0.1686299    0.1232869  22.80  0.000570217    1.035    0.034
        42  -7.5590    232.6328    234.6839   1.1378516517e+02   4.6030015831e-01    0.1131645   0.05902749  12.49 0.0007038041    1.776    0.437
        43  -9.0004      4.9854    234.7619   1.5350466074e+02   2.6891864383e+01    0.1442766   0.05511547  43.36 0.0008504021    1.749    0.428
        44  -8.7115    249.0454    232.5434   1.1098108329e+02  -1.3140167568e+00    0.2279649    0.1140145  -5.09  0.001242541    2.040    0.510
        45  -8.2741    170.7689    233.3883   1.2382812873e+02   8.5048673818e+00     0.153054   0.07941603  27.67 0.0004311378    1.594    0.373
        46  -7.9595    108.4329    233.4882   1.3503866541e+02   1.6510039397e+01    0.1065642   0.08220925  41.04 6.846207e-05    1.020    0.019
        47  -7.4888     91.2862    233.7017   1.3819438896e+02   1.8532466693e+01    0.1045232   0.06329948  55.54 0.0004265554    1.552    0.355
        48  -8.1050    153.5353    232.5034   1.2676107940e+02   1.0880132637e+01    0.1098738    0.0834751  29.21 9.790215e-05    1.003    0.003
        49  -7.3969    213.6875    231.2970   1.1631572626e+02   3.1429308302e+00   0.09279054   0.07531448  36.91 0.0003052812    1.600    0.375
        50  -8.4046    241.2868    230.1264   1.1180110135e+02  -1.7826036242e-01    0.1843161    0.0828322   9.67 0.0009540805    2.813    0.645
        51  -7.7563    100.2803    233.3732   1.3652102791e+02   1.7514981001e+01   0.09601879   0.07700892  -1.96 0.0003930574    1.700    0.412
        52  -7.0424    208.3076    229.3350   1.1692244578e+02   4.0327904958e+00    0.1121951   0.06541716  10.26 0.0004454154    1.673    0.402
        53  -7.2682     37.5217    229.4978   1.4768861017e+02   2.4888799411e+01   0.09938519   0.07443537  53.88 0.0004690552    1.019    0.018
        54  -7.6983    152.1501    227.7986   1.2645775715e+02   1.1660288855e+01    0.1491915    0.1106698  12.73 0.0006837414    1.353    0.261
        55  -7.7622    108.6611    227.6360   1.3445334908e+02   1.7321299777e+01    0.1047068   0.07821222   1.66 0.0007032299    1.835    0.455
        56  -7.4679     93.6959    227.6276   1.3724639781e+02   1.9147560000e+01   0.09855735   0.07880645  -4.06  0.000206181    1.758    0.431
        57  -8.0777    184.9632    225.9962   1.2041071396e+02   7.4769341753e+00    0.1345028    0.1019889  20.80  0.000546915    1.022    0.022
        58  -8.4402    245.3174    224.7582   1.1039540624e+02  -1.8584205443e-01    0.1840242    0.1624705  84.70  0.001153777    3.998    0.750
        59  -7.8937    167.6931    224.9457   1.2331134577e+02   9.9310745968e+00    0.1475795    0.1194797  18.17 0.0004325602    1.093    0.085
        60  -7.8607    127.4296    224.6917   1.3065093024e+02   1.5347712923e+01    0.1247778     0.103163 -27.10 0.0009296672    1.520    0.342
        61  -8.7096    184.3516    235.0762   1.2170089982e+02   6.5341371689e+00    0.1907377    0.1129079  25.69 0.0007562713    1.319    0.242
        62  -8.2139    249.0391    223.1958   1.0959781161e+02  -4.9743591933e-01     0.176642   0.08437587  15.68 0.0004964958    1.946    0.486
        63  -8.5116      6.0097    224.0000   1.5304770878e+02   2.8508915927e+01    0.1435966   0.04419004  29.55 0.0004656122    2.867    0.651
        64  -7.8164    206.5365    221.9554   1.1617347784e+02   5.0409579885e+00     0.144281   0.09847199 -20.54  0.001017355    1.555    0.357
        65  -7.5193    147.6914    221.6366   1.2653438202e+02   1.3069610430e+01    0.1119846   0.07731029   5.62 0.0007039271    1.746    0.427
        66  -7.3319     92.3922    221.2415   1.3693850288e+02   2.0277451206e+01    0.1028716   0.07612946  14.25 0.0006929282    1.661    0.398
        67  -9.2831    243.7273    219.9216   1.0990726792e+02   4.5016441249e-01    0.3023752   0.09967916  30.30  0.001505575    2.582    0.613
        68  -7.5551    224.9954    219.4966   1.1278330128e+02   2.8691744483e+00    0.1557812   0.06974802  19.51 0.0006237881    2.350    0.575
        69  -7.5744    194.4960    218.9778   1.1779243831e+02   6.9924330330e+00    0.1480148   0.08275903  -5.79 0.0008081694    2.410    0.585
        70  -7.5896    140.5597    219.4718   1.2760204478e+02   1.4331328594e+01    0.1127243   0.08953466  30.20 0.0001057568    1.023    0.022
        71  -7.7353    151.2559    216.3318   1.2521446405e+02   1.3299384293e+01    0.1075744   0.07813775   4.48 0.0001701204    1.563    0.360
        72  -8.8267    248.6870    215.0406   1.0839765950e+02   2.8555369500e-01    0.1507697    0.1029077   5.17 0.0004916418    1.088    0.081
        73  -7.7582    204.5025    215.4949   1.1557378298e+02   6.0210449838e+00    0.1148835   0.08427931  16.66 -0.0001282705    1.032    0.031
        74  -7.1536    180.3008    215.3040   1.1976450096e+02   9.3868928890e+00    0.1141783   0.07388405  10.53 0.0002760156    1.591    0.371
        75  -7.6377    136.6756    215.6280   1.2787665696e+02   1.5400813922e+01    0.1141592   0.08041418   3.30 0.0007031711    1.814    0.449
        76  -7.3666    120.2777    215.2729   1.3098076959e+02   1.7657528937e+01     0.102799   0.07956239  10.23 0.0002400528    1.492    0.330
        77  -7.9275    247.6509    210.6738   1.0786634406e+02   8.2326141406e-01    0.1546009   0.08631397  -4.82 0.0007130792    1.656    0.396
        78  -8.9063    247.8963    206.0430   1.0708462385e+02   1.2334064403e+00    0.2338395    0.1469619 -17.61  0.001147309    1.472    0.321
        79  -8.3287    187.3836    210.0070   1.1773948534e+02   9.0418790462e+00    0.2751728    0.1594545   9.26   0.00153686    2.060    0.515
        80  -8.0933    170.6034    210.6077   1.2086173998e+02   1.1347512271e+01    0.1653003    0.1132005  10.12  0.001047977    1.505    0.336
        81  -7.6457    108.3256    209.2742   1.3266709760e+02   2.0155983200e+01    0.1067395   0.08234604   9.10 0.0002476657    1.583    0.368
        82  -7.5068     77.9662    209.2183   1.3870495780e+02   2.3933170722e+01    0.1429111   0.07458297  36.53 0.0003874298    1.588    0.370
        83  -7.8526    147.0551    208.4591   1.2499341377e+02   1.4986020270e+01    0.1700261   0.09478303  34.86 0.0003519689    1.464    0.317
        84  -7.9436    100.0422    210.7817   1.3446505363e+02   2.0981193098e+01    0.1738195    0.1199395   9.75  0.001060435    1.989    0.497
        85  -7.6401    163.4792    207.4430   1.2173998735e+02   1.2786185992e+01    0.1181717   0.09301209  23.48 0.0001294273    1.038    0.036
        86  -8.5693     11.7639    206.2585   1.5144696988e+02   3.1021340049e+01    0.2219638    0.1276242  79.58  0.001594448    1.525    0.344
        87  -8.0615    124.1052    205.9146   1.2915314894e+02   1.8569500286e+01    0.1634549     0.125985  45.59            0    1.175    0.149
        88  -7.4148    139.6786    204.6989   1.2593066642e+02   1.6579947730e+01    0.1154209    0.0828889   8.25 0.0007026239    1.628    0.386
        89  -7.7152     88.0448    204.4327   1.3624401267e+02   2.3526982126e+01    0.1716644   0.09449892  34.81 0.0004491326    1.561    0.359
        90  -7.3680    175.3432    202.2880   1.1878156613e+02   1.1759388826e+01    0.1214346   0.07832447  11.95 0.0007022103    1.648    0.393
        91  -7.3793     97.6778    202.2887   1.3406754550e+02   2.2675232067e+01     0.117327   0.07449064  57.15 0.0003971596    1.604    0.376
        92  -7.5187    135.3108    200.3119   1.2621838599e+02   1.7866361488e+01    0.1157729    0.0852017   5.54  0.000289147    1.628    0.386
        93  -8.7767    250.5469    197.6693   1.0529722660e+02   1.7043885469e+00    0.2241051    0.0920743 -22.43  0.001210773    2.340    0.573
        94  -8.2358    243.1945    197.2386   1.0635515688e+02   2.7190187756e+00    0.1984604    0.1201067  -8.47  0.001287648    1.469    0.319
        95  -7.2803    238.6480    198.7036   1.0731248745e+02   3.1790738252e+00    0.1203779   0.06715032  11.21 0.0007034111    1.687    0.407
        96  -8.4864    230.5983    198.0008   1.0848070786e+02   4.3492906878e+00    0.2195229     0.119995  21.78 0.0006764479    1.584    0.369
        97  -8.1098    150.9810    198.3279   1.2284872381e+02   1.5893935050e+01    0.1739191    0.1255078  32.12 0.0004358004    1.152    0.132
        98  -8.1064    202.9569    195.1868   1.1267538568e+02   8.6094717325e+00    0.2229557    0.1296343  -1.53 0.0008341231    2.080    0.519
        99  -7.4017    224.7337    195.6439   1.0904453704e+02   5.4225312768e+00      0.11935   0.07157888   4.94 0.0005651118    1.631    0.387
       100  -7.1870    162.3226    190.3127   1.1943783647e+02   1.5376987269e+01    0.1244497   0.08533041   7.72 0.0002939058    1.656    0.396
       101  -8.4225    243.3536    188.1310   1.0476994421e+02   3.6381023678e+00    0.2615732    0.1143987 -16.37  0.001314699    2.491    0.599
       102  -7.8496    224.6629    189.6871   1.0804459599e+02   6.1001869216e+00    0.1248181   0.07305676   9.95 0.0005945543    1.691    0.408
       103  -7.8421    191.7553    189.4013   1.1372444614e+02   1.1012814928e+01    0.1689495   0.09494735  27.18 0.0004654882    1.584    0.369
       104  -7.4176    173.4310    187.5540   1.1684922476e+02   1.4071861663e+01    0.1232674    0.1008824  18.65 0.0001196255    1.021    0.021
       105  -7.4337    214.7556    185.9812   1.0907170376e+02   7.9808874599e+00    0.1396038   0.09136595 -22.75 0.0003643452    1.508    0.337
       106  -8.0338    238.3955    184.7505   1.0495543994e+02   4.6904066912e+00    0.1603036   0.09158837 -12.78  0.000946357    1.643    0.391
       107  -8.7240    230.1400    184.7323   1.0628026959e+02   5.8711740337e+00    0.1962111    0.1614884  -0.74 0.0004392026    1.196    0.164
       108  -8.8060    249.9501    182.6920   1.0279260191e+02   3.2987452807e+00    0.2446071     0.141545  -3.90 0.0005172692    1.584    0.369
       109  -7.3746    190.2651    183.3309   1.1297332695e+02   1.2047976383e+01     0.123391   0.08261256   4.30  0.000327879    1.577    0.366
       110  -7.8825    182.7984    180.1575   1.1382527336e+02   1.3655127371e+01    0.1727179    0.1262559   5.23 0.0004883042    1.354    0.261
       111  -8.4299    241.8184    177.4518   1.0310404777e+02   4.9997702361e+00    0.2116768   0.07620605 -31.32  0.001005459    2.679    0.627
       112  -7.7527    177.4712    176.4789   1.1420791083e+02   1.5030326523e+01    0.1277814    0.1055517  15.93 0.0001105633    1.029    0.028
       113  -7.7611    231.4746    171.4974   1.0365702143e+02   7.1942615796e+00    0.1235849   0.09426677   6.19 0.0008100539    1.020    0.020
       114  -9.4632    246.2569    167.1963   1.0050634326e+02   5.4880179096e+00    0.2599086    0.1628633  24.84  0.000548944    1.409    0.290
       115  -7.7796    237.2477    167.3722   1.0194942763e+02   6.8048763150e+00    0.1487936    0.1040876  37.07   0.00042811    1.510    0.338
       116  -8.3847     65.6145    142.1236   1.3435255829e+02   3.8433031998e+01    0.2607276     0.142451  55.96  0.001272756    1.990    0.497
       117  -7.9892    132.3540    139.0760   1.1687152036e+02   2.9002815433e+01    0.2721941    0.1213169 -39.60  0.001094895    2.502    0.600
       118  -7.6482    248.2224    134.0069   9.3528442001e+01   9.0033179086e+00    0.1705444   0.08739529 -24.74 0.0008797443    1.689    0.408
       119  -8.1054    242.0000    131.9650   9.4015574966e+01   1.0271944057e+01    0.2093675    0.0627882 -28.72 0.0008050597    2.961    0.662
       120  -8.0444    232.3169    128.1299   9.4664968432e+01   1.2401625465e+01    0.2141371    0.1395083  -4.69  0.001157992    1.498    0.332
       121  -8.0111    239.3478    124.2887   9.2734928188e+01   1.1667444886e+01    0.3955019    0.1910114   1.51  0.001428085    3.868    0.741
       122  -7.6123    212.6388    120.6995   9.6198548003e+01   1.6966791680e+01    0.1448734   0.09418594  12.52 0.0007035926    1.720    0.418
       123  -8.2103    248.0237    116.9635   8.9839061035e+01   1.1073901268e+01    0.2992879    0.1514939  -4.11  0.001299161    2.591    0.614
       124  -8.4272    219.6008    113.3128   9.3303386778e+01   1.6674092223e+01    0.4064469    0.1562179  36.59  0.001551201    3.012    0.668
       125  -7.9768    209.3840    110.7714   9.4396138642e+01   1.8999193848e+01    0.1978204    0.1203589 -18.11 0.0009460035    1.629    0.386
       126  -8.4313    241.1967    106.6022   8.8441552751e+01   1.3542901148e+01    0.3542274    0.1831239  -3.14   0.00149704    2.638    0.621
       127  -8.9917      4.6339    106.5556   1.4786603193e+02   5.2083092174e+01    0.2007288    0.1674635  37.67 0.0009428555    1.358    0.264
       128  -8.2430     22.8928     91.6985   1.4028816826e+02   5.4436972978e+01    0.1657611    0.1496304  81.10 0.0003863384    1.118    0.106
       129  -7.1563    242.3084     91.3059   8.4665570661e+01   1.5226621917e+01    0.1342823   0.09056935  10.14 0.0007018817    1.610    0.379
       130  -8.8059      1.8443     88.0376   1.4717172815e+02   5.6585677954e+01    0.3149238   0.07149474 -78.01   0.00112667    3.578    0.720
       131  -7.8838    212.4641     84.5027   8.7244491190e+01   2.2056253120e+01    0.1410858    0.1248456 -14.16 0.0002256353    1.028    0.028
       132  -8.6486      2.7883     81.1586   1.4614853290e+02   5.8179889425e+01    0.1697164    0.1153975 -57.33 0.0004152315    1.327    0.246
       133  -8.3225    184.3528     77.9316   9.0167437842e+01   2.9153350349e+01    0.2162276    0.1746414 -21.81 0.0005291739    1.162    0.139
       134  -8.0635     35.8680     67.8270   1.3102184668e+02   5.9096160213e+01    0.1798091    0.1477869  87.98 0.0007433138    1.332    0.249
       135  -7.5694     86.7148     67.6607   1.1168613728e+02   5.2127476077e+01    0.1495831    0.1102945 -16.11 0.0003016961    1.633    0.388
       136  -7.5810     72.7184     60.3263   1.1424581344e+02   5.6075685109e+01    0.1374272    0.1129694 -83.55 0.0002382017    1.598    0.374
       137  -7.9919      1.4013     59.2190   1.4398532285e+02   6.3487563945e+01    0.1731947   0.09813976 -87.63  0.000276455    1.648    0.393
       138  -7.3128     49.4845     58.5031   1.2287735703e+02   5.9795182523e+01    0.1377751    0.1210963 -45.94 0.0008104866    1.001    0.001
       139  -9.0151     33.0624     57.6231   1.2968908187e+02   6.1776701784e+01    0.2259554    0.1607854 -54.04 0.0003498093    1.186    0.157
       140  -7.2640    105.2876     56.3037   1.0175041524e+02   5.0785461092e+01    0.1500243    0.1143049   1.65 0.0002185931    1.565    0.361
       141  -8.7636     95.0309     52.6993   1.0365165188e+02   5.3572735175e+01    0.2623761     0.203052 -34.51 0.0005600773    1.222    0.182
       142  -8.4595     44.1278     51.8581   1.2311649185e+02   6.1946600363e+01    0.1910979    0.1765386 -75.85 0.0003730273    1.209    0.173
       143  -9.2548     95.6704     45.4222   1.0061944402e+02   5.4789200284e+01    0.3670695    0.2790855  39.64  0.001313401    1.353    0.261
       144  -8.0140     74.0134     45.4960   1.0832378190e+02   5.8928369953e+01    0.1997948    0.1407958  34.28 0.0004672107    1.512    0.339
       145  -7.4502    136.7349     44.2852   8.8940627345e+01   4.5600548599e+01    0.1443644    0.1155918 -59.48 0.0001598078    1.492    0.330
       146  -8.2900     54.2991     44.0222   1.1587226008e+02   6.2355044460e+01    0.1993972    0.1592547 -42.21 0.0004573678    1.112    0.101
       147  -8.6459      9.8426     42.8426   1.3697517647e+02   6.6973773517e+01    0.1618897    0.1346797  88.21 0.0004484256    1.313    0.238
       148  -7.9752    250.3394     42.3076   7.1666659937e+01   1.9267974429e+01    0.1280713    0.0902862  19.34 0.0007042819    1.683    0.406
       149  -8.2578     77.2270     40.1723   1.0492091519e+02   5.9374437710e+01    0.1813035     0.167096 -57.86 0.0003803372    1.270    0.212
       150  -8.9994     20.6989     40.1015   1.3067972578e+02   6.6897071409e+01    0.2606251    0.1810631  11.59  0.001190552    1.689    0.408
       151  -9.6212     52.0113     38.4287   1.1469820662e+02   6.3846757394e+01    0.2423943    0.1775293 -43.54 0.0003558569    1.215    0.177
       152  -7.3949     41.5286     39.5333   1.2004926467e+02   6.4980579771e+01    0.1339616    0.1171782 -41.73 -9.150408e-05    1.050    0.048
       153  -7.9010     92.4329     36.5252   9.7987799213e+01   5.7014105948e+01    0.2170366    0.1672337   5.82 6.779439e-05    1.434    0.302
       154  -8.3802     95.0255     33.6911   9.5916420260e+01   5.6929167726e+01    0.2204723    0.1816428  11.71 0.0003667697    1.241    0.194
       155  -7.9284     73.3795     36.9442   1.0501598379e+02   6.0680097630e+01    0.2899568    0.1232237 -47.05  0.001099745    2.490    0.598
       156  -7.5308    124.7531     34.6709   8.8058975737e+01   4.9919376220e+01    0.1504684    0.1105257  12.30 0.0004378326    1.543    0.352
       157  -8.9358     14.5781     34.0220   1.3211204402e+02   6.8722685256e+01    0.2043336    0.1586326  51.14  0.001201906    1.652    0.395
       158  -9.8999      9.0495     32.0989   1.3462507511e+02   6.9500346495e+01    0.3769591     0.249925 -53.12  0.002279906    1.186    0.157
       159  -8.2598      9.9397     27.2929   1.3266193908e+02   7.0534894088e+01    0.2124776    0.1563618 -39.22 0.0002765097    1.189    0.159
       160  -9.2457      3.1442     33.2311   1.3823573514e+02   6.9535660759e+01     0.342872    0.1588715 -70.83  0.001660057    1.828    0.453
       161  -8.9185      5.7779     27.9734   1.3532541923e+02   7.0612442359e+01    0.3027097    0.1171021 -36.12   0.00128859    2.560    0.609
       162  -7.5471     58.5118     33.4297   1.0965024873e+02   6.3873035195e+01    0.1392316     0.121707 -21.17 5.803298e-05    1.021    0.020
       163  -9.1801     21.3800     31.2654   1.2744621872e+02   6.8832233556e+01    0.3287385    0.1920407 -78.32  0.001059221    2.370    0.578
       164  -7.6616    162.3582     27.8290   7.8032887737e+01   4.1330031561e+01    0.2083716    0.1355932  -7.29 0.0006119513    1.696    0.410
       165  -9.5582     91.8238     26.6974   9.3792983696e+01   5.8714921195e+01    0.4192482    0.2157162 -37.25 0.0009683097    1.901    0.474
       166  -8.4073     81.9681     25.0053   9.6321827141e+01   6.1059371670e+01     0.171736    0.1539813  -5.90 0.0003595904    1.006    0.006
       167  -7.9176    172.5156     24.5444   7.5368648400e+01   3.9108495237e+01       0.1426    0.1366585 -41.23 -0.0001425685    1.053    0.051
       168  -8.1426    145.1438     23.2098   7.9278323484e+01   4.6270836609e+01    0.2245963    0.1891916  31.12 0.0006404826    1.186    0.157
       169  -7.8507    137.2048     21.8470   8.0235450155e+01   4.8458707382e+01    0.2043236    0.1607044  25.04 0.0003513569    1.311    0.237
       170  -8.9381     84.7287     21.5380   9.3677967220e+01   6.1007067512e+01    0.2613432    0.2274312 -14.09 0.0004650739    1.068    0.063
       171  -7.5095     59.4924     22.6005   1.0407687435e+02   6.5698295202e+01    0.1373067    0.1198737 -10.65 0.0001545354    1.025    0.024
       172  -8.2394     19.0030     20.9621   1.2486110168e+02   7.1261378858e+01    0.2893651    0.1338508 -30.82  0.001312464    2.396    0.583
       173  -9.5760    202.5042    248.8557   1.2043243103e+02   2.8186074384e+00    0.2058732    0.1193379  16.34  0.001440202    1.488    0.328
       174  -8.0137    161.8007     18.8291   7.4937118084e+01   4.2456959029e+01    0.2208843    0.1851192  24.97  0.000630331    1.234    0.189
       175  -7.6034    151.9335     17.9474   7.6133890847e+01   4.5097044390e+01    0.1701379    0.1618565   2.43 0.0003248847    1.033    0.032
       176  -8.4979     96.6102     16.9808   8.7720467883e+01   5.8997901822e+01    0.4228858    0.1295796  41.28  0.001294694    3.790    0.736
       177  -8.8801     74.8841     16.4735   9.4603902218e+01   6.3788451792e+01    0.2462792     0.212774 -52.69 0.0009353851    1.443    0.307
       178  -7.3929     27.6905     17.7239   1.1813110923e+02   7.1085485275e+01    0.1301269   0.08446704 -23.12            0    1.554    0.357
       179  -7.7952    174.4684     16.4405   7.2374478862e+01   3.9447233322e+01    0.1379412    0.1361812 -12.12 2.474142e-05    1.005    0.005
       180  -8.4527    146.1410     14.2194   7.5659809651e+01   4.6978964473e+01    0.2157243     0.179994  33.96 0.0003234007    1.191    0.161
       181  -7.9162     89.5136    249.5020   1.3970580936e+02   1.6507689636e+01    0.1008472   0.07489061  42.06 0.0002802891    1.024    0.024
       182  -9.4386    171.2001    246.2664   1.2528333833e+02   6.9865953673e+00    0.2058553    0.1333141   5.58  0.001217576    1.744    0.427
       183  -9.0969     14.7860    247.5949   1.5223503056e+02   2.4161755520e+01    0.1394179   0.05286982  42.93 0.0009562614    1.726    0.421
       184  -7.9007    151.0808     12.6755   7.4292401354e+01   4.5848975116e+01    0.1952258    0.1802608  54.93 0.0004180066    1.068    0.064
       185  -7.2098     15.6522     10.7239   1.2233207778e+02   7.3659329370e+01    0.1296932   0.07755171 -26.41 0.0002606255    1.633    0.388
       186  -8.6451    197.7263    250.4524   1.2139775380e+02   3.2490229234e+00    0.1447143   0.07148099  26.56  0.000935657    1.550    0.355
       187  -9.9485    192.2455    247.5144   1.2193096711e+02   4.2162876675e+00    0.2741904    0.2523075 -53.27  0.001635145    1.912    0.477
       188  -7.4642    136.5123    245.9767   1.3121088706e+02   1.1379632329e+01    0.1220073   0.08183448 -10.96 0.0007015992    2.260    0.557
       189  -9.3221    176.5696    244.0048   1.2411428358e+02   6.5546507542e+00    0.1906287    0.1094427  20.29    0.0012448    1.577    0.366
       190  -7.9376     68.0437    245.0000   1.4313840731e+02   1.9480677441e+01    0.1633559   0.04354165  33.72 0.0007952144    2.893    0.654
       191  -8.9539    212.2120    246.0164   1.1852262991e+02   1.9025110636e+00    0.2542712    0.1583175 -10.80  0.001842309    1.680    0.405
       192  -8.9806      3.5946    243.1904   1.5393398809e+02   2.5724856783e+01    0.1761662   0.04657339  33.50   0.00103097    2.683    0.627
       193  -9.4933    168.8896    241.3761   1.2511056478e+02   7.8270409603e+00    0.1549164    0.1358965  26.52 0.0007564035    1.270    0.212
       194 -10.2125    156.8179    245.6400   1.2766238231e+02   8.8737901722e+00    0.3056236     0.211971  -3.13  0.001154714    1.791    0.442
       195  -7.5220    113.6644    242.6803   1.3492122674e+02   1.4609449770e+01   0.09942569   0.07245846  10.29 0.0007049494    1.703    0.413
       196  -8.5871    103.0599    246.4431   1.3711107580e+02   1.5367477589e+01    0.1614114   0.07799163  34.31   0.00102308    1.601    0.375
       197  -8.1386     84.3222    240.3099   1.3995707553e+02   1.8374740254e+01   0.09215497    0.0740361   8.32 0.0007036754    1.649    0.393
       198  -9.0179    186.9703    239.3205   1.2179404761e+02   5.7341191647e+00    0.1543093    0.1021915  26.14 0.0003911199    1.106    0.096
       199  -9.5512    248.1335    237.6016   1.1184292349e+02  -1.6358742389e+00    0.1950289    0.1009536  -5.79  0.001161874    1.890    0.471
       200  -7.6877     78.5054    238.0019   1.4083289168e+02   1.9360006618e+01    0.1156453   0.08178585 -33.14 0.0008057245    2.294    0.564
