#   1 NUMBER                 Running object number                                     
#   2 MAG_AUTO               Kron-like elliptical aperture magnitude                    [mag]
#   3 X_IMAGE                Object position along x                                    [pixel]
#   4 Y_IMAGE                Object position along y                                    [pixel]
#   5 X_WORLD                Barycenter position along world x axis                     [deg]
#   6 Y_WORLD                Barycenter position along world y axis                     [deg]
#   7 A_WORLD                Profile RMS along major axis (world units)                 [deg]
#   8 B_WORLD                Profile RMS along minor axis (world units)                 [deg]
#   9 THETA_WORLD            Position angle (CCW/world-x)                               [deg]
#  10 FWHM_WORLD             FWHM assuming a gaussian core                              [deg]
#  11 ELONGATION             A_IMAGE/B_IMAGE                                           
#  12 ELLIPTICITY            1 - B_IMAGE/A_IMAGE                                       
         1 -10.4375     50.7186     36.0769   1.0284748669e+02   6.2647599574e+01    0.6655765    0.5273794 -61.21  0.004068547    2.124    0.529
         2 -10.6402     39.0356     29.7684   1.0498395260e+02   6.5023476623e+01    0.5951711    0.3083006 -44.41  0.003030876    2.117    0.528
         3 -11.7562     44.1574     20.9557   9.9440411302e+01   6.5578749206e+01    0.9291909    0.8680894 -60.60  0.006417356    1.853    0.460
         4  -9.6192     66.7208     30.2917   9.4888820686e+01   6.1114274801e+01      0.44462    0.2250269 -25.34  0.002269935    2.022    0.505
         5 -10.5979     71.2850      5.3095   8.3427470640e+01   6.3083974852e+01    0.5499105    0.3523313  33.04  0.002515041    1.299    0.230
         6 -11.4209     77.2695     19.6244   8.7314599023e+01   6.0614663829e+01     1.183895    0.5604684 -26.17  0.006025999    2.187    0.543
         7 -10.2967     78.3578     12.5657   8.4218993820e+01   6.1149072647e+01    0.4653468    0.3282908  34.28  0.002335317    1.196    0.164
         8 -11.3381     84.1998      4.0072   7.9213226508e+01   6.0835405000e+01    0.8085812    0.4019178  46.68  0.004033112    1.647    0.393
         9 -11.7631    128.2039     15.0914   7.3011761457e+01   5.0632191532e+01     1.211831    0.8401517 -44.60    0.0068837    1.714    0.417
        10 -13.1962    115.6522      4.0521   7.1889504481e+01   5.4391069904e+01      8.11135    0.8428397  62.18    0.0176119    9.671    0.897
        11 -10.1494    117.0172     16.3903   7.5756764236e+01   5.3001375587e+01    0.7802617    0.2930125 -28.50  0.003390818    2.879    0.653
        12  -9.8657    111.1934     15.7320   7.6831202123e+01   5.4326203466e+01    0.5157302    0.2084047  41.60   0.00225733    2.325    0.570
        13  -9.7117     93.7016     17.9528   8.1953214375e+01   5.7709605870e+01    0.3966187    0.3222998  46.36  0.002058037    1.174    0.148
        14 -10.6496    249.3733      3.9695   5.5438323890e+01   2.3693416090e+01    0.6908621    0.3893946 -75.37   0.00405557    1.546    0.353
        15 -11.5833    131.7541      3.1668   6.8585556998e+01   5.0873711398e+01     1.655215    0.4533343  66.29  0.005945531    3.437    0.709
        16 -10.6381    249.0482     15.6195   5.7697364333e+01   2.2409555540e+01    0.5843089     0.264195 -31.71  0.002855484    2.633    0.620
        17  -9.2672     69.0912     14.0376   8.7673235655e+01   6.2624697768e+01     0.269199     0.217677  75.32  0.001669179    2.118    0.528
        18  -8.1139     20.6553     14.3409   1.0654777031e+02   6.9115745263e+01    0.2473684    0.1377645 -35.47  0.001609312    1.610    0.379
        19 -12.9710    156.1156     20.5546   6.9659133768e+01   4.3549723773e+01      1.79947         1.14  69.45  0.009137051    1.433    0.302
        20  -9.7820    189.6316     10.8278   6.2440997002e+01   3.6499260241e+01    0.3460377    0.1849866 -57.04  0.001715588    2.023    0.506
        21 -12.8186    174.0070     17.1829   6.6039775444e+01   3.9592177565e+01     1.750953     1.204216  13.71  0.007569521    2.229    0.551
        22 -10.0816     60.5883      2.3392   8.5571103918e+01   6.5156107026e+01    0.5037235    0.2337177  38.80  0.002812027    1.804    0.446
        23  -9.7892    199.7004      7.6484   6.0568691043e+01   3.4439759745e+01    0.2637218    0.1811436  47.23  0.001393611    1.717    0.418
        24  -9.2462     39.4945      7.3351   9.5465565561e+01   6.7786398818e+01    0.3093664    0.2040068  25.73  0.001493989    1.329    0.248
        25  -8.4479     49.5914      6.1944   9.1085137609e+01   6.6499540092e+01    0.2530794    0.1493599  16.10  0.001376488    1.607    0.378
        26  -8.4187     52.3208      1.8952   8.8206243918e+01   6.6502054200e+01    0.2242984    0.1550364  20.24  0.001291029    1.171    0.146
        27  -8.7566    229.0376      6.0022   5.7435477260e+01   2.7878312330e+01    0.2052629    0.1153195 -68.94 0.0008222866    1.654    0.396
        28  -9.8767    193.2221      5.6819   6.0801730675e+01   3.6166416141e+01    0.2903754     0.183931  69.47  0.001653737    1.338    0.252
        29  -9.4026    213.9547      4.9111   5.8543558600e+01   3.1408106027e+01    0.2726183    0.1523975  68.14  0.001503222    1.562    0.360
        30  -9.8117    205.2304      3.9526   5.9164520389e+01   3.3522672308e+01    0.4216684    0.1658559  77.73   0.00185687    2.356    0.576
        31 -12.7998    166.6319     16.4515   6.6892895714e+01   4.1448477266e+01     1.292349     1.029076 -55.20  0.006334351    1.352    0.260
        32  -8.6466     26.0272      2.5381   9.8926469114e+01   6.9962132785e+01    0.2040314    0.1346679 -18.46  0.001057032    1.286    0.223
        33  -8.5480     16.8115      1.8655   1.0278367256e+02   7.1028901030e+01    0.1796088     0.150518  21.60  0.001128293    1.601    0.375
        34  -8.3317     40.0405      1.4633   9.2600655190e+01   6.8316362643e+01    0.2685956   0.09377342  41.56  0.001232563    2.703    0.630
        35  -9.1580     66.0670     53.6107   1.0356881341e+02   5.7748903042e+01     0.382843    0.1557267 -48.78  0.001558235    2.970    0.663
        36  -7.7656     35.1945     52.6182   1.1453711175e+02   6.1779957304e+01    0.1595932     0.103871   6.77 0.0009466819    1.659    0.397
        37  -7.8427     22.3398     52.2995   1.1942470162e+02   6.3018303980e+01    0.1232601   0.07081725 -25.26 0.0003492641    1.665    0.400
        38 -10.2557     83.9534     47.8689   9.5670278305e+01   5.5750803958e+01     0.610832    0.4360087  51.89  0.002776467    1.639    0.390
        39  -9.6217     80.5901     40.1285   9.3983487605e+01   5.7470348648e+01    0.4909739    0.3282947 -16.40  0.002715866    1.557    0.358
        40  -8.6767    110.9875     45.5926   8.7076487006e+01   5.0836802758e+01    0.2644062    0.1894595  -8.29  0.001225505    1.625    0.385
        41  -8.4105     97.4549     43.5002   9.0084997961e+01   5.3876148895e+01    0.1324151     0.119986  16.98  0.000127122    1.024    0.023
        42 -10.1693      3.1440     40.0167   1.2354437962e+02   6.6534035572e+01    0.4018959    0.3285823 -46.91  0.002594401    1.276    0.217
        43  -9.8064    163.0553    244.1996   1.2057377451e+02   1.0614787697e-01    0.2220828    0.1962138  82.60  0.001414489    1.346    0.257
        44 -10.4820    171.7336    243.5947   1.1877959956e+02  -1.2897754649e+00    0.3605038    0.2119214  23.52  0.001740401    2.090    0.522
        45  -8.6397     69.5787     37.0259   9.6458726552e+01   5.9748324840e+01    0.2797708    0.1999114 -20.78  0.001681843    1.325    0.245
        46  -7.8632     96.3295     37.3262   8.8243802848e+01   5.4935304612e+01    0.1393424   0.09250865  17.54 0.0007050657    1.704    0.413
        47  -9.7681    159.1574    240.3266   1.2077215270e+02   1.4398072152e+00    0.3330025    0.1353245  46.30   0.00141894    2.187    0.543
        48  -8.9409     12.4889     33.7164   1.1754774567e+02   6.6968104393e+01    0.2944282    0.1631686 -51.61  0.001812685    1.814    0.449
        49  -8.4849     27.2226     35.6013   1.1197674105e+02   6.5408922681e+01    0.1493941   0.09472544   5.51 0.0005720665    1.595    0.373
        50 -10.2776    209.6938    225.4628   1.0836896926e+02  -4.8802905037e+00    0.3836028    0.1969315  23.23  0.001649592    2.495    0.599
        51 -10.3591    225.2035     28.9576   6.2668524485e+01   2.6033305091e+01    0.4116452    0.3131826  67.23  0.001443503    1.311    0.237
        52  -8.7301     97.5884     27.9884   8.4562727960e+01   5.5843752075e+01    0.4509932    0.2255604 -10.72  0.001906699    2.975    0.664
        53  -9.4250    239.0115    203.3215   9.8750788747e+01  -6.2601437409e+00    0.1887564    0.1611411  14.66  0.001171451    1.095    0.087
        54  -9.9471      3.8949    145.3417   1.4245771841e+02   4.4461655029e+01    0.3091955    0.1805249  76.63  0.001780841    1.791    0.442
        55 -12.7465    241.1645    133.2583   8.3828173663e+01   5.5458903068e+00     1.480086     1.307451  55.86  0.005142386    1.258    0.205
        56  -9.1323     40.4748    141.7040   1.3281690865e+02   4.2070924901e+01    0.3295092    0.2016754  66.22  0.001666539    1.991    0.498
        57 -11.2775     11.2850    140.1797   1.4007474742e+02   4.5093699011e+01    0.4613524    0.3622701 -53.64  0.003136755    1.287    0.223
        58 -10.8966     12.6694    127.3239   1.3807082710e+02   4.7935381853e+01    0.4408451     0.242703 -84.25  0.002360036    1.815    0.449
        59  -8.4335    125.1826     28.9422   7.8121954332e+01   4.9861578033e+01    0.2454761     0.179798  14.11  0.001336038    1.600    0.375
        60  -8.9922    104.2329     25.7564   8.2015942462e+01   5.4750023475e+01    0.3727449    0.2374547  55.66  0.002015533    1.525    0.344
        61  -9.1139    107.4832     40.6221   8.6325625125e+01   5.2250818194e+01     0.340517    0.1910174  19.02  0.001410046    2.723    0.633
        62  -8.3289     10.6768     25.6838   1.1551266496e+02   6.8368169213e+01    0.2343518    0.1226207 -21.12  0.001430907    1.775    0.437
        63  -9.9606     86.4554     31.9905   8.9200822342e+01   5.7499079389e+01    0.2890003    0.2119359 -17.58   0.00171485    1.371    0.270
        64  -8.4575     58.4997    123.5045   1.2465405768e+02   4.4291042806e+01    0.2689199    0.1320953   9.04 0.0008103986    5.701    0.825
        65 -10.3157     13.2331    119.6510   1.3683311777e+02   4.9641012521e+01    0.3293601    0.1853142  51.69  0.001810325    2.223    0.550
        66  -7.6760     19.4130     21.8338   1.1015529738e+02   6.8207690227e+01    0.1567446   0.07877333 -30.23 0.0009367475    1.661    0.398
        67  -9.7791     17.5682    104.7510   1.3319557559e+02   5.2673530975e+01    0.5651117    0.3359696 -88.56  0.002974767    2.136    0.532
        68  -9.5668     29.3526    102.3143   1.2914473697e+02   5.2265909967e+01    0.4063402     0.164866 -39.27  0.001723622    2.726    0.633
        69  -9.8680     46.8940     99.8895   1.2313970069e+02   5.1070868582e+01    0.4344984    0.1589037 -52.99  0.001821099    2.229    0.551
        70  -8.9767     64.4419     15.9961   9.0001000727e+01   6.3187466134e+01    0.2053632    0.1606772  50.38 0.0009839205    1.584    0.369
        71  -8.4240     57.6632     98.3123   1.1936782762e+02   5.0148423512e+01    0.1306788    0.1038809  80.17 0.0007045683    1.688    0.408
        72  -7.7211     24.3022     95.6278   1.2940038701e+02   5.4163125216e+01    0.1208475   0.08937954  83.66 0.0007030969    1.752    0.429
        73  -8.6953      2.4392     89.2418   1.3514931350e+02   5.7008799901e+01    0.2524283    0.1615562 -65.99  0.001619846    1.276    0.216
        74  -7.6113     13.6136     15.2614   1.1013425864e+02   6.9641401793e+01   0.08880384    0.0803263  22.59 0.0006976235    1.689    0.408
        75 -11.5754     43.1670     82.0364   1.2006459181e+02   5.5302746389e+01     1.060056    0.7695184  -4.87  0.005609498    1.581    0.368
        76  -8.6229     20.0397     89.0249   1.2943020600e+02   5.5919182218e+01    0.1913553    0.1574676 -55.38  0.001010435    1.063    0.060
        77  -8.1813    100.0000     81.9966   1.0178547894e+02   4.6898180850e+01    0.2412025   0.07942103 -43.61 0.0006882665    2.969    0.663
        78  -8.8177    220.7254     81.1422   7.5185021972e+01   1.9287930359e+01    0.2476611    0.1687504 -58.17  0.001213907    1.443    0.307
        79 -10.3313      3.8865     76.0045   1.3216630971e+02   5.9682668034e+01    0.4194513    0.3814027 -32.15  0.002930664    1.216    0.178
        80 -10.0169     24.6958     65.5226   1.2226991776e+02   6.0352587451e+01    0.7806507    0.1968527 -46.70  0.003205284    2.887    0.654
        81 -10.4991     15.2505     75.5408   1.2813292673e+02   5.9074941417e+01    0.9116936     0.366762 -29.97   0.00402878    3.154    0.683
        82 -10.2530     11.4153     71.0214   1.2845504014e+02   6.0241640839e+01    0.4880095    0.2835548 -58.69  0.002577332    1.441    0.306
        83  -7.7231    204.2838     76.6396   7.6677002435e+01   2.3919772655e+01    0.1556784     0.104932 -68.17 0.0007018975    1.678    0.404
        84 -10.2850     74.8380     69.0471   1.0564827599e+02   5.3701215869e+01    0.5268595    0.4960031   5.17  0.003335599    1.110    0.099
        85  -8.7360     82.9026     69.2553   1.0311120796e+02   5.2353318674e+01    0.3265354    0.2639798  28.36  0.001868675    1.245    0.197
        86  -9.2990    227.7719     78.8734   7.3621286467e+01   1.8059064858e+01    0.3704518    0.2841144  19.39  0.001832239    2.058    0.514
        87  -9.4829     48.2394     61.9342   1.1260322659e+02   5.8669644017e+01    0.4042892    0.3041378  23.50  0.002517854    1.413    0.292
        88  -7.7635     15.7769     57.6057   1.2348418095e+02   6.2548052830e+01    0.1364446    0.1035715  27.76 0.0007882275    1.624    0.384
        89  -8.5772    198.5235     55.0921   7.2216644621e+01   2.8750977550e+01    0.2452165    0.2084147  40.18 0.0005308811    1.403    0.287
