#   1 NUMBER                 Running object number                                     
#   2 MAG_AUTO               Kron-like elliptical aperture magnitude                    [mag]
#   3 X_IMAGE                Object position along x                                    [pixel]
#   4 Y_IMAGE                Object position along y                                    [pixel]
#   5 X_WORLD                Barycenter position along world x axis                     [deg]
#   6 Y_WORLD                Barycenter position along world y axis                     [deg]
#   7 A_WORLD                Profile RMS along major axis (world units)                 [deg]
#   8 B_WORLD                Profile RMS along minor axis (world units)                 [deg]
#   9 THETA_WORLD            Position angle (CCW/world-x)                               [deg]
#  10 FWHM_WORLD             FWHM assuming a gaussian core                              [deg]
#  11 ELONGATION             A_IMAGE/B_IMAGE                                           
#  12 ELLIPTICITY            1 - B_IMAGE/A_IMAGE                                       
         1 -14.5731    171.8516    103.1212   3.6339733108e+01   2.6589303112e+01     5.458404     2.130096 -36.64   0.01314796    2.570    0.611
         2 -14.3218    157.8664    102.1979   3.9099430291e+01   2.9833278092e+01     7.307121     3.848336 -20.46    0.0138255    3.158    0.683
         3 -15.0178    195.5499     49.4959   1.8190032087e+01   2.9467393423e+01     4.795917     3.303434 -35.15   0.02545057    1.386    0.278
         4 -15.0314    245.9662     58.2856   1.4645364405e+01   1.7756890955e+01     4.884948     1.716959 -56.85   0.01228532    6.163    0.838
         5 -14.4668    193.3038    104.1872   3.2503378079e+01   2.1834539758e+01     2.922556     1.809371 -28.35  0.007936601    1.623    0.384
         6 -14.7220    232.7832     77.9103   2.0445362822e+01   1.7757028953e+01     2.027809    0.6451623 -26.42  0.007090413    3.716    0.731
         7 -16.9490    243.0165    102.8767   2.4655869388e+01   1.2533222765e+01     7.589055      3.08697 -28.43   0.03405667    2.298    0.565
         8  -8.5815     95.6539     13.0232   2.4207301357e+01   5.9146517376e+01    0.3067511    0.1344228 -24.57  0.001093173    2.517    0.603
         9  -9.1560    216.9195     11.3946   6.3709430776e+00   2.8978815113e+01    0.3378917    0.1956232  61.06  0.001119656    1.832    0.454
        10 -10.5195    211.7187      6.4817   5.5588468356e+00   3.0611196778e+01    0.3023585    0.2073742 -65.98  0.001584945    1.317    0.241
        11 -10.0483    120.2235      9.3793   1.7128885346e+01   5.3255678851e+01     0.336295    0.2989406 -36.27 0.0009887437    1.238    0.192
        12 -11.7937    242.3994      3.7276   3.0400183676e+00   2.4394931148e+01    0.7162307    0.1978585  58.46  0.002556243    4.182    0.761
        13 -11.6583    234.5009      2.7413   3.2569095684e+00   2.6079436907e+01    0.8114461    0.2237931  56.85  0.003201554    4.348    0.770
        14  -9.7257    220.6721     14.8338   6.9133400566e+00   2.7814436931e+01    0.2401631    0.1796734  64.04 0.0006216136    1.448    0.310
        15 -10.1886    207.6873    206.6393   5.0459105354e+01   3.7409846787e+00    0.6940687    0.5402517  80.69  0.003172418    4.336    0.769
        16  -9.9364    249.5826    249.1907   4.9882993634e+01  -6.0344032347e+00    0.3477826    0.1671802  14.30  0.002252915    1.756    0.430
        17 -11.2060    244.5445    246.3982   5.0275862894e+01  -5.2397676318e+00    0.4330595    0.1835123  30.74  0.002690898    1.986    0.496
        18 -10.3569    200.3986    199.1855   5.0570474827e+01   5.7739859774e+00    0.3215829    0.2971828 -59.94  0.001871439    1.778    0.437
        19 -10.9982    192.8895    194.4595   5.1198009225e+01   7.5494750933e+00    0.7893101    0.5240689 -63.35   0.00362952    3.650    0.726
        20  -9.0676    241.1656    206.9764   4.4789442008e+01  -6.6936879891e-01    0.1869265    0.1314845  15.35 0.0006655451    1.174    0.148
        21  -8.2584    227.1498    206.1820   4.6970418814e+01   1.1936214690e+00    0.1388709    0.1165777  10.60            0    1.276    0.216
        22  -9.2468    248.7941    201.9081   4.2747867672e+01  -1.0197097430e+00    0.2577724    0.1905704  41.29  0.001173296    1.969    0.492
        23 -10.2885    241.6788    199.0653   4.3394877331e+01   1.8848094140e-01    0.5755633    0.2227161  42.75  0.002735662    3.305    0.697
        24  -9.2497    120.0035    196.9416   6.7278240058e+01   1.8433397811e+01    0.1898067    0.1651635  28.86 0.0003561976    1.035    0.034
        25  -9.5717    133.1695    247.3140   7.0643376110e+01   8.3265638957e+00    0.3230985    0.1857267  58.99   0.00156735    2.887    0.654
        26  -8.5573    104.9849    247.4518   7.6377412031e+01   1.1952982719e+01    0.1555121    0.1289881  36.53  0.000139616    1.110    0.099
        27  -8.3800     30.0631    241.9635   9.1303975183e+01   2.1437595396e+01     0.132846    0.1221393   6.56 0.0003318281    1.486    0.327
        28  -9.3525    192.4991    171.5110   4.7162818537e+01   1.1061969743e+01    0.2570249    0.1183851  37.81 0.0006919267    2.037    0.509
        29  -9.6297    185.4838    169.0342   4.8081480917e+01   1.2618273733e+01    0.3016018    0.2180229 -20.91  0.001407616    1.389    0.280
        30 -11.1158    198.8314    163.0660   4.4327638871e+01   1.1324277827e+01    0.6199873    0.5085889  31.92  0.003016233    1.231    0.188
        31 -10.8705    189.8637    160.9288   4.5640486847e+01   1.3178715693e+01    0.3366757    0.3185065 -32.97  0.000632253    1.293    0.227
        32 -12.1278    192.7487    155.4825   4.3990833263e+01   1.3555617364e+01    0.8605975    0.6113778 -43.12  0.003606659    1.574    0.364
        33  -9.5856    212.4697    160.4078   4.1309973152e+01   9.4859610705e+00    0.3443671    0.2809571 -76.45  0.001908413    2.331    0.571
        34  -8.5493    140.2534    162.0164   5.6730318442e+01   2.1766161465e+01     0.189331    0.1787035 -12.91 0.0004720067    1.115    0.103
        35  -9.6999    181.6528    151.1074   4.5309756462e+01   1.6250483125e+01    0.2895063    0.2301684 -48.69 0.0009739198    1.499    0.333
        36 -10.0767    173.8709    149.6142   4.6621144416e+01   1.7932235800e+01    0.3950042    0.2798307   1.98  0.001588159    1.675    0.403
        37  -9.1857     61.2387    149.2160   7.6140198086e+01   3.7197367086e+01    0.2629034    0.2381057   1.05  0.001546051    1.264    0.209
        38 -11.6933     67.9966    143.1453   7.3229223698e+01   3.7750029312e+01    0.9416235    0.6261399  80.03  0.003968636    1.864    0.464
        39 -12.4380     67.6116    120.4214   6.9495110655e+01   4.3318354229e+01     2.658945     1.572216  37.22   0.01217731    1.631    0.387
        40 -12.8962     43.5794    123.6769   7.8165101683e+01   4.5538607128e+01    0.9904439    0.6469129 -30.72 0.0006467393    1.941    0.485
        41 -12.4868     38.4716    122.7398   7.9768222350e+01   4.6309702521e+01    0.6345645    0.6140211 -24.23 0.0009676774    1.137    0.120
        42 -10.4154    231.4885    239.7922   5.1433529417e+01  -3.1387942828e+00    0.2591719    0.1141293  38.58  0.001330492    2.524    0.604
        43  -9.9678    152.6916    145.8989   5.0566286765e+01   2.2590310843e+01     0.396489     0.241685   6.97  0.001524516    2.788    0.641
        44 -10.4455    157.7837    142.1490   4.8591619933e+01   2.2327465595e+01    0.3948608    0.3076497  77.78  0.001908114    1.959    0.490
        45  -8.8168    100.2660    145.3094   6.4080596465e+01   3.2289559016e+01    0.2316838     0.175125 -85.70 0.0005350655    1.690    0.408
        46  -8.8279     95.1129    144.9758   6.5491947597e+01   3.3221691172e+01    0.2214123    0.2066425  54.35 0.0005971105    1.054    0.051
        47 -12.6775     55.5066    123.0139   7.4027664357e+01   4.4305557553e+01    0.8393925    0.7299832  80.05   0.00324069    1.168    0.144
        48  -9.2715     20.9572    137.0058   8.7070036103e+01   4.4375290436e+01    0.1884737    0.1692097  76.16 0.0003169465    1.009    0.009
        49 -13.1510      8.1528    125.7846   9.0195246278e+01   4.8024555688e+01    0.9815803    0.7760748 -87.80  0.003668063    1.127    0.113
        50 -10.4867    143.0021    116.9023   4.6337354084e+01   3.0222698135e+01    0.3304224    0.2574703 -44.36 0.0005956811    1.338    0.253
        51  -8.4430     93.7447    116.4018   6.0128477116e+01   4.0075816114e+01    0.2123576    0.1429111  24.74 0.0009412309    1.633    0.388
        52 -11.6590    125.1025    105.7830   4.8213347425e+01   3.6284339131e+01     1.027169    0.6790337 -68.62  0.004184889    2.247    0.555
        53 -10.8110    148.0029    111.0282   4.3655380683e+01   3.0316080947e+01    0.4055511    0.3633905 -53.64   0.00121184    1.214    0.176
        54  -9.0317    107.5939    105.7194   5.3261595138e+01   3.9899268510e+01    0.4924497     0.321915 -79.38  0.001873661    2.668    0.625
        55 -10.3031    141.9360    102.4850   4.2936734954e+01   3.3306930518e+01    0.4047074    0.3221556 -87.15 0.0007800129    1.717    0.418
        56  -9.0840    120.4261     91.7794   4.5719152801e+01   4.0199984598e+01     0.313693    0.2280896 -21.55 0.0008790958    1.676    0.403
        57  -9.3358    116.9612     92.5271   4.6925355677e+01   4.0798202523e+01    0.2554773    0.1950299  23.14 0.0008519991    1.476    0.322
        58  -9.3581    238.5920    181.4094   4.0831049498e+01   2.7458835835e+00    0.2179001    0.1823323  55.89  0.001131735    2.079    0.519
        59  -8.5850    148.2733     83.0715   3.6064294884e+01   3.5519964551e+01    0.2107427    0.1898182 -41.08 0.0004420711    1.134    0.118
        60  -7.9355    102.0000     79.9604   4.7800091211e+01   4.6620251805e+01    0.2368848    0.0880126 -44.78 0.0004272102    2.770    0.639
        61  -8.7110    234.8049    226.0894   4.8848971694e+01  -2.0530420054e+00     0.156121    0.1202847   8.76 0.0005179481    1.186    0.157
        62  -8.8871    139.5405     79.0169   3.6950224209e+01   3.8311910761e+01    0.2280762    0.1515642 -36.32  0.000499565    1.553    0.356
        63  -8.0607     88.5230     77.6082   5.1612097136e+01   4.9861831627e+01    0.1499031    0.1427332  29.21 7.233095e-05    1.025    0.025
        64  -9.4214    123.3358     72.2421   3.9047504982e+01   4.3380033188e+01    0.3224213    0.2657379 -13.50 0.0008900739    1.388    0.280
        65  -9.4099    151.1223     70.8243   3.1850789226e+01   3.6972498222e+01    0.2389018    0.2083189 -76.92  0.001119201    1.284    0.221
        66  -8.0920     63.5289    181.5602   7.9381147379e+01   2.9532832485e+01    0.1287536    0.1163575  43.63 0.0008058072    1.073    0.068
        67  -8.9729    161.0107     68.5365   2.9133191939e+01   3.4952560341e+01    0.2032371    0.1987882 -37.88 0.0002538522    1.036    0.035
        68  -8.1621     89.4310     67.2252   4.7952390102e+01   5.1864956919e+01    0.1941245    0.1464351 -54.72 0.0004083057    1.475    0.322
        69 -10.2175    134.4337     62.5282   3.3094163264e+01   4.2443370665e+01    0.5046334    0.2320169 -30.06  0.001834865    2.508    0.601
        70  -7.9712     58.4341     64.5174   5.9290063441e+01   5.8030033617e+01    0.1429607    0.1339527 -18.49  0.000129373    1.018    0.017
        71 -14.2430    207.7350    105.4099   3.0334796753e+01   1.8714922376e+01     1.368905     1.009116 -35.72  0.003810024    1.270    0.213
        72  -8.8075    224.9298    218.8086   4.9373122830e+01  -3.1061105172e-02    0.2380958    0.1355244  47.78  0.001240028    3.137    0.681
        73  -9.7878    144.4738     59.7025   2.9891130930e+01   4.0430699940e+01    0.2722406    0.2672057  82.54 0.0005779166    1.027    0.026
        74  -9.0543    153.4367     58.0571   2.7508428402e+01   3.8462049523e+01    0.2183713    0.1460555 -32.18 0.0005837962    1.547    0.354
        75  -9.4075    138.8002     58.2974   3.0707861475e+01   4.2065218486e+01    0.2534884    0.1785634  58.86 0.0002964798    1.389    0.280
        76  -7.7982     72.6863     58.3078   5.1187621165e+01   5.6952221755e+01    0.1425948     0.118341  79.33 0.0003456934    1.625    0.385
        77 -12.4017    161.3219     50.5550   2.3731807138e+01   3.7609201171e+01    0.8513969    0.5548103 -77.05  0.003716828    2.079    0.519
        78  -7.7621    125.7099     47.2978   3.0097313106e+01   4.7068350248e+01    0.1477479    0.1162261 -74.60 0.0002043164    1.558    0.358
        79 -10.9884    140.1696     44.6239   2.5917874727e+01   4.3810811435e+01    0.4446048    0.3374374  36.85  0.001707089    1.415    0.293
        80  -9.3785    164.0816     41.6661   2.0566340299e+01   3.8140355615e+01    0.2487663    0.2070915 -15.61 0.0001906481    1.354    0.261
        81  -7.9862    114.6546     42.7295   3.1265515132e+01   5.0516475062e+01    0.1551879     0.108976  29.81 0.0002629423    1.617    0.381
        82  -9.6063    166.3181     49.6831   2.2603659212e+01   3.6487310589e+01    0.2880597    0.2018489 -87.03 0.0009439599    1.722    0.419
        83 -10.4979    180.3215    174.9951   5.0244605949e+01   1.2518244078e+01    0.5782796     0.284427 -38.08  0.002653678    2.131    0.531
        84 -10.2079     32.4793    218.4879   8.9666903494e+01   2.5449756679e+01    0.2105183    0.1957723  16.75  0.001022382    1.356    0.263
        85  -8.9745    180.2617     30.7345   1.5017574700e+01   3.5469496279e+01    0.1789813    0.1532452  40.30 0.0005391324    1.320    0.242
        86 -10.4917    190.0455     25.7908   1.2483850934e+01   3.3657096392e+01    0.3668281    0.2646655  19.13  0.001475339    1.930    0.482
        87  -9.1462    172.6137    177.5171   5.2304228799e+01   1.3384916734e+01    0.2457406    0.2289706  76.75 0.0006986332    1.521    0.342
        88  -9.4962    125.2804     25.3568   2.2237775052e+01   5.0202329949e+01    0.3824694    0.2434519  -5.79  0.001239998    2.094    0.522
        89 -10.0132    178.7976     23.9732   1.3266262197e+01   3.6604520550e+01    0.3978021    0.3424252  87.56  0.002119172    1.088    0.081
        90  -8.6374    150.0230     21.2652   1.6337223200e+01   4.4232669300e+01    0.2471641    0.1871481  24.81 0.0009062166    1.611    0.379
        91  -8.9410    108.4635     21.5087   2.4559695335e+01   5.4971137109e+01    0.2492778    0.1426651  -7.60  0.001028428    2.432    0.589
        92 -10.3769    177.5908    169.6737   4.9813479821e+01   1.3848379386e+01    0.3207451    0.2493663 -61.00  0.001737449    1.906    0.475
        93  -9.8189    149.5931    177.2915   5.7306911311e+01   1.7285477983e+01    0.2949809    0.2367008 -70.07  0.001051861    1.781    0.439
        94  -7.8893    102.9995     15.7651   2.3508035410e+01   5.7013948070e+01    0.1796353    0.1097287  60.13 0.0002024849    1.482    0.325
        95  -9.2981    237.5953    217.4800   4.7055568649e+01  -1.4297109034e+00    0.2146687    0.1676473  24.25  0.000755042    1.433    0.302
        96  -9.8409     37.9936    215.7634   8.8298527170e+01   2.5411363096e+01    0.1716409    0.1288781  44.37   0.00113427    1.078    0.073
        97 -10.5093    236.5142    211.0898   4.6212005856e+01  -5.7139882834e-01      0.37808    0.2340176  46.51   0.00215446    2.647    0.622
        98  -8.6935    230.7219    208.3390   4.6722887752e+01   4.7551084830e-01    0.1809539    0.1151804 -35.84  0.000334788    1.832    0.454
        99  -9.2848    192.2975    212.9084   5.4320322684e+01   5.0450650484e+00    0.2050031    0.1639029  25.91  0.000526706    1.221    0.181
       100  -9.4580    248.0288    211.1726   4.4382529276e+01  -1.9672593389e+00     0.220942    0.1444989  19.98  0.001245229    1.298    0.230
