#   1 NUMBER                 Running object number                                     
#   2 MAG_AUTO               Kron-like elliptical aperture magnitude                    [mag]
#   3 X_IMAGE                Object position along x                                    [pixel]
#   4 Y_IMAGE                Object position along y                                    [pixel]
#   5 X_WORLD                Barycenter position along world x axis                     [deg]
#   6 Y_WORLD                Barycenter position along world y axis                     [deg]
#   7 A_WORLD                Profile RMS along major axis (world units)                 [deg]
#   8 B_WORLD                Profile RMS along minor axis (world units)                 [deg]
#   9 THETA_WORLD            Position angle (CCW/world-x)                               [deg]
#  10 FWHM_WORLD             FWHM assuming a gaussian core                              [deg]
#  11 ELONGATION             A_IMAGE/B_IMAGE                                           
#  12 ELLIPTICITY            1 - B_IMAGE/A_IMAGE                                       
         1 -10.1385      8.4476     26.1554   9.7541442200e+01   6.9756430513e+01     0.383639    0.2762158 -38.11  0.001418484    1.098    0.090
         2  -9.4245     21.4331     31.0864   9.3043014963e+01   6.7835263534e+01    0.5330615    0.1663442 -47.99  0.002344673    2.640    0.621
         3  -9.3217    187.1308     29.6651   4.5450825402e+01   3.4783301864e+01     0.754737    0.3172412 -38.39  0.003155321    2.248    0.555
         4 -10.2234    183.2321      9.7443   4.0412627707e+01   3.7951266247e+01    0.9601366    0.2856625 -37.89  0.003507583    3.023    0.669
         5 -11.2803    186.3283      3.5798   3.8403693168e+01   3.7792040333e+01    0.2841606    0.2654397 -41.41 0.0001981244    1.195    0.163
         6  -9.1638    182.0059      3.8030   3.8917823547e+01   3.8822096738e+01    0.2487467    0.1902439 -34.82 0.0008889065    1.391    0.281
         7  -9.3940    224.3643     28.0328   4.0740012846e+01   2.6097868455e+01    0.6357277    0.1894456 -39.00  0.002494885    2.742    0.635
         8 -11.4326    219.0499     25.2321   4.0596075125e+01   2.7661577285e+01    0.3229303    0.2824675 -81.57 0.0005175404    1.054    0.051
         9  -9.3715    156.5269     15.6967   4.5657744808e+01   4.3956890967e+01    0.4219728    0.3638111 -52.25   0.00251281    1.221    0.181
        10  -8.6873    128.5264      9.9366   4.8393480988e+01   5.1354448413e+01    0.2783599     0.177908 -46.24  0.001388099    1.823    0.452
        11  -9.4519    126.8857     14.1194   5.0201973419e+01   5.1350637826e+01    0.5167694    0.3473199 -79.47   0.00152207    2.062    0.515
        12  -9.7594    134.8625     10.1272   4.7327840662e+01   4.9813393813e+01    0.7092404    0.2596511 -27.71   0.00289743    2.794    0.642
        13  -9.3109    147.1733     14.7072   4.6802391991e+01   4.6368886751e+01    0.3992254    0.2238228  87.18  0.001025018    2.286    0.563
        14 -10.4397    141.5055     13.2095   4.7242033677e+01   4.7906773302e+01    0.4850014    0.3067465  42.45 0.0006080243    1.573    0.364
        15  -9.8670    133.1577     19.3898   5.0861048565e+01   4.9310802236e+01    0.3713981    0.2644321  29.05 0.0004416492    1.521    0.343
        16  -8.8264     15.2426      3.3313   8.3438804525e+01   7.2785372606e+01    0.2119337    0.1672814  21.92 0.0008992504    1.492    0.330
        17  -9.0703     16.9315      9.6635   8.5807773471e+01   7.1724872207e+01    0.4419846    0.1755573 -27.03  0.001741285    2.621    0.618
        18  -9.2456     13.1572      9.1009   8.7562736191e+01   7.2168388035e+01    0.2981805    0.1583735 -35.31  0.001440976    1.522    0.343
        19  -9.8535     16.3538     18.6001   9.0338862531e+01   7.0406280222e+01    0.4041793    0.2046602 -42.37  0.001441699    1.662    0.398
        20 -10.5095     22.3120     17.1598   8.6639531065e+01   7.0059511550e+01    0.6842862    0.2724945  38.46  0.003263561    3.329    0.700
        21  -9.7318    211.4653     18.7975   3.9776122013e+01   3.0186388731e+01    0.4479347     0.334051 -50.10  0.001642296    1.243    0.195
        22  -9.9229    204.6528     12.6540   3.8915822147e+01   3.2475502853e+01    0.3101115    0.2674314 -75.59 0.0008146598    1.018    0.018
        23 -10.2226    209.5502     11.4939   3.8154978229e+01   3.1442376722e+01    0.4081454    0.2240429 -49.98  0.001657338    1.702    0.412
        24  -8.4257     66.8807     11.8176   6.4966891596e+01   6.4377907280e+01    0.2174994    0.1433363  31.44 0.0005374929    1.365    0.267
        25  -9.0695     63.8297     17.5899   6.8752386803e+01   6.4241980079e+01    0.3522702    0.2596854  -2.51  0.002139578    1.249    0.200
        26  -9.1239     60.5540     11.4109   6.7031898013e+01   6.5535868085e+01     0.535618    0.3562502  75.19  0.002346938    4.029    0.752
        27  -7.9356     42.4504     10.4345   7.3815469636e+01   6.8511234401e+01    0.1938347    0.1300309 -24.09 2.844822e-05    1.346    0.257
        28 -10.0388     40.2464     15.0580   7.7087680912e+01   6.8218801000e+01    0.3450354    0.2418065 -31.08  0.001496424    1.379    0.275
        29  -9.2791     33.6132     12.6288   7.8926689890e+01   6.9421750106e+01    0.3196828    0.1765943  32.34  0.001514112    1.837    0.456
        30  -9.9486     51.5529     17.5577   7.3473246458e+01   6.6246817335e+01    0.4280234    0.2575347 -25.84  0.001914713    1.524    0.344
        31  -9.9535     45.8574     17.6182   7.5876223034e+01   6.7085252458e+01    0.4154172    0.2497552  20.89  0.001808035    1.671    0.402
        32  -8.6708    247.4580     17.3209   3.6287054847e+01   2.2299310909e+01    0.3130415    0.1573089 -54.15  0.001640424    1.724    0.420
        33 -11.4580     90.3138     14.1382   5.8732693672e+01   5.9569182655e+01     1.533457     0.751858  20.28  0.005384263    2.975    0.664
        34 -11.5533    101.3146     13.9044   5.5745394858e+01   5.7240810403e+01    0.2895303    0.2354005  27.18 0.0003329775    1.128    0.113
        35 -10.3705    100.2987      9.7149   5.4285936221e+01   5.7869003439e+01    0.2249583    0.2038231  31.85 0.0002149958    1.053    0.051
        36 -10.1827    237.0276     13.3644   3.6230951165e+01   2.4995995061e+01    0.5151716    0.4206924   4.88  0.002812759    1.820    0.450
        37  -9.3725    233.8928      6.4747   3.4943479552e+01   2.6439324862e+01    0.4295397    0.2522564 -73.17  0.002226789    1.603    0.376
        38  -9.2716    234.7658      1.4775   3.3782432303e+01   2.6773112933e+01    0.1977794    0.1380949 -79.79 0.0004269709    1.247    0.198
        39 -10.5155    113.2240     13.3070   5.2724270477e+01   5.4626243400e+01    0.4346565      0.26357 -29.20   0.00169106    1.752    0.429
        40  -9.4130    193.1313     12.8085   4.0145402483e+01   3.5225483101e+01    0.4751377    0.3507781  45.17  0.001631256    1.552    0.356
        41  -8.9035    195.7862      5.2236   3.7889171139e+01   3.5353375049e+01    0.3641841      0.23538  63.75  0.001320894    1.463    0.316
        42  -9.3535    163.7122     11.8189   4.3435631861e+01   4.2562401670e+01    0.3235342    0.2380232 -73.21  0.001440071    1.453    0.312
        43  -8.7269      1.5446      2.7251   9.0986829879e+01   7.4088814146e+01    0.2418324    0.1076608 -34.84   0.00113415    1.724    0.420
        44  -9.9040      6.6496      7.7579   9.0527190621e+01   7.2933819269e+01    0.5781932    0.2062163 -42.43  0.003017257    2.240    0.554
        45  -9.0727      5.1641      3.3692   8.9175765781e+01   7.3708064666e+01    0.2520717    0.1665888  18.02  0.001071976    1.576    0.366
        46  -8.6325    228.6469     12.2839   3.6662291484e+01   2.6970937673e+01    0.2594691    0.1602581  79.15  0.001076523    1.538    0.350
        47  -9.2172    226.0027      9.0535   3.6138047636e+01   2.7917271083e+01     0.263074    0.1860995 -55.72 0.0005148512    1.238    0.192
        48 -10.2786    223.4556      4.4433   3.5282497929e+01   2.8977832348e+01    0.3635178     0.314039  56.24  0.001475869    1.384    0.277
        49  -8.4897     81.0036     11.9948   6.0487293217e+01   6.1683516669e+01    0.2648858    0.1303629  32.12 0.0008431565    2.094    0.523
        50  -8.8501     85.1229      9.1996   5.8046311586e+01   6.1134047690e+01    0.4665332    0.2763766  -7.01   0.00243464    1.842    0.457
        51  -8.3874    171.6763     11.4272   4.2273067020e+01   4.0629090298e+01    0.2285413    0.1469534  62.75 0.0008199537    1.412    0.292
        52  -8.3012    150.1547     10.7237   4.5043950811e+01   4.6020522124e+01    0.2043889    0.1745526 -50.65 0.0004453408    1.256    0.204
        53  -9.9248     25.1231     10.0603   8.1764582080e+01   7.0796849680e+01    0.3289808    0.2866939  43.08 0.0008422452    1.850    0.459
        54  -8.5442     23.9695      3.0684   7.8672408554e+01   7.1859081219e+01    0.2771491    0.1672457 -49.49   0.00149122    2.964    0.663
        55  -8.0078     48.2205      9.8801   7.1087642279e+01   6.7720052741e+01    0.1719065    0.1514318 -10.35  0.001199766    1.268    0.211
        56  -9.2363    250.3433      7.8357   3.4068792960e+01   2.2769209957e+01    0.2199654     0.142462 -42.27 0.0007614672    1.370    0.270
        57  -9.9976     32.2659      6.3078   7.6319394343e+01   7.0421359726e+01    0.2848733    0.2303528  27.20 0.0004698944    1.416    0.294
        58  -9.0373     34.1262      1.7852   7.3014041555e+01   7.0714345171e+01    0.1866029     0.132566  20.23 0.0003165372    1.241    0.194
        59  -8.3012    108.3160      6.2770   5.1061488933e+01   5.6389740870e+01    0.2361321    0.1852905 -38.71 0.0007185678    1.473    0.321
        60 -11.1070     64.7881      5.9681   6.2888703185e+01   6.5370136969e+01    0.6478807    0.2994002  45.53    0.0014355    1.956    0.489
        61  -9.2949     74.0588      5.0253   5.9419916852e+01   6.3727779255e+01    0.3608879     0.218105 -36.47  0.001239014    1.954    0.488
        62 -10.1960    243.8323      4.2065   3.3746013588e+01   2.4533737018e+01    0.4599757    0.1922166 -56.56  0.002238367    2.158    0.537
        63  -8.6106    248.5380      1.9157   3.2956302440e+01   2.3785616252e+01    0.1842326     0.144517  75.60  0.001247344    1.344    0.256
        64  -8.7020    168.8685      5.1759   4.0802429596e+01   4.1916182499e+01    0.2178703    0.1978965 -13.01  0.000759067    1.280    0.219
        65  -9.0742    144.8566      5.7405   4.4231357553e+01   4.7773157399e+01    0.5892385    0.2300043  78.85  0.001846873    3.341    0.701
        66  -9.1539    150.2898      2.1334   4.2283911549e+01   4.6749972470e+01    0.4144903    0.2111205  38.58 0.0008904777    2.241    0.554
        67  -8.0811    130.4482      5.4799   4.6472525576e+01   5.1287058756e+01     0.175553    0.1247634   2.99 0.0007299854    1.644    0.392
        68  -8.1566    129.9814      2.2858   4.5429300193e+01   5.1662449944e+01    0.2161813    0.1743308 -36.83 0.0003919762    1.387    0.279
        69  -9.4948    113.5078      4.1567   4.9150266290e+01   5.5382795634e+01    0.3753533    0.2708822  32.84  0.001164809    1.329    0.247
        70  -7.9062     40.8510      6.2301   7.2353435573e+01   6.9251021984e+01    0.1626512    0.1381293  -0.36 0.0005799884    1.187    0.157
        71  -8.7629    218.0738      3.1454   3.5408227715e+01   3.0333349118e+01    0.1976574    0.1619529 -53.84 0.0004220321    1.149    0.129
        72  -8.4782    121.6755      3.9475   4.7491906595e+01   5.3498478938e+01    0.3206837    0.1389574  52.15 0.0007003621    1.927    0.481
        73  -8.3959    203.2613      2.9976   3.6627512209e+01   3.3791806520e+01    0.3483393    0.1502259  81.72   0.00135771    2.312    0.568
        74  -7.7622    210.4596      2.5058   3.5882184829e+01   3.2153182167e+01    0.1266028    0.1072634 -78.01 0.0001770586    1.006    0.006
        75  -8.3255     77.9256      2.1897   5.6944874043e+01   6.3224773347e+01    0.1694221     0.156943  30.63 0.0004363954    1.190    0.159
        76  -8.1203    158.0602      1.4416   4.1036142959e+01   4.4901830530e+01    0.1934431    0.1160062  72.49 0.0003323659    1.497    0.332
        77  -8.4931    148.1066     72.5063   6.5282878515e+01   3.8043373120e+01    0.2465455    0.2020604 -35.44  0.001224123    1.211    0.174
        78  -8.2801    110.4716    249.6088   1.0988955605e+02   8.5565062196e+00    0.2264196    0.1550101  84.01  0.001380838    1.788    0.441
        79  -9.4009    243.3883     71.4610   4.8909488786e+01   1.5844411250e+01    0.2846253    0.2223839  29.92 0.0007291081    1.726    0.421
        80  -8.0751    123.7859     70.5717   7.0646466729e+01   4.4044551244e+01     0.269518    0.2208724  55.97 0.0005113565    1.296    0.229
        81 -11.1112    128.7652     71.1138   6.9523983015e+01   4.2821901926e+01    0.2890876    0.2678245  20.46 0.0002904855    1.096    0.088
        82  -9.3853    133.7598     68.9791   6.7578968271e+01   4.2061476553e+01    0.6191846    0.2279624  53.40  0.002070615    2.841    0.648
        83  -9.7698    113.5883     70.5133   7.3410714508e+01   4.6283045339e+01    0.4265063    0.3831373 -59.97  0.002283323    1.241    0.195
        84  -8.8014     67.7954     72.0224   8.8473697227e+01   5.4370729857e+01    0.2203991    0.1919526  17.41  0.001278119    1.220    0.180
        85  -8.2909     57.1140     66.5007   9.0578548739e+01   5.7036308777e+01    0.2255262    0.1668559 -23.10 0.0007499257    1.349    0.258
        86  -9.0480     59.4123     71.2660   9.1229328314e+01   5.5727437423e+01     0.396145    0.2737294 -44.41  0.001775973    1.272    0.214
        87  -7.8821     55.6953     71.3150   9.2596861787e+01   5.6212316123e+01    0.1927158    0.1554502 -47.23   0.00057601    1.134    0.118
        88  -9.6641     28.9216     71.5525   1.0271228050e+02   5.9072988530e+01    0.2315369     0.162191 -51.31 0.0003105366    1.159    0.137
        89  -8.2974    160.6332     70.9289   6.2072163262e+01   3.5290899344e+01    0.2624888    0.2058523 -75.68 0.0005458124    1.540    0.351
        90  -7.5614    152.4835     71.5852   6.4019200995e+01   3.7154776576e+01    0.1493806    0.1480188  85.57 0.0001285908    1.019    0.019
        91  -7.5197     90.2840     71.3888   8.0708229053e+01   5.0750376396e+01    0.1538604    0.1085516 -12.72  0.000700534    1.748    0.428
        92  -8.0574     38.2880     70.9208   9.8979700809e+01   5.8321633538e+01    0.2589025    0.1616531  -3.75  0.001281635    2.106    0.525
        93  -8.5568    210.7124     69.6162   5.2853696094e+01   2.3395540639e+01      0.34772    0.2297949  89.97  0.001583593    1.952    0.488
        94  -8.9676    192.6121     69.3456   5.5633977155e+01   2.7744671596e+01    0.2546537    0.2366856  42.14 0.0007552695    1.171    0.146
        95 -10.7362    100.7385     63.3423   7.4741403466e+01   5.0282991494e+01    0.7453836     0.455012 -40.90  0.003431563    1.600    0.375
        96  -7.8792     20.7507     68.7758   1.0515548961e+02   6.0350937366e+01    0.1511166    0.1330763 -74.59 0.0003212631    1.280    0.219
        97  -7.8161    221.8807     67.8628   5.0817045785e+01   2.1100414742e+01    0.1902698    0.1506319 -66.03 0.0004406877    1.268    0.211
        98  -7.9431    204.0778     68.5632   5.3582318223e+01   2.5124273508e+01    0.2061961    0.1424611  63.25 0.0003599268    1.512    0.338
        99 -10.6736     48.8225     65.5172   9.3382264842e+01   5.8299737911e+01    0.4307561    0.2864909  15.00 0.0004119541    1.747    0.428
       100  -8.2707     39.4907     66.4358   9.7242668225e+01   5.9163104063e+01    0.1958786    0.1239393  23.84 0.0009099027    1.801    0.445
       101  -8.5024      3.1418     66.8311   1.1154146530e+02   6.1888895133e+01    0.2559252    0.1508043 -82.33  0.001412073    1.953    0.488
       102  -9.1538    149.0362     66.9415   6.3348688657e+01   3.8795751540e+01    0.2959167    0.2341988  36.27  0.001064207    1.341    0.254
       103  -9.6602     15.0228     66.1878   1.0676168840e+02   6.1327114638e+01    0.2898973    0.1817278 -19.01  0.000443328    1.799    0.444
       104  -9.7890    233.8491     63.8053   4.8270380601e+01   1.9049739729e+01    0.3969906    0.3658046  17.51  0.001572407    1.351    0.260
       105  -8.2880    173.5323     66.0562   5.8079516769e+01   3.2947777329e+01    0.2293892    0.1458935 -34.44   0.00102101    1.562    0.360
       106  -8.7869    208.9032     64.5124   5.1795618878e+01   2.4622271009e+01    0.3733817    0.2139631  46.62   0.00117728    2.000    0.500
       107  -9.2708    144.0230     64.1929   6.3610635850e+01   4.0471994890e+01    0.2853728    0.2592016  85.11 0.0005373331    1.202    0.168
       108  -7.9636    201.8378     64.1353   5.2750906658e+01   2.6357885991e+01    0.1861565    0.1692169  28.86 0.0004329568    1.279    0.218
       109  -7.9920    126.9277     64.4423   6.7820363544e+01   4.4439539856e+01     0.197811    0.1353781  81.64 0.0005493739    2.316    0.568
       110  -8.6317    121.8783     64.0665   6.9008393481e+01   4.5647910552e+01    0.2407927    0.2081543  53.93 0.0002767342    1.207    0.172
       111  -8.2984     76.1627     62.6929   8.2475569909e+01   5.4933672117e+01    0.3735133    0.2540553  -6.29  0.001775209    1.889    0.471
       112  -7.5863     67.2732     64.7073   8.6289252155e+01   5.5949834321e+01    0.1248658    0.1094956 -77.91 0.0002308802    1.518    0.341
       113  -8.8383      8.8556     63.2941   1.0851813013e+02   6.2345434706e+01    0.2360637    0.1758145  88.57  0.001471361    1.722    0.419
       114  -8.6838     82.0558     62.0982   8.0263087047e+01   5.4039926781e+01    0.3409982    0.2374958   8.38  0.001193761    1.796    0.443
       115  -9.9255    242.9927     59.8985   4.6268351569e+01   1.7652302333e+01    0.4087584    0.2840911 -26.95  0.001824578    1.522    0.343
       116  -9.1338     40.3471     61.3359   9.5371215292e+01   6.0143056867e+01    0.2827547     0.204439 -63.62 0.0009266272    1.573    0.364
       117  -9.0414     28.7191     54.0151   9.7819951748e+01   6.2810162092e+01    0.4453144    0.1523706 -39.05    0.0016512    2.755    0.637
       118  -9.9520     24.5994     59.2919   1.0110370269e+02   6.2081890069e+01    0.3566248    0.2740754  -6.53  0.002062931    1.401    0.286
       119  -7.5560      1.0000     61.9509   1.1134773094e+02   6.3055690911e+01    0.1959761   0.05326356 -65.07 0.0007908865    2.863    0.651
       120  -8.7533    135.1118     60.8052   6.4596294647e+01   4.3163734755e+01    0.2782342    0.2096251 -59.54 0.0008608156    1.576    0.365
       121  -7.3156    117.2766     61.6887   6.9438580275e+01   4.7088660709e+01    0.1432406    0.1172528 -69.96  0.000232364    1.559    0.359
       122  -8.3257    188.4844     59.7322   5.3657461719e+01   3.0278280237e+01    0.3847698    0.1530598  56.58  0.001431941    2.458    0.593
       123  -9.7437    192.8286     56.9603   5.2196567032e+01   2.9640012236e+01    0.3233076    0.2339643 -61.10 0.0003538545    1.453    0.312
       124  -9.1748    188.4151     51.7009   5.1423812862e+01   3.1504600880e+01     0.350642    0.2382878 -57.02  0.001260354    1.544    0.352
       125  -8.9017    197.5193     48.5346   4.9197429720e+01   2.9733796156e+01     0.275932    0.2149787 -85.38 0.0006156028    1.339    0.253
       126  -9.2356    195.6222     52.8540   5.0646556200e+01   2.9570964645e+01    0.2687904    0.2041008 -52.94 0.0001642506    1.278    0.217
       127 -10.1456    193.0854     48.9221   4.9945877484e+01   3.0760277872e+01    0.4043413    0.3295064 -82.18   0.00105042    1.256    0.204
       128  -8.0581    161.5146     62.4573   5.9334309350e+01   3.6499161994e+01      0.14732    0.1458725  46.97 -4.173234e-05    1.031    0.030
       129  -8.4338    175.0398     58.0556   5.5468483604e+01   3.3853634976e+01    0.3763008    0.2514096  19.87  0.001589519    2.263    0.558
       130  -8.5737     34.4074     59.2736   9.7108578899e+01   6.1188095516e+01    0.2011414    0.1076907 -50.39 0.0003759474    1.558    0.358
       131  -8.6158     36.8722     55.9602   9.5067010091e+01   6.1613869340e+01    0.1997539    0.1393913 -30.93 0.0003182232    1.270    0.213
       132  -8.2690      6.0166     58.2209   1.0846557960e+02   6.3595565097e+01    0.2865454    0.1386682 -27.10  0.001493113    2.249    0.555
       133  -9.4408    235.1316     56.6950   4.6419924536e+01   1.9817382853e+01    0.3815601    0.2166784 -62.95  0.001500482    1.980    0.495
       134  -8.3814    159.6880     58.0123   5.8340202901e+01   3.7663015915e+01    0.2943156    0.1965856  44.20  0.001083391    1.558    0.358
       135  -9.0732    155.9902     56.3370   5.8562326257e+01   3.8838657358e+01     0.294601    0.2661881  65.51  0.000684871    1.105    0.095
       136  -8.5065     89.5080     57.2322   7.6092816206e+01   5.3582073027e+01    0.2341475    0.1920406 -19.94 -0.0002800484    1.169    0.145
       137  -8.1424    224.0712     56.9333   4.7816214108e+01   2.2253953662e+01    0.2003421    0.1640845  29.45 0.0006767649    1.591    0.371
       138  -8.9391    141.6336     55.2998   6.1284338344e+01   4.2505649227e+01    0.4123868    0.2980929  22.41  0.001805366    1.699    0.412
       139  -9.5529    113.3933     54.4090   6.7977414540e+01   4.9180816205e+01    0.4923651     0.400028  29.60  0.001196183    1.241    0.194
       140  -9.9854    120.0467     49.8306   6.4601561504e+01   4.8430881650e+01    0.5277169    0.2602741 -33.39 0.0009788503    2.039    0.510
       141  -7.5337     72.3222     56.3108   8.1576029290e+01   5.6779751666e+01    0.1428923    0.1006607  -7.36 0.0002442478    1.651    0.394
       142  -9.0418     62.6271     54.9507   8.4616883326e+01   5.8547286051e+01    0.4150297    0.3069872  85.42  0.001915927    2.871    0.652
       143  -7.9243    207.2394     55.5667   4.9697612403e+01   2.6373725603e+01     0.192502    0.1277649  51.45 0.0007761631    1.627    0.385
       144  -9.2086    124.6105     54.4576   6.5047341805e+01   4.6653957196e+01    0.2878593    0.2241373   0.21 0.0008410885    1.493    0.330
       145 -10.3416      9.7755     52.2608   1.0535954623e+02   6.4625579729e+01    0.4083869    0.3286504  10.82  0.002856826    1.468    0.319
       146  -8.3105     87.9612     46.7803   7.2728231639e+01   5.5668458315e+01     0.281849    0.1798228  32.47  0.001381166    1.613    0.380
       147  -8.6455     94.8083     51.7798   7.2438534775e+01   5.3505296890e+01    0.3535916    0.2495421   2.35  0.001232016    1.737    0.424
       148  -8.4976     92.5216     48.4751   7.1922559506e+01   5.4506301508e+01    0.2663634    0.2420963 -47.61 0.0008634128    1.268    0.212
       149  -9.3372    205.4233     51.2009   4.8803476891e+01   2.7444999372e+01    0.4272186    0.2910716  24.07  0.001578788    2.252    0.556
       150  -8.7040    182.0130     51.7781   5.2464331704e+01   3.3074091794e+01    0.2419449     0.154511  36.45 0.0009858483    1.962    0.490
       151  -8.4005    106.3157     63.6924   7.3206637882e+01   4.9079210186e+01    0.2377383    0.1848215 -53.05 0.0009498764    1.451    0.311
       152  -9.4892    244.7120     49.9667   4.3794741290e+01   1.8702145972e+01     0.345712    0.2466451  37.55  0.001425311    1.976    0.494
       153  -9.2380    246.8534     44.6392   4.2368326694e+01   1.8979506779e+01    0.2783545    0.1991106 -32.15 0.0003507444    1.399    0.285
       154  -8.9381    250.0179     40.5479   4.1149750171e+01   1.8861402503e+01    0.2997764    0.2214633 -83.96  0.001327488    1.351    0.260
       155  -9.3434    247.7257     37.6667   4.0722633210e+01   1.9723701263e+01    0.4086159    0.2505448 -34.23  0.001739285    1.544    0.352
       156  -7.6969    227.3127     51.3255   4.6046865496e+01   2.2329836141e+01    0.1298536    0.1068594  20.95 0.0004231253    1.663    0.399
       157  -8.3120     41.8488     53.3853   9.2186415162e+01   6.1582062400e+01    0.2623194    0.1297812 -36.59 0.0006982381    1.841    0.457
       158  -9.2983     81.7441     49.9247   7.5964289424e+01   5.6299522304e+01    0.4912018    0.3041047  53.77  0.002316994    2.055    0.513
       159  -9.3555     73.0859     49.7221   7.8880560988e+01   5.7845350303e+01    0.4248873    0.2721676 -10.71  0.002015774    1.949    0.487
       160  -8.3356    220.6848     46.0115   4.5527035380e+01   2.4589254541e+01    0.2324765    0.2006481 -50.30  0.000392924    1.076    0.070
       161  -9.5248    213.2375     49.3278   4.7281253105e+01   2.5859283139e+01     0.343144    0.3093275  84.00 0.0004910685    1.110    0.099
       162  -9.3154    222.3733     49.9026   4.6288270068e+01   2.3655855731e+01    0.2925604    0.2268713 -72.17    0.0014052    1.271    0.213
       163  -9.0464    237.5957     48.3409   4.4173592902e+01   2.0463895237e+01    0.2633543    0.1844648 -45.21  0.001468776    1.245    0.197
       164  -7.2655    168.3044     49.6189   5.4164171150e+01   3.6799341460e+01    0.1583738    0.1065823 -64.08 0.0007023805    1.782    0.439
       165  -9.1827    139.0104     40.2366   5.6851656404e+01   4.5364261876e+01    0.5889992    0.3810641 -78.98  0.002263953    2.447    0.591
       166  -7.5616    143.3152     38.3116   5.5318180521e+01   4.4575043809e+01    0.2503257    0.1176886  50.15 0.0007776946    2.002    0.501
       167  -8.2154    134.4433     49.4617   6.0975733593e+01   4.5133489935e+01    0.2045695    0.1812985  63.14 6.871781e-05    1.159    0.137
       168  -9.3936    137.5121     45.0639   5.8802367954e+01   4.5048235878e+01    0.4777317    0.3277892  36.94  0.001916635    1.541    0.351
       169  -8.8489     42.6912     47.6896   8.9844740119e+01   6.2581411230e+01    0.3147731    0.2090023  54.28    0.0014815    2.549    0.608
       170  -8.1908     39.7812     43.9825   8.9707144877e+01   6.3613877728e+01    0.2330343    0.1583407 -41.83 0.0006797934    1.292    0.226
       171  -9.9372    174.1152     45.1772   5.1843153620e+01   3.5986120603e+01    0.3583191    0.3160734 -36.61  0.001285947    1.158    0.136
       172  -8.4757    163.2309     42.1045   5.2776620045e+01   3.9128761534e+01     0.208472    0.1874735  33.00 0.0005320568    1.193    0.162
       173  -7.8874    155.3015     47.3232   5.5869866493e+01   4.0366713987e+01    0.2257409    0.1532996 -23.02 0.0004696136    1.621    0.383
       174  -8.1659    155.8041     44.0261   5.4732191442e+01   4.0711675793e+01    0.2527105    0.2014038  66.13 0.0006470741    1.239    0.193
       175  -9.0498    152.6139     40.8069   5.4312662135e+01   4.1947573948e+01    0.3766506    0.2454727 -56.92  0.001481279    1.821    0.451
       176  -8.1279    111.4607     47.2531   6.5946461003e+01   5.0749306412e+01    0.2546861    0.1202288  51.29 0.0006504952    2.102    0.524
       177  -8.3125     20.3409     47.1830   9.9257255232e+01   6.4903417934e+01     0.192004      0.14192 -17.42 0.0005052295    1.304    0.233
       178  -8.9814    231.7985     41.4176   4.3164010779e+01   2.2691449405e+01    0.2931712    0.1817465 -66.70  0.001491205    1.673    0.402
       179  -8.9837    234.0332     44.9925   4.3770726691e+01   2.1709718897e+01    0.2517429    0.2339842 -21.99 0.0009009066    1.276    0.216
       180  -8.6172    237.8995     42.8494   4.2861608760e+01   2.1149700976e+01    0.2109244    0.1797364  87.78 0.0004552897    1.179    0.152
       181  -7.8724    225.3759     46.2760   4.5043107113e+01   2.3477522195e+01    0.1313666     0.102436  34.77 0.0007004532    1.697    0.411
       182  -9.1806     29.1850     44.7001   9.4538236485e+01   6.4603372227e+01    0.2959033    0.2302414 -62.86  0.001169933    1.594    0.373
       183 -10.1122     34.4128     43.6477   9.1885302555e+01   6.4271683635e+01    0.3956482    0.2643025 -31.05 0.0009175067    1.271    0.214
       184  -9.3723    186.0816     42.3113   4.9141580607e+01   3.3408056178e+01    0.4775479    0.2641041 -63.77  0.001964958    2.337    0.572
       185  -8.4971     95.5266     43.7945   6.9227945831e+01   5.4652541148e+01    0.2313766    0.1744155  28.25 0.0006273673    1.320    0.242
       186  -8.2046    108.2556     43.4508   6.5427483518e+01   5.2027705827e+01    0.3375207    0.1403573  54.86    0.0010891    2.570    0.611
       187  -8.2946    147.9159     41.3636   5.5403999825e+01   4.3032114974e+01    0.2289471    0.1919831 -47.28 0.0004812351    1.248    0.199
       188  -8.4379    128.0768     41.7011   5.9780086162e+01   4.7777586579e+01    0.3064259    0.2703996  48.19  0.001712848    1.092    0.084
       189  -8.1255     85.6990     42.2271   7.1703470233e+01   5.6828374980e+01    0.3335545    0.1634121  29.95   0.00134737    2.533    0.605
       190  -8.5344     66.8623     41.9584   7.8130761644e+01   6.0198823211e+01    0.2907291    0.1784845  41.17  0.001058609    1.747    0.428
       191  -8.7245     59.7285     33.3905   7.7319196633e+01   6.2710578371e+01    0.3363264    0.2014254 -36.78  0.000331479    1.587    0.370
       192  -9.2268     62.6597     38.8244   7.8445610904e+01   6.1386184977e+01    0.3865773    0.2580755  28.87  0.002128857    1.515    0.340
       193  -9.5524     67.3223     36.4246   7.5720954195e+01   6.1014926458e+01    0.3712698    0.2052338  25.61  0.001193352    2.051    0.512
       194  -9.9885     52.0608     37.6123   8.2113808740e+01   6.3165392908e+01    0.3644907    0.3128506 -38.82 0.0009106763    1.305    0.233
       195  -8.7098     56.4993     36.4906   7.9876834916e+01   6.2709022498e+01    0.2789333    0.2274788 -40.09  0.001556781    1.345    0.256
       196  -9.0547    223.7720     39.7977   4.3644917983e+01   2.4723788708e+01    0.3861773    0.1887671 -43.25  0.001668852    1.812    0.448
       197  -8.4606    225.4942     36.4496   4.2646276039e+01   2.4771775770e+01    0.2795632     0.207174 -51.40 0.0008450409    1.202    0.168
       198  -8.8842     19.9182     40.3306   9.7166777889e+01   6.6269051705e+01    0.5000097    0.2012134  30.45  0.002458252    2.848    0.649
       199  -8.6527     12.3787     35.9795   9.9179594027e+01   6.7676580710e+01    0.2146845    0.1570314 -31.05 0.0007871396    1.086    0.079
       200 -10.3896      4.2733     34.5799   1.0260319541e+02   6.8472238420e+01    0.5873367    0.2060366 -43.74  0.002293678    2.044    0.511
       201  -9.5304     14.0120     29.9748   9.6212935319e+01   6.8659873723e+01    0.3805333    0.2111192  11.15  0.002068644    1.998    0.500
       202  -7.6679    249.6614    249.7109   8.4582896293e+01  -1.1837611197e+01    0.1164604   0.06719913   8.02 0.0007021695    1.640    0.390
       203  -8.7021    164.3002     46.3066   5.3875162296e+01   3.8275097418e+01    0.2825446    0.2096636 -47.15 0.0004425405    1.377    0.274
       204  -7.9222    106.6397     39.8994   6.4545049861e+01   5.2899679314e+01    0.1877997    0.1666122 -17.02 0.0003831128    1.117    0.105
       205  -9.4686     99.5890     37.8472   6.5743740410e+01   5.4699757974e+01    0.4325384    0.2784654 -13.42  0.001260523    1.767    0.434
       206  -8.7989    216.5013     39.0052   4.4272260445e+01   2.6511028595e+01    0.2440448    0.1863232  81.86 0.0003332862    1.296    0.229
       207 -10.6280    211.8143     33.6122   4.3454142758e+01   2.8314571855e+01    0.6061729    0.2621415 -41.27   0.00113142    2.080    0.519
       208  -9.4267    119.7250     38.7339   6.0718468703e+01   5.0136432936e+01    0.2847549    0.2220005  52.24 0.0005769613    1.248    0.198
       209 -10.3728    124.5741     35.8151   5.8510374082e+01   4.9405377859e+01     0.409898      0.31539 -27.80  0.001112888    1.342    0.255
       210  -8.0384     18.2926     34.7118   9.5917209386e+01   6.7454251087e+01    0.2153675    0.1474894  40.05 0.0004998954    2.055    0.513
       211  -9.5162     24.8688     32.9554   9.2149853135e+01   6.7184127858e+01    0.4500059    0.2392905 -54.04  0.002377877    2.062    0.515
       212  -8.3009     73.7602    248.2004   1.1651118092e+02   1.3970674365e+01    0.2725619   0.05108611  43.05  0.001042859    3.596    0.722
       213  -7.9672    232.4622     36.5352   4.1942702562e+01   2.3189569302e+01    0.2060097    0.1690456   1.41 0.0005455662    1.706    0.414
       214  -8.7271    192.6900     36.4343   4.6574242632e+01   3.2561871010e+01    0.2463412    0.2209081  56.80 0.0006661791    1.180    0.152
       215  -7.9707    174.8944     36.8442   4.9264355191e+01   3.6917566372e+01    0.2063409    0.1598086 -74.66  0.001073372    1.383    0.277
       216  -9.1027    114.1729     35.5868   6.0946274823e+01   5.1830466664e+01     0.433836    0.2276366  38.47  0.001719465    1.985    0.496
       217  -8.4118    109.6669     36.3177   6.2382618288e+01   5.2738913195e+01    0.2609273    0.2327551 -83.17  0.001468715    1.410    0.291
       218  -7.7920    241.4449     36.4916   4.1048497885e+01   2.1221241635e+01     0.131565    0.1082774 -60.52 3.303073e-05    1.025    0.024
       219  -9.6110    153.7265     33.1956   5.1669602612e+01   4.2666479662e+01    0.4643601    0.2583487 -31.05 0.0006898895    1.853    0.460
       220  -8.4988    157.3309     22.7060   4.7732374619e+01   4.3010392773e+01    0.2176672    0.1837579 -80.56  0.001234629    1.233    0.189
       221  -9.1046    157.9132     27.9014   4.9269734559e+01   4.2269346433e+01    0.5597446    0.3819565  49.59   0.00285449    1.427    0.299
       222  -8.3123    161.1445     21.8951   4.6883566356e+01   4.2150825560e+01    0.3627778    0.2321905  41.64   0.00137264    1.688    0.407
       223  -9.3828     91.0909     34.6914   6.7022120670e+01   5.6893881485e+01    0.4484345    0.3493587 -78.69  0.002287671    2.135    0.532
       224  -7.5494    165.6564     35.2695   5.0269607947e+01   3.9428659804e+01    0.1453853    0.1046979 -73.60 0.0006989452    1.611    0.379
       225  -8.4585     33.3574     33.9456   8.8639833698e+01   6.6136535810e+01    0.2438073    0.1757627 -54.05  0.001322147    1.700    0.412
       226  -8.5469     39.5788     32.4803   8.5269818382e+01   6.5663199584e+01    0.2196123    0.1724802 -19.93 0.0006214168    1.036    0.035
       227  -8.5144    213.1895    244.6141   9.0078250753e+01  -6.2829099274e+00    0.1775874   0.09035663  27.17 0.0009515439    1.767    0.434
       228  -9.0909    194.4202    242.8835   9.3224881192e+01  -3.2759364212e+00    0.2136099    0.1231506  31.30  0.001212674    1.468    0.319
       229  -9.4234    193.0834     23.6188   4.3041026999e+01   3.4042435517e+01     0.406694    0.3079693  10.88  0.001932582    1.836    0.455
       230  -9.4361    189.1982     22.5825   4.3231851867e+01   3.5113090946e+01    0.4015428    0.3154876 -64.44  0.002199681    1.239    0.193
       231  -8.9699    247.6602    238.4936   8.3092334359e+01  -1.0302332760e+01     0.181276   0.09473342 -29.37   0.00106401    1.876    0.467
       232  -9.5787    172.1521    233.5089   9.6016891194e+01   1.5692395464e+00    0.3438285    0.2510439  30.12   0.00209988    1.189    0.159
       233  -9.2999    134.1961     32.0253   5.5055308812e+01   4.7603614561e+01    0.2807449    0.2224974  81.28 0.0004808929    1.430    0.301
       234  -9.5129     84.3793     29.5633   6.7019271937e+01   5.8927556827e+01    0.3251708     0.205511 -27.93 0.0006170071    1.557    0.358
       235  -8.1821     47.1113     30.8351   8.1330926419e+01   6.4957430821e+01    0.1985647    0.1268503 -12.86 0.0006337051    1.617    0.381
       236  -7.7858    153.3905    233.3929   9.9648482457e+01   4.6058838171e+00    0.2210528    0.1051833 -34.19 0.0009538452    3.190    0.687
       237  -7.6565    102.5362    229.4664   1.0921171295e+02   1.3307454672e+01    0.1249389     0.104781  57.62 0.0001502956    1.002    0.002
       238  -8.3278     97.4562     29.6427   6.3129560787e+01   5.6265410500e+01    0.2099548    0.1903643  27.19 0.0006739348    1.055    0.053
       239  -8.4237    175.7008     28.0416   4.6567695197e+01   3.7814549626e+01    0.3719539    0.1570051 -45.35  0.001052481    2.459    0.593
       240  -9.5160    169.1199     27.1962   4.7284403612e+01   3.9556028069e+01    0.8423023    0.2742147  46.03  0.002748202    3.719    0.731
       241  -8.5308    168.6721     22.9992   4.6095062102e+01   4.0151538808e+01    0.3237445    0.1851348  69.78 0.0007687174    1.666    0.400
       242  -9.6309    123.8741     26.4842   5.5302462149e+01   5.0735324049e+01    0.2837269    0.2161077 -14.36 -0.0001659918    1.410    0.291
       243  -8.9598    105.1340     26.6849   5.9871552730e+01   5.4983964767e+01    0.3950717    0.2251908  -6.38  0.001334049    2.304    0.566
       244  -8.7863    103.8729     21.2312   5.8045365135e+01   5.5899507234e+01    0.3319586    0.2265949 -25.20  0.001453253    1.515    0.340
       245  -9.4527     68.1311     26.8773   7.1370547369e+01   6.2284169351e+01    0.3989535    0.2815534  11.29  0.001311993    1.427    0.299
       246  -8.4533     51.5103     28.5209   7.8498298712e+01   6.4697423912e+01    0.1953578    0.1185267  33.98 0.0006476434    1.684    0.406
       247  -9.0428     51.5093     24.8735   7.6877785852e+01   6.5240047858e+01    0.3051654    0.2404768 -32.64  0.001251054    1.321    0.243
       248  -7.7148      1.8631     28.6733   1.0180679554e+02   6.9720680427e+01    0.1349524   0.09622099  21.01 0.0009283231    1.702    0.413
       249  -8.0601    115.1311     27.0489   5.7516277080e+01   5.2697854561e+01    0.2056502    0.1710152  25.44 0.0004602013    1.171    0.146
       250  -8.0200     62.0244     27.1203   7.3734140673e+01   6.3278074565e+01    0.2799806    0.1482255  17.07    0.0012171    2.649    0.623
       251  -7.3303     30.9245     27.2721   8.6984826987e+01   6.7532684516e+01    0.1656526   0.08439973  48.16 0.0006997116    4.034    0.752
       252  -8.2267     30.1328     24.5458   8.6172144829e+01   6.8063350470e+01    0.2785798    0.1418543   3.63  0.001270891    2.946    0.661
       253  -8.0507    234.7454     25.8044   3.9231773498e+01   2.4037541899e+01     0.217366     0.146405 -34.19 0.0009733135    1.468    0.319
       254  -9.8189    136.8618     25.3021   5.2195972305e+01   4.7762996505e+01    0.3221851    0.2498645 -71.48 0.0005824921    1.558    0.358
       255  -8.5506    238.9993     24.7033   3.8603515220e+01   2.3237366721e+01    0.2353928     0.158005 -47.26 0.0005773059    1.290    0.225
       256  -8.5699    237.2449     20.8457   3.7885860502e+01   2.4083772588e+01    0.2836554    0.1658774  62.34  0.001538814    1.802    0.445
       257  -8.7559    152.7543     23.6635   4.8783598792e+01   4.4040677652e+01    0.3390341    0.1697854 -33.54  0.001511252    2.038    0.509
       258  -7.9376    151.7093     18.7976   4.7393677646e+01   4.4829507885e+01    0.2176985    0.1198817 -25.45 0.0003164493    1.963    0.491
       259  -8.5517    218.2011    228.4158   8.6556401333e+01  -4.8778000532e+00    0.1706496     0.104095  42.27 0.0009572005    1.708    0.414
       260  -7.8588    152.4711     15.4263   4.6193251688e+01   4.4989044682e+01    0.2226263    0.1888154 -80.98  0.001126456    1.226    0.185
       261  -8.9827     78.7553     24.0535   6.6494437687e+01   6.0729604124e+01    0.3962783    0.3297929  24.30  0.002444333    1.089    0.081
       262  -8.6807     40.5129     25.0847   8.1662862706e+01   6.6732666566e+01    0.3291249    0.1549094  34.18  0.001676169    2.224    0.550
       263  -8.2487    178.7477     23.3742   4.4796228754e+01   3.7602235483e+01    0.2136161    0.1911327 -43.23 0.0008242994    1.159    0.137
       264  -8.4254    235.6819    207.9040   7.9809773559e+01  -4.6579225568e+00    0.1777502    0.1397457  -9.96 0.0007179549    1.106    0.096
       265  -8.6434    143.3913     22.5948   5.0056895054e+01   4.6471974300e+01     0.351632    0.2827643  48.33  0.001438888    1.176    0.150
       266  -7.8359    206.4391    204.4798   8.4546016728e+01   5.0854506403e-01    0.1313875    0.1141747   8.17 2.314813e-05    1.013    0.013
       267  -7.6979     18.6115    202.5005   1.2337928077e+02   2.9503956681e+01    0.1167548   0.08689681  81.34 0.0001083203    1.026    0.025
       268  -8.5249     29.5292    199.3051   1.2098081202e+02   2.9066611890e+01    0.2355422   0.09975821 -75.78 0.0009831928    2.077    0.518
       269  -7.7048    173.4566    194.5150   8.9288756767e+01   7.9603611024e+00      0.13832    0.1264688  17.61 8.830366e-05    1.021    0.021
       270  -7.4899    220.4522    193.4561   7.9835894902e+01  -8.3501379093e-02    0.1337297    0.1131344   1.09 0.0003246744    1.027    0.026
       271  -9.3323    128.0955     18.6933   5.1605309306e+01   5.0599238633e+01    0.4118006    0.1935596  61.68  0.001797335    1.978    0.495
       272  -8.5394    113.4314     22.4922   5.6193776836e+01   5.3615510764e+01    0.3856707    0.1917066  33.41   0.00125936    2.340    0.573
       273  -8.4240    246.0596     23.1164   3.7655194717e+01   2.1908283434e+01    0.1837937    0.1495559 -63.87 0.0003052749    1.007    0.007
       274  -7.6732    228.6400     23.3328   3.9218369940e+01   2.5699389149e+01    0.1448945   0.08032129 -63.48 0.0007040302    1.804    0.446
       275  -7.8413     95.7880     23.5406   6.1133835977e+01   5.7374611395e+01    0.1780198    0.1284387  66.65 0.0009335054    1.704    0.413
       276  -8.7141    236.1999     35.6806   4.1370236085e+01   2.2472150097e+01    0.3060902    0.1770731 -76.73  0.001333119    1.951    0.488
       277  -8.0933     58.0602     21.3738   7.2670711455e+01   6.4716785466e+01    0.1982208    0.1458699 -10.45  0.001199998    1.222    0.182
       278  -7.6964    141.3316    189.6849   9.5320709603e+01   1.4722766341e+01    0.1440966    0.1078881  72.86 0.0005626454    1.683    0.406
       279  -9.3251     39.6719    135.9230   1.1172852557e+02   4.2772586960e+01     0.207829    0.1923265 -70.54 0.0002369414    1.139    0.122
       280  -9.6550     66.0775    131.5301   1.0361698838e+02   4.0694518027e+01    0.4875984    0.3410254   9.94  0.001362507    2.041    0.510
       281  -8.4860     13.3101    133.0064   1.1846793194e+02   4.5843497571e+01    0.1849148    0.1703564  87.56 0.0005352378    1.194    0.162
       282  -8.2939     25.2164    128.3518   1.1464769304e+02   4.5999760715e+01    0.1853199    0.1386148 -65.93 0.0008631253    1.117    0.105
       283  -9.2931    231.8137     20.3538   3.8242675542e+01   2.5341962277e+01    0.3210012     0.182411 -58.24   0.00128878    1.626    0.385
       284  -7.5198    142.4369    126.5067   8.1810093355e+01   2.8269565781e+01    0.1560307    0.1503332 -32.52 7.281904e-05    1.034    0.033
       285  -8.0719    206.5932     20.2173   4.0631549679e+01   3.1176562107e+01    0.2293614    0.1817994  56.95  0.001345019    1.355    0.262
       286  -7.5352     39.3326    126.7104   1.1041593946e+02   4.5064553838e+01    0.1341145   0.09300371  72.63 0.0007018909    1.628    0.386
       287  -9.5579     69.2924    122.7809   1.0097703995e+02   4.2402411899e+01    0.2457853    0.2240832 -71.91 0.0002727757    1.039    0.038
       288  -8.3393     70.9514     20.1919   6.7412398104e+01   6.2661721055e+01    0.1950031    0.1716492   9.39 0.0009336731    1.081    0.075
       289  -8.0408     73.3195     16.5016   6.4946225317e+01   6.2668942515e+01    0.2188093    0.1101673 -25.96  0.001071497    1.962    0.490
       290  -8.0785      1.9037     20.1027   9.8610682382e+01   7.1256433961e+01    0.1558858    0.1308311 -27.88 0.0006853558    1.197    0.165
       291  -9.1338    196.9191     18.3509   4.1194134289e+01   3.3709016889e+01    0.3530458    0.2174461 -74.57  0.001176709    1.747    0.427
       292  -8.9348    169.3205     18.1920   4.4571736071e+01   4.0517432812e+01     0.272472    0.2046368  53.78 0.0004558759    1.298    0.230
       293  -8.9058    173.0685     17.0000   4.3713914812e+01   3.9713254425e+01    0.3036021     0.164573  64.27 0.0008696122    1.669    0.401
       294  -9.0350     12.1295    114.9299   1.1655828315e+02   5.0252502478e+01    0.2292428    0.1825325 -42.99 0.0004637169    1.354    0.262
       295  -9.3573     15.5193    112.8628   1.1527316214e+02   5.0506672429e+01    0.2505518    0.1731364 -72.70 0.0003934768    1.170    0.145
       296  -8.7276      6.1515    113.3796   1.1809630154e+02   5.1014462243e+01    0.2451988     0.199912  59.26  0.001660682    1.396    0.283
       297  -7.6681     44.3670    105.1547   1.0499969086e+02   4.9787255689e+01    0.1869818    0.1155295 -71.49 0.0002676327    1.591    0.371
       298  -8.0778    246.0228    104.2500   5.6164913733e+01   1.0096594460e+01    0.1613339    0.1206393  54.35  0.000544451    1.548    0.354
       299  -8.7779     30.1084     16.3015   8.2392708651e+01   6.9331033623e+01    0.2084775    0.1597515 -17.72 0.0005367525    1.062    0.058
       300  -8.7543     33.9788     16.4792   8.0642413856e+01   6.8837633082e+01    0.2196479    0.1703342   5.06  0.000660768    1.141    0.124
       301  -8.2913     19.6649    104.6646   1.1275406406e+02   5.2159590399e+01    0.1364874   0.07705849 -43.45 0.0007052057    1.742    0.426
       302  -8.6504    119.7323    102.6808   8.1448500446e+01   3.8352832688e+01    0.3255824    0.2651743 -67.85  0.001272745    1.393    0.282
       303  -8.5571     25.9164    103.0664   1.1050329057e+02   5.2045362033e+01    0.2005261    0.1610594 -55.56 0.0005049667    1.085    0.078
       304  -9.6001     10.3098    101.2314   1.1515299573e+02   5.3625782073e+01    0.3177555    0.1636496  36.97  0.001012714    2.315    0.568
       305  -8.9948    121.6206     17.6059   5.2536970338e+01   5.2245714831e+01    0.2363966    0.2044433  67.98 0.0005557844    1.184    0.156
       306  -7.7495     88.6130    100.1762   8.9804741733e+01   4.4815425488e+01    0.1999244    0.1300936 -41.79 0.0002992525    1.471    0.320
       307  -8.0151     56.1709    100.2074   1.0011078529e+02   4.9602565502e+01    0.1853299    0.1559545 -87.97 0.0003992166    1.342    0.255
       308  -8.7594    203.3413     97.3408   6.1230213808e+01   2.0392024252e+01    0.3155989    0.2119228 -71.10  0.001343757    2.088    0.521
       309  -7.7611    130.6371     97.8096   7.7154319417e+01   3.7090578772e+01    0.2154559    0.1421004 -51.85 0.0004062907    1.571    0.364
       310  -9.3382     71.9367     95.2313   9.3749436498e+01   4.8620206937e+01    0.4000114    0.2797578  47.19  0.002001243    1.652    0.395
       311  -8.2883     39.1750     94.1843   1.0438944226e+02   5.2941029260e+01    0.2853749    0.1137808 -49.35  0.001215954    2.089    0.521
       312  -8.2537    212.6767     94.3822   5.8885265808e+01   1.8804127522e+01    0.2325681    0.1666831 -66.47 0.0007727664    1.675    0.403
       313  -9.1401    109.7733     15.5935   5.4388390813e+01   5.5185281847e+01    0.2565688    0.2025941  43.29  0.000744574    1.133    0.118
       314  -8.8196    249.3731     93.1571   5.3161338008e+01   1.1228597727e+01    0.2128743    0.1041596 -44.11 0.0007771882    1.784    0.439
       315  -7.5982    174.7362     92.9979   6.5508316510e+01   2.7875304049e+01    0.2019876    0.1314309 -38.14 0.0008738326    1.484    0.326
       316  -7.6213    165.0170     94.0000   6.7839183948e+01   2.9986179418e+01    0.2561871   0.08972322  51.59 0.0008021755    2.941    0.660
       317  -7.9071    145.8335     92.8822   7.1914412188e+01   3.4694909550e+01    0.2024735    0.1821001 -86.55 0.0004127957    1.249    0.200
       318  -9.3861     19.6758     90.6179   1.1027805198e+02   5.5475082534e+01    0.3537066    0.2659669 -74.91  0.002183885    1.248    0.199
       319  -8.1391     99.8093     90.8936   8.3800999896e+01   4.4890133260e+01     0.226695     0.194198 -20.05 0.0004033541    1.220    0.181
       320  -9.1608     56.0007     89.5983   9.7584053379e+01   5.2108318116e+01    0.4276476    0.2365562  56.03  0.001778606    2.871    0.652
       321  -8.6699     27.5305     88.5780   1.0717179467e+02   5.5329676082e+01    0.2534723    0.2035938  79.12  0.001542013    1.502    0.334
       322  -8.1739      5.6877     87.6573   1.1450128996e+02   5.7067307494e+01    0.2013209    0.1382101 -53.04 0.0008391463    1.191    0.160
       323  -8.9186      2.6440     87.3203   1.1547424486e+02   5.7309414571e+01    0.3605933    0.1955699 -82.67  0.001928081    1.849    0.459
       324  -9.3637    242.3386     87.1669   5.2711697284e+01   1.3608557713e+01     0.339225    0.2094757 -23.94  0.001070127    1.787    0.440
       325  -7.5669    102.5300     86.4213   8.1658278728e+01   4.5334474970e+01    0.1497106     0.141104 -22.34 4.055755e-05    1.026    0.025
       326  -7.3609     97.3436     85.2555   8.2872043330e+01   4.6571981317e+01    0.1478863    0.1147647  -0.37 0.0002500635    1.585    0.369
       327  -9.1432     87.2477     82.9680   8.5334007779e+01   4.8891028960e+01    0.4102102    0.2814002 -63.25  0.001201525    1.783    0.439
       328 -10.7862     65.2744     83.4089   9.2747448820e+01   5.2272570336e+01    0.4248195    0.3812758 -20.98            0    1.110    0.099
       329  -8.9176    139.8872     18.7789   4.9401952279e+01   4.7740829306e+01    0.3954114    0.2540377 -80.49  0.001837453    2.124    0.529
       330  -7.5314    231.5076     84.4775   5.3559725511e+01   1.6325216730e+01    0.1412861     0.126885 -42.37 2.062094e-05    1.035    0.034
       331 -10.4828    195.5529     81.8537   5.8523755253e+01   2.4937811338e+01    0.4425268    0.3240602 -43.72 0.0004327814    1.290    0.225
       332 -10.3966    188.7906     82.1514   5.9805891662e+01   2.6496766776e+01    0.3314834    0.2671994  45.66 0.0003191213    1.322    0.244
       333  -9.6978    189.1338     88.0665   6.1350094280e+01   2.5365488554e+01    0.2592332    0.2322405  62.84  0.001366387    1.167    0.143
       334  -7.6763    154.5591     83.4784   6.7127905849e+01   3.4483775298e+01     0.153659    0.1498244 -25.68 6.013463e-05    1.024    0.023
       335  -7.9784    146.0503     82.6995   6.8861557764e+01   3.6643769357e+01    0.2068115    0.2005652 -12.29 0.0003981126    1.038    0.037
       336  -8.6078     12.2625     82.0289   1.1120984750e+02   5.7966775378e+01    0.3788211   0.07987643 -49.68  0.001418259    3.225    0.690
       337  -7.6575    135.5143     82.5333   7.1383159113e+01   3.9116984169e+01    0.1535351    0.1494314 -55.50 0.0001127207    1.054    0.051
       338  -8.3054    125.3334     82.0926   7.3883947697e+01   4.1489094365e+01     0.367564    0.1970654  38.79  0.001446572    2.041    0.510
       339  -8.4838     37.0699     81.6913   1.0223445659e+02   5.6044050474e+01    0.2259593    0.1615378 -64.71 0.0006249073    1.332    0.249
       340  -9.1428    199.8637     76.6188   5.6393426390e+01   2.4805895486e+01    0.3728158    0.2458105 -41.58  0.001065755    1.419    0.295
       341  -9.3681    153.3250     78.0604   6.5793632749e+01   3.5786927118e+01    0.4924539    0.2162331  49.80  0.001796153    2.278    0.561
       342  -8.5695     76.0102     78.4831   8.7652382005e+01   5.1732293887e+01    0.1985266    0.1827012 -14.64 0.0007044004    1.071    0.067
       343  -7.4440    107.4932     77.4816   7.7417560866e+01   4.6196707663e+01     0.149251     0.142935 -28.46 0.0008101085    1.035    0.034
       344  -9.1759     31.9510     77.0613   1.0296226667e+02   5.7576369689e+01    0.3590947    0.1904076   9.94  0.001391466    2.562    0.610
       345  -8.4624     10.0379     75.9505   1.1081306346e+02   5.9481896967e+01    0.1961426    0.1453385 -50.36 0.0005583801    1.092    0.084
       346  -8.5216    232.7868     74.4636   5.0968121787e+01   1.7646732112e+01    0.2616787    0.1811573 -39.33 0.0007611537    1.284    0.221
       347  -8.6794     23.8109     75.7626   1.0567002657e+02   5.8563509290e+01     0.263823    0.1264413  29.57 0.0009716087    2.437    0.590
       348  -9.9056     18.6948     73.8163   1.0713473388e+02   5.9387364580e+01    0.4032805    0.2685965 -72.24  0.002338989    1.508    0.337
       349  -9.1218    248.8415     73.8433   4.8801826874e+01   1.4350359563e+01     0.272049    0.1866347 -30.24  0.001461328    1.414    0.293
       350  -8.0160    189.0589     73.4962   5.7382073841e+01   2.7917078908e+01    0.2168729    0.1480513  60.11 0.0004292543    1.515    0.340
