#   1 NUMBER                 Running object number                                     
#   2 MAG_AUTO               Kron-like elliptical aperture magnitude                    [mag]
#   3 X_IMAGE                Object position along x                                    [pixel]
#   4 Y_IMAGE                Object position along y                                    [pixel]
#   5 X_WORLD                Barycenter position along world x axis                     [deg]
#   6 Y_WORLD                Barycenter position along world y axis                     [deg]
#   7 A_WORLD                Profile RMS along major axis (world units)                 [deg]
#   8 B_WORLD                Profile RMS along minor axis (world units)                 [deg]
#   9 THETA_WORLD            Position angle (CCW/world-x)                               [deg]
#  10 FWHM_WORLD             FWHM assuming a gaussian core                              [deg]
#  11 ELONGATION             A_IMAGE/B_IMAGE                                           
#  12 ELLIPTICITY            1 - B_IMAGE/A_IMAGE                                       
         1 -14.8991    160.2578     42.5241   2.9023396553e+02   6.3246240889e+00   0.06376886    0.0456025 -53.35   0.00392163    1.368    0.269
         2 -14.7520    173.4226      9.5111   2.8987708318e+02   6.6246286906e+00   0.06265301   0.05296239  10.32  0.004811782    1.246    0.197
         3 -11.8548    189.8591     14.6816   2.8971917297e+02   6.4662241473e+00   0.01286898   0.00999706 -70.52 0.0007334322    1.346    0.257
         4 -12.1781    167.9908    242.2397   2.9137817921e+02   3.9802146179e+00   0.01746449  0.009541319 -61.98  0.001033565    1.826    0.452
         5 -19.6831     90.3728    232.3145   2.9221280376e+02   4.5595683705e+00    0.4290748    0.3933755  45.67   0.04514781    1.112    0.101
         6 -12.2456    138.1308    198.6982   2.9145459050e+02   4.6605936484e+00   0.03058276   0.01670297  56.78    0.0024747    2.465    0.594
         7 -11.3073     21.8245    240.3228   2.9305345316e+02   4.8769024055e+00  0.009731135  0.008391948 -64.73 0.0006034029    1.165    0.142
         8 -10.7333      7.7720    237.8657   2.9320067850e+02   4.9890167383e+00  0.008449535  0.006802782 -79.94 0.0007218882    1.353    0.261
         9 -11.0426    133.4984    249.4275   2.9182027446e+02   4.1042568955e+00    0.0102942  0.007772301 -65.13 0.0004518205    1.342    0.255
        10 -13.7685    195.6296    170.9942   2.9062007008e+02   4.6342474916e+00   0.04014183   0.02273851 -76.14  0.002791241    2.207    0.547
        11 -14.0565    207.7234    178.3605   2.9052604154e+02   4.4767834040e+00   0.04973838    0.0319681 -66.83  0.004454147    1.620    0.383
        12 -12.1047    203.1546    172.5222   2.9054268951e+02   4.5714288962e+00   0.01760865   0.01138399 -74.59   0.00174843    1.763    0.433
        13 -12.9155     30.7823    182.4825   2.9259504285e+02   5.4898315308e+00   0.03467923   0.02048082  65.70 0.0003966209    2.488    0.598
        14 -11.7510     27.8276    179.7908   2.9261266247e+02   5.5384814312e+00    0.0191364   0.01236586 -17.42  0.001812562    2.084    0.520
        15 -11.5210    123.3851    184.8459   2.9153951844e+02   4.9085147212e+00   0.01603791   0.01144497  54.35 0.0007312717    1.566    0.362
        16 -12.0334    133.9369    245.4113   2.9179052011e+02   4.1478718668e+00   0.01183166   0.00898854 -54.90 0.0004523869    1.291    0.225
        17 -14.5026    177.4467    172.2029   2.9083735861e+02   4.7296059695e+00   0.04788477   0.03148133 -75.67  0.004817696    1.744    0.427
        18 -13.3622    157.7778    202.6530   2.9125217257e+02   4.4971975547e+00   0.03020336   0.02290273  87.79  0.002427738    1.578    0.366
        19 -12.3531    185.7766    168.3055   2.9071716315e+02   4.7244078917e+00   0.02199538    0.0110545 -63.16  0.001977334    2.017    0.504
        20 -12.2455    167.1165    173.9721   2.9096751596e+02   4.7712914825e+00   0.01493826   0.01109099 -77.60  0.001030171    1.497    0.332
        21 -13.0707    199.2022    222.6518   2.9089758303e+02   4.0183236646e+00   0.02364832   0.01165873  33.99  0.001381301    1.964    0.491
        22 -10.9553     18.0083    173.5661   2.9268794701e+02   5.6687972845e+00   0.01215049   0.00961871 -13.03 0.0008063092    1.440    0.306
        23 -11.2727     26.1164    172.3203   2.9258654028e+02   5.6347581951e+00   0.01415755   0.01148993  34.90 0.0008462869    1.232    0.188
        24 -12.0495    230.1988    166.7007   2.9019482311e+02   4.4757406239e+00   0.01608618   0.00938436 -82.94  0.001410033    2.392    0.582
        25 -12.7834    153.2825    162.0415   2.9105361974e+02   4.9916896987e+00   0.01474984   0.01238256  81.24 0.0009811537    1.342    0.255
        26 -11.8932    201.3011    165.3047   2.9051949696e+02   4.6656180134e+00   0.01704395   0.01127188  75.14  0.001072925    2.093    0.522
        27 -10.2703     20.2665    166.7083   2.9261969496e+02   5.7343245832e+00  0.009097914  0.007458923 -21.44  0.001025989    1.337    0.252
        28 -19.1475     73.3871     96.6166   2.9157342836e+02   6.2239071417e+00    0.8744764   0.04039801 -61.86    0.0253433   19.453    0.949
        29 -10.9984    222.8542    162.2665   2.9025211235e+02   4.5709379052e+00   0.01497733  0.009547942 -84.17  0.001020945    2.043    0.510
        30  -9.8261     14.4464    162.4759   2.9266099146e+02   5.8178100509e+00  0.006604251  0.006350838 -32.23 0.0002703011    1.038    0.036
        31 -13.4539    164.1703    158.1425   2.9090383042e+02   4.9711854037e+00    0.0202721     0.016023  29.53  0.001264648    1.264    0.209
        32 -10.4805     16.7877    225.9162   2.9302332676e+02   5.0729344113e+00   0.00724658  0.005213566 -56.99  0.000358082    1.361    0.265
        33 -14.5766    143.5610    143.5262   2.9105162616e+02   5.2631793929e+00   0.05099287   0.02707201 -73.87  0.004446982    2.329    0.571
        34 -14.4724    134.1787    146.5874   2.9117891703e+02   5.2842563023e+00   0.07069886   0.02479768 -71.53  0.004268876    4.827    0.793
        35 -12.3847    134.6226    109.1151   2.9094238085e+02   5.7128773028e+00   0.04982704  0.009347824 -63.51  0.002521585    6.413    0.844
        36 -10.3569     23.0687    156.1599   2.9252244105e+02   5.8391109895e+00  0.009968265  0.008668973 -24.29 0.0004914053    1.212    0.175
        37 -12.7032    153.7255    152.3327   2.9098858131e+02   5.1007836183e+00   0.01654946   0.01121095  71.80   0.00161963    1.961    0.490
        38 -10.8759     17.5523    153.5138   2.9256997653e+02   5.9025155078e+00   0.01124606   0.01025283 -61.99 0.0005613232    1.094    0.086
        39 -10.6198    192.3856    153.2152   2.9054769225e+02   4.8583274659e+00  0.009241383  0.006407773 -76.50 0.0005079388    1.633    0.388
        40 -12.6507     22.6230    220.5529   2.9292303367e+02   5.0999162409e+00   0.01680123    0.0104156 -45.60  0.001386429    1.636    0.389
        41 -14.4997    135.6310    129.1169   2.9105428337e+02   5.4766345649e+00   0.08548623   0.02088361 -64.90  0.004881228    5.111    0.804
        42 -12.7570    174.1743    148.7083   2.9073006905e+02   5.0196573668e+00   0.01907299   0.01487626 -73.17  0.001358028    1.360    0.265
        43 -10.1398      7.0043    150.1648   2.9267140481e+02   6.0040182363e+00   0.01116406  0.007337573 -15.12  0.001060188    2.030    0.507
        44 -11.0343     16.4191    250.1237   2.9317590534e+02   4.7962251789e+00  0.009423125  0.006453865 -64.58 0.0009778857    1.479    0.324
        45 -13.8983    152.4816    144.9364   2.9095728615e+02   5.1933851001e+00   0.02852826   0.01933982 -46.86  0.002999877    1.475    0.322
        46 -11.3674     27.4958    145.5996   2.9240627824e+02   5.9343190231e+00   0.01711133   0.01173207 -45.92  0.001229872    1.466    0.318
        47 -11.9454    175.1852    141.8696   2.9067615239e+02   5.0922784918e+00   0.01025578  0.009064829  64.93  0.000608689    1.217    0.178
        48 -10.2177     30.6614    211.2460   2.9277306816e+02   5.1591723929e+00  0.006747776  0.004849978  55.11 0.0001696234    1.560    0.359
        49 -11.9375    147.9742    133.6969   2.9093994766e+02   5.3498125572e+00  0.009338493  0.008560305  31.05 0.0004240703    1.094    0.086
        50 -13.2912    160.3836    128.2149   2.9076272650e+02   5.3383572660e+00   0.02066891    0.0175972 -85.97  0.001713948    1.281    0.220
        51 -10.0713     23.8230    123.3991   2.9231213374e+02   6.2119261713e+00  0.009510276  0.006376194   8.19 0.0009414214    1.769    0.435
        52 -10.1766     11.1535    157.2983   2.9266725613e+02   5.8970982512e+00   0.01144558  0.006452312 -22.68 0.0009376814    2.719    0.632
        53 -10.5045     15.9810    209.5181   2.9293208874e+02   5.2666816648e+00  0.008259653  0.006498355   5.40  0.000385473    1.406    0.289
        54 -13.0888     11.3664    206.1330   2.9296464687e+02   5.3332076391e+00   0.02818376   0.01637672  18.51  0.002194596    1.914    0.478
        55 -13.6777    119.3663    109.4157   2.9112061220e+02   5.8009899092e+00   0.02756253   0.01872971  82.47  0.002705115    1.978    0.494
        56 -10.9042    205.4142    110.1727   2.9013118587e+02   5.2750824114e+00   0.01430933  0.009879357  13.23 0.0009908082    1.620    0.383
        57 -12.0550    168.7617    202.2778   2.9112310431e+02   4.4355927226e+00    0.0148983   0.01032948  73.13 0.0007399744    1.882    0.469
        58 -12.1645    139.0515    250.2039   2.9176098531e+02   4.0620419350e+00   0.01754671   0.01476516 -38.07  0.002048735    1.214    0.176
        59 -10.6576    150.8854    243.1798   2.9158126488e+02   4.0719746081e+00  0.009885154  0.008843597 -33.84 0.0005670064    1.139    0.122
        60 -12.9663    154.2733    195.9118   2.9125107249e+02   4.5958341329e+00   0.02581475   0.01663282  74.95   0.00240449    2.215    0.549
        61 -13.0864    156.0175    190.6777   2.9119867378e+02   4.6456231146e+00   0.02216743   0.01455945  68.82  0.001308072    2.048    0.512
        62 -13.3526    154.4597    185.8223   2.9118671957e+02   4.7108686507e+00   0.02480635    0.0149346  41.15  0.002455085    1.684    0.406
        63 -12.3468    163.8298    203.0581   2.9118482645e+02   4.4562131935e+00   0.01734355   0.01481047  74.80 0.0003678149    1.304    0.233
        64 -11.7766     43.5525     92.5553   2.9189368501e+02   6.4491579112e+00    0.0250324   0.01067738  34.85  0.002125675    2.241    0.554
        65 -10.9554    103.2586     81.9477   2.9113719016e+02   6.2136929434e+00   0.01071121  0.009183434  28.64 0.0004984637    1.169    0.144
        66 -10.5382    142.9995     80.2820   2.9066726896e+02   5.9942743309e+00  0.009231603  0.008763085  18.73 0.0005346815    1.060    0.056
        67 -12.1339    138.0940    244.1610   2.9173486845e+02   4.1373547991e+00   0.02994475   0.01559914 -54.02  0.002790905    1.841    0.457
        68 -14.4565    149.3165     57.1858   2.9045128501e+02   6.2218977928e+00   0.05787449   0.05114933  -7.14 0.0009802898    1.202    0.168
        69 -12.7867    161.7093    197.6692   2.9117608080e+02   4.5309759281e+00   0.02187319   0.01768121  86.03  0.001767837    1.421    0.296
        70 -13.1635    163.8608     33.9928   2.9013943997e+02   6.4009798468e+00    0.0197685   0.01843365 -51.29 0.0008154807    1.061    0.058
        71 -10.7462     13.4085     59.8806   2.9204122284e+02   7.0052425643e+00   0.01089495  0.008863463  42.86 0.0004372493    1.253    0.202
        72 -11.5841    148.3842     35.4433   2.9032739566e+02   6.4774232542e+00   0.02195944  0.009805871  42.05   0.00152972    2.313    0.568
        73 -10.4512     22.4394    205.1227   2.9283049282e+02   5.2787918027e+00   0.01226687  0.008793129 -22.75 0.0009039473    1.659    0.397
