#   1 NUMBER                 Running object number                                     
#   2 MAG_AUTO               Kron-like elliptical aperture magnitude                    [mag]
#   3 X_IMAGE                Object position along x                                    [pixel]
#   4 Y_IMAGE                Object position along y                                    [pixel]
#   5 X_WORLD                Barycenter position along world x axis                     [deg]
#   6 Y_WORLD                Barycenter position along world y axis                     [deg]
#   7 A_WORLD                Profile RMS along major axis (world units)                 [deg]
#   8 B_WORLD                Profile RMS along minor axis (world units)                 [deg]
#   9 THETA_WORLD            Position angle (CCW/world-x)                               [deg]
#  10 FWHM_WORLD             FWHM assuming a gaussian core                              [deg]
#  11 ELONGATION             A_IMAGE/B_IMAGE                                           
#  12 ELLIPTICITY            1 - B_IMAGE/A_IMAGE                                       
         1 -10.3739    189.4781     25.9808   2.8971186220e+02   6.3871155897e+00   0.03099709   0.01408718 -60.16  0.002699351    2.121    0.529
         2  -9.6186    198.1511     14.7375   2.8954321432e+02   6.4669747092e+00   0.01494914   0.01241887   8.25 0.0009506143    1.278    0.218
         3 -10.4042    202.6655      6.9278   2.8944364192e+02   6.5311939414e+00   0.03354627   0.03132046  42.73  0.004154169    1.088    0.081
         4  -9.2550    235.6804      3.1512   2.8903664444e+02   6.3826141994e+00   0.01748229    0.0125764 -60.62  0.001011388    1.372    0.271
         5  -7.4580     83.1796    245.6460   2.9226462295e+02   4.4516052666e+00   0.00917544  0.006286082  10.23 0.0005433732    1.656    0.396
         6 -10.3436    248.6878    246.9084   2.9034855879e+02   3.4791316554e+00   0.02891143   0.01675504 -74.32  0.002695978    2.010    0.502
         7  -9.1150     27.8352    249.9035   2.9293389277e+02   4.7211590303e+00   0.01384188   0.01136857  10.23  0.001461043    1.289    0.224
         8  -8.4833      1.3711    243.6195   2.9320454200e+02   4.9465079895e+00   0.01368626  0.007943973 -69.52     0.001297    1.848    0.459
         9  -9.1097     11.1135    239.5695   2.9306710730e+02   4.9375696624e+00   0.01457018   0.01281177 -54.30 0.0007053406    1.119    0.107
        10 -12.1441     17.2785    239.9861   2.9299782776e+02   4.8972515882e+00     0.149762   0.02060528 -52.31  0.008326998    5.183    0.807
        11  -8.7945    239.9548    241.0000   2.9041459492e+02   3.5983585828e+00   0.01103538   0.00376809  26.50 0.0008035951    2.950    0.661
        12  -7.0579    125.2685    237.3760   2.9172573821e+02   4.3045983688e+00  0.007121508   0.00473717 -34.42 0.0004372928    1.680    0.405
        13  -9.2948     58.0561    249.3605   2.9257902662e+02   4.5533514498e+00   0.01173841    0.0100827 -42.71  0.000301194    1.165    0.141
        14  -9.6690     51.9968    234.0362   2.9255837296e+02   4.7664618354e+00   0.02240239   0.01407607 -47.42  0.001089405    1.586    0.369
        15  -7.8610     68.3124    235.0870   2.9237474685e+02   4.6601543953e+00   0.01103812  0.009118261   1.67 0.0006511034    1.313    0.238
        16  -9.6141     31.4470    244.5317   2.9285994467e+02   4.7628260527e+00   0.01312923   0.01215675  11.94  0.001129388    1.099    0.090
        17  -7.5773    130.7077    232.3873   2.9163271714e+02   4.3311279924e+00   0.01218344  0.005799635 -61.29  0.001065593    2.049    0.512
        18  -9.0476     37.0947    231.5273   2.9271689732e+02   4.8815127686e+00   0.01455643   0.01122654  56.79  0.001295956    1.431    0.301
        19  -8.8268     36.0193    227.4917   2.9270541260e+02   4.9346358157e+00   0.01374601  0.009266324 -53.60 0.0003641379    1.442    0.306
        20  -7.9686      9.5708    223.8854   2.9299188071e+02   5.1288375878e+00   0.01597957  0.009634122 -49.69  0.001583512    1.628    0.386
        21  -9.2436     54.0890    221.0648   2.9245681465e+02   4.9052231948e+00   0.01459585   0.01226408 -56.63 0.0007780156    1.170    0.146
        22 -11.5172     62.7251    209.0821   2.9228490210e+02   4.9947403642e+00   0.04959654   0.04415925  64.53  0.004947488    1.201    0.167
        23  -8.2770     40.4276    214.5960   2.9257735645e+02   5.0591906440e+00   0.01194509  0.009751513  35.02 0.0006605022    1.227    0.185
        24 -10.1330     11.5601    206.4960   2.9286532815e+02   5.3196173241e+00   0.02708381   0.01608385  26.26  0.001703451    1.695    0.410
        25  -9.8368      4.5396    249.6935   2.9320372301e+02   4.8576521345e+00   0.03119665   0.02305381  20.30  0.001983106    1.398    0.285
        26 -10.0680    180.1360    198.4120   2.9085490349e+02   4.4397563304e+00   0.01125038   0.01028519 -66.96 0.0002017962    1.100    0.091
        27  -9.7422     55.7987    204.7313   2.9233962928e+02   5.0852800827e+00   0.01430108   0.01287001  -7.10 0.0009858668    1.163    0.140
        28  -7.7899     67.6027    197.2754   2.9215773719e+02   5.1038710221e+00  0.009215182  0.005950088 -52.25 0.0004208352    1.506    0.336
        29 -10.4282     32.1769    188.2244   2.9251641935e+02   5.4133803759e+00   0.04008839   0.01562292 -62.66  0.003209151    2.535    0.605
        30  -8.9180     76.5349    189.0597   2.9200472069e+02   5.1478277915e+00   0.02037114   0.01153448 -38.59  0.001887538    1.988    0.497
        31  -8.7339     80.3575    182.7952   2.9192282439e+02   5.1985816307e+00   0.01393529   0.01039753 -37.83 0.0005900008    1.403    0.287
        32  -7.3621    180.8160    183.6678   2.9075878651e+02   4.6070972619e+00  0.008926091  0.005759231  37.18 0.0001606615    1.542    0.352
        33  -9.1711     87.7702    171.5336   2.9176925841e+02   5.2866739831e+00   0.01501664   0.01030481 -67.87   0.00130359    1.503    0.335
        34 -10.3903     76.2353    168.2926   2.9188427327e+02   5.3909776317e+00   0.02369457    0.0124687 -39.72  0.001426915    2.152    0.535
        35  -9.0123     92.9282    165.6367   2.9167395678e+02   5.3254103848e+00    0.0155003  0.009531401 -63.24 0.0008976324    1.623    0.384
        36  -7.2523     55.5313    163.5173   2.9209700149e+02   5.5659959572e+00   0.00660214  0.006384658 -32.29 0.0002761998    1.028    0.027
        37  -6.9773     53.2855    155.2691   2.9207394757e+02   5.6748389634e+00  0.006595312  0.004937729 -26.60 0.0002440941    1.499    0.333
        38  -8.4106      8.8930    153.8799   2.9258313869e+02   5.9467841019e+00   0.01327219   0.00980636  13.35   0.00102869    1.458    0.314
        39  -9.2390     93.8202    147.1986   2.9155337968e+02   5.5345526398e+00   0.01226007   0.01148211 -21.19  0.000455509    1.087    0.080
        40  -8.1360     10.6882    148.0027   2.9252717568e+02   6.0047811226e+00  0.008923434  0.008324017 -54.06 0.0004132084    1.058    0.055
        41  -7.1995    195.3881    147.5136   2.9037278123e+02   4.9424909452e+00  0.006518416  0.006323801 -60.13 6.048023e-05    1.028    0.027
        42  -9.3015     69.7993    145.5993   2.9182373934e+02   5.6919257465e+00   0.01741084   0.01633093  23.75  0.001962218    1.073    0.068
        43  -9.5103     67.0031    142.7169   2.9183910914e+02   5.7415741621e+00   0.01713561   0.01624022  36.91  0.001487902    1.067    0.062
        44  -9.2154    125.7134    144.2438   2.9116417967e+02   5.3843788389e+00   0.01103561   0.01064583 -22.41 0.0002888947    1.039    0.038
        45  -8.4351    190.7980    135.0272   2.9035133373e+02   5.1141283567e+00   0.01030206  0.009306842  16.94 0.0003488567    1.124    0.111
        46  -7.6088    101.4090    131.7063   2.9137230316e+02   5.6707015308e+00   0.01127894  0.007589293 -52.10 0.0005941195    1.448    0.310
        47  -8.9543    123.0053    129.2089   2.9110573500e+02   5.5747392897e+00   0.01091668  0.009201771 -53.26 0.0002431278    1.166    0.142
        48 -10.4012    236.6047    127.1374   2.8977132921e+02   4.9396216738e+00   0.01344229   0.01174162  20.17 0.0003753144    1.162    0.139
        49  -7.1686    186.2936    120.6877   2.9031776369e+02   5.3067762177e+00  0.006790656  0.005017438  64.13  0.000179634    1.593    0.372
        50  -6.9281    165.5872    118.6041   2.9054628861e+02   5.4511312272e+00  0.006392054  0.006373278  21.20 6.017893e-05    1.016    0.016
        51  -7.6631     47.4748    114.9975   2.9190116087e+02   6.1764290351e+00  0.009446945  0.006497496 -63.73 3.818314e-05    1.454    0.312
        52  -7.9903    183.0571    112.9208   2.9030884701e+02   5.4157410174e+00   0.00993865  0.009259548 -40.24 0.0004569147    1.068    0.064
        53  -7.7472     25.3499    110.5525   2.9213268475e+02   6.3556430494e+00   0.01199716  0.006049455  32.69 0.0007156138    1.923    0.480
        54  -8.3110    240.0983    108.3616   2.8961800486e+02   5.1371810599e+00   0.01292018  0.009881067 -77.59  0.001011897    1.424    0.298
        55  -7.6417    187.0416    107.7636   2.9023153502e+02   5.4524791236e+00   0.00887072  0.008467399  28.71 0.0003292756    1.054    0.052
        56  -7.9230     10.4790     88.4946   2.9217443303e+02   6.6975880032e+00  0.006637761  0.006349208 -30.85 0.0008099056    1.044    0.042
        57  -7.6114    207.9097     86.5246   2.8986119843e+02   5.5777368006e+00  0.009457888  0.006552996  24.19 0.0004725048    1.468    0.319
        58  -7.7577    153.3937     68.2988   2.9038652103e+02   6.1058889388e+00  0.009680976   0.00762122 -46.16  0.001083512    1.264    0.209
        59  -8.8827    191.0401     64.9604   2.8992800157e+02   5.9259899411e+00  0.009526812  0.009218166 -34.57   0.00118582    1.026    0.026
        60  -6.9970    151.5766     59.7035   2.9035608981e+02   6.2161792361e+00  0.007298074  0.004844142 -22.57 0.0006954498    1.883    0.469
        61  -8.4200    131.7849     53.1935   2.9054769385e+02   6.4065288725e+00   0.01246859  0.009894609  48.82 0.0004781344    1.323    0.244
        62  -9.8476    246.3266     51.7219   2.8920517641e+02   5.7578041126e+00   0.01239785   0.01131919  -7.32 0.0002401983    1.139    0.122
        63  -8.2213    250.0770     47.6993   2.8913737646e+02   5.7825803400e+00   0.01354513  0.009289362 -51.60 0.0006032299    1.425    0.298
        64  -7.8340    179.1121     51.0000   2.8998301505e+02   6.1572553620e+00   0.01121194  0.003766347  26.57 0.0008103807    2.998    0.666
        65  -7.3645      8.3211     49.6865   2.9196756449e+02   7.1607205905e+00  0.006944371  0.004967255  61.79  0.000364607    1.654    0.395
        66  -8.0631    246.9654     41.4865   2.8913617083e+02   5.8727163232e+00    0.0100766  0.006538805  25.54 0.0006013279    1.559    0.359
        67  -8.6303    187.3882     38.4299   2.8981106803e+02   6.2549320504e+00   0.01178565  0.009700774 -53.86 0.0005763806    1.193    0.162
        68  -9.0496    181.8531     31.1701   2.8983188401e+02   6.3712916861e+00   0.01133919   0.01123695  49.67  0.000896493    1.027    0.026
        69  -7.9639    159.5875     31.2116   2.9009155869e+02   6.5001911782e+00   0.01725269  0.008043376 -37.38 0.0009883001    2.751    0.636
        70 -10.3487    141.6361     29.8331   2.9029253078e+02   6.6203933733e+00   0.01162768   0.01127982 -10.46 0.0003062829    1.035    0.034
        71  -7.7231     92.0164    248.9994   2.9218179154e+02   4.3616109171e+00  0.008099387  0.007510548 -59.29 0.0003558494    1.070    0.065
        72  -7.5964    152.2917     25.0968   2.9013984099e+02   6.6134674474e+00  0.009111306  0.008158541 -63.18 0.0003152053    1.115    0.103
        73  -8.8688     40.2151    246.3991   2.9276901004e+02   4.6906074955e+00  0.009805686  0.005846057  37.69 0.0009551116    1.666    0.400
        74  -9.5395    227.6949    243.9951   2.9057484931e+02   3.6346623882e+00   0.01276689   0.01142936 -77.93  0.001532373    1.160    0.138
