#   1 NUMBER                 Running object number                                     
#   2 MAG_AUTO               Kron-like elliptical aperture magnitude                    [mag]
#   3 X_IMAGE                Object position along x                                    [pixel]
#   4 Y_IMAGE                Object position along y                                    [pixel]
#   5 X_WORLD                Barycenter position along world x axis                     [deg]
#   6 Y_WORLD                Barycenter position along world y axis                     [deg]
#   7 A_WORLD                Profile RMS along major axis (world units)                 [deg]
#   8 B_WORLD                Profile RMS along minor axis (world units)                 [deg]
#   9 THETA_WORLD            Position angle (CCW/world-x)                               [deg]
#  10 FWHM_WORLD             FWHM assuming a gaussian core                              [deg]
#  11 ELONGATION             A_IMAGE/B_IMAGE                                           
#  12 ELLIPTICITY            1 - B_IMAGE/A_IMAGE                                       
         1 -13.1862    236.3295     25.2347   3.5893373150e+02   2.3128409223e+01    0.8369058    0.6930264 -46.69  0.004158251    1.062    0.059
         2 -10.3646     16.3674     10.9344   5.0515202306e+01   7.6065634123e+01    0.2070808    0.1617184  28.24 0.0005952629    1.359    0.264
         3 -13.4533    127.3865    229.8117   6.0410328848e+01   1.1089924007e+01     1.313164    0.5580608  30.05  0.006395254    1.943    0.485
         4 -10.5854    101.0136    247.5651   6.7744230103e+01   1.1790165041e+01    0.4306605    0.2343407 -72.57  0.002444159    2.834    0.647
         5  -8.8641     75.0000    250.0251   7.3289127922e+01   1.4580994859e+01    0.1402893   0.06592312 -69.06  0.000622809    2.784    0.641
         6 -11.2102     49.2753    250.4265   7.8561233038e+01   1.7435968574e+01    0.3156699   0.08823215  34.78 0.0008981786    2.322    0.569
         7 -15.5374     69.8988    148.5320   6.4066309463e+01   3.6000204319e+01     9.765386     4.965756 -87.48   0.03544298    3.097    0.677
         8 -11.2203     89.1084    222.8847   6.8001374718e+01   1.7429602309e+01    0.5934564      0.32682  56.86  0.002549755    1.985    0.496
         9 -10.3576    174.4089    222.9186   4.9978350356e+01   5.6430740840e+00    0.2445883    0.1446336  24.63 0.0009444998    1.390    0.280
        10 -11.0162    110.1540    223.1145   6.3350237699e+01   1.4551485754e+01    0.2415999    0.1837472 -64.08  0.001427611    1.690    0.408
        11  -8.9185    194.3520    219.2408   4.5691444210e+01   3.4636291460e+00    0.1373375    0.1044622 -34.34 0.0006255045    1.587    0.370
        12 -11.5287    114.6710    228.8826   6.3009040061e+01   1.2972462412e+01    0.3835629     0.304022 -60.00  0.001178847    1.633    0.388
        13 -11.3349     98.6516    227.6302   6.6354415921e+01   1.5336093238e+01    0.9598237    0.2742111  35.27  0.003984912    2.553    0.608
        14  -9.9248    210.9895    198.7501   3.9449120666e+01   3.9018697878e+00    0.1888241    0.1458879  -7.55 0.0005189778    1.113    0.101
        15  -9.9539    194.4079    197.6244   4.2247639023e+01   6.3694476552e+00    0.2100861    0.1087703 -51.16 0.0009507428    3.324    0.699
        16 -11.4134     68.7563    193.4913   6.9929042296e+01   2.5853746744e+01    0.3360957    0.2178685  73.44  0.001077047    1.737    0.424
        17  -9.7692     82.4613    221.4005   6.9356895707e+01   1.8565992678e+01    0.3509301    0.1471531  50.89  0.001606113    2.359    0.576
        18 -15.0670     10.0060    206.3932   8.5039875988e+01   2.9543426753e+01    0.5322326    0.3513419   7.16  0.002664313    2.072    0.517
        19 -10.9452     71.2857    184.9444   6.8377296306e+01   2.7352495357e+01    0.3700909    0.2476644  66.78  0.001106132    1.590    0.371
        20  -9.4257     78.3783    183.9803   6.6421533065e+01   2.6586384763e+01    0.1761068     0.160948  78.40 0.0004040915    1.146    0.127
        21 -10.2489     63.2499    181.3400   7.0099095913e+01   2.9210724334e+01    0.2645905      0.18497  66.34 0.0007447702    1.432    0.302
        22  -9.5810    174.8295    180.1420   4.3028510756e+01   1.1994045702e+01    0.1886057    0.1736014  17.05 0.0006656356    1.168    0.144
        23 -10.8558    172.4549    175.8845   4.2744036936e+01   1.3079186778e+01    0.3405385    0.3349491  55.35  0.001502755    1.333    0.250
        24 -10.6151    173.8561    171.7173   4.1686318928e+01   1.3539985283e+01    0.2877142    0.2553847  82.10  0.001236563    1.688    0.408
        25 -10.8508    177.4754    169.9520   4.0617479166e+01   1.3227559651e+01     0.279014    0.2221367 -31.83  0.001468773    1.289    0.224
        26 -10.9634    180.8586    168.5424   3.9670919148e+01   1.2893440978e+01    0.5077649     0.306803 -53.25  0.002420613    2.341    0.573
        27  -9.3669    141.0000    179.9537   5.0323253911e+01   1.7597656885e+01    0.2026859   0.07908939 -48.33 0.0007840541    2.865    0.651
        28  -9.7515    116.0174    182.0004   5.6598213053e+01   2.1299281441e+01    0.2157994    0.1585516  62.57 0.0008514914    1.625    0.385
        29 -15.4988     46.6032    178.8020   7.4296200156e+01   3.1829450973e+01      5.42396     2.540909 -74.14   0.02517728    2.237    0.553
        30 -10.8581    104.6765    171.9940   5.7917104665e+01   2.5197054924e+01    0.3487452     0.267079  86.28 0.0009411229    1.656    0.396
        31 -10.5725    234.8314    170.3241   3.0486220134e+01   4.3364508340e+00    0.1972751    0.1415338 -29.08 0.0008428364    1.324    0.245
        32 -11.4570     45.1757    229.1815   7.8249527928e+01   2.1601394747e+01    0.6807387    0.2113587  31.08  0.002807854    2.476    0.596
        33 -12.1029    147.7696    224.5112   5.5506726603e+01   9.0864196860e+00    0.5895026    0.2932519 -47.44  0.003141612    2.480    0.597
        34  -9.6108    110.4847    166.8732   5.5583812359e+01   2.5335189950e+01     0.198368    0.1447719 -58.67  0.001009978    1.534    0.348
        35  -9.9892    101.7156    167.0105   5.7909751092e+01   2.6754597065e+01    0.1873185    0.1829227  72.73 0.0003132801    1.098    0.090
        36 -10.4619    128.0816    160.4684   4.9966934316e+01   2.3634520088e+01    0.2437862     0.227706 -62.91 7.604924e-05    1.207    0.172
        37  -8.6932    117.4023    159.1445   5.2444071606e+01   2.5801321028e+01    0.1831211    0.1420676 -71.26 0.0007483074    1.567    0.362
        38 -14.2393     20.4287    195.1757   8.2115145662e+01   3.0940813469e+01      1.03785    0.4304724  66.97  0.003558801    2.340    0.573
        39 -11.2227     50.9653    155.7970   7.0733216714e+01   3.6750991644e+01    0.3367045    0.2246742  62.68 0.0005791426    1.476    0.322
        40 -11.5655     90.9244    152.3131   5.8473508120e+01   3.1843130567e+01    0.3865268    0.2907239  65.60 0.0009812448    1.459    0.314
        41 -12.3625     86.7290    146.1571   5.8639584032e+01   3.3981805436e+01    0.5403568    0.4144874 -23.92  0.001709138    1.696    0.410
        42  -9.1438    114.5029    153.5494   5.2178054973e+01   2.7523518134e+01    0.1487631    0.1348836  48.64 0.0001545914    1.072    0.067
        43 -11.3554    133.1304    144.9742   4.5654337874e+01   2.5918288182e+01     1.005405     0.336399 -53.69  0.003089113    3.890    0.743
        44 -18.2550      5.5467    225.9491   8.6607552204e+01   2.6107266617e+01     6.345848      2.31651 -83.43   0.02335729    2.833    0.647
        45 -10.8551    108.8898    145.3451   5.2138436069e+01   3.0354612616e+01     0.302432    0.2773092  40.92 0.0006594759    1.023    0.023
        46  -9.1858    127.2541    137.0007   4.5466365956e+01   2.8743380810e+01    0.1989093    0.1955549 -50.91 0.0003132717    1.076    0.070
        47  -9.2818    108.2997    136.9639   5.0622247315e+01   3.2371969937e+01    0.2133312    0.1944689 -48.47  0.001133684    1.155    0.134
        48 -11.4123     43.7544    130.2222   6.9816913051e+01   4.4067434139e+01    0.4813108    0.3828911  78.32  0.001724544    1.224    0.183
        49 -12.0148    109.8414    229.8606   6.4153882091e+01   1.3464731382e+01    0.3865193    0.3433432  54.26  0.001862864    1.250    0.200
        50 -11.6978    104.4797    131.5775   5.0588859100e+01   3.4329516395e+01    0.6341916    0.4765728  -9.32   0.00214282    1.855    0.461
        51 -11.3237     89.6529    131.9577   5.5112798066e+01   3.6912339025e+01    0.2862047    0.2635467 -54.07  0.000404117    1.138    0.121
        52 -10.5526     81.2584    150.3058   6.0948627579e+01   3.3861163041e+01    0.2544889    0.2298369  54.97  0.000326097    1.027    0.027
        53  -9.4737     76.0277    244.9633   7.2709545097e+01   1.5280986067e+01     0.157577    0.1343749  39.52  0.000473437    1.150    0.130
        54 -10.8444     63.9794    232.5506   7.4371216135e+01   1.8843908409e+01    0.1773249    0.1585992  75.88  0.001308294    1.269    0.212
        55  -8.7917     39.3338    123.2821   7.0392568349e+01   4.6373381746e+01    0.1410948    0.1056591 -33.48 0.0003967975    1.615    0.381
        56 -10.1936     76.7325    122.7048   5.7380609395e+01   4.1378205080e+01    0.5981231    0.3713621  84.31  0.002343913    2.416    0.586
        57 -10.1722     98.4663    121.2944   5.0125675373e+01   3.7884918341e+01    0.2775903    0.2461363  10.87 0.0006709984    1.263    0.209
        58 -10.2029     43.5542    122.1498   6.8734881428e+01   4.6190607532e+01    0.2393615    0.2025283  36.38 0.0004435148    1.199    0.166
        59 -10.6043    111.3377    126.2841   4.7441535828e+01   3.4242960021e+01    0.3124252    0.2479713  -4.80 0.0008873797    1.630    0.387
        60  -8.8488    147.5239    125.4345   3.7766427182e+01   2.7058110839e+01    0.1481619    0.1436379  26.08 0.0001710134    1.026    0.025
        61  -9.8441    135.0000    119.9906   3.9535482102e+01   3.0800980619e+01    0.2522107    0.0876438 -45.06 0.0006123506    2.943    0.660
        62  -8.8237    194.6160    225.7400   4.6609073841e+01   2.6038224363e+00    0.1338456    0.1046954 -32.92 0.0006014872    1.582    0.368
        63  -8.8359     68.4784    244.6635   7.4262782482e+01   1.6226178332e+01    0.2005637    0.1531525  18.05  0.001378888    1.443    0.307
        64  -9.8302    107.7616    116.0876   4.6091466789e+01   3.7300252999e+01    0.2287131    0.2057697  84.18 0.0004459246    1.208    0.172
        65 -10.5694     40.1407    113.1581   6.8599912973e+01   4.8940826415e+01    0.4251949    0.1835089  32.53  0.001269439    2.221    0.550
        66  -9.7730     97.8319    232.1985   6.6983548976e+01   1.4669804551e+01     0.242573    0.1897391  -7.53  0.001381361    1.668    0.401
        67 -10.3006    115.2057    108.5809   4.2021200441e+01   3.7478270619e+01     0.227357    0.1481694  32.08 0.0009506262    1.686    0.407
        68  -9.6239    134.3994    105.1872   3.5902742979e+01   3.4032097504e+01    0.2300787    0.1451726 -54.39 0.0009555955    1.772    0.436
        69 -12.2580     37.8230    102.2531   6.7686100758e+01   5.2073424283e+01    0.9609005    0.3094921  43.38  0.003257794    3.210    0.688
        70  -9.8394     71.9568    224.0946   7.1958900027e+01   1.9405409897e+01     0.175056    0.1591878  50.22 0.0004009104    1.167    0.143
        71 -11.5069     17.1685     95.9185   7.5178858719e+01   5.5633145588e+01    0.2788991    0.2289705  77.07 0.0009002756    1.185    0.156
        72  -8.8835     87.5174     96.4168   4.7504256309e+01   4.5952195827e+01    0.1537072    0.1504397  48.31 4.048567e-05    1.022    0.021
        73  -9.4360    103.0411     92.2044   4.1185447105e+01   4.3763307974e+01    0.3631806    0.2333056  86.80  0.001239765    3.080    0.675
        74 -10.3749     61.0006     92.2079   5.6245614447e+01   5.1631652262e+01    0.3948117    0.2349019 -51.67   0.00172056    1.638    0.389
        75 -10.8641     15.1200     89.2617   7.5156496779e+01   5.7529514001e+01    0.2994889    0.1622206  29.32  0.001333948    1.917    0.478
        76  -8.5996    160.3168     87.2881   2.4984783464e+01   3.1528106774e+01    0.1505069    0.1183228  16.39 0.0003591288    1.592    0.372
        77  -9.5921     51.0059    244.2433   7.7870235431e+01   1.8286895146e+01    0.1705737    0.1383158  66.98 0.0007871998    1.252    0.201
        78 -10.4721    102.8960    238.0163   6.6463904345e+01   1.3053806350e+01    0.2499554    0.1709558 -52.29 0.0007396927    1.879    0.468
        79  -9.5449     57.8608     85.1444   5.5703140153e+01   5.3897671304e+01     0.253887    0.1964582  48.58 0.0004753628    1.348    0.258
        80 -10.9423     51.9433     82.7854   5.7587118793e+01   5.5364239528e+01    0.4103133    0.3918663 -51.56  0.001722955    1.026    0.025
        81  -8.6878     97.5119     84.4309   4.0643669496e+01   4.6696628878e+01    0.2244523    0.1526825 -60.09 0.0009541659    1.662    0.398
        82  -8.8856     95.4477     81.4975   4.0417089301e+01   4.7794215831e+01    0.2389406     0.153238 -59.66 0.0009809191    1.803    0.445
        83 -11.1096     21.6838     82.3848   7.1123143034e+01   5.8843432659e+01    0.2721476    0.2425161  31.77 0.0004221235    1.210    0.174
        84  -9.5495     46.0000    239.8172   7.8668899935e+01   1.9600151140e+01    0.1416992   0.06315026 -76.99 0.0006923681    2.680    0.627
        85  -9.7305     85.1872     73.8365   4.1522408747e+01   5.1663750493e+01    0.2319759    0.2085768  77.36 0.0006415934    1.221    0.181
        86 -10.5373     43.4746    235.8959   7.8989914156e+01   2.0567502363e+01    0.1948195    0.1631854 -63.60 0.0009117248    1.568    0.362
        87 -11.9517    187.9839     63.6743   1.3578480871e+01   2.8850137613e+01    0.4211018     0.371534 -31.08 0.0008005739    1.126    0.112
        88 -13.5009    204.6089     51.8485   8.2712312859e+00   2.6693315755e+01     1.198392    0.9079432  32.00  0.004503745    1.713    0.416
        89 -12.6913    210.9553     46.9268   6.3120138332e+00   2.5922847333e+01    0.6870998    0.4912367 -24.82 0.0009628027    1.419    0.295
        90  -9.2276    131.6981     57.7550   2.2095822684e+01   4.3795311922e+01    0.2080341    0.1736071 -72.84 0.0005250791    1.306    0.234
        91 -11.4741     23.7810     53.5455   6.3485862587e+01   6.5985928739e+01    0.2605235    0.2400133  30.68 0.0004239334    1.184    0.156
        92 -10.5369     12.1662     42.0071   6.7253018844e+01   6.9701499480e+01    0.2133642     0.180401  -0.83 0.0005612404    1.238    0.192
        93 -10.9148     34.4115     38.0465   5.1604170085e+01   6.8373086084e+01    0.2983398    0.2421841  41.95 0.0005260263    1.375    0.272
        94  -9.0644    137.1725     37.8633   1.3971177899e+01   4.5427825754e+01    0.2223821    0.1882961 -69.79 0.0003127087    1.203    0.169
        95 -10.8399    125.0320    243.4958   6.2427167628e+01   9.3241466434e+00    0.3127039    0.1521906 -48.25  0.001228285    2.623    0.619
        96 -11.0779      7.7522     24.0897   6.4393165388e+01   7.4120655281e+01    0.2461801    0.1882269 -40.33  0.001508621    1.121    0.108
        97  -9.8523     60.7305     21.1590   2.8835917853e+01   6.6898187655e+01    0.2417198    0.1860517  56.78  0.000759625    1.392    0.282
        98  -9.6738     33.3419     15.3017   4.0401218312e+01   7.2964706618e+01    0.1383153   0.09571315  -0.57 0.0003123455    1.676    0.403
        99  -9.9868     51.7416     30.9643   3.8446892063e+01   6.7040128781e+01    0.4321285    0.1978956  52.56  0.001618525    2.908    0.656
