#   1 NUMBER                 Running object number                                     
#   2 MAG_AUTO               Kron-like elliptical aperture magnitude                    [mag]
#   3 X_IMAGE                Object position along x                                    [pixel]
#   4 Y_IMAGE                Object position along y                                    [pixel]
#   5 X_WORLD                Barycenter position along world x axis                     [deg]
#   6 Y_WORLD                Barycenter position along world y axis                     [deg]
#   7 A_WORLD                Profile RMS along major axis (world units)                 [deg]
#   8 B_WORLD                Profile RMS along minor axis (world units)                 [deg]
#   9 THETA_WORLD            Position angle (CCW/world-x)                               [deg]
#  10 FWHM_WORLD             FWHM assuming a gaussian core                              [deg]
#  11 ELONGATION             A_IMAGE/B_IMAGE                                           
#  12 ELLIPTICITY            1 - B_IMAGE/A_IMAGE                                       
         1 -12.8763    204.5408     50.0222   2.7578760085e+01   2.9373121703e+01    0.8395994     0.670869 -68.65   0.00349221    1.005    0.005
         2 -13.0986    214.4416     42.0864   2.5122563794e+01   2.8562759945e+01    0.6132979     0.571265 -77.66  0.001380212    1.341    0.255
         3 -12.8078    241.9064     18.0672   1.8958307249e+01   2.6626085779e+01    0.7005181    0.4971513 -64.81  0.004438187    1.027    0.027
         4 -10.7360      2.6557     10.7999   7.0651505102e+01   7.4491638835e+01    0.2958537    0.1610232 -28.68  0.001726873    1.811    0.448
         5  -9.3059    157.8736      9.1308   2.3328978043e+01   4.3512531410e+01    0.1517991    0.1229681  64.67 0.0007313379    1.323    0.244
         6 -10.2681    111.6446    239.4741   8.3090042280e+01   8.3490595608e+00    0.2465031    0.2213825   0.57 0.0004824892    1.055    0.052
         7 -11.2650     75.1954    245.7252   9.2760392944e+01   1.1493196756e+01    0.5884352    0.4565457 -60.49   0.00344327    1.451    0.311
         8 -10.5793     72.0026    241.5217   9.3110564004e+01   1.2770332347e+01    0.4450121    0.2523868  41.58  0.001774375    1.631    0.387
         9 -14.2482     48.7896    178.0092   9.2029448230e+01   3.1093279508e+01     11.88483          nan  35.57   0.02150688    9.867    0.899
        10 -15.1820      7.5972    144.3616   1.0142999270e+02   4.4064892315e+01     15.43076     3.797475 -84.10   0.02940324   10.224    0.902
        11 -14.4265     12.6363    218.1004   1.0619778415e+02   2.4400692827e+01     1.059285    0.4866842  49.85  0.003165921    2.033    0.508
        12  -9.7927     68.1431    230.1022   9.2867397457e+01   1.5769598257e+01    0.2909838    0.2068091 -24.21 0.0006542737    1.698    0.411
        13 -10.8787     71.0628    226.1453   9.1667427173e+01   1.6327337699e+01    0.4510418    0.3417417  29.51  0.002386497    1.200    0.167
        14  -9.7427    167.4921    224.0896   6.7966345228e+01   4.3130608534e+00    0.1926145    0.1198689 -42.96 0.0005462566    1.556    0.357
        15 -10.1824    141.4252    221.7215   7.3405221822e+01   8.1218905364e+00    0.2472517    0.1576122   0.88  0.001072259    1.765    0.433
        16 -16.0850      7.1355    209.3915   1.0705657809e+02   2.6986442910e+01     1.984794     1.554194 -62.69   0.01167607    1.322    0.243
        17  -9.7794    142.1571    216.0008   7.2321884088e+01   9.1915205796e+00    0.2422041    0.1801855 -45.48  0.000434908    1.374    0.272
        18 -16.5784     10.7695    238.7003   1.0789717203e+02   1.9761767110e+01     1.480266     1.327374 -79.86  0.009984398    1.202    0.168
        19 -10.5982    191.9071    192.9546   5.7706180737e+01   7.0081197028e+00      0.72768    0.3936714 -66.21  0.002278754    6.069    0.835
        20  -9.1543    147.3219    196.6519   6.7837882523e+01   1.2516785350e+01    0.1372036    0.1147956  73.34 0.0007049207    1.741    0.426
        21 -10.9053     56.7739    193.1918   9.1621498593e+01   2.6154767391e+01    0.5390128    0.3219115  76.50  0.002206485    2.313    0.568
        22 -10.0839    163.6584    192.3389   6.3374251392e+01   1.1038419602e+01    0.2484361     0.138903 -56.68   0.00109341    2.159    0.537
        23 -10.4503     76.4128    183.4450   8.4453208209e+01   2.6131688072e+01    0.6030205    0.3614858 -83.29  0.002384671    2.360    0.576
        24  -9.1383     80.5072    182.9678   8.3172778115e+01   2.5682339023e+01    0.2259675    0.1970501  21.36 0.0003781764    1.126    0.112
        25 -11.0118     98.0367    181.1228   7.7808876783e+01   2.3577488829e+01    0.5461012    0.3321195  24.63  0.001650938    1.671    0.402
        26 -10.1190    127.0991    177.2202   6.9237021456e+01   1.9950807530e+01    0.2830093    0.2084501 -89.11  0.001246963    2.132    0.531
        27 -10.7543    180.8528    175.6254   5.6691563439e+01   1.1870821356e+01    0.3546589    0.2305319  19.93  0.001803088    1.800    0.444
        28 -15.0918      3.8998    236.5308   1.0939978845e+02   2.0836060967e+01    0.6718709    0.3058162 -57.04  0.003220909    2.447    0.591
        29  -9.8407    199.7463    173.6226   5.2751250803e+01   9.5357498143e+00    0.2166688    0.1463199 -56.98 0.0006770069    1.739    0.425
        30 -10.9168     69.1934    170.7902   8.4617318310e+01   3.0427396483e+01    0.6511503    0.4320305  49.24  0.002212778    1.639    0.390
        31 -11.9690     78.2862    154.0143   7.8782102472e+01   3.3523863232e+01    0.8791953    0.6653767 -69.26  0.004118845    1.442    0.307
        32 -14.0803     67.6343    146.8288   8.0875198720e+01   3.6992895768e+01     2.369881     1.597273  89.41  0.002742857    2.085    0.520
        33 -11.2586     65.4055    164.8602   8.4828721460e+01   3.2515826574e+01    0.4474159    0.2801682 -15.65  0.001780502    2.210    0.547
        34 -11.5442     69.9339    160.8666   8.2702619735e+01   3.2948481012e+01    0.4588936    0.3313382 -12.80 0.0009578838    1.680    0.405
        35 -10.2773     57.7943    167.0426   8.7607074288e+01   3.2934230617e+01    0.5431039    0.3559791  -9.47  0.001599012    1.984    0.496
        36  -9.4800    110.3957    166.9626   7.1731461876e+01   2.5113040927e+01    0.3231477    0.1895594 -65.48  0.001016378    2.118    0.528
        37 -10.7318    230.8310    166.8469   4.6449955300e+01   6.6154142111e+00    0.1900963    0.1407139 -26.94 0.0009769616    1.203    0.169
        38 -10.4942    247.0480    164.0011   4.3667203223e+01   5.1197535532e+00     0.180545    0.1353764 -39.57 0.0005212788    1.065    0.061
        39 -10.8552    245.5628    158.8679   4.2992498416e+01   6.1196037407e+00    0.3492054     0.167112 -49.88   0.00157931    1.919    0.479
        40 -10.2635     54.2985    162.2313   8.7979579732e+01   3.4668679859e+01    0.3376133    0.2217451  37.94  0.000991137    1.523    0.343
        41  -9.7049     51.9757    160.0000   8.8388588439e+01   3.5558555144e+01    0.3478678    0.2203868  16.77 0.0009564243    1.699    0.411
        42  -9.9833     39.7928    163.3653   9.2895430176e+01   3.6052921192e+01    0.6415676    0.2722839  52.80   0.00159032    3.179    0.685
        43 -10.8133     31.9642    155.9764   9.4484425699e+01   3.8877966127e+01    0.6446666    0.3520897  34.65  0.002138856    1.826    0.452
        44  -9.1069     87.6952    155.1029   7.6049370681e+01   3.1776177504e+01    0.2406158    0.1921687 -80.92 0.0005783646    1.494    0.331
        45 -10.4303    134.3731    148.0815   6.1495728241e+01   2.5412699793e+01    0.8627317    0.2492709 -52.91  0.002467408    3.910    0.744
        46  -9.5521    133.0000    140.0175   6.0078929873e+01   2.7478519283e+01    0.4407415    0.1950615 -55.25  0.001570094    2.552    0.608
        47 -11.6940     85.8577    147.7119   7.5138043042e+01   3.3963779347e+01    0.7245113     0.512287 -12.11  0.003117888    1.819    0.450
        48  -9.6502     88.0211    140.3518   7.2910225406e+01   3.5476549267e+01    0.2905938    0.2274331 -80.72 0.0008564814    1.576    0.365
        49  -9.8996     54.8629    147.3674   8.5300821782e+01   3.8601412412e+01    0.4299673    0.2316673 -62.15  0.001619911    1.826    0.452
        50 -16.2564      6.7240    230.6358   1.0841895104e+02   2.1943659950e+01      2.63071    0.8941057  12.87  0.009400922    4.096    0.756
        51 -10.1736     22.7609    146.6317   9.6393462919e+01   4.2285873832e+01    0.3596905    0.2505554  69.46  0.001711579    1.653    0.395
        52  -9.5572     38.3235    146.1188   9.0843156446e+01   4.0907289762e+01    0.4223775     0.189032  39.41 0.0006155055    2.297    0.565
        53 -10.2392     31.5124    143.4712   9.2846091209e+01   4.2333654885e+01    0.4356214    0.2833265   6.74  0.001672935    1.728    0.421
        54 -12.5174     74.8027    166.0917   8.2082656280e+01   3.0876264686e+01     2.753401    0.4780914  32.75  0.002712701    4.561    0.781
        55 -10.5027    101.5302    134.9526   6.7562371205e+01   3.4458463345e+01    0.5680059    0.3586527 -10.88   0.00207487    2.712    0.631
        56 -10.0757    105.6295    130.5487   6.5338957751e+01   3.4762610434e+01    0.4019022    0.2845178 -51.33   0.00140127    1.414    0.293
        57  -8.9515     21.1795    136.9001   9.5617664829e+01   4.5068581458e+01    0.2030015    0.1889118  66.51 0.0005074502    1.147    0.128
        58 -11.5734     88.0780    134.1390   7.1528050977e+01   3.7022913237e+01    0.3164617    0.2845048 -36.11 0.0004204517    1.106    0.096
        59 -10.7146     73.8640    135.2279   7.6430632157e+01   3.9079613397e+01     0.503153     0.226911  37.94  0.001849426    2.187    0.543
        60 -10.0515    137.8398    129.3439   5.6481402054e+01   2.8912947016e+01    0.3827872    0.2951888  58.78   0.00162044    1.470    0.320
        61 -10.2603     44.2220    126.8486   8.5306079803e+01   4.5410224275e+01    0.3857954    0.3064694 -85.28  0.001533477    1.455    0.313
        62  -9.3996    110.3818    127.2681   6.3197692165e+01   3.4640920572e+01    0.2912428    0.2328152   4.51 0.0009170272    1.504    0.335
        63 -10.1166     76.2673    124.4345   7.3213317782e+01   4.1425558555e+01    0.6543734    0.4686294 -75.99  0.002888977    1.786    0.440
        64  -9.7500     18.4942    125.6530   9.4961934432e+01   4.8319925393e+01    0.3388791    0.2155999  54.85 0.0007692791    1.889    0.471
        65  -9.9913     97.7779    122.6150   6.5806983926e+01   3.8088977183e+01    0.3155874    0.2443265   5.75  0.001462479    1.566    0.362
        66  -9.3709    117.1420    122.3492   6.0138929919e+01   3.4463225875e+01    0.3112279    0.1420311  32.97  0.001092331    2.605    0.616
        67  -9.2876    135.0000    120.0349   5.4995598693e+01   3.1455530015e+01    0.2465152   0.08231029 -46.37 0.0007988271    2.917    0.657
        68 -10.0906     32.4626    118.4095   8.8223928158e+01   4.8952971810e+01    0.2639198    0.2366379  51.16  0.000321783    1.238    0.193
        69 -12.8537     20.6990    195.0503   1.0227517529e+02   2.9467374879e+01    0.4991315    0.3647983  64.86 0.0007359039    1.366    0.268
        70 -10.1681     54.0651    116.5463   7.9410468433e+01   4.6800175225e+01    0.4289081    0.3549558  81.42  0.002132304    1.501    0.334
        71  -9.0505    107.0153    116.9934   6.1674264395e+01   3.7633944906e+01    0.2168419    0.2124174  38.32            0    1.026    0.025
        72  -9.8428     69.2444    116.3780   7.3768699766e+01   4.4563162361e+01     0.343485    0.2516252  52.13 0.0006849406    1.559    0.358
        73  -8.6108    183.5052    116.4765   4.4279566026e+01   2.2843790237e+01    0.1333527    0.1200325 -42.24 0.0003629439    1.082    0.076
        74  -9.7463     58.9854    114.4025   7.7059408836e+01   4.6633817827e+01    0.2695898    0.2190154 -54.96 0.0003579396    1.241    0.194
        75  -8.5596     78.7279    113.5677   6.9757835294e+01   4.3660851153e+01    0.2129404    0.1402489  45.70 0.0009289188    1.597    0.374
        76  -9.8245    205.4293    110.4234   3.9603692139e+01   2.0047922371e+01    0.2301906    0.2180372  -2.19 0.0007498253    1.312    0.238
        77 -10.5266     53.1066    110.3527   7.8349858698e+01   4.8488735425e+01     0.296071    0.2300587 -65.01  0.001168173    1.395    0.283
        78  -9.5689    134.5462    106.4153   5.1802960490e+01   3.4355482976e+01    0.6175286    0.1232304 -50.06  0.001324524    7.348    0.864
        79 -10.0063    115.1723    107.8363   5.7071166123e+01   3.8022460867e+01    0.2101467    0.1819681  -4.81 0.0005061858    1.344    0.256
        80  -9.9152     29.3000    107.7699   8.7404449479e+01   5.2028289671e+01    0.2487632    0.1866484  30.66 0.0008011484    1.389    0.280
        81  -9.7876     24.6093    105.7528   8.8972040469e+01   5.2998836869e+01    0.3230105    0.2602405 -85.48  0.001368419    1.447    0.309
        82  -9.7298     69.9056    107.3863   7.1304699895e+01   4.6629476563e+01    0.2339763    0.2117974 -72.25 0.0004786371    1.244    0.196
        83 -10.9301     16.3655    102.7890   9.1936588122e+01   5.4463615843e+01    0.3795962    0.1843951 -54.57  0.001657621    1.786    0.440
        84 -10.4072     19.0809     99.5333   9.0113088110e+01   5.5062985328e+01    0.3185875    0.2027128  47.02  0.001301892    1.909    0.476
        85  -9.3660     45.8301    102.1227   7.9275333168e+01   5.1507847509e+01    0.2166236    0.1992615  59.08 0.0004981446    1.256    0.204
        86  -8.3837    124.2711     93.3329   5.0938855015e+01   3.9074268160e+01    0.1411457    0.1158992  -1.86 0.0003146799    1.592    0.372
        87 -10.5303     19.0394     90.7937   8.8285951544e+01   5.7224213050e+01    0.4009446    0.2426203  44.32  0.001871863    2.005    0.501
        88 -14.2838      8.9699    186.5691   1.0493123935e+02   3.2650814290e+01      1.30387     1.034887  70.37  0.007379474    1.213    0.176
        89  -8.5452    109.5355     79.5174   5.0927357025e+01   4.4810602885e+01    0.1437647    0.1349636  73.63  0.000285467    1.071    0.066
        90  -8.4230    184.6929     76.6929   3.5509295195e+01   2.9379716519e+01    0.1142953    0.1017763  10.69 0.0003672233    1.610    0.379
        91  -8.2692    105.3669     75.7325   5.0959867700e+01   4.6387812109e+01    0.1449192    0.1105766  81.13 0.0006992518    1.657    0.397
        92 -10.7128     26.4481     66.3833   7.8314454534e+01   6.2040931384e+01    0.3741896    0.2138567  40.55 0.0006215682    2.011    0.503
        93  -9.8738     74.8871     65.6305   5.7272710912e+01   5.4486269598e+01    0.3223722    0.2321886  60.79  0.001002487    1.663    0.399
        94 -10.4300      1.7396     63.7905   9.0651884613e+01   6.4767966991e+01    0.2943802    0.1539104 -65.74  0.001426791    2.015    0.504
        95 -11.2143     13.4685     60.4911   8.3330395401e+01   6.4601427408e+01    0.3747628    0.2353237 -56.26 0.0006759973    1.644    0.392
        96  -8.8026     83.4361     61.4979   5.3043471263e+01   5.3483125501e+01    0.1396552    0.1282298  36.13 0.0001420926    1.012    0.012
        97 -12.1011    192.7689     58.2507   3.0524832915e+01   3.0511781700e+01    0.4987744    0.3637957  54.32 0.0009444347    1.627    0.385
        98 -11.4643    155.0768    229.2454   7.1482263160e+01   4.8882063200e+00    0.4193664    0.2896935 -40.84  0.001927304    1.426    0.299
        99  -9.4372    125.1087    247.2809   8.0933527530e+01   5.1383273769e+00    0.4622152   0.09391329 -56.91  0.001270762    6.756    0.852
       100  -9.1062     33.3051     53.0269   7.0423167336e+01   6.3824593659e+01    0.1794394    0.1596753 -14.30 0.0004118625    1.109    0.099
       101 -16.3671     35.6141    189.0445   9.7358159512e+01   2.9605123367e+01     10.23585     5.825316  62.27   0.04406425    2.052    0.513
       102  -8.4223     39.3259     44.6494   6.4326994529e+01   6.4414168331e+01    0.1246678    0.1050975  66.28 0.0007048443    1.758    0.431
       103 -10.1213     29.1199     33.6661   6.5003401380e+01   6.7724102456e+01    0.1975967    0.1758512 -35.67 0.0008445468    1.377    0.274
       104  -8.7820     33.3435     31.3096   6.1793977173e+01   6.7445563957e+01    0.1338662   0.08738026   7.18 0.0007044818    1.698    0.411
       105  -9.5605     33.9739     26.4719   5.9335928276e+01   6.8038294383e+01    0.1932857     0.106972  37.26 0.0006745372    1.561    0.359
       106 -10.2708      6.9959     26.0000   7.4859543852e+01   7.1702380482e+01    0.2333793    0.1368283  18.76 0.0008084534    1.490    0.329
       107 -10.9248      2.4828     24.8094   7.7396056090e+01   7.2335392932e+01    0.3592896    0.2770721 -42.09  0.002397226    1.435    0.303
       108 -10.2482    102.4434    242.6354   8.5728437237e+01   8.8470317002e+00    0.5203834    0.2828009 -40.90  0.002478343    2.028    0.507
       109  -9.3803     60.4134     21.0890   4.5824203045e+01   6.3845767834e+01    0.2157815    0.1439819  42.00 0.0004631303    1.255    0.203
       110  -9.7439     33.3859     20.1737   5.6725547762e+01   6.8970938793e+01    0.1551689    0.1152139 -41.61 0.0008781751    1.729    0.422
       111  -9.0613    189.5238     15.0230   2.1840198947e+01   3.6404993099e+01     0.154654   0.09795898 -42.66 0.0005310738    1.553    0.356
       112  -9.7368    119.1840    241.5315   8.1556171781e+01   6.9912559822e+00    0.2187613     0.181361 -42.18 0.0002515498    1.302    0.232
