#   1 NUMBER                 Running object number                                     
#   2 MAG_AUTO               Kron-like elliptical aperture magnitude                    [mag]
#   3 X_IMAGE                Object position along x                                    [pixel]
#   4 Y_IMAGE                Object position along y                                    [pixel]
#   5 X_WORLD                Barycenter position along world x axis                     [deg]
#   6 Y_WORLD                Barycenter position along world y axis                     [deg]
#   7 A_WORLD                Profile RMS along major axis (world units)                 [deg]
#   8 B_WORLD                Profile RMS along minor axis (world units)                 [deg]
#   9 THETA_WORLD            Position angle (CCW/world-x)                               [deg]
#  10 FWHM_WORLD             FWHM assuming a gaussian core                              [deg]
#  11 ELONGATION             A_IMAGE/B_IMAGE                                           
#  12 ELLIPTICITY            1 - B_IMAGE/A_IMAGE                                       
         1 -14.5664     68.5764    144.2816   9.8509124838e+01   3.7497491353e+01     4.497697     2.488156  76.14   0.00573602    3.266    0.694
         2 -11.6820      1.8805     54.1500   1.0413817626e+02   6.5132647042e+01     2.312193    0.1203454 -63.47  0.004535308   13.639    0.927
         3 -12.3542      2.4908     26.4412   9.5629145883e+01   7.0392538853e+01     1.559891    0.2283793 -42.41  0.005729265    4.213    0.763
         4 -12.4558      2.3222      9.5773   8.8956918470e+01   7.3163084107e+01      1.10323    0.4649061 -41.23  0.006318411    1.964    0.491
         5 -13.5545    212.6926     31.7995   3.7554765907e+01   2.8998238397e+01    0.8791465    0.8012702  30.26  0.002131778    1.528    0.345
         6 -12.8114    238.4401      6.1726   3.0047646087e+01   2.6572596047e+01    0.7899716    0.5749505 -83.12  0.005097751    1.134    0.118
         7  -9.1703     58.6737      7.3041   5.9979571431e+01   6.6104238153e+01    0.1048569   0.09681814  89.70 0.0002479749    1.645    0.392
         8 -13.4916    201.6791     42.1764   4.1188086952e+01   3.0103339693e+01     1.221339     1.118223 -31.28  0.003839678    1.315    0.239
         9  -9.2507     33.2465    206.0735   1.1545035361e+02   2.6742811604e+01    0.3640755    0.1159414  54.81  0.001371445    3.375    0.704
        10 -10.1664    139.9860    249.9881   9.6961765720e+01   3.0004873539e+00     0.352755    0.1588933  47.47  0.001606814    2.270    0.559
        11 -11.1907    101.7119    246.3525   1.0450471788e+02   9.3019943520e+00    0.6806141    0.2531518 -67.66   0.00269252    3.872    0.742
        12 -13.8870     41.8342    197.2855   1.1269841849e+02   2.7804140755e+01     2.720403     1.190062  64.30  0.009036241    2.793    0.642
        13 -10.8986    193.2044    195.2276   7.7061241753e+01   4.3580394333e+00     1.032985    0.5459425 -64.57  0.003094691    5.886    0.830
        14  -9.6730     58.9222    196.2821   1.0852706281e+02   2.5957572692e+01    0.2254048     0.178126 -71.37 0.0003553547    1.238    0.192
        15  -9.5586     20.4071    195.0717   1.1745603207e+02   3.0585841206e+01    0.2860578    0.1547605  32.76  0.001212714    1.916    0.478
        16  -8.3925     82.7857    194.5808   1.0249507624e+02   2.3055166199e+01    0.2002457    0.1178244  46.48 0.0009412238    1.603    0.376
        17 -15.3328      6.8808    160.1087   1.1785408627e+02   4.0055839906e+01     7.438805     1.574174 -74.59   0.02520257    3.859    0.741
        18  -9.3738    118.5277    191.0882   9.3176319782e+01   1.8157470463e+01    0.2117868    0.1434564 -56.86  0.000815963    1.548    0.354
        19 -10.3167    110.9083    203.2913   9.6927188967e+01   1.6701257299e+01    0.2669455    0.2080179  71.72 0.0004711779    1.433    0.302
        20 -10.3536    147.6651    187.7730   8.5631784641e+01   1.3781081588e+01    0.5345735     0.320461 -73.10  0.002047301    2.939    0.660
        21  -8.7629     85.1979    185.9994   1.0068703542e+02   2.4722046294e+01    0.3787056    0.2107058  76.12  0.001437372    2.874    0.652
        22  -9.2874     82.4987    182.4421   1.0085441480e+02   2.5980402328e+01    0.2620015    0.2197405  58.71 0.0004737515    1.144    0.126
        23  -9.0505     79.2933    181.6569   1.0156290109e+02   2.6645029384e+01    0.2926074    0.2029046  77.51  0.001279857    1.648    0.393
        24 -13.0066     52.4403    186.5834   1.0900870647e+02   2.9080842248e+01    0.9433573    0.8608462 -22.36  0.004893315    1.399    0.285
        25  -9.8382     99.3737    180.8195   9.6277102584e+01   2.3732643755e+01    0.2779693    0.2463921 -46.63  0.000691622    1.210    0.173
        26 -10.8775    241.7903    178.3075   6.4787019707e+01  -4.0506335518e-01    0.2532106    0.2191512  50.55  0.001618258    1.536    0.349
        27 -10.1912    186.9773    175.3130   7.4493690416e+01   9.2178707529e+00    0.3787285    0.2930024 -48.53  0.001186535    1.355    0.262
        28  -9.5386     39.1398    177.0540   1.1128041588e+02   3.2942223593e+01    0.2785539    0.2103665 -38.68 0.0007023999    1.657    0.396
        29 -10.0414     43.0148    175.4575   1.1011239701e+02   3.2900374109e+01    0.4387407    0.2187575  88.51  0.001836993    2.448    0.591
        30 -12.2486     80.2345    159.1187   9.7762499596e+01   3.2060392330e+01     1.086071    0.5631078  60.30 0.0004907447    2.713    0.631
        31 -12.8567     68.3313    154.2918   1.0029681251e+02   3.5003543222e+01    0.6616951    0.4533165 -50.94 0.0008869196    1.451    0.311
        32 -12.0498    117.6322    245.1428   1.0102152186e+02   7.1914878500e+00    0.5524378      0.38209  23.35  0.002971607    1.518    0.341
        33 -13.5292     19.3719    220.1160   1.1944923430e+02   2.5097167543e+01     0.872341    0.6297053  53.80  0.005790472    1.207    0.171
        34 -10.5083     33.3460    156.1489   1.1039958653e+02   3.8722932682e+01    0.2927023     0.252933  76.96  0.000761519    1.104    0.094
        35 -11.6994     87.5479    152.5736   9.4547406996e+01   3.2556983846e+01    0.6530368    0.4667114 -17.41  0.002920405    2.015    0.504
        36 -10.5861    133.8128    145.0057   8.0409722477e+01   2.6007805514e+01     1.157093    0.3151594 -55.26  0.002761876    5.422    0.816
        37  -8.5349    112.2013    150.4334   8.7290938180e+01   2.8847169012e+01    0.2087988    0.1420086  49.80 0.0003938551    1.530    0.347
        38  -9.4631    174.5476    149.2059   7.1663722976e+01   1.6887454475e+01    0.2783737    0.2137509  42.09 0.0007956174    1.337    0.252
        39 -10.9891     28.4508    144.7930   1.1036126779e+02   4.2037414900e+01    0.3762516    0.2126684  51.21  0.001848423    1.927    0.481
        40 -11.5248     71.6515    167.5446   1.0147932054e+02   3.1214500620e+01    0.5233753    0.3225974 -58.83  0.001252126    1.555    0.357
        41 -10.6109    101.7321    138.5094   8.7689816795e+01   3.3638541827e+01    0.6102313    0.3754137 -24.07  0.002299672    2.602    0.616
        42 -10.1772    105.9440    130.8773   8.4790322809e+01   3.4725501454e+01    0.4243885    0.3496608 -55.89  0.001694729    1.200    0.167
        43  -9.7543    111.0749    129.5112   8.3014400905e+01   3.4090108174e+01    0.3318406    0.2550855   3.78 0.0008761786    1.723    0.420
        44 -11.5930     88.9520    138.0505   9.1295585155e+01   3.5946796228e+01    0.3085398    0.2671017 -40.61 0.0003518511    1.188    0.158
        45 -11.3293     25.9249    137.5096   1.1015268698e+02   4.4088336924e+01    0.4960848    0.3020395  57.44  0.001566644    1.853    0.460
        46 -10.3163    134.6669    128.5459   7.6389565779e+01   2.9615384667e+01    0.3689134    0.3203287 -83.38  0.001833493    1.310    0.237
        47 -11.4857    112.7034    172.7547   9.1469168394e+01   2.3402464480e+01    0.7375312    0.2775539  39.33  0.002611109    2.539    0.606
        48  -9.0470    160.5084    127.9915   6.9940982088e+01   2.4286283500e+01    0.2258494    0.1326352 -65.91 2.156658e-05    2.612    0.617
        49 -16.8590     14.5244    242.9804   1.2171917357e+02   2.0868542041e+01     6.438291     2.249634  24.32    0.0264558    4.503    0.778
        50 -10.3165     98.1349    125.2942   8.5781468454e+01   3.7492664987e+01    0.3278464    0.2733869  -5.79 0.0007885447    1.439    0.305
        51  -9.5662     46.9101    172.2186   1.0871940326e+02   3.3249283890e+01    0.2572643     0.193085 -60.03  0.001252347    1.307    0.235
        52 -10.2255    135.2317    122.0972   7.4672180753e+01   3.0951290502e+01    0.6160004    0.1268269 -50.77  0.001315623    6.397    0.844
        53  -8.4795    163.4911    121.4592   6.7686275710e+01   2.5025711887e+01    0.1527115    0.1472025 -70.46 0.0001259377    1.047    0.045
        54  -9.2675    107.4512    118.3580   8.1380252060e+01   3.7415309204e+01    0.2495764    0.2262007  24.07 0.0005609142    1.157    0.135
        55  -8.8751     84.9726    118.9522   8.8310943639e+01   4.1296471403e+01    0.2448461    0.1824906  73.91  0.001123802    1.764    0.433
        56  -9.8482     32.5163    119.0450   1.0533823631e+02   4.8093972900e+01    0.2139624    0.1180947 -64.38 0.0008170825    1.573    0.364
        57 -10.3458    231.3891    113.8136   5.3312288008e+01   1.2449585412e+01    0.2827759    0.2593347 -50.10 0.0007415944    1.054    0.051
        58  -9.0106     34.7984    171.6905   1.1180509943e+02   3.4721007849e+01    0.2818117      0.15793  58.80  0.001141937    1.860    0.462
        59 -10.1160    117.4923    123.7644   7.9846262481e+01   3.4197923678e+01    0.3826432    0.2228981  21.78   0.00139213    2.591    0.614
        60 -10.9194     33.2873    108.2462   1.0316704789e+02   5.0674115615e+01    0.3437545    0.2466767 -65.12  0.001896681    1.256    0.204
        61 -10.0820    115.6280    107.9644   7.6374674833e+01   3.8178197289e+01    0.3592903     0.184672 -37.41  0.001351371    2.182    0.542
        62 -11.1289    245.8008    103.1918   4.9045687011e+01   1.1570358895e+01    0.4231005     0.247495 -15.79  0.001742108    3.307    0.698
        63 -11.0979    233.3771    170.5807   6.4716022157e+01   2.1788976889e+00    0.3086607     0.213656  50.26  0.001690492    1.831    0.454
        64  -9.3585    205.3287    110.2903   5.6722876896e+01   1.8253558239e+01    0.2910137    0.1969318  47.37  0.001278694    1.612    0.379
        65 -10.2943     36.6281    101.4154   1.0065569621e+02   5.2000143858e+01    0.3877043    0.1758533  42.08  0.001649933    2.612    0.617
        66  -9.6190    241.4940    101.4906   4.9263305631e+01   1.2642937365e+01    0.1324498    0.1123366 -49.70 0.0008105895    1.004    0.004
        67 -10.1377    240.0721    169.4821   6.3369282631e+01   1.3189548250e+00    0.1754412    0.1270177  36.95 0.0004270282    1.546    0.353
        68  -9.1260     53.3662     91.1846   9.2243574311e+01   5.2512912126e+01    0.1960813    0.1273202 -65.38 0.0005528167    1.691    0.409
        69 -11.4692     67.1556    172.3334   1.0339179179e+02   3.0652147542e+01    0.4590202    0.3175526 -30.02  0.001869883    1.997    0.499
        70  -7.9797     75.4702     85.4682   8.2783932393e+01   5.0575832134e+01    0.1424218    0.1352794 -22.06 0.0001035868    1.025    0.024
        71  -9.4912    158.9023     83.1345   5.8813442676e+01   3.3630712238e+01    0.2321725     0.200098 -78.86 0.0005298075    1.239    0.193
        72  -8.9028    150.9962     82.9897   6.0493186929e+01   3.5495724282e+01     0.238041    0.1790257 -77.25 0.0006838639    1.667    0.400
        73  -8.2630     68.7200     81.2789   8.3957302315e+01   5.2548087728e+01    0.1296893    0.1126831  79.30 0.0002583472    1.506    0.336
        74  -8.6051    109.7619     79.6186   7.0062700186e+01   4.5343780996e+01    0.2031084    0.1389385  54.26 0.0008008608    1.564    0.361
        75  -8.3781    184.6656     76.7163   5.2192775393e+01   2.8769874078e+01    0.1390636     0.112841  24.63 0.0004143017    1.620    0.383
        76 -14.5311      9.6709    207.3151   1.2065672041e+02   2.8826382611e+01     1.082538    0.9550052  -6.32  0.007494222    1.670    0.401
        77 -10.0933    107.6111    203.8049   9.7786641846e+01   1.7118807007e+01    0.2358034    0.1834754  69.90 0.0007042768    1.401    0.286
        78 -10.7356    146.9465    222.3064   9.1581361770e+01   6.9178861909e+00    0.2503453    0.2086444  25.64  0.001473222    1.105    0.095
        79 -12.9192    191.6839     49.5297   4.4277894223e+01   3.1373104715e+01    0.9288042    0.7780267  33.70 0.0009101898    1.542    0.352
        80  -8.9581    198.2577     23.2642   3.7128891360e+01   3.3261279393e+01    0.2013735    0.1500218 -37.56 0.0006337422    1.444    0.307
        81 -10.6513     13.3487     59.8798   1.0037376381e+02   6.3269523182e+01     0.244605    0.2054603 -46.76 0.0004468706    1.110    0.099
        82 -10.6959    119.2763    212.3903   9.6311531542e+01   1.3389832496e+01    0.2474061    0.2049832  55.95 0.0004693388    1.190    0.159
        83  -8.8527    189.6821     14.9528   3.6075457781e+01   3.6155130211e+01    0.1733959    0.1473153 -69.92 0.0005737289    1.099    0.090
        84 -10.6915    122.1042    198.5377   9.3526721774e+01   1.5897822189e+01    0.3704799    0.2798171 -78.07  0.001635258    1.596    0.374
        85  -8.9197     89.0402    210.6414   1.0310001398e+02   1.8473929286e+01    0.2137568    0.1727576  87.98  0.001219288    1.279    0.218
