#   1 NUMBER                 Running object number                                     
#   2 MAG_AUTO               Kron-like elliptical aperture magnitude                    [mag]
#   3 X_IMAGE                Object position along x                                    [pixel]
#   4 Y_IMAGE                Object position along y                                    [pixel]
#   5 X_WORLD                Barycenter position along world x axis                     [deg]
#   6 Y_WORLD                Barycenter position along world y axis                     [deg]
#   7 A_WORLD                Profile RMS along major axis (world units)                 [deg]
#   8 B_WORLD                Profile RMS along minor axis (world units)                 [deg]
#   9 THETA_WORLD            Position angle (CCW/world-x)                               [deg]
#  10 FWHM_WORLD             FWHM assuming a gaussian core                              [deg]
#  11 ELONGATION             A_IMAGE/B_IMAGE                                           
#  12 ELLIPTICITY            1 - B_IMAGE/A_IMAGE                                       
         1 -14.9957     11.9204    152.4097   1.4445832902e+02   4.2333480016e+01     11.09976     4.186896  72.54    0.0466869    3.323    0.699
         2 -13.3739    195.7809     28.3747   6.8355071736e+01   3.2848371340e+01     1.566297     1.412467  39.34  0.007621477    1.261    0.207
         3 -13.4579    211.8819      8.4417   6.1159615979e+01   3.1001970984e+01     1.146018    0.8929118  48.66  0.006582364    1.475    0.322
         4 -11.7874      2.2947     11.7603   1.2140162485e+02   7.3074959654e+01     0.528316    0.1766722 -54.88  0.002599782    2.678    0.627
         5 -11.5593      4.0533      3.3411   1.1654738091e+02   7.4335119324e+01    0.4115322    0.2882243  -4.92  0.003067826    1.330    0.248
         6 -10.1820     46.3550    248.9936   1.4450752282e+02   1.9331742728e+01    0.2548248    0.1016714  60.22  0.001438302    2.024    0.506
         7 -11.4789    248.1603    249.0112   1.0924845491e+02  -1.0573869521e+01    0.3317798    0.2184359  29.81  0.002338475    1.225    0.183
         8 -10.7131     97.7891    249.9190   1.3575084674e+02   1.2296975690e+01    0.2278713    0.1709355  36.25  0.001566592    1.477    0.323
         9 -11.6438     35.6760    243.4308   1.4595656565e+02   2.1548617439e+01    0.3553734    0.3120566  45.16  0.002832359    1.596    0.373
        10 -11.1842     29.5390    248.9669   1.4724676669e+02   2.1290322755e+01    0.3766549    0.2446148 -76.03  0.002851852    1.647    0.393
        11 -10.8681     33.8358    249.0164   1.4655725497e+02   2.0797197130e+01    0.3735039    0.1415177  56.32  0.002198874    1.920    0.479
        12 -10.7929     12.0234    250.0123   1.5004785029e+02   2.2986148234e+01     0.218739    0.1376509  59.90  0.001731295    1.139    0.122
        13 -10.5971     17.6532    249.2487   1.4914244517e+02   2.2531198722e+01    0.1724145    0.1319138  58.15  0.001426186    1.310    0.236
        14 -11.2196      3.2464    248.4345   1.5133081937e+02   2.4129239485e+01    0.3733679     0.201799  64.23  0.002832209    1.240    0.194
        15 -10.4533    171.1039    247.1293   1.2225820378e+02   1.2927196769e+00    0.1823052    0.1385704  27.92 0.0006852452    1.223    0.183
        16 -10.6941     50.3825    245.2899   1.4360739093e+02   1.9475304367e+01    0.2218588    0.1591377  41.46  0.001609461    1.527    0.345
        17 -10.0442    180.5063    245.4904   1.2035178248e+02   5.1237604500e-03    0.1207965   0.09373467  34.38 6.667581e-05    1.026    0.025
        18 -11.4864     20.0548    243.5536   1.4850851246e+02   2.3254066753e+01    0.3739957     0.143909  61.87  0.001746318    1.969    0.492
        19  -9.7129     82.4058    243.7703   1.3794318787e+02   1.5516818148e+01    0.1359303    0.1018609 -64.68 0.0009460749    1.648    0.393
        20 -11.6612     11.7734    240.9634   1.4971641957e+02   2.4563926582e+01    0.2454362    0.2189118 -56.62  0.002083887    1.936    0.483
        21 -10.9131    197.9906    246.7868   1.1742482114e+02  -2.9303605527e+00    0.1871468    0.1678481   3.26  0.001028118    1.246    0.198
        22  -8.6191     57.3152    240.3402   1.4209136175e+02   1.9469831187e+01   0.09068623   0.08780295 -51.12 0.0004508324    1.703    0.413
        23 -10.4725     22.3926    237.2577   1.4782824465e+02   2.4110608900e+01    0.2475162    0.1400707 -60.69  0.001630818    2.355    0.575
        24 -12.0297     19.8944    125.4759   1.3980732882e+02   4.7822417709e+01     1.020807    0.2544106  49.76  0.002854138    5.415    0.815
        25 -12.3833    139.0300    248.2975   1.2819561814e+02   6.2535836184e+00    0.5307088    0.3289278  49.42   0.00329064    1.286    0.222
        26 -10.7853     12.4615    233.1268   1.4926538200e+02   2.5881257939e+01    0.2236318    0.1000307  51.33   0.00145494    1.660    0.398
        27 -11.2904    134.9714    231.9511   1.2701664971e+02   9.4595413118e+00    0.3000076    0.1782778  43.54  0.001377626    1.364    0.267
        28 -10.0997     54.4819    229.4874   1.4181935158e+02   2.1781900595e+01    0.2449199    0.1439352  66.61 0.0008568494    1.384    0.277
        29 -10.5880      6.7253    227.0146   1.4994049923e+02   2.7554459953e+01    0.2881783    0.1984779 -51.62  0.002034504    2.446    0.591
        30 -10.6151     56.6634    223.7929   1.4099423290e+02   2.2564793356e+01    0.3620836     0.288561  60.37  0.002503596    1.163    0.140
        31 -10.3295      9.5841    235.7680   1.4984757247e+02   2.5698007165e+01    0.1798591   0.07813691 -78.54  0.001138806    2.055    0.513
        32 -10.5726    173.9078    222.8297   1.1834505115e+02   4.3216081876e+00     0.373104    0.2581899  54.94  0.002154117    1.512    0.339
        33 -12.5523      9.5616    207.3737   1.4852711305e+02   3.0992122685e+01    0.6315627    0.5463635  26.40  0.003241803    1.777    0.437
        34  -8.6385     92.4944    214.9441   1.3330102288e+02   1.9244683163e+01     0.161443    0.1157314 -74.88 0.0003108698    1.463    0.316
        35  -8.7231    152.5151    213.0690   1.2105173118e+02   9.6266306383e+00    0.1589964    0.1315111 -54.40 0.0001011312    1.424    0.298
        36 -11.6636     60.3702    199.7504   1.3821600973e+02   2.6821665324e+01    0.2581794    0.2232357 -70.91 0.0005628985    1.364    0.267
        37 -10.5406     15.9672    197.7456   1.4681016449e+02   3.2289445968e+01    0.2983824    0.1350328  49.49  0.001429002    1.844    0.458
        38 -12.4200     48.5079    216.0761   1.4192081649e+02   2.5060273209e+01    0.5939323     0.520356  87.82   0.00272805    1.308    0.236
        39 -11.9161     66.8056    191.2320   1.3602176306e+02   2.7739649906e+01    0.2571688    0.2174926 -74.36 0.0004360032    1.268    0.211
        40  -9.3694    191.6764    192.6791   1.0990745767e+02   5.8949053168e+00    0.3691707     0.210452 -65.53  0.001332678    4.309    0.768
        41 -13.2333     63.6801    176.4517   1.3505951841e+02   3.1358310581e+01    0.4671342    0.2706169 -48.35  0.001585955    2.225    0.550
        42 -10.8237     77.1068    178.2284   1.3225128300e+02   2.9093101582e+01    0.2356381    0.2048751  80.03  0.000347811    1.054    0.052
        43 -10.0236     98.1139    175.1038   1.2703364753e+02   2.6525955585e+01     0.274616    0.1978203  70.74 0.0006582839    1.393    0.282
        44 -11.6489     84.2060    169.3103   1.2941681055e+02   3.0012178989e+01    0.6007724    0.4990293 -47.70  0.003529596    1.456    0.313
        45 -10.0997     90.9831    168.0117   1.2763329147e+02   2.9245714687e+01    0.3180893    0.3045778 -28.07  0.001593659    1.351    0.260
        46 -12.8395     33.5399    233.9919   1.4578460134e+02   2.3467619172e+01    0.2807198     0.221433  86.92  0.000715172    1.271    0.213
        47 -10.0129     97.3297    153.0199   1.2366690359e+02   3.1607035142e+01    0.3031967    0.2509424 -60.58 0.0008375864    1.214    0.176
        48 -12.0493     85.9578    152.0456   1.2634203655e+02   3.3678928690e+01     0.290274    0.2472473 -50.28 0.0005746271    1.312    0.238
        49  -9.0466    100.3289    148.8308   1.2216909645e+02   3.2059547334e+01    0.1942466    0.1724308 -64.98 0.0004952619    1.128    0.114
        50 -12.2361     67.3162    143.6478   1.2974680126e+02   3.8383092331e+01     0.679504    0.4334533  67.90  0.003030476    1.728    0.421
        51  -9.7935    109.2478    137.6891   1.1772895034e+02   3.3038651303e+01    0.4257917    0.2886204 -19.56  0.001520472    2.612    0.617
        52 -10.4115     96.3827    135.0186   1.2055501464e+02   3.5944484627e+01    0.2375914    0.2319446 -20.55 0.0004522234    1.200    0.167
        53  -9.4094     58.2835    135.6363   1.3087253155e+02   4.1465047683e+01    0.1405984   0.09224308  78.86 0.0007018275    1.685    0.407
        54 -10.8747     31.6155    131.7836   1.3744997903e+02   4.5320821520e+01     0.271404    0.1959841  58.01 0.0008861605    1.421    0.296
        55  -8.6008    115.2891    130.3352   1.1458877979e+02   3.3588290764e+01    0.1474628    0.1198227 -17.53 0.0003442106    1.632    0.387
        56  -8.8873    134.0000    146.0467   1.1329037596e+02   2.6364525866e+01     0.414602   0.08525918 -49.45  0.001056667    4.983    0.799
        57  -8.9908    106.3979    124.0876   1.1555213495e+02   3.6705974867e+01    0.1972917     0.170867 -62.11 0.0003910068    1.114    0.102
        58  -9.5069    167.8646    113.1280   9.7518440513e+01   2.5885857815e+01    0.3012054    0.2277269 -81.28  0.001323379    1.767    0.434
        59  -9.3678    203.2017    111.7756   8.9949091298e+01   1.7823829477e+01    0.2102072    0.1789029   7.93 0.0007329049    1.339    0.253
        60  -9.7694    157.9774     76.5063   8.9433919975e+01   3.5357016249e+01    0.2383955    0.1527514  54.27 0.0006400488    1.548    0.354
        61 -11.2374      3.0472     61.2034   1.3544531008e+02   6.3410622193e+01    0.2613385    0.1459541 -64.05  0.001588209    1.373    0.272
        62 -13.8969     38.6607    227.0660   1.4447711518e+02   2.4148627345e+01    0.7212892    0.4999408  66.39  0.002376325    1.055    0.052
        63  -9.4220     39.1106     65.6925   1.2252700164e+02   5.9780440874e+01    0.2572899    0.1797378  54.14 0.0008923642    1.943    0.485
        64 -11.5833     12.8028     54.3391   1.3000896556e+02   6.4323848667e+01     0.313007    0.2206205  43.86  0.001220927    1.870    0.465
        65 -11.4814      2.9914     38.7102   1.3021539377e+02   6.8054145860e+01    0.3159927    0.1986918 -68.60  0.002022261    1.557    0.358
        66 -10.3594    162.1739    249.3548   1.2414677983e+02   2.4168050151e+00    0.1642012     0.135692  32.50   0.00115984    1.141    0.123
        67 -10.8752    152.5245    248.8432   1.2582130034e+02   4.0289842717e+00    0.2063474    0.1364686  52.66  0.001294791    1.345    0.257
        68 -10.3154     80.1878    247.9805   1.3867750342e+02   1.5116060906e+01    0.2650859    0.1355447 -85.14  0.001502941    2.359    0.576
