#   1 NUMBER                 Running object number                                     
#   2 MAG_AUTO               Kron-like elliptical aperture magnitude                    [mag]
#   3 X_IMAGE                Object position along x                                    [pixel]
#   4 Y_IMAGE                Object position along y                                    [pixel]
#   5 X_WORLD                Barycenter position along world x axis                     [deg]
#   6 Y_WORLD                Barycenter position along world y axis                     [deg]
#   7 A_WORLD                Profile RMS along major axis (world units)                 [deg]
#   8 B_WORLD                Profile RMS along minor axis (world units)                 [deg]
#   9 THETA_WORLD            Position angle (CCW/world-x)                               [deg]
#  10 FWHM_WORLD             FWHM assuming a gaussian core                              [deg]
#  11 ELONGATION             A_IMAGE/B_IMAGE                                           
#  12 ELLIPTICITY            1 - B_IMAGE/A_IMAGE                                       
         1 -13.0703     37.2986     50.3174   9.5258305929e+01   6.2919766291e+01    0.7598348    0.5406135 -31.16  0.002850078    1.210    0.173
         2 -10.9917    106.3036     18.9380   5.7921812332e+01   5.6010470990e+01    0.8782919    0.2502151  45.64  0.003071385    3.121    0.680
         3 -12.3950    100.8771     28.7422   6.3316063685e+01   5.6039808940e+01    0.6530524    0.4212917   9.89 0.0006898972    1.917    0.478
         4 -10.0709     15.1002     14.1541   9.1799607916e+01   7.1482552111e+01    0.1820338    0.1392398 -33.89  0.000397918    1.225    0.183
         5 -12.4302     23.6780      7.6638   8.3983048016e+01   7.1625754666e+01    0.3420817    0.3068475 -47.99 0.0005050251    1.803    0.446
         6 -10.5036     17.4689      6.0630   8.6540467092e+01   7.2493417330e+01    0.2348415    0.1738912 -29.21  0.001101896    1.249    0.199
         7 -11.2474     11.9591      2.2201   8.7677115801e+01   7.3561460146e+01    0.3087845    0.1780104  11.30  0.001362615    1.686    0.407
         8 -10.5296      7.2217      1.8729   9.0313657323e+01   7.4019076314e+01    0.1880318    0.1438626 -15.77  0.001081698    1.103    0.093
         9 -12.2746     20.2926     18.0830   9.0804124685e+01   7.0388052787e+01    0.4538271    0.3451735 -27.14  0.001267607    1.095    0.086
        10 -11.8298     26.8691      3.4166   8.0050670556e+01   7.1836811392e+01    0.3965951    0.2242366  42.76 0.0008369949    2.462    0.594
        11 -11.8164     31.9220      1.9032   7.6642759194e+01   7.1399300977e+01    0.2419732    0.1691487  11.24 0.0005772598    1.216    0.178
        12 -11.0588    132.4369     10.9678   4.9181224083e+01   5.0643322620e+01    0.4816287     0.302282   9.86  0.001976757    2.055    0.513
        13 -10.8289     10.0246     15.8850   9.5365635978e+01   7.1607214541e+01    0.8327603    0.2847363 -29.68  0.003596202    3.252    0.692
        14 -12.0006      4.7133     17.8974   9.9147344256e+01   7.1630548476e+01    0.5945048    0.2727801 -44.89  0.002774281    1.635    0.388
        15 -11.1502      5.2917     13.9120   9.7165106282e+01   7.2270997162e+01    0.2443012    0.1783926 -17.69 0.0003109206    1.133    0.117
        16  -9.9521    185.9661     22.4066   4.4496366648e+01   3.5975522192e+01    0.3075589    0.1328639 -47.64  0.001248511    2.415    0.586
        17 -11.6514    170.7271     18.6184   4.5463021793e+01   4.0254157925e+01    0.3590213    0.2987881  80.73  0.002060057    1.113    0.102
        18 -11.0742    164.9632     16.3446   4.5604137029e+01   4.1959228965e+01    0.4521761    0.2283202 -38.05  0.001742919    2.035    0.509
        19  -9.5678     46.0209     18.9992   7.8719242358e+01   6.7248418679e+01    0.4735222    0.1986027 -24.51  0.002040061    2.780    0.640
        20  -9.6565     50.3708     13.5670   7.4200271723e+01   6.7349740536e+01    0.3997772    0.2087107 -36.53  0.002119544    1.974    0.493
        21 -11.5639     40.8849     11.1452   7.7209881174e+01   6.9036121661e+01    0.5467068    0.3681519 -23.38  0.001606973    1.309    0.236
        22 -10.9496     26.7035     14.0763   8.5603320193e+01   7.0367799735e+01    0.3182883    0.2300932 -50.50  0.001696634    1.928    0.481
        23 -11.5954     35.6033     15.0148   8.1629216139e+01   6.9194716991e+01    0.4260115    0.2115821  14.75 0.0003725911    2.559    0.609
        24 -11.4698     31.0676     12.9906   8.2861967948e+01   7.0033963890e+01     0.329433    0.1692644 -27.97  0.000359105    1.724    0.420
        25 -10.0586     81.3612      6.2784   5.9427614136e+01   6.2632196264e+01    0.2658767     0.142084 -26.87 0.0001973968    1.944    0.486
        26 -11.4407     75.9963     15.7633   6.5484225548e+01   6.2685934135e+01    0.4560837    0.2229522  40.31  0.002208729    1.864    0.464
        27 -11.9111     75.0997      7.8289   6.2112841388e+01   6.3716988468e+01    0.7535132    0.5460552 -30.89  0.004471205    1.540    0.351
        28 -10.6305    158.1878     13.4632   4.5713278866e+01   4.3970612392e+01    0.3816515    0.2488584 -72.47  0.001773897    1.826    0.452
        29 -11.3011    118.3318     12.0577   5.2405119332e+01   5.3938325064e+01    0.5381939    0.2152314 -37.68  0.001804354    2.791    0.642
        30 -10.3729    100.2251     12.4825   5.6856626945e+01   5.8041423460e+01    0.2456296    0.1899401  15.82 0.0006444174    1.275    0.216
        31  -9.5115     55.3250      9.7203   7.0234379848e+01   6.7042083472e+01    0.1821214    0.1360361 -10.25 0.0006169467    1.192    0.161
        32 -10.9805    241.4142      9.7651   3.5862100825e+01   2.4226407376e+01    0.2114238    0.1527209  89.74 0.0005074245    1.260    0.206
        33 -11.1894    236.4722      9.8518   3.6258053201e+01   2.5309636898e+01    0.2605335    0.1472726  70.20  0.000963192    1.711    0.416
        34 -10.9017      6.4043      8.2068   9.3949191864e+01   7.3119454258e+01    0.1831773    0.1711399 -13.13 0.0004025032    1.503    0.335
        35  -9.9630    215.7860      8.6271   3.7693768209e+01   3.0194301140e+01    0.1828127    0.1081387  89.20 0.0009432561    1.617    0.382
        36 -11.1977    145.8808      7.2222   4.5595132830e+01   4.7657895897e+01    0.3212608    0.2072104 -25.90   0.00167983    1.714    0.416
        37  -9.8214    127.4336      8.4570   4.9221262024e+01   5.2093488293e+01    0.1327139    0.1205355  58.34 8.908399e-05    1.050    0.048
        38 -10.0808     67.1864      7.7973   6.4790654112e+01   6.5205864839e+01    0.1698836    0.1194546  17.19 0.0002758722    1.289    0.224
        39 -10.7640     61.9758     15.9988   7.0660915398e+01   6.5178860718e+01     0.399995    0.2221545  -0.91  0.001878966    2.365    0.577
        40  -9.6540     96.8719      5.7736   5.4901260865e+01   5.9411444365e+01    0.3474339    0.1732176  14.67  0.001459823    2.818    0.645
        41 -10.7939     92.2003      6.0712   5.6249508181e+01   6.0396326625e+01    0.4247169    0.2184778  23.03   0.00109381    2.314    0.568
        42 -11.0565    245.0924      5.6140   3.4701608180e+01   2.3881603801e+01    0.2549781    0.1115721 -52.73 0.0008742734    1.961    0.490
        43 -10.2476    175.2050      5.8142   4.1136364672e+01   4.0416165601e+01    0.1964759    0.1645719 -80.91 0.0003513785    1.129    0.115
        44 -10.3533    164.9077      5.3905   4.2293922683e+01   4.3044320003e+01    0.2125802    0.1785722 -55.94 0.0008027097    1.245    0.197
        45 -11.5159    236.7211      2.6710   3.4656781865e+01   2.6028463738e+01    0.4008977     0.201754 -39.70  0.002145794    1.776    0.437
        46 -10.3053    241.0002      2.2951   3.4275356417e+01   2.5126413129e+01    0.2421185    0.1343764 -70.19  0.000797443    1.658    0.397
        47 -10.7523    112.7721      2.4662   4.9884441006e+01   5.6092008992e+01    0.2849717    0.2239123 -74.57 0.0008132099    1.633    0.388
        48  -9.3229    208.4472      2.4519   3.6841402652e+01   3.2569532912e+01    0.1285981    0.1089202 -81.80 7.203016e-05    1.009    0.009
        49  -9.0237    159.3394      1.2124   4.1750699063e+01   4.4810057850e+01    0.1344654   0.08326207  51.51 0.0001219466    1.520    0.342
        50 -10.3486    175.3928    202.6883   9.1420130614e+01   6.1418969901e+00    0.2360962    0.1932277  41.60 0.0005387173    1.163    0.140
        51 -10.4644    250.1096    246.6667   8.4857358139e+01  -1.1708152833e+01     0.196192    0.1407155  -8.64  0.001398633    1.229    0.186
        52 -10.3295     72.7199    249.8866   1.1803162944e+02   1.4053087553e+01    0.2681399    0.1701365 -63.70  0.001738338    1.843    0.458
        53 -11.7311     74.8803    240.4504   1.1685387660e+02   1.5452310834e+01    0.5483131    0.4445203 -22.29  0.003503942    2.215    0.549
        54 -11.9608     73.7128    237.0025   1.1677537657e+02   1.6247048076e+01    0.5103786    0.2944673 -64.68  0.003042371    1.905    0.475
        55 -10.7670      5.2395    235.4500   1.2890752374e+02   2.4496373242e+01    0.2804683    0.2234536  67.71   0.00167614    1.229    0.186
        56 -12.3807     19.6016    238.2988   1.2662568110e+02   2.2526025263e+01     0.559323    0.3222607  43.83  0.003821158    1.567    0.362
        57 -13.1608      5.8060    244.6814   1.2920176551e+02   2.2755048886e+01    0.8659722    0.5166484  46.30  0.004150243    1.487    0.327
        58 -12.0705     21.8638    248.9403   1.2677747878e+02   2.0350649685e+01      0.39405    0.2178718  50.71  0.001693749    1.398    0.285
        59 -11.0076     17.4807    247.4759   1.2742772034e+02   2.1074908489e+01    0.1991729    0.1326743  78.43 0.0005258227    1.161    0.138
        60  -9.4279    243.3089    202.3069   7.8310762606e+01  -5.2105900875e+00    0.1301272   0.08371923   2.83 0.0002474032    1.613    0.380
        61  -9.4264    223.5951    201.7818   8.1764475735e+01  -2.0268966367e+00    0.1679004    0.1181354 -43.27 0.0006611745    1.694    0.410
        62 -10.9556     19.6794    200.6667   1.2442422112e+02   2.9995354817e+01    0.3371882    0.1153373 -76.01  0.001606166    2.509    0.601
        63  -9.6039     34.2864    201.5057   1.2156364261e+02   2.8292094081e+01    0.1326039    0.1145518  31.87 0.0009166265    1.517    0.341
        64  -9.2132    238.6570    200.7176   7.8831684884e+01  -4.2713904237e+00    0.1322652   0.08524902   6.44 0.0007013449    1.635    0.389
        65 -10.0578    215.6502    194.8091   8.1938520649e+01   3.7436489968e-01    0.2079712    0.1523957  -9.75 0.0005731772    1.384    0.278
        66 -10.3373     15.9658    192.6708   1.2463074473e+02   3.2060864349e+01    0.2122291    0.1468497  16.71  0.001088562    2.203    0.546
        67  -9.4434    211.3982    188.3736   8.1509044806e+01   2.1522350787e+00    0.2559786    0.1146539 -25.44 0.0009518837    3.074    0.675
        68  -9.3404      1.6186    188.1842   1.2722109538e+02   3.4293847605e+01    0.1550038   0.08216892 -73.38 0.0005928872    1.604    0.376
        69 -11.2186     15.9980    182.7996   1.2393430342e+02   3.4212500346e+01    0.4303475    0.1916598  81.87  0.002128119    2.205    0.546
        70  -9.8026    167.3010    183.6658   8.9664158634e+01   1.1151821187e+01    0.1406775     0.114375  80.38 0.0007034757    1.656    0.396
        71  -9.5698     58.5392    182.4544   1.1451810218e+02   2.9629089422e+01    0.1302631     0.110563  81.70 0.0001934965    1.016    0.016
        72  -9.2639      1.5585    180.4712   1.2677878164e+02   3.5964406523e+01    0.1166042   0.08509113  82.65 0.0001561312    1.022    0.021
        73 -10.1289    244.2697    178.3425   7.3481679635e+01  -1.8650703091e+00    0.2448205    0.1389381 -23.10  0.001014378    1.729    0.422
        74  -9.9771    223.9860    178.4886   7.7147832333e+01   1.5534978137e+00    0.2089553    0.1674055 -25.74 0.0004928655    1.183    0.155
        75 -10.3147     46.4175    177.6137   1.1676774092e+02   3.2223178833e+01    0.2360241    0.2118026 -85.25  0.001461717    1.163    0.140
        76  -9.8176    200.5864    176.2576   8.1215878300e+01   6.1984582113e+00    0.1966798    0.1290926 -26.02 0.0009134968    1.616    0.381
        77 -11.0816     18.0678    173.3440   1.2276518272e+02   3.6139736295e+01    0.3356079     0.181709  63.80  0.001726547    1.729    0.422
        78 -11.6688     49.7348    162.2390   1.1422075542e+02   3.5438488111e+01     1.009337    0.6046113  30.40  0.005260902    1.926    0.481
        79 -11.0473     40.2753    163.5262   1.1668502270e+02   3.6204792813e+01    0.2624471    0.1693973 -84.27  0.001350677    1.377    0.274
        80 -11.2670     36.9285    157.9353   1.1687425275e+02   3.7887737723e+01    0.2683426    0.1845051  86.89 0.0004003847    1.319    0.242
        81 -11.7837     35.6692    164.7466   1.1792434724e+02   3.6408366833e+01    0.5885844    0.3735175  79.88  0.003033421    1.495    0.331
        82  -8.9851    200.3508    162.7045   7.8418373566e+01   8.6980460903e+00     0.139919    0.1184123  87.77 0.0007033162    1.682    0.406
        83 -12.1233     21.4068    157.2646   1.2058364006e+02   3.9547294814e+01    0.4757816     0.432189 -30.05  0.003317448    1.490    0.329
        84 -10.2472     11.7442    153.6171   1.2255998861e+02   4.1213181140e+01    0.2369649    0.1981389 -14.05  0.001606252    1.739    0.425
        85 -10.2395    177.8888    151.2975   8.0621225306e+01   1.5470610448e+01     0.298489    0.2677776  85.33  0.001003559    1.342    0.255
        86 -10.4164     18.2955    146.4681   1.2028153739e+02   4.2360469967e+01    0.2639993    0.1450271 -53.60  0.001065738    1.821    0.451
        87 -10.2427    207.0706    146.3243   7.3452694772e+01   1.0379522929e+01    0.2044008     0.187605  34.80 0.0007817638    1.134    0.118
        88 -10.3098     41.5050    146.2294   1.1428108714e+02   4.0219574952e+01    0.2066565    0.1717817  47.47 0.0002669326    1.305    0.234
        89 -10.2797     12.6171    146.6830   1.2171753284e+02   4.2766124016e+01    0.1819686    0.1114052  28.90 0.0007036958    1.959    0.489
        90  -9.7409    220.4608    143.9623   7.0382878932e+01   8.1163880832e+00    0.2183866    0.1328538 -37.39 0.0008177509    1.538    0.350
        91 -10.7525     22.9703    143.9505   1.1882798467e+02   4.2562330699e+01    0.2297418    0.1956746 -33.48  0.001083341    1.506    0.336
        92 -10.6371      2.8744    143.6704   1.2384405453e+02   4.4179088303e+01    0.2167565    0.1269485 -69.30  0.001297947    1.377    0.274
        93 -10.3120     49.2734    141.9606   1.1161623300e+02   4.0399006392e+01    0.2063819    0.1993943   3.25 0.0001711509    1.286    0.222
        94 -10.5868     14.6300    140.3455   1.2058687519e+02   4.4106075571e+01    0.2480793    0.1252735  14.13  0.001233881    2.920    0.658
        95 -10.5401      9.1843    137.2235   1.2167249822e+02   4.5249645020e+01    0.2804157    0.1252135 -74.87  0.001002508    1.764    0.433
        96 -10.8516      3.1878    136.2176   1.2311100488e+02   4.5895440049e+01    0.3383462     0.164722 -57.89  0.001842312    1.818    0.450
        97 -10.5824     21.7555    135.8525   1.1822864789e+02   4.4605629564e+01    0.2820443    0.1920977  53.99  0.001675836    1.557    0.358
        98  -9.4142    122.5397    135.4746   9.0349844492e+01   3.0436582554e+01     0.152808    0.1491456 -75.67  8.09191e-05    1.002    0.002
        99 -10.2245    249.7174    134.0325   6.3182964354e+01   4.2224299541e+00    0.1957641     0.158219 -28.04 0.0004790387    1.072    0.067
       100 -10.2238    107.3068    133.1849   9.3928551932e+01   3.3879789109e+01    0.2558339    0.2137361  24.19  0.001286049    1.358    0.264
       101  -9.9944     79.7697    133.1779   1.0162110855e+02   3.8506236873e+01    0.1921745     0.165832 -34.71 0.0006965415    1.298    0.230
       102 -10.1807     56.9698    132.6387   1.0801145700e+02   4.1774100911e+01    0.4398664    0.2387403  20.74  0.001947498    2.509    0.601
       103 -11.0781     37.5414    130.5018   1.1318863976e+02   4.4462575000e+01    0.2807799    0.2569296  88.57 0.0005631249    1.113    0.102
       104 -11.1262     38.3636    127.0595   1.1244325201e+02   4.5222127887e+01    0.2105319    0.2000462 -58.16 0.0004385808    1.178    0.151
       105 -11.1125     73.4411    129.1549   1.0264719566e+02   4.0431496500e+01    0.4579842    0.2669439  54.94   0.00202878    2.031    0.508
       106 -11.5040     10.5628    122.8342   1.1977225518e+02   4.8564102880e+01    0.3683693    0.2174089  46.73  0.000850145    1.897    0.473
       107 -11.3237      2.4826    123.8599   1.2210606710e+02   4.8837869659e+01    0.5101963    0.1149742 -64.43  0.001832171    2.861    0.650
       108 -11.0503     13.4800    126.0354   1.1933277883e+02   4.7598130669e+01    0.2751441     0.196829  37.08 0.0006538513    1.632    0.387
       109  -9.9927    219.9777    124.4917   6.5956496050e+01   1.1693496487e+01    0.2073555    0.1462325  48.06 0.0005545252    1.527    0.345
       110 -11.2777     22.2516    121.4308   1.1627982885e+02   4.8038184295e+01    0.3345945    0.2124349  33.60   0.00114466    1.826    0.452
       111 -11.7164     18.2387    114.6905   1.1653521408e+02   4.9967105511e+01    0.3957984    0.2713956 -32.21  0.002322675    1.752    0.429
       112 -12.7202     14.7187    109.1530   1.1682476667e+02   5.1539818333e+01    0.6838037    0.4088793 -50.12  0.003904732    1.526    0.345
       113  -9.9384    219.7592    116.7372   6.4141293200e+01   1.3126565668e+01    0.2535703    0.1832141  45.62  0.001254441    1.487    0.328
       114  -9.3424    179.4790    116.5171   7.1885498731e+01   2.2169973628e+01    0.1554385    0.1512031 -27.49 0.0001536733    1.004    0.004
       115  -9.5602    214.1189    115.6258   6.4867131569e+01   1.4542589733e+01    0.2024907    0.1358988  38.15 0.0006851237    1.662    0.398
       116  -9.1334    165.7044    115.3249   7.4623307326e+01   2.5583078062e+01    0.1595638    0.1259394 -78.02 0.0005046919    1.624    0.384
       117 -10.2844     35.0746    114.1053   1.1136279332e+02   4.8701011565e+01    0.2047059    0.1626188  85.46 0.0007848957    1.296    0.229
       118 -11.5189     36.4746    109.5000   1.1013932872e+02   4.9685835907e+01    0.3904184    0.2668916  75.58  0.001307158    1.767    0.434
       119 -10.7905    249.1050    112.4147   5.8431601972e+01   7.8742379520e+00    0.2704151    0.1764505 -41.41 0.0005930196    1.356    0.263
       120  -9.5171     94.7488    112.6740   9.2735025737e+01   4.1039728108e+01    0.2383476    0.1242454 -63.24 0.0008909542    2.292    0.564
       121 -12.9628     55.2905    110.3567   1.0437173437e+02   4.7449181854e+01    0.3222317    0.2709865 -55.82 0.0004833475    1.059    0.056
       122 -10.2063     25.5967    108.8111   1.1342596584e+02   5.0809982256e+01    0.2375901    0.1120609 -80.42 0.0009225804    2.304    0.566
       123 -11.9101      2.8262    106.2266   1.2003711513e+02   5.2959699366e+01    0.3264241    0.2566144 -64.72 0.0007504536    1.086    0.079
       124  -9.3177    103.7413    108.0026   8.8892438097e+01   4.0506146899e+01     0.192325    0.1278824 -49.66 0.0002283066    1.440    0.305
       125  -9.6703     91.5040    107.9826   9.2543913473e+01   4.2714518014e+01    0.2236215    0.1408463 -51.79 0.0003381972    1.492    0.330
       126  -9.7849     70.0693    107.2287   9.9017627897e+01   4.6265022694e+01    0.2643262    0.1795313 -88.01  0.000712244    2.035    0.509
       127  -9.8151     62.5771    106.2360   1.0117643107e+02   4.7528772365e+01     0.203797    0.1152944 -48.46 0.0005222771    1.607    0.378
       128 -10.5007    243.9232    104.7051   5.7423112856e+01   1.0164017548e+01    0.1878986    0.1789358 -38.58 0.0006806653    1.083    0.077
       129 -10.6364    247.1521    102.1630   5.6370487807e+01   9.9320424212e+00    0.1896551    0.1819078 -39.22 0.0006242463    1.098    0.089
       130 -10.0785     93.1978    104.1299   9.1041852314e+01   4.3324872745e+01    0.2213374    0.1922664 -28.51 0.0003537372    1.196    0.164
       131 -10.8417     36.7135    102.3990   1.0876203339e+02   5.1375237770e+01    0.3094665    0.2572807  -5.87  0.001335606    1.456    0.313
       132 -11.2974    161.9300     99.7021   7.1279740209e+01   2.9659519039e+01    0.5687594    0.3325188 -36.53  0.002305972    1.729    0.422
       133 -11.4657    157.1914     82.8454   6.7535742369e+01   3.4088558759e+01    0.6670318     0.398236  30.02  0.002536749    2.306    0.566
       134 -11.4104    162.4661     92.3464   6.9092937264e+01   3.0987848763e+01    0.3848024    0.2792442 -27.21 0.0004624636    1.497    0.332
       135 -12.3089    158.8449     89.1477   6.8997960027e+01   3.2482402575e+01    0.6002813    0.4448229 -16.95  0.002553234    1.637    0.389
       136 -12.4678    165.1331     85.3210   6.6491086458e+01   3.1686491009e+01    0.7715866    0.6653299  63.05   0.00387096    1.197    0.164
       137 -10.3813      1.8821     91.0210   1.1831629685e+02   5.6545547340e+01    0.3428966    0.1456026 -76.98  0.001339068    2.080    0.519
       138 -11.3887      3.0456     99.9845   1.1917594433e+02   5.4407128726e+01    0.2797087    0.2156678  65.22            0    1.470    0.320
       139 -10.8430      1.4068     96.2137   1.1919067398e+02   5.5368251348e+01    0.2500745    0.1359281 -78.17 0.0009488839    1.553    0.356
       140 -10.4965    145.5185    100.4949   7.5422617067e+01   3.3339668493e+01    0.5863999    0.3922996  -5.44  0.002190766    2.532    0.605
       141  -9.5794     91.4777    100.5100   9.0617988165e+01   4.4467052259e+01    0.1506544      0.13959 -36.20 3.532611e-05    1.046    0.044
       142 -10.4781     57.5447     96.2620   1.0053390618e+02   5.0555963777e+01     0.286059    0.1916593 -40.29 0.0008047364    1.449    0.310
       143 -11.0554     62.2006     98.7685   9.9579052677e+01   4.9364481234e+01    0.3916903    0.3013179  34.94 0.0009661796    1.446    0.308
       144 -10.4793     66.7817     96.9282   9.7617063542e+01   4.9179018053e+01    0.4128497    0.1621947 -50.17 0.0006971476    2.222    0.550
       145  -9.3646     50.8079     99.2148   1.0345976788e+02   5.0662630698e+01    0.1815452    0.1391969 -40.42  0.000316824    1.262    0.208
       146 -11.3156     20.8634     96.7831   1.1295567377e+02   5.4042878486e+01    0.5175759    0.1596828 -73.59  0.001781496    3.735    0.732
       147 -11.1725     16.0597     98.3572   1.1479103822e+02   5.4008852242e+01     0.243063    0.2121016 -81.74  0.001651178    1.147    0.128
       148  -9.2921     10.2666     99.3539   1.1680898750e+02   5.4145202150e+01    0.1307691   0.07020622 -49.71 0.0004042676    1.627    0.385
       149 -10.4871     40.5229     97.3302   1.0649483491e+02   5.2215946450e+01     0.278307     0.223359  77.61   0.00114048    1.468    0.319
       150  -9.3686    223.3596    103.7968   6.0393490956e+01   1.4630569841e+01    0.2005749    0.1305476 -28.43 0.0004465268    1.543    0.352
       151  -9.4135    109.2625     94.6817   8.3615462092e+01   4.2455303115e+01    0.1491481    0.1214298 -80.27  0.000180045    1.548    0.354
       152  -9.9037     31.5105     93.0134   1.0867146077e+02   5.4081080576e+01    0.1999893    0.1101486 -63.45 0.0004514167    1.525    0.344
       153 -11.5540     10.8138     90.9514   1.1533339943e+02   5.6076629886e+01    0.3473442    0.2648166  44.73 0.0009563663    1.603    0.376
       154  -9.7132    104.1716     91.8746   8.4321616598e+01   4.4076344049e+01    0.2078034    0.1743239 -15.16 -0.000430966    1.316    0.240
       155  -8.9650     46.6934     92.3331   1.0330770788e+02   5.2753305793e+01    0.1329974    0.1016373  81.06  0.000703994    1.666    0.400
       156 -10.4993     25.5561     91.0672   1.1033297295e+02   5.5032193124e+01    0.2612112    0.2335196 -51.85   0.00120451    1.104    0.095
       157 -11.1023     22.9454     86.8491   1.1042208114e+02   5.6216784003e+01    0.3174193    0.1957643 -45.24 0.0005015596    1.431    0.301
       158 -10.7011    143.6696     97.6815   7.5089644008e+01   3.4352164787e+01    0.5936297    0.2350349  42.79  0.001954892    2.674    0.626
       159  -9.1070     27.9850     95.9808   1.1043940319e+02   5.3678811336e+01    0.1494917    0.1200094 -60.92 0.0009213736    1.023    0.023
       160 -10.1007    119.8331    101.4346   8.2490668657e+01   3.8801781210e+01    0.3007207    0.2060543  -9.71  0.001184313    2.286    0.563
       161 -10.6067     97.4941     88.6034   8.5411104382e+01   4.6067310548e+01    0.4585422     0.217352 -32.46  0.001589393    2.807    0.644
       162  -9.4277     83.1354     88.8387   9.0064865195e+01   4.8549428856e+01    0.2025702    0.1621766 -25.03 0.0005647793    1.313    0.238
       163  -9.5287     57.7345     89.5790   9.8833969472e+01   5.2096282603e+01    0.1877588    0.1280744  43.83 0.0007703103    1.703    0.413
       164 -11.2129     67.2380     84.6822   9.4247514946e+01   5.1938649458e+01    0.5105383    0.2801601 -26.01  0.002031133    2.640    0.621
       165  -9.6551    111.3274     85.6513   8.0338140186e+01   4.3982889328e+01    0.2454865    0.1943453 -88.82  0.001131609    1.754    0.430
       166 -11.3337      4.3976     85.0453   1.1656561069e+02   5.7793564517e+01    0.6187677    0.2163823 -62.55  0.002943664    2.003    0.501
       167 -12.0573     22.7084     67.4330   1.0624974879e+02   6.0628044550e+01     1.019566    0.5692036  77.64  0.002238336    4.664    0.786
       168 -12.5542     16.3638     67.9079   1.0886268383e+02   6.0969241736e+01     0.297487     0.218107 -38.39 0.0003881799    1.214    0.176
       169 -11.8248     12.8923     78.3143   1.1236563571e+02   5.8857649537e+01    0.5601012    0.2081221 -61.89  0.001513815    2.000    0.500
       170 -12.4365      7.7741     74.2039   1.1346588352e+02   6.0077573540e+01    0.7131743    0.4545156  -5.21  0.004319676    1.944    0.486
       171 -10.6083    132.9350     83.1874   7.3570989131e+01   3.9773538138e+01    0.2634742    0.2379134 -69.11 0.0005827078    1.222    0.181
       172 -11.5893     43.0096     82.7344   1.0233292072e+02   5.5374003555e+01    0.3972534    0.2314417  42.40  0.001436384    2.084    0.520
       173 -10.0940     79.1574    101.3918   9.4719091130e+01   4.6299124026e+01     0.203767    0.1331245  48.84 0.0009412891    1.751    0.429
       174  -9.9613    117.8710     82.6709   7.7531131978e+01   4.3224902895e+01     0.278457    0.2041259 -29.38 0.0008766862    1.431    0.301
       175 -10.4686     85.6477     81.4662   8.7077702729e+01   4.9749551786e+01    0.2890204    0.2230168 -24.65 0.0004708161    1.360    0.265
       176 -10.9661     31.2615     81.1744   1.0623887653e+02   5.6854547574e+01    0.4382186    0.2093767 -35.47  0.001943931    2.294    0.564
       177 -10.6526     21.7113     77.0685   1.0885349147e+02   5.8551868362e+01    0.2830677    0.2001564  36.15 0.0008886129    1.729    0.422
       178 -10.5423     21.6690     81.2750   1.0975769029e+02   5.7596700137e+01    0.3283493    0.1812279 -24.74  0.001660828    2.230    0.552
       179 -10.2992     18.5059     79.5131   1.1054988665e+02   5.8222762223e+01    0.2206182    0.1586316 -44.04 0.0007881906    1.221    0.181
       180  -9.2116    146.3261     81.6552   6.9728599911e+01   3.6935803234e+01    0.1635014     0.124135 -76.13 0.0007050529    1.743    0.426
       181  -9.9540    112.0135     79.3426   7.8185023234e+01   4.5145275678e+01    0.2049863    0.2009514   6.44  0.000555697    1.038    0.037
       182 -11.6773     50.4461     68.6318   9.5737512734e+01   5.7673656009e+01     0.395195    0.3065505 -12.18  0.001502796    1.367    0.269
       183 -11.5557     58.9297     75.3605   9.4550470474e+01   5.5149358529e+01    0.6293799    0.4178813 -73.76  0.001606477    2.149    0.535
       184 -11.8861     62.2193     72.0247   9.2355089857e+01   5.5427133488e+01    0.6008962    0.4275901  76.94  0.002772911    2.545    0.607
       185 -10.8077     54.0389     73.8696   9.5918412217e+01   5.6101443238e+01    0.3190117    0.2475567 -71.14   0.00090059    1.537    0.350
       186 -12.2788     44.9265     75.2629   9.9705817703e+01   5.6855827903e+01    0.3014338    0.2361368  36.09  0.000422189    1.492    0.330
       187  -9.5093    121.9923     76.2137   7.4346438126e+01   4.3615760429e+01    0.2088321    0.1237434  47.30 0.0008706441    1.704    0.413
       188 -11.1062     90.3657     75.1696   8.3570139090e+01   5.0246389687e+01    0.2862219    0.2485734 -43.40 0.0008045839    1.130    0.115
       189 -10.5741     94.1465     74.0296   8.1978514135e+01   4.9781525973e+01    0.4094026    0.2022715 -44.35            0    1.947    0.486
       190 -10.0959     75.0037     75.0420   8.8717362838e+01   5.2887103642e+01    0.3373459    0.2810118 -29.23   0.00187072    1.127    0.112
       191 -10.9122     77.7596     71.8681   8.6760608940e+01   5.3111449614e+01     0.371446    0.1953782  48.48  0.001307977    2.362    0.577
       192 -12.0128    150.2080     71.6192   6.5743694386e+01   3.7857300986e+01     0.415521    0.2774229 -42.52 0.0002713321    1.509    0.337
       193  -9.8827    137.6311     74.1622   6.9564242623e+01   4.0419649124e+01     0.241367    0.1888721 -52.36 0.0004931749    1.370    0.270
       194 -10.3189    145.6790     73.4071   6.7358304522e+01   3.8635244964e+01    0.3037412    0.2357502 -25.02 0.0008282142    1.378    0.274
       195 -10.5125    102.3459     72.9557   7.9045925596e+01   4.8408173548e+01    0.2538176    0.2050723  52.55  0.000644927    1.366    0.268
       196  -9.8017    128.9566     71.7050   7.1017143800e+01   4.2901819823e+01       0.2132     0.188118  44.47 0.0003080682    1.130    0.115
       197 -10.0696     39.4276     72.3122   1.0099500359e+02   5.8085868932e+01    0.2387143    0.1960798  30.98  0.001469328    1.424    0.298
       198 -10.8128     36.8130     67.9003   1.0081077638e+02   5.9311389493e+01    0.3387728    0.2456633 -26.93  0.001317338    1.353    0.261
       199 -10.1610     31.2087     67.9314   1.0302145260e+02   5.9824833761e+01    0.2930558    0.1709925 -55.00  0.001580556    1.427    0.299
       200 -11.3857    167.5757     69.9855   6.1484974072e+01   3.3841984731e+01    0.2656477    0.2179991  57.91 0.0003170306    1.213    0.176
       201  -9.1817    200.5094     68.3887   5.5046200111e+01   2.5930239029e+01    0.1452225    0.1380778 -77.14 9.091741e-05    1.026    0.025
       202  -9.2641    123.2188     68.0000   7.1348100358e+01   4.4897744936e+01    0.1980959    0.1227321 -37.21 0.0004992419    1.612    0.380
       203 -11.7137     94.1435     66.5337   7.9499865022e+01   5.1273450706e+01    0.3567576     0.272831  -7.90 0.0004162369    1.493    0.330
       204 -10.8014     77.1789     64.6074   8.4576128380e+01   5.4684101667e+01    0.4947609    0.3175907 -29.85  0.002389249    1.581    0.368
       205  -9.8470     42.5423     67.8949   9.8570945989e+01   5.8727670815e+01    0.2058676    0.1117179 -51.82   0.00102045    1.569    0.363
       206 -11.7931      3.3755     64.8882   1.1332257606e+02   6.2362802539e+01    0.4594713    0.3624406  76.01  0.002561318    1.606    0.377
       207 -12.3785      5.1279     58.9169   1.1134733607e+02   6.3571712234e+01    0.2592243    0.2267869 -56.52  0.000403642    1.159    0.137
       208 -10.6963     68.6090     63.8622   8.7405786241e+01   5.6196858326e+01    0.5610406    0.1593714 -44.17  0.001679309    3.191    0.687
       209 -11.1495    152.9677     63.8811   6.2716719507e+01   3.8521550317e+01    0.3230787     0.255998  48.28 0.0003179221    1.245    0.197
       210 -10.8657    155.8526     60.3124   6.0978720594e+01   3.8394948912e+01    0.2880732    0.2489261 -32.12  0.000335805    1.187    0.157
       211 -10.4350    121.5181     62.2753   6.9899797067e+01   4.6314242494e+01    0.3669112    0.2454338 -48.55  0.001629067    1.642    0.391
       212 -11.2294     51.1055     63.1571   9.3805014672e+01   5.8749421744e+01    0.3380563    0.2896471 -45.91  0.001469758    1.139    0.122
       213 -11.2689     45.9532     57.0976   9.3906276056e+01   6.0608851239e+01    0.4019217    0.2248584  33.01 0.0009733334    1.993    0.498
       214  -9.5530    109.4335     63.2275   7.3646390857e+01   4.8802349716e+01    0.2049703    0.1377996 -48.74 0.0004111515    1.627    0.385
       215 -11.0340     83.4154     61.4819   8.1334159501e+01   5.4223580547e+01    0.3746267    0.2856944  52.74  0.001945171    1.582    0.368
       216  -9.9786     86.7057     59.0071   7.9345167769e+01   5.4097443500e+01    0.3225031    0.2893734  78.46  0.001798765    1.479    0.324
       217 -10.4912     11.2923     62.4664   1.0963682030e+02   6.2472922552e+01    0.1986044    0.1689147 -55.61  0.000440598    1.117    0.105
       218  -9.7296    201.4904     61.9053   5.3148223324e+01   2.6717952683e+01    0.2126578    0.1397771 -35.76 0.0003567634    1.484    0.326
       219  -8.8070    113.7969     61.9878   7.1954865971e+01   4.8084928024e+01    0.1825558    0.1165832 -35.93            0    1.560    0.359
       220 -10.0014    218.1000     61.1169   5.0519179331e+01   2.2848717730e+01    0.2019576     0.190091  15.57  0.000334974    1.268    0.211
       221 -11.0648     63.9953     60.0984   8.7850355773e+01   5.7637891366e+01    0.2470764    0.2185309  11.47 0.0006767805    1.159    0.137
       222 -11.1026     26.8562     50.2592   9.9750917782e+01   6.3923879941e+01    0.4713685    0.2697527 -67.21  0.001964107    2.237    0.553
       223 -11.0077     30.0301     60.8182   1.0155288685e+02   6.1460914392e+01    0.5634394    0.2651007   8.58  0.002349405    3.008    0.667
       224 -12.0231    232.8648    245.5218   8.7637333829e+01  -9.2693726760e+00    0.6027472    0.2036159 -31.73  0.002796099    3.261    0.693
       225 -11.2863    147.2388     56.7713   6.1726526244e+01   4.1111621739e+01    0.2568231     0.255416 -83.12 0.0002518535    1.030    0.029
       226 -11.6726     77.5847     46.9534   7.8062084282e+01   5.7891704713e+01    0.4940373    0.4324206  72.06  0.000560517    1.623    0.384
       227 -11.8725     75.3437     56.1308   8.2275550447e+01   5.6626581039e+01    0.2384965    0.2142223 -19.82 0.0002693055    1.038    0.037
       228 -10.9368     70.6923     50.3373   8.1852645172e+01   5.8458749204e+01    0.5669131    0.4498112  83.88  0.002887814    2.250    0.555
       229  -9.3841    135.3622     65.2734   6.7288659848e+01   4.2567629040e+01    0.1586007    0.1158369  22.37 0.0002914641    1.659    0.397
       230 -10.4399    130.0476     55.0217   6.5208333254e+01   4.5565718652e+01    0.3056362    0.2521502  16.51 0.0008515707    1.329    0.248
       231 -12.1411    129.9070     49.5439   6.3367167840e+01   4.6468549912e+01     0.527876     0.369523  -5.23 0.0004595601    1.814    0.449
       232 -10.4068     98.3733     55.8003   7.4399628243e+01   5.2428535216e+01    0.4169103    0.1979497  49.48  0.001676918    2.251    0.556
       233  -9.4300    213.4751     54.4828   4.9454969826e+01   2.4938199868e+01    0.1424081     0.129534 -65.87 6.841646e-05    1.002    0.002
       234 -10.1969    119.6162     53.0202   6.7224974660e+01   4.8318794807e+01    0.2757497    0.1875513  34.34 0.0001237895    1.537    0.349
       235  -9.3696    108.8120     53.1546   7.0294043506e+01   5.0698907258e+01    0.2016669    0.1634986   7.54 0.0004145666    1.327    0.246
       236 -10.7197     87.2946     52.3027   7.6717957051e+01   5.5201169123e+01    0.2801037     0.235139 -19.27  0.001009546    1.125    0.111
       237 -10.0730     63.0884     52.1079   8.5381649760e+01   5.9314282362e+01    0.4097793    0.2283125  -2.81  0.001537343    3.464    0.711
       238 -11.5102      5.2676     52.1737   1.0970768417e+02   6.4994463935e+01     0.426933    0.2177518 -27.91  0.002379975    1.980    0.495
       239 -11.0085     12.0807     51.0998   1.0646706462e+02   6.4837509363e+01    0.2932442    0.2029446 -63.57 0.0004542181    1.382    0.276
       240 -10.8075     11.7506     43.9248   1.0458510370e+02   6.6320517711e+01    0.3622626    0.2187897 -42.05  0.002035507    1.276    0.217
       241 -10.7570    104.3076     51.9905   7.1202106018e+01   5.1856506609e+01    0.3335097    0.2076867 -54.80  0.001441041    2.178    0.541
       242  -9.2385     99.5321     52.4205   7.2812826929e+01   5.2777614016e+01    0.1435364     0.132501   7.20 7.360958e-05    1.011    0.011
       243  -9.7550     44.7759     51.2759   9.2432453919e+01   6.1904896782e+01    0.1849708    0.1306596 -23.68 0.0006710481    1.333    0.250
       244  -9.6484     17.0919     51.5397   1.0439830710e+02   6.4419522462e+01    0.1530723    0.1155058   9.62 0.0004383778    1.505    0.336
       245 -10.0795     53.3505     50.1429   8.8512454079e+01   6.1053586934e+01    0.2167827    0.1683489   6.16 0.0006720053    1.312    0.238
       246  -9.7683    166.8900     48.7954   5.5231704672e+01   3.7391331588e+01    0.2181793    0.1922573  41.00 0.0005094297    1.183    0.155
       247 -11.1628    151.6453     47.8091   5.7890553359e+01   4.1392665635e+01    0.3702663    0.2639839  29.23 0.0003504605    1.652    0.395
       248 -10.7324    155.9705     46.6410   5.6643866863e+01   4.0473997791e+01      0.37498    0.2664581 -16.48  0.001177403    1.653    0.395
       249 -11.1178    112.3356     47.0653   6.7086573732e+01   5.0910690137e+01    0.4830316    0.3404931  60.24  0.002351167    1.586    0.369
       250 -11.1209     92.2428     44.8893   7.2294738745e+01   5.5493290218e+01    0.6482791    0.2455193 -45.90  0.002263471    3.337    0.700
       251 -10.0873    120.2989     46.9486   6.4893266328e+01   4.9122959383e+01    0.3106103    0.2029443  23.92  0.001153478    1.876    0.467
       252 -10.6067    143.1239     45.8659   5.9058156346e+01   4.3804098165e+01    0.3201834    0.2413473  89.04 0.0007759607    1.658    0.397
       253 -10.6195     57.6340     41.8568   8.3653394042e+01   6.1969997398e+01    0.3768788    0.2664706  69.70  0.001710049    3.245    0.692
       254 -10.5881     51.1062     44.9726   8.7523743562e+01   6.2313841966e+01    0.2321103    0.1889301  -0.55 0.0003594428    1.173    0.147
       255 -11.5421     52.0939     39.5657   8.5021074143e+01   6.3148067495e+01    0.4647779    0.2990977 -18.11  0.001356951    1.597    0.374
       256 -11.2166     57.6348     34.8336   8.0808622667e+01   6.3154685719e+01    0.2632349    0.2316111 -26.42  0.000229825    1.203    0.169
       257 -10.0874     54.7236     30.3103   8.0086848635e+01   6.4308230275e+01    0.2281356    0.1809701 -51.72  0.000853357    1.709    0.415
       258 -10.5325    221.8492     43.0956   4.5514270278e+01   2.4567320606e+01     0.218077    0.1937286 -31.74 0.0007075999    1.230    0.187
       259  -9.5823    174.8280     44.1986   5.2450826178e+01   3.6030172133e+01    0.1916076    0.1707937  30.28 0.0009502801    1.254    0.203
       260 -10.1979    149.0758     42.1606   5.6580910807e+01   4.2848754549e+01    0.3333712    0.1983881 -35.27 0.0008262584    1.726    0.421
       261 -11.4725     23.9408     42.4494   9.8515798175e+01   6.5717990021e+01    0.5500413    0.3703794  75.68  0.002542045    3.822    0.738
       262 -12.2863     27.7934     38.1042   9.5211851798e+01   6.6203113204e+01    0.4809019    0.2761198 -36.20 0.0003499232    1.438    0.305
       263 -11.4310     24.5161     35.4239   9.5765341182e+01   6.6998530713e+01    0.3029628    0.1959169  -5.57 0.0005804356    1.619    0.382
       264  -9.9702      7.0321     41.5429   1.0607107159e+02   6.7075827415e+01    0.2600836    0.1067157 -50.08 0.0008327496    1.746    0.427
       265  -9.9654    163.0117     42.3112   5.3945870219e+01   3.9302061792e+01    0.1993695    0.1785658  66.58 0.0004326866    1.065    0.061
       266  -9.6932    110.5871     41.7269   6.5603518885e+01   5.2111635519e+01    0.2296879    0.1774246  76.95 0.0003096066    1.727    0.421
       267 -10.6504     65.1360     41.8678   8.0696662706e+01   6.0833694807e+01    0.4293318     0.219715  48.34  0.001611086    2.550    0.608
       268 -11.8944     69.6086     38.2168   7.7525267189e+01   6.0712016030e+01    0.5031322    0.3402616 -26.80   0.00176027    1.391    0.281
       269  -9.4958    138.6624     41.2888   5.8493754596e+01   4.5560813946e+01    0.1467954    0.1133785 -75.95 0.0003555677    1.637    0.389
       270 -11.9909    225.7771    245.9657   8.8955282360e+01  -8.3321746129e+00     0.513837    0.2683326  -8.99  0.002566269    2.703    0.630
       271 -11.7162     93.2895     24.4701   6.3785092703e+01   5.8192126466e+01    0.6531201    0.4237809  54.96  0.001762502    1.606    0.377
       272 -10.1186     99.0113     20.4841   6.0489681524e+01   5.7449026770e+01    0.1956463    0.1677424  -5.62  0.001166892    1.164    0.141
       273 -11.8676    100.9576     37.3270   6.6679908033e+01   5.4851619738e+01    0.9068238    0.3982709  33.13  0.002763224    2.960    0.662
       274 -10.6597    105.1755     34.5924   6.4402642236e+01   5.4325160663e+01    0.2985953    0.2364546 -49.10 0.0007580727    1.512    0.339
       275 -10.1773    147.4955    245.5081   1.0349261968e+02   3.6974966307e+00     0.124118    0.1005046  38.56 -0.0001228204    1.023    0.023
       276 -10.6124    104.6498     25.4036   6.0937363712e+01   5.5631935374e+01    0.3729587    0.2566395  86.37  0.001044812    2.415    0.586
       277  -9.1373     82.6372     40.7602   7.3874069054e+01   5.8000402276e+01    0.2317207    0.1226421 -45.15 0.0002680527    2.164    0.538
       278 -11.2362     81.4190     35.6878   7.2247289617e+01   5.9010578541e+01    0.5729186    0.3527706  -4.21  0.002639216    2.125    0.529
       279 -11.0895     78.9553     31.8698   7.1516277223e+01   6.0032220634e+01    0.7668153     0.410595   3.57  0.002768814    3.719    0.731
       280  -9.2666    183.5287     60.4720   5.5699848508e+01   3.1402188811e+01    0.1495165    0.1409261 -75.65 0.0001240113    1.028    0.028
       281 -10.8028     59.1941     59.1022   8.9340442637e+01   5.8519124673e+01    0.2168852    0.1644205 -21.76 0.0008278726    1.270    0.213
       282 -10.5660     41.8437     36.8207   8.8337880436e+01   6.4940985601e+01    0.3832303    0.2797908  57.07  0.002096317    2.417    0.586
       283  -9.9141    120.0111     40.0205   6.2468263238e+01   5.0213292273e+01    0.2249477    0.1769872 -77.46 0.0006910601    1.740    0.425
       284 -10.4265    229.4333     36.3066   4.3013939886e+01   2.3713652393e+01    0.2294156    0.1841565   0.15  0.000768051    1.754    0.430
       285  -9.0918    115.6718    244.6835   1.0951674459e+02   8.7873677008e+00    0.1128249   0.09196848  11.18 0.0007045551    1.678    0.404
       286 -11.6292     10.2055     34.1821   1.0225305277e+02   6.8322160295e+01    0.6396723    0.3274421  36.24  0.003519412    2.681    0.627
       287 -10.8804     17.4090     31.0129   9.7576399858e+01   6.8402308364e+01    0.4064802    0.2226418   7.88  0.002320234    2.049    0.512
       288 -10.1242    109.9746    243.4448   1.1047575475e+02   9.8625651420e+00    0.2221533    0.1560801  80.88  0.001042388    1.649    0.393
       289 -10.1483    179.3228    243.6817   9.7154685636e+01  -1.0598825270e+00    0.1168535   0.08924511  58.52 0.0005738639    1.669    0.401
       290 -10.4807     88.8847    241.2229   1.1428145522e+02   1.3356867456e+01     0.198714    0.1499526 -36.51  0.001222801    2.110    0.526
       291 -10.4193    156.5179    241.5274   1.0122952011e+02   2.8836265156e+00      0.12549     0.102312  36.59 0.0001200874    1.006    0.006
       292 -11.0105     22.2745     25.0637   9.2800608698e+01   6.9043850151e+01    0.3214819    0.2702411  -3.13 0.0006335617    1.207    0.172
       293 -10.1525    195.4613    238.7311   9.3368918946e+01  -2.8860769399e+00    0.2492473    0.1681375  22.29   0.00149827    1.325    0.246
       294  -9.8188    135.1557    238.1564   1.0496182150e+02   6.8473278791e+00    0.3115245    0.1274209 -39.52  0.001238577    4.115    0.757
       295 -11.9015     30.0573    233.8368   1.2456393442e+02   2.2238819250e+01    0.3977166     0.176884  84.39  0.002167103    2.220    0.550
       296  -9.4600      1.7671     37.3727   1.0735331782e+02   6.8176030816e+01    0.1518133   0.09147598 -14.71 0.0009478704    1.716    0.417
       297  -9.3451    194.3201     47.2963   5.0258538777e+01   3.0670109080e+01    0.1428644    0.1099854  31.87  0.000403648    1.615    0.381
       298 -11.1830    192.7558     33.0897   4.6565106864e+01   3.2976563243e+01    0.2422149    0.2149972  79.32 0.0002442086    1.065    0.061
       299 -10.6911    167.6113     32.7031   5.0190292153e+01   3.9399633029e+01    0.3205647    0.2235452  88.28 0.0009094815    1.597    0.374
       300  -9.2921    200.4224     41.4453   4.7799577271e+01   2.9967257825e+01    0.1424104    0.1265899 -72.08 3.520206e-05    1.047    0.045
       301 -10.2112    235.9000     30.8076   4.1067273602e+01   2.2951618829e+01    0.2430909    0.1740166  49.00  0.001357511    1.719    0.418
       302  -9.3163    157.5372     31.4973   5.1527804765e+01   4.2115963510e+01    0.1425291    0.1334109  77.16 9.347785e-05    1.030    0.029
       303  -9.4744     73.8142     31.3984   7.3138051758e+01   6.1035503789e+01     0.171749    0.1134348  27.72 8.170774e-05    1.487    0.327
       304 -10.6328     48.2197     30.0584   8.2741526954e+01   6.5267664428e+01    0.4802683    0.3045349  13.79  0.002661066    1.678    0.404
       305 -10.9955     61.1326     26.3077   7.5727073877e+01   6.3925977902e+01    0.5084561    0.1662499 -36.38  0.002028375    2.924    0.658
       306 -10.2873    209.0736     27.6304   4.3096826150e+01   2.9631995393e+01    0.2147813    0.1921664 -33.22 0.0002158116    1.237    0.192
       307 -10.2302    214.5374     26.8633   4.2297585136e+01   2.8409459233e+01    0.2231096     0.166218 -70.32  0.000620345    1.265    0.209
       308 -10.2983    246.9872     33.2915   4.0592450340e+01   2.0187423095e+01    0.1747093    0.1475242 -82.55 0.0004174855    1.125    0.111
       309 -11.1622    112.0636     25.0185   5.8851863279e+01   5.4007712294e+01    0.2764666    0.2202666 -14.46 0.0004265624    1.311    0.237
       310 -10.7189     71.5490     25.3597   7.1349476480e+01   6.2293941515e+01     0.437205    0.2451116  15.22   0.00196765    2.380    0.580
       311  -9.5725    184.1974     26.3620   4.5844773978e+01   3.5958921148e+01    0.1961529    0.1236025  82.25 0.0003636881    1.632    0.387
       312 -12.0718     29.1606    248.5116   1.2554286149e+02   1.9633321775e+01    0.7132675    0.2663359  61.50  0.003865816    2.251    0.556
       313 -11.3207    132.1627     25.7987   5.4506189981e+01   4.9147492346e+01    0.4979744    0.2670304  30.18 0.0003310709    2.408    0.585
       314 -11.6508    128.9502     23.2091   5.4260294463e+01   5.0227577024e+01    0.3462798    0.2783265  -1.65 0.0004275794    1.374    0.272
       315 -10.7515    129.2174     19.0385   5.2700100651e+01   5.0620640405e+01    0.2544602    0.2273906  28.74 0.0005295636    1.109    0.098
       316  -9.3641    119.1406     25.7469   5.7399880794e+01   5.2278532136e+01    0.1887208    0.1648362  38.36 0.0003267652    1.045    0.043
       317  -9.8073    120.2427     21.2177   5.5444021566e+01   5.2538292276e+01    0.3368527    0.1991385   9.03  0.001170935    2.354    0.575
       318  -9.5108     16.5577     26.5538   9.6300302757e+01   6.9271887857e+01    0.1196671   0.08874439 -27.95 0.0001311367    1.034    0.033
       319  -9.1189     65.5271     25.4798   7.3647872593e+01   6.3320876450e+01    0.1303291    0.1107806   1.57 -2.064357e-06    1.022    0.022
       320 -10.6847     10.3907     24.9689   9.8867302328e+01   7.0011818888e+01    0.2544597    0.1456152  -1.99    0.0010355    1.875    0.467
       321 -11.4378     37.6358    244.0033   1.2384192916e+02   1.9489637754e+01    0.5048062     0.249762 -84.36  0.002970607    1.940    0.484
       322  -9.9132    177.4970    234.9279   9.6222067402e+01   5.1638427614e-01    0.1654597    0.1243233 -36.62 0.0009007467    1.552    0.356
       323  -9.8531    167.3795    233.7641   9.8022006960e+01   2.3386391400e+00    0.1569608    0.1178508 -28.62 0.0009278479    1.589    0.371
       324  -9.3377    159.3191     24.2945   4.8943121953e+01   4.2522588269e+01    0.1450929   0.09988572  37.30 0.0001966691    1.609    0.379
       325 -10.3220     85.8977     22.7525   6.5333681913e+01   5.9916409471e+01    0.3910567     0.239358 -57.29  0.001682268    3.094    0.677
       326 -11.0407    153.7110    233.8011   1.0072100394e+02   4.5674712938e+00     0.223453    0.1799918  -1.24 0.0009293485    1.532    0.347
       327  -9.2628     35.4125     22.9181   8.5420596558e+01   6.8026169250e+01    0.2657563    0.1241396  16.91  0.001224367    2.759    0.637
       328  -9.8566    241.0578     21.6693   3.8519914897e+01   2.2928960047e+01     0.172903    0.1423837 -84.10 0.0003568254    1.116    0.104
       329  -9.6004    227.1272     22.1785   3.9885909115e+01   2.6014633659e+01    0.1865903    0.1298645 -70.77 0.0005217341    1.337    0.252
       330 -10.4628    155.7065     21.9465   4.8793826147e+01   4.3704279058e+01    0.2475741    0.1888519  74.59 0.0001943177    1.261    0.207
       331 -10.4338     67.2293     21.7338   7.1321932611e+01   6.3541231252e+01    0.2981411    0.1524517  49.06  0.001427131    2.190    0.543
       332 -10.5521     86.4889    233.0052   1.1394970190e+02   1.5207156555e+01    0.2552891    0.1315933  53.22  0.001066523    1.664    0.399
       333 -10.1197     24.2150    232.3259   1.2550831266e+02   2.3160895418e+01    0.1731531    0.1432129  82.52 0.0006302021    1.242    0.195
       334 -10.5491    162.0139     20.3165   4.7269296285e+01   4.2283045266e+01    0.2645337    0.1863812 -73.80  0.001270163    1.618    0.382
       335  -9.5146    139.3714     20.3193   5.1148415918e+01   4.7986751940e+01    0.2164887    0.1432979  31.95 0.0005653885    1.675    0.403
       336 -10.6523     35.4905    239.5083   1.2394528335e+02   2.0563536346e+01    0.2572172    0.1788415 -58.96  0.001767328    1.912    0.477
       337  -9.8513     79.9433    231.4991   1.1507947790e+02   1.6419607727e+01    0.1812491    0.1014054  42.73 0.0004737482    1.533    0.348
       338 -10.4900     41.5744     19.5068   8.0968025323e+01   6.7778715400e+01    0.2464994    0.1959116 -23.85 0.0008333126    1.184    0.155
       339  -9.8332    190.5555    226.6355   9.2405007870e+01  -3.5535784957e-01    0.2080054     0.121042 -33.67 0.0008216018    1.947    0.486
       340 -11.2258    120.2837    226.4809   1.0646910378e+02   1.1274760792e+01    0.1996157    0.1700902  54.06 0.0007069649    1.026    0.026
       341 -10.0758     66.1899    226.1673   1.1727059253e+02   1.9327157398e+01    0.1929949    0.1506015  40.44 0.0006907007    1.364    0.267
       342 -10.5964      4.5845    226.1976   1.2860949591e+02   2.6304819590e+01    0.2776897    0.1059708  52.11    0.0014746    1.979    0.495
       343  -9.9358     69.9814     17.0585   6.8173381791e+01   6.3647744691e+01    0.2820015    0.1401684  26.60 0.0008204434    2.310    0.567
       344 -10.1970    159.8976    235.8792   9.9792730766e+01   3.2248506864e+00    0.1948519    0.1546133  19.51 0.0005767581    1.278    0.218
       345 -10.2318    123.4512    222.2645   1.0527952767e+02   1.1540635261e+01    0.2103093    0.1251383 -51.27 0.0006908249    1.949    0.487
       346 -10.1773    141.8494    220.9653   1.0130491819e+02   8.7297407840e+00    0.2817858    0.1763466  22.99  0.001393173    1.950    0.487
       347  -9.1574    250.3407    219.3133   8.0193586513e+01  -8.4990641318e+00    0.1273763   0.07653534   4.95 0.0007046868    1.700    0.412
       348  -9.4926    174.0089    220.0000   9.4602304459e+01   3.4403103051e+00    0.2220898   0.06568144  39.87 0.0008009644    2.932    0.659
       349  -9.0610    233.6711     14.7222   3.7577716761e+01   2.5390922947e+01     0.117279   0.09390729  47.04 0.0006995286    1.596    0.374
       350  -9.1585     77.6790    219.0103   1.1430713048e+02   1.9172469181e+01    0.1847574   0.07773302 -46.06   0.00068554    4.194    0.762
       351 -10.6651     55.2330     22.6226   7.6454040408e+01   6.5381686391e+01    0.2574711    0.1452223  -9.26 0.0009766119    2.202    0.546
       352  -9.5164     55.0000     12.9911   7.1983491903e+01   6.6700573472e+01    0.1512828    0.1193256  -6.59 0.0003525801    1.096    0.088
       353 -11.3427      9.6003    217.0596   1.2728522167e+02   2.7613355249e+01    0.2855672    0.1633463  65.06  0.001178024    1.353    0.261
       354 -11.5143    240.9716    211.7868   8.0468960051e+01  -6.1616872771e+00     0.476887    0.3779213  41.15  0.003061276    1.558    0.358
       355  -9.6316     37.7590    217.4309   1.2207131647e+02   2.4590464167e+01    0.1391165     0.107636  33.79 0.0007062108    1.588    0.370
       356  -9.7103    226.3262     10.3124   3.7181285489e+01   2.7556375035e+01    0.1207905   0.09404639  43.86            0    1.663    0.399
       357 -11.5810     30.3397    215.8615   1.2337767716e+02   2.5736459700e+01     0.358268    0.2571859  16.46  0.002248459    2.262    0.558
       358  -9.8956     23.4745    216.6592   1.2472081269e+02   2.6307740439e+01    0.1820213   0.09433649  37.61  0.001078818    1.927    0.481
       359  -8.8849    201.6891    215.6473   8.8417663193e+01  -5.1996500260e-01    0.1358147   0.09114052   4.22 0.0007044554    1.724    0.420
       360  -9.4879    194.5178    215.4807   8.9783382759e+01   6.9972023756e-01    0.1321109     0.111599  19.01 -8.050978e-05    1.014    0.014
       361  -9.3091    137.1739    215.6302   1.0150838537e+02   1.0490955903e+01    0.1935617    0.1140445  31.66 0.0009432906    1.714    0.417
       362  -9.3151    115.2713    215.3302   1.0607567998e+02   1.4187260294e+01    0.1192772    0.1029917  -9.46 0.0002795202    1.587    0.370
       363  -9.7440     67.3971    214.9268   1.1599510730e+02   2.1415573122e+01    0.2127442    0.1506582 -60.75  0.001296232    1.589    0.371
       364 -10.4875     21.4164    212.4864   1.2484806583e+02   2.7366042931e+01    0.3149284    0.1329277  53.54   0.00173039    1.951    0.487
       365 -10.1220    208.9710    212.0556   8.6391088759e+01  -1.1758116291e+00    0.1994881    0.1639349  10.88 0.0005230446    1.058    0.055
       366  -9.5048     76.3345    212.2947   1.1389126205e+02   2.0725745352e+01    0.1117505    0.1007781 -16.85 0.0005857334    1.643    0.391
       367 -10.3434     10.7051    208.6833   1.2663286694e+02   2.9196242583e+01    0.2012893    0.1572157 -59.73 0.0006965328    1.661    0.398
       368  -9.1408    125.7072     18.2945   5.3161101806e+01   5.1549098791e+01    0.2063897    0.1618259  71.34 0.0004143593    1.318    0.241
       369 -10.1048      2.0343    212.2471   1.2840546556e+02   2.9272538549e+01    0.1829235    0.1377301  61.91 0.0009397715    1.195    0.163
       370 -11.8854      4.6799    207.2743   1.2767503812e+02   3.0039225822e+01    0.5343494    0.2255393  80.74  0.002895131    2.092    0.522
       371  -8.9610    188.4863    209.4854   8.9943071441e+01   2.6853793668e+00    0.1335181    0.1168982  23.84 7.898493e-05    1.035    0.034
       372 -11.1712     18.4809    203.5077   1.2484364105e+02   2.9516288803e+01    0.3036527    0.1426928  52.72  0.001736025    1.799    0.444
