#   1 NUMBER                 Running object number                                     
#   2 MAG_AUTO               Kron-like elliptical aperture magnitude                    [mag]
#   3 X_IMAGE                Object position along x                                    [pixel]
#   4 Y_IMAGE                Object position along y                                    [pixel]
#   5 X_WORLD                Barycenter position along world x axis                     [deg]
#   6 Y_WORLD                Barycenter position along world y axis                     [deg]
#   7 A_WORLD                Profile RMS along major axis (world units)                 [deg]
#   8 B_WORLD                Profile RMS along minor axis (world units)                 [deg]
#   9 THETA_WORLD            Position angle (CCW/world-x)                               [deg]
#  10 FWHM_WORLD             FWHM assuming a gaussian core                              [deg]
#  11 ELONGATION             A_IMAGE/B_IMAGE                                           
#  12 ELLIPTICITY            1 - B_IMAGE/A_IMAGE                                       
         1 -11.1765    202.5040     15.3758   4.4596502884e+01   3.2129600163e+01     1.987309    0.6170667 -17.37  0.005920299    4.509    0.778
         2 -13.2792    205.2465     75.4130   6.1720397095e+01   2.3278497758e+01     5.369919     3.180536  83.61  0.008679022    2.728    0.633
         3 -14.0524    218.6762     27.3839   4.6339148511e+01   2.6703387955e+01      3.07929     1.827894 -28.14   0.01472684    1.600    0.375
         4 -14.4308    248.4314     19.3438   4.1554039161e+01   2.0638649526e+01     2.336665    0.6818724 -41.43  0.009164732    2.611    0.617
         5 -15.2618    243.9854     49.2465   4.9493732869e+01   1.7983067267e+01     2.335163     1.054379  53.01  0.008160742    2.483    0.597
         6 -13.2491    220.1967     76.7279   5.9772690256e+01   1.9523906375e+01     3.647211    0.7395204 -43.80  0.008598459    5.913    0.831
         7 -15.2635    241.3018    145.7870   7.3363582440e+01   4.6018291769e+00     15.40735     4.004752 -34.78   0.05340636    3.448    0.710
         8 -12.5648    149.2667     46.4154   6.2825575002e+01   4.2074810057e+01     1.191552    0.7665708 -47.75  0.005216031    1.652    0.395
         9 -12.0096    140.9238     41.9459   6.2987043447e+01   4.4876861679e+01     1.073618    0.4144297 -26.66  0.003613788    2.775    0.640
        10 -10.4095    112.6851     23.5803   6.2266874370e+01   5.4387840689e+01     0.545519    0.2261551 -19.08  0.001937977    2.884    0.653
        11 -11.0595    126.7298     14.7967   5.5413354986e+01   5.1976708213e+01    0.6276965    0.3971577 -72.61  0.002693159    2.331    0.571
        12 -11.9080    119.3708     10.0535   5.4931847104e+01   5.4305655027e+01    0.7872402    0.7174554 -75.32  0.003364863    1.257    0.204
        13  -9.6714    136.9201      7.7383   5.0683986366e+01   5.0085009125e+01    0.3325388    0.2421847 -32.51 0.0008465329    1.416    0.294
        14  -9.8795    134.3699     19.2297   5.5680736571e+01   4.9547484442e+01    0.3649611    0.1812542 -20.49  0.001486253    2.121    0.528
        15 -11.4683    142.2422     11.3780   5.1198859069e+01   4.8352370858e+01     1.121339    0.4700796 -14.60  0.004135826    2.814    0.645
        16  -8.8142    163.8303     12.2984   4.8245728847e+01   4.2577564322e+01    0.2419527    0.2038289  -8.70 0.0004381305    1.279    0.218
        17  -9.2504    156.8752      9.0848   4.8091897321e+01   4.4734901547e+01     0.415655    0.2224575  -9.46   0.00174477    2.229    0.551
        18 -13.6016    240.0024     23.9717   4.3404686246e+01   2.2022050451e+01     1.404755    0.6176378 -33.15  0.004334125    1.918    0.478
        19  -7.7003    139.0738    156.8015   9.5632072145e+01   2.2632638327e+01    0.1897885    0.1065656  44.57 0.0008074978    1.700    0.412
        20 -12.0738     68.4850    144.6964   1.1045589631e+02   3.7089665318e+01      1.36215    0.9991024  89.36  0.005291423    1.305    0.234
        21 -10.9864     44.7460    154.3417   1.1750106483e+02   3.7826349023e+01    0.3485559    0.3295514  -6.00  0.001424383    1.507    0.336
        22 -11.9466     52.7297    150.3364   1.1511916035e+02   3.7809279934e+01    0.8372745     0.642146 -77.40  0.003559074    1.147    0.128
        23 -13.5785    249.2033     58.5296   5.1282875085e+01   1.5598871987e+01    0.8066406    0.4247766 -37.15  0.003815531    1.591    0.371
        24 -11.2039     59.5096    147.0209   1.1302652262e+02   3.7734396637e+01    0.6154051    0.3639433 -84.26  0.001542114    1.695    0.410
        25  -8.1111    149.2309    146.2387   9.1226650270e+01   2.2787703174e+01    0.2299248    0.1163867 -56.64 0.0008833844    2.442    0.591
        26  -9.3419    133.5134    145.0108   9.4563474914e+01   2.6134833241e+01    0.3374455    0.1416795 -55.65  0.001216771    2.745    0.636
        27  -9.0487    143.3349    144.8474   9.2264777449e+01   2.4245179503e+01    0.2979945    0.1329996 -54.46  0.001098882    2.606    0.616
        28  -7.7731    171.5147    144.4565   8.6003633760e+01   1.8601114362e+01    0.1427227    0.1398472  48.08 0.0003781429    1.075    0.070
        29 -10.0629    124.6658    240.4850   1.1048699248e+02   1.0294931279e+01    0.1997914    0.1652784  50.68 0.0002155284    1.074    0.069
        30  -7.6900    127.0415    225.9993   1.0848095222e+02   1.2143073577e+01    0.1437798    0.1103629  47.28 0.0003717414    1.049    0.047
        31  -9.4166    136.2697    128.1045   9.0221450355e+01   2.9190103071e+01    0.5095406    0.1297449 -46.52  0.001447985    3.904    0.744
        32  -9.1612    160.8837    128.6654   8.4668205212e+01   2.3897189829e+01    0.3014752    0.2207488 -50.72  0.001209887    1.427    0.299
        33  -7.4976     95.6989    128.7037   1.0062289655e+02   3.6681005724e+01     0.137271    0.1131287 -24.10 0.0003486861    1.576    0.365
        34  -9.6073    162.8388    120.8754   8.2331782958e+01   2.5020848981e+01      0.27414    0.2525469 -67.24 0.0004273663    1.173    0.147
        35 -10.2874    140.2197     94.4258   8.0498283585e+01   3.5488372536e+01    0.4803872    0.4191432 -13.99 0.0006620721    1.262    0.207
        36 -10.4668    134.6987    111.6707   8.6583514059e+01   3.3056972732e+01     0.720044     0.221036 -45.58  0.002199291    3.182    0.686
        37 -11.4179    133.6350    101.2662   8.4072101606e+01   3.5517872882e+01    0.8265519    0.3607045 -47.75  0.002957064    2.281    0.562
        38  -8.2068    168.4864    114.0117   7.9350937699e+01   2.5109608604e+01    0.2342365    0.1479766 -42.10 0.0009951685    1.554    0.356
        39  -8.8132    156.0432    112.0353   8.1594520397e+01   2.8304542230e+01    0.2218654    0.2159452 -58.19            0    1.043    0.041
        40  -9.8199    206.5098    191.5108   8.8562098896e+01   4.2370473663e+00    0.2037995    0.1806518  78.14 0.0009437024    1.706    0.414
        41  -9.5935    119.1081    108.3875   8.9732463945e+01   3.7010920101e+01    0.2631033    0.2013357 -38.66 0.0004616978    1.339    0.253
        42  -9.4642    212.4801    107.7051   6.9182053843e+01   1.6311295155e+01    0.2611609     0.231162  -1.17 0.0002136447    1.128    0.114
        43 -12.9348    231.9078     76.5575   5.8057499224e+01   1.6872239381e+01     1.895068    0.7586863 -52.72  0.005986653    3.871    0.742
        44  -9.8146    147.2498    103.9358   8.1472225366e+01   3.1936704987e+01    0.3308826    0.2613369  42.09 0.0007819242    1.310    0.237
        45 -11.7164    121.0951    101.8703   8.7485405491e+01   3.8051974497e+01    0.6951298    0.5149352 -82.08  0.002965616    1.811    0.448
        46 -10.7053    156.2346     99.3824   7.8121938126e+01   3.0802485119e+01    0.6397841    0.3620413  36.97  0.002417874    2.059    0.514
        47  -8.0658    209.5484     95.7652   6.6575078622e+01   1.8949889640e+01    0.2717915    0.1895326 -54.04 0.0009926517    1.633    0.388
        48 -10.0856    170.6555     92.2969   7.2960653237e+01   2.8760149835e+01    0.6077503     0.446438  39.52   0.00280354    1.450    0.310
        49  -8.1423    185.7173     93.0615   7.0151061888e+01   2.5009091194e+01    0.3101721    0.1879937 -31.82  0.001309946    1.612    0.380
        50 -10.7147    118.3045     90.7166   8.5098889377e+01   4.1071267154e+01    0.6623005     0.191948 -45.44   0.00196419    3.293    0.696
        51 -10.4371    154.1223     90.6375   7.6096482035e+01   3.3024498635e+01    0.3427475    0.2824769 -32.32 0.0006148181    1.199    0.166
        52 -11.0899    125.5454     89.7571   8.2872577795e+01   3.9729272986e+01    0.4768527    0.3754881 -67.02  0.002259758    1.455    0.313
        53  -9.3936    100.6749     88.7968   8.9542227622e+01   4.5023846973e+01    0.3914418     0.236272 -62.27 0.0006049499    1.942    0.485
        54  -7.9726     53.0000     89.9974   1.0490792609e+02   5.2198872186e+01    0.2319443   0.06824479 -60.07 0.0007521973    2.904    0.656
        55  -9.4866    178.4328     88.5798   7.0307385466e+01   2.7566505367e+01    0.3565231    0.2587514  32.57 0.0001126138    1.570    0.363
        56  -9.9240    179.3051     82.6891   6.8427207083e+01   2.8405128163e+01    0.5195046    0.3299455 -67.75 0.0006663746    2.385    0.581
        57  -9.1538    182.7236     78.2216   6.6459818493e+01   2.8340155379e+01    0.5127465    0.3064654  51.04  0.002170556    1.724    0.420
        58  -9.8852    193.6968    196.1277   9.1708047155e+01   5.7682551239e+00    0.4447222    0.2776416 -65.55   0.00190757    3.773    0.735
        59  -8.5671    158.1560     85.8150   7.3759417267e+01   3.2992500737e+01    0.2101683    0.1834047   9.83 0.0002955902    1.283    0.221
        60 -13.5731    249.8968     33.4237   4.4920403998e+01   1.8666723868e+01    0.6498338    0.4380099 -30.74 0.0009797575    1.324    0.245
        61  -9.9269    186.7614     84.4215   6.7505585770e+01   2.6277358156e+01    0.3708942    0.2539136  45.10 0.0008128724    1.537    0.350
        62  -9.8343    191.5164     82.4639   6.6070159039e+01   2.5454817781e+01    0.3827602    0.2437884  43.57  0.001185351    1.688    0.408
        63 -11.2849    169.0149     79.6608   6.9586613222e+01   3.1480784960e+01    0.5043547    0.3645909  -7.03  0.001478825    1.763    0.433
        64  -7.7400     79.7734     76.9968   9.2564480079e+01   5.1397324078e+01    0.2042778    0.1103492 -49.89 0.0008803267    1.668    0.401
        65  -9.1758      3.2386    181.9360   1.2855650466e+02   3.5919250109e+01    0.1495023    0.1473952  31.89 0.0009686677    1.591    0.372
        66 -10.3522    115.6732     68.2825   7.8744479849e+01   4.6301195012e+01    0.2785127    0.2577327 -38.60  0.000251418    1.035    0.034
        67  -9.7763    153.8337     62.4240   6.7334610205e+01   3.8312300653e+01    0.3999823    0.2503262  -2.89   0.00147339    2.553    0.608
        68 -11.9664    136.9745     61.7232   7.0942289346e+01   4.2606545378e+01     0.807767     0.612433 -75.76  0.003640505    1.750    0.429
        69  -9.5334    122.8810     58.8948   7.3507979117e+01   4.6460232788e+01    0.2369385    0.2058124   2.19 0.0004940135    1.245    0.197
        70  -9.8977    153.2402     55.8704   6.5264556149e+01   3.9561592424e+01    0.4168007    0.2411603 -40.45 0.0008443167    1.686    0.407
        71 -10.8992    136.5857     51.7853   6.7540223708e+01   4.4412824893e+01    0.5038429    0.3270217 -19.53   0.00200217    1.729    0.422
        72 -11.4099    134.1117     30.6719   6.0208539288e+01   4.8197697279e+01    0.6209312    0.4423414 -18.11  0.002956617    1.458    0.314
        73 -10.4080    191.2316    178.6378   8.9023575649e+01   8.8509557074e+00    0.2908178    0.2287555  38.92 0.0003797387    1.189    0.159
        74  -8.2289    143.8024    179.8914   9.8745891052e+01   1.7285733590e+01     0.189761    0.1706335  20.66  0.000408752    1.198    0.165
        75  -9.4381    192.2633     45.6535   5.4998372800e+01   3.1021306292e+01    0.6649277    0.2661515 -36.29  0.002452385    2.248    0.555
        76  -9.9130    188.3453     44.1953   5.5137124420e+01   3.2237102543e+01    0.4808206    0.2658303 -35.35  0.001493264    1.690    0.408
        77  -9.2788    199.0864     45.3387   5.3915431617e+01   2.9316654780e+01    0.8420772    0.1845179 -29.27  0.002336645    4.095    0.756
        78  -9.7772    189.4291     49.1207   5.6492476199e+01   3.1258705438e+01    0.5788267     0.225059 -41.78  0.001854341    2.455    0.593
        79  -9.1374    209.3224     44.2839   5.2220593764e+01   2.6876465810e+01     0.276909    0.2149869 -44.79 0.0008625215    1.201    0.167
        80  -9.1100    163.1138     42.3223   5.8715080250e+01   3.9091660168e+01    0.3457759     0.203707 -20.60 0.0009589845    1.853    0.460
        81 -10.1007    160.5334     39.2120   5.8118642153e+01   4.0206495963e+01    0.4492218    0.3292967  28.30  0.001596344    1.583    0.368
        82  -7.8742    196.6149     38.2355   5.2123664003e+01   3.0908342589e+01    0.2011931    0.1404576 -13.35   0.00085904    1.617    0.381
        83  -8.3976    189.8479     36.0185   5.2379584536e+01   3.2949425776e+01     0.262174    0.1966141   1.63  0.001253067    1.626    0.385
        84  -8.1805    171.1670     35.1511   5.4917020163e+01   3.7962465114e+01    0.2077362     0.167498 -59.39 0.0003571134    1.301    0.232
        85 -12.4992    134.8216     40.9769   6.3979127400e+01   4.6557734509e+01    0.9385867    0.6594509 -24.59   0.00440396    1.436    0.304
        86  -8.7357    165.0575     32.7202   5.5099572602e+01   3.9891590913e+01    0.3591857    0.1971293 -66.37  0.001308704    2.727    0.633
        87  -9.0239    159.9237     28.8709   5.4628125670e+01   4.1736401883e+01    0.2517727    0.2140482 -18.03  0.000503993    1.213    0.175
        88  -9.1998    112.1469     28.8863   6.4656531609e+01   5.3809029540e+01    0.2175231    0.1981872 -46.23  0.000815758    1.200    0.167
        89  -8.8708     76.7952    177.5404   1.1286698054e+02   2.8633796456e+01    0.1953258    0.1558335 -79.39  0.000419243    1.197    0.165
        90 -11.2140    127.4481     22.6673   5.8472682806e+01   5.0895458376e+01    0.5750241    0.3351042  31.79  0.002453759    1.990    0.497
        91 -11.9928     14.4279    168.1453   1.2550281184e+02   3.7825654678e+01    0.8050014    0.4683502  84.83  0.004021592    1.376    0.273
        92 -11.0216     19.3070    165.9804   1.2431177890e+02   3.7847969753e+01    0.6012233    0.2549741 -89.04  0.002829993    2.139    0.532
        93 -10.2683    234.7279    214.2169   8.7644485343e+01  -3.1301323899e+00    0.3270682     0.240791  58.33  0.001433507    2.342    0.573
        94  -8.6513    211.4723    162.0473   8.1964712901e+01   7.6977695092e+00    0.1921115    0.1651062  23.49 9.938782e-05    1.086    0.080
        95 -13.0544    239.8645     70.2643   5.5375364130e+01   1.6015725822e+01    0.9689267    0.6115277  37.47  0.002050408    1.962    0.490
        96  -8.3797     79.1598     15.5476   6.8169707505e+01   6.2792748798e+01    0.2652142   0.08653818 -31.25 0.0009838844    2.818    0.645
        97  -8.4366     76.8754    161.9775   1.1087046144e+02   3.1988800581e+01    0.1875857    0.1642061  80.31 0.0003134625    1.031    0.030
        98  -7.9613    167.5544     13.5451   4.8162979812e+01   4.1463648281e+01    0.1426441    0.1354432 -77.20 6.159992e-05    1.036    0.034
        99  -7.4796    204.2865    160.3327   8.2930144299e+01   9.3208623669e+00    0.1409882    0.1002438   4.88 0.0002934473    1.622    0.383
       100  -8.5096    197.4631    160.4629   8.4242136949e+01   1.0605491663e+01    0.1362085    0.1269966  13.37 0.0001001014    1.060    0.056
