#   1 NUMBER                 Running object number                                     
#   2 MAG_AUTO               Kron-like elliptical aperture magnitude                    [mag]
#   3 X_IMAGE                Object position along x                                    [pixel]
#   4 Y_IMAGE                Object position along y                                    [pixel]
#   5 X_WORLD                Barycenter position along world x axis                     [deg]
#   6 Y_WORLD                Barycenter position along world y axis                     [deg]
#   7 A_WORLD                Profile RMS along major axis (world units)                 [deg]
#   8 B_WORLD                Profile RMS along minor axis (world units)                 [deg]
#   9 THETA_WORLD            Position angle (CCW/world-x)                               [deg]
#  10 FWHM_WORLD             FWHM assuming a gaussian core                              [deg]
#  11 ELONGATION             A_IMAGE/B_IMAGE                                           
#  12 ELLIPTICITY            1 - B_IMAGE/A_IMAGE                                       
         1 -14.4344    168.6008     37.7044   7.5959868856e+01   3.8220751956e+01     1.293307     0.990883   2.46  0.004506963    1.469    0.319
         2 -14.0055    184.1207      6.2550   6.3840494935e+01   3.7672870850e+01    0.9752933    0.8772905 -77.39  0.004861603    1.088    0.081
         3 -10.9027     13.5308    244.7783   1.4997237821e+02   2.3267285276e+01    0.2435242   0.06925902 -72.96  0.001347156    3.739    0.733
         4 -19.1306     71.4309    240.0185   1.3927603910e+02   1.8393198873e+01     5.596757     4.764714  53.43   0.03803745    1.141    0.124
         5  -9.8002     20.2277    202.7141   1.4722747010e+02   2.9861508007e+01    0.1054242   0.06026866  61.07  0.000341972    1.442    0.307
         6 -12.9953    137.9649    198.3747   1.2155651853e+02   1.6553847089e+01     0.578647     0.325421  54.78  0.002825732    2.433    0.589
         7 -11.6159    155.8447    197.7154   1.1774654115e+02   1.4015097931e+01    0.2014223    0.1768466  68.67 0.0008704474    1.611    0.379
         8 -11.3089    207.9318    196.1689   1.0746953980e+02   6.5361556287e+00    0.1781916     0.148449  21.73  0.001231783    1.266    0.210
         9 -11.5954    174.9112    193.6386   1.1327340656e+02   1.1759744505e+01    0.2571794    0.2053075 -71.30  0.001358288    2.303    0.566
        10 -10.9594    180.1310    192.5349   1.1206819541e+02   1.1129981630e+01    0.2139572    0.1995433  85.27 0.0007440625    1.724    0.420
        11 -12.3731    167.2596    191.0143   1.1437720282e+02   1.3313098780e+01    0.3611845    0.2735046  20.66  0.001698552    1.122    0.109
        12 -10.4083     20.7378    219.3432   1.4781613366e+02   2.6828791881e+01    0.1103589   0.07767606  44.12 0.0002077967    1.164    0.141
        13 -18.8252     58.0526     96.2245   1.2569225401e+02   4.9857133164e+01     18.19331    0.8077652 -61.29   0.02299753   22.365    0.955
        14 -11.3309    176.7138    188.0377   1.1199183940e+02   1.2305860628e+01     0.261534    0.1665042 -38.89 0.0008676451    1.764    0.433
        15 -11.1718    184.4807    186.7599   1.1024882452e+02   1.1295436052e+01    0.2386415    0.1541094  30.84  0.000831235    1.337    0.252
        16 -11.2566     25.9063    230.6912   1.4729097284e+02   2.4449589927e+01    0.2054164     0.133554  86.94  0.001556817    1.541    0.351
        17 -11.6757    176.0102    234.0583   1.1893638614e+02   6.2166402327e+00    0.2002851    0.1490471 -27.52    0.0014536    1.572    0.364
        18 -12.3625    205.5034    180.4694   1.0516387563e+02   8.9439225838e+00    0.4388303    0.2862639  31.88  0.001845286    1.385    0.278
        19 -12.2828    208.5215    178.5009   1.0425480261e+02   8.7474938110e+00    0.3930748    0.2795206  11.87  0.002254901    1.212    0.175
        20 -11.0817    196.6697    175.3569   1.0587353015e+02   1.1025131937e+01       0.2524    0.2223516  57.31 0.0009410137    1.719    0.418
        21 -12.5486    196.4406    171.3607   1.0517167494e+02   1.1634234919e+01    0.5323806     0.381896 -41.85  0.002077461    1.710    0.415
        22 -12.0934    141.4681    174.5047   1.1714059040e+02   2.0068515716e+01    0.2209868    0.2050366 -63.61 0.0006669246    1.331    0.249
        23 -13.5881    137.8799    170.9914   1.1735853070e+02   2.1272055719e+01    0.7325864    0.3682986  34.64  0.002676627    1.802    0.445
        24 -12.7624    144.8561    168.5625   1.1536738570e+02   2.0573175499e+01    0.4254428    0.3373505  62.26  0.002383112    1.643    0.392
        25 -10.2484     22.2816    166.6613   1.4488883667e+02   3.6883229864e+01    0.2875065    0.1710916   1.91  0.001408179    2.602    0.616
        26 -10.7542    223.7764    163.8900   9.8786805520e+01   8.3332262683e+00    0.2046558    0.1591072 -35.26 0.0005267011    1.555    0.357
        27 -10.5010    198.7544    222.7397   1.1328494759e+02   4.5673837878e+00    0.1438562    0.1130608  28.92 0.0004570022    1.321    0.243
        28 -12.1539    162.9693    155.1463   1.0884592501e+02   1.9853308790e+01      0.44674     0.361176 -75.96    0.0023632    1.982    0.495
        29 -14.1882    194.2742    193.6861   1.0955517771e+02   8.8514240600e+00    0.9440696    0.7499228 -60.91  0.003618277    2.330    0.571
        30 -14.1493    132.8386    145.4385   1.1387605990e+02   2.6961142303e+01    0.9774894    0.6034602 -59.55  0.004487416    2.071    0.517
        31 -11.9803    158.6004    204.3342   1.1816952108e+02   1.2611530819e+01    0.3205923    0.2348465  59.83  0.001790425    2.028    0.507
        32 -11.9103    163.4707    203.7476   1.1711189966e+02   1.1987305763e+01    0.3203275    0.2101397 -42.19  0.001400429    1.811    0.448
        33 -10.9577     14.5836    151.1257   1.4583778066e+02   4.0869932844e+01     0.212385    0.1563039 -11.74  0.001327988    1.914    0.478
        34 -11.1496    174.6723    148.9445   1.0508130904e+02   1.8832620803e+01    0.2321703    0.2262106 -79.14 0.0008855579    1.376    0.273
        35 -12.7633    144.9244    145.8843   1.1106671926e+02   2.4734914964e+01    0.4016671    0.3524162  87.35  0.002233628    1.537    0.349
        36 -12.9354    105.8648    138.0923   1.1936986671e+02   3.3060209232e+01    0.4791511    0.3319817  58.93 0.0008574156    1.711    0.416
        37 -12.8325    115.7788    138.0216   1.1672568210e+02   3.1425662449e+01    0.5366671    0.3346093 -37.41   0.00188392    1.787    0.440
        38 -13.1607      5.3322    139.6690   1.4758100222e+02   4.4074049841e+01    0.5025585     0.471679  40.96  0.002818859    1.243    0.196
        39 -13.3404      3.0778    126.3853   1.4743307687e+02   4.7262519560e+01     1.277621    0.4210409 -79.66  0.005645375    2.545    0.607
        40 -11.9709      3.1784    112.3915   1.4648725061e+02   5.0560636103e+01    0.2896906    0.2124184 -72.16 0.0009714529    1.195    0.163
        41 -12.2981     10.4504    110.9596   1.4408824164e+02   5.0500286336e+01    0.5589182    0.2327452  -1.71  0.002266462    4.045    0.753
        42 -11.8065     21.2855    141.1154   1.4337145604e+02   4.2624583699e+01    0.2257263    0.1604116  41.89 0.0007629525    1.375    0.273
        43 -11.5462    160.9696    198.4719   1.1681958006e+02   1.3136885740e+01    0.2304065     0.171474  48.19 0.0005799081    1.551    0.355
        44 -11.4829    100.6127    126.9509   1.1862913877e+02   3.6370539195e+01    0.2877509    0.2172842  35.82 0.0008186125    1.305    0.234
        45 -12.5563    106.0006    130.7829   1.1790377483e+02   3.4631304140e+01    0.4152753    0.3664277 -83.68  0.001223196    1.284    0.221
        46 -11.7620    108.9378    125.0278   1.1589737187e+02   3.5395248411e+01    0.3028269     0.273072  -6.95 0.0007256353    1.179    0.152
        47 -12.6992    135.5120    122.0445   1.0815754987e+02   3.1158989428e+01    0.6559913    0.2452867 -49.31  0.002248215    2.987    0.665
        48 -13.3810    125.0339    126.7187   1.1192610352e+02   3.2166298194e+01    0.6803665    0.4434921 -69.46  0.002901867    2.317    0.568
        49 -11.5180    160.6359    127.5068   1.0342074774e+02   2.5224093307e+01    0.3005834     0.262069 -65.94  0.001616937    1.494    0.330
        50 -11.4787    114.0697    118.5625   1.1304056301e+02   3.5899810649e+01    0.2306593     0.204768 -62.06 0.0003908122    1.218    0.179
        51 -12.8841     27.9402    118.0948   1.3926734250e+02   4.7539450231e+01    0.3497567    0.2252481 -43.95  0.001383614    1.720    0.419
        52 -11.1732    167.3709    112.9757   9.8402744113e+01   2.6501249555e+01    0.3946409    0.3078944  79.30  0.001868199    1.994    0.499
        53 -12.6860    119.7150    129.1630   1.1386118570e+02   3.2613662625e+01    0.4176476    0.3880427  -8.92  0.001177065    1.091    0.083
        54 -10.6659    205.6249    110.1192   9.0174660364e+01   1.9204172848e+01    0.2593102    0.1961384  30.97 0.0007321315    1.332    0.250
        55  -9.9447    168.9759    202.6822   1.1586356257e+02   1.1335992315e+01    0.1708831    0.1296734  27.01 0.0003012897    1.094    0.086
        56 -12.2714     96.7425    110.2634   1.1614223921e+02   4.0787584291e+01    0.4193273    0.3040185  -0.09  0.001531983    1.881    0.468
        57 -11.8334     31.1750    112.8700   1.3761706631e+02   4.8543079128e+01    0.2024678    0.1636554  74.60 0.0005241849    1.206    0.171
        58 -11.2896     41.7852     91.9434   1.3072100791e+02   5.2738659124e+01     0.212987    0.1998049  17.68 0.0004697486    1.190    0.159
        59  -9.9974    118.2150     67.1984   9.7362192793e+01   4.5799099864e+01    0.2049714    0.1849601 -76.80  0.000418932    1.339    0.253
        60 -10.1665     13.3812     59.8790   1.3639014692e+02   6.2901333312e+01    0.1864152    0.1364962 -64.63 0.0004802509    1.135    0.119
        61 -14.0894    156.2412     53.2304   8.3355223811e+01   3.9159852010e+01     1.245346    0.9438069  38.15  0.003181443    1.356    0.263
        62 -10.8247    197.0019    245.6888   1.1674176787e+02   2.2342894931e+00    0.1573905    0.1055041  21.86  0.000915163    1.066    0.062
        63 -12.5459    172.2931     30.6522   7.3076244529e+01   3.8150900055e+01    0.4259471    0.3519004  10.36 0.0009860302    1.324    0.245
        64 -10.1660    137.4256     31.1081   7.9373858553e+01   4.7004024770e+01    0.3396155    0.1816349  79.71  0.001218438    2.885    0.653
