#   1 NUMBER                 Running object number                                     
#   2 MAG_AUTO               Kron-like elliptical aperture magnitude                    [mag]
#   3 X_IMAGE                Object position along x                                    [pixel]
#   4 Y_IMAGE                Object position along y                                    [pixel]
#   5 X_WORLD                Barycenter position along world x axis                     [deg]
#   6 Y_WORLD                Barycenter position along world y axis                     [deg]
#   7 A_WORLD                Profile RMS along major axis (world units)                 [deg]
#   8 B_WORLD                Profile RMS along minor axis (world units)                 [deg]
#   9 THETA_WORLD            Position angle (CCW/world-x)                               [deg]
#  10 FWHM_WORLD             FWHM assuming a gaussian core                              [deg]
#  11 ELONGATION             A_IMAGE/B_IMAGE                                           
#  12 ELLIPTICITY            1 - B_IMAGE/A_IMAGE                                       
         1 -10.6253     38.7026      7.8335   6.8615214165e+01   6.9516042991e+01     1.058795     0.421499 -17.76  0.004339513    3.620    0.724
         2 -12.3120     44.9505     22.0347   7.2661415493e+01   6.6806487429e+01     1.018572    0.8610901 -45.23  0.006625518    1.676    0.403
         3 -11.3976     77.8841     16.3138   5.7544965234e+01   6.1727897660e+01     1.326413    0.4701787 -20.84  0.005123832    3.569    0.720
         4 -11.6009     84.3360      3.8403   5.0343099908e+01   6.1572983445e+01    0.8309515    0.3497912  56.09  0.002908098    2.018    0.505
         5 -10.8339    131.0063      3.6973   4.0567809637e+01   5.1013696612e+01    0.7910584    0.2483816  59.82   0.00326069    2.413    0.586
         6 -10.8246    120.9546      4.3376   4.2486327038e+01   5.3333411006e+01    0.6675694    0.3900285  74.40  0.002774301    1.690    0.408
         7 -11.2856    109.1385      4.9022   4.4949495170e+01   5.6024925263e+01    0.9255494    0.3773933  67.26  0.003982732    2.389    0.581
         8 -13.6662    165.9417      9.8757   3.7493982852e+01   4.2094692366e+01     2.407166      1.52957  78.34   0.01325079    1.415    0.293
         9  -9.9489    116.0005     16.2369   4.7608827424e+01   5.3430801537e+01    0.5767957    0.3513421 -43.08  0.002972113    1.930    0.482
        10 -11.7602    156.6828     20.2350   4.1672503625e+01   4.3283417572e+01    0.7754906    0.3587087  52.21  0.002982612    2.028    0.507
        11 -10.0515    128.1765     18.0273   4.5781746280e+01   5.0388218498e+01    0.3697754    0.3143556  23.16  0.001330543    1.281    0.219
        12  -9.7469    129.1074     13.3125   4.4041608685e+01   5.0624821522e+01    0.3605474    0.2334416  40.58  0.001931829    1.550    0.355
        13 -10.4194     69.7378     15.0062   5.9653659631e+01   6.3453891249e+01    0.3894952    0.2294907 -27.54  0.002134569    1.791    0.442
        14 -11.5620    143.6887      4.0013   3.8747964047e+01   4.7962988223e+01    0.8347593    0.4500279  68.54  0.004296013    1.578    0.366
        15  -9.2055     20.6112     13.7001   8.0762345643e+01   7.1091328816e+01    0.5045947    0.2285221 -21.82  0.002466129    2.472    0.595
        16  -9.4852    104.4916     12.1519   4.8654420525e+01   5.6454032568e+01     0.347113    0.2261232 -26.83  0.001923564    1.713    0.416
        17  -9.7890    249.7645      9.5034   2.9934022428e+01   2.3585236820e+01    0.3504329   0.08721314 -50.92  0.001487808    3.131    0.681
        18 -10.5811     60.7597      2.4065   5.6933841774e+01   6.6369921072e+01    0.5981031    0.2445569  42.67  0.002942502    1.998    0.500
        19 -10.0143    203.4643      3.9739   3.2185623214e+01   3.3928390116e+01    0.2483717    0.2322885 -72.11   0.00178344    1.224    0.183
        20  -9.2001    222.5009      4.5187   3.0806898122e+01   2.9704830462e+01    0.1203978   0.09434957 -74.63 0.0008103825    1.009    0.009
        21  -8.9753     17.5787      2.5869   7.6718230408e+01   7.2915378401e+01    0.2568192    0.1414679 -42.35  0.001491277    2.309    0.567
        22 -10.0811     60.2588      8.8928   6.0209237468e+01   6.5847136916e+01    0.3515164    0.1545022 -26.69  0.001730967    2.361    0.576
        23 -10.4657     71.5444      5.4478   5.4766166413e+01   6.4042028754e+01    0.4807548    0.2822415  43.86  0.001858704    1.415    0.293
        24 -10.1601    208.4977      4.5045   3.1887510646e+01   3.2753168676e+01    0.2662655    0.1498762  59.06  0.001483059    1.851    0.460
        25  -9.0204    217.9516      2.0000   3.0609652271e+01   3.0938241412e+01    0.1926316   0.05861246  75.02 0.0008059046    2.967    0.663
        26  -9.6726      2.5422     87.5731   1.1181807331e+02   5.7724531146e+01    0.6783614    0.2067337 -72.64  0.002586078    3.137    0.681
        27 -11.0577      4.4974     76.1183   1.0899046475e+02   6.0273919459e+01      0.55835    0.4618911  66.45  0.003662579    1.556    0.357
        28 -11.9086     14.6191     73.2748   1.0426446008e+02   6.0334469188e+01    0.9060655    0.7635227  25.87  0.005958328    1.429    0.300
        29 -10.1199     47.0309     76.4929   9.1915756093e+01   5.6637770843e+01    0.3697172    0.3255114  19.71  0.002229895    1.234    0.190
        30  -8.9826    101.0194     84.2167   7.5060440944e+01   4.6274993920e+01    0.3548643    0.1963649 -36.27  0.001455424    1.872    0.466
        31  -8.5964    144.1791     80.6604   6.2156201225e+01   3.7488732691e+01    0.2194389    0.1980862 -61.22  0.001142064    1.159    0.138
        32  -8.5258     70.6932     80.6732   8.4190977217e+01   5.2452821099e+01    0.1509799    0.1057992 -17.00 0.0003762166    1.652    0.395
        33  -8.4094    220.3209     77.6869   4.7438439489e+01   2.0428254415e+01    0.1442025   0.09617958 -66.81 0.0003743713    1.653    0.395
        34  -9.0359    227.2690     79.5349   4.6920349945e+01   1.8666696262e+01    0.2663613    0.1896002  12.78  0.001253632    2.515    0.602
        35 -10.0203     74.9409     69.6854   7.9166933249e+01   5.4042828155e+01    0.3654875    0.2865143  56.89   0.00188986    1.656    0.396
        36  -9.4863     83.6530     68.8164   7.5806059105e+01   5.2683447975e+01     0.312922    0.2768073  43.16  0.001346862    1.235    0.190
        37 -10.4238     25.2628     65.6031   9.7822180022e+01   6.1225177065e+01    0.5633193    0.2788566 -56.52  0.002343218    1.795    0.443
        38  -9.6537     45.9598     62.4956   8.8068014678e+01   5.9728324350e+01    0.4549982    0.2659624 -31.04  0.002253735    1.670    0.401
        39  -8.6914    232.3211     64.3335   4.2869165884e+01   1.9981988108e+01    0.1222152    0.1041379  12.09 0.0007049744    1.702    0.412
        40  -8.8414     76.7721     59.5176   7.5021961617e+01   5.5668699067e+01    0.2777211       0.1934 -36.31  0.001423703    1.399    0.285
        41 -12.0140     42.0225     82.3301   9.5485598096e+01   5.5901702767e+01    0.9758903     0.799872 -18.00  0.005155938    1.208    0.172
        42  -8.8544    196.0346     57.0214   4.5858453030e+01   2.9087651466e+01     0.239526    0.1890551  88.17 0.0008746953    1.271    0.213
        43  -8.6339    199.0369     55.5234   4.5055980104e+01   2.8613732587e+01     0.234179    0.1765645 -66.83  0.001122635    1.306    0.234
        44  -9.3140     66.2286     53.8682   7.6899821586e+01   5.8479640094e+01    0.4040042    0.1768198 -51.02   0.00154835    3.006    0.667
        45  -8.4105     35.3174     52.8018   8.9431155054e+01   6.2885320567e+01    0.1736398    0.1550496  -7.86  0.001129098    1.142    0.125
        46  -8.4330     23.5429     52.5065   9.4697903001e+01   6.4092123589e+01    0.1279592    0.1024558 -30.14 0.0001098532    1.004    0.004
        47 -10.0958     85.4362     48.2573   6.7907026356e+01   5.5987534198e+01    0.7485751    0.3696512  49.77  0.003219319    2.153    0.535
        48  -9.9932     83.0314     42.4116   6.6496109811e+01   5.7361962729e+01    0.7025669    0.2982854 -26.37  0.002696062    2.915    0.657
        49  -9.3890     80.6978     37.6184   6.5412667946e+01   5.8518438396e+01    0.4409797    0.2623507 -24.06  0.002175809    1.785    0.440
        50 -10.0537     86.4674     31.5055   6.1107238136e+01   5.8207950640e+01    0.2709516    0.2134233  29.32  0.001133489    1.145    0.127
        51 -10.5411     90.0070     27.9694   5.8621575198e+01   5.7923798865e+01    0.4236406    0.2972797  30.04   0.00232517    1.354    0.261
        52  -9.5425     11.7629     33.9052   9.4167167964e+01   6.8595243374e+01    0.3799628     0.179607 -42.59  0.001903904    1.671    0.402
        53 -10.6316      3.3954     40.6548   1.0076147591e+02   6.7861805787e+01    0.4201916    0.3945924  19.94  0.002566996    1.420    0.296
        54  -9.5039      6.0659     35.1911   9.7613878457e+01   6.8748821672e+01    0.2890396    0.1629299  23.79  0.001555745    1.993    0.498
        55  -8.9381      2.7797    230.7444   1.2461566969e+02   2.4188222902e+01    0.1767398   0.06897807  85.68 0.0008758959    2.404    0.584
        56 -10.1181     52.4751     38.9204   7.6679473273e+01   6.3168406271e+01    0.4592824    0.3893072 -49.90  0.002822886    1.557    0.358
        57 -10.5676     47.5840     33.8007   7.6672269137e+01   6.4696813973e+01    0.3413643    0.2910308  28.28  0.001426089    1.316    0.240
        58 -11.2347     39.6705     29.5893   7.8452108706e+01   6.6440540287e+01    0.4803018     0.333299 -38.28   0.00215512    1.485    0.327
        59  -8.5687    249.3311    223.6785   7.3167716538e+01  -8.8511895756e+00   0.09997079   0.09608856 -29.35  0.000704935    1.697    0.411
        60  -8.4827     65.6432     35.3027   6.9890473795e+01   6.1612112703e+01    0.1197625    0.1082152  83.07 0.0007038813    1.714    0.417
        61 -10.0141    196.4231     35.1147   4.0318468928e+01   3.2026205999e+01    0.4405041    0.1812661  50.93  0.001811692    2.747    0.636
        62  -9.5982     66.7715     29.1141   6.6872675040e+01   6.2288711105e+01    0.2516192    0.1637739  -6.79  0.001325408    1.699    0.411
        63  -9.5745    225.2489     28.9371   3.5808569263e+01   2.6340554919e+01    0.4032811    0.1636834  67.81  0.001888155    2.373    0.579
        64 -10.4885    148.8234     28.6023   4.5417849494e+01   4.4264134417e+01    0.4627579    0.3194629  66.61  0.002459919    1.325    0.245
        65  -8.6850     97.5079     26.9776   5.6082925158e+01   5.6446064132e+01      0.28681    0.1349613 -18.78  0.001199948    2.680    0.627
        66 -11.4675    200.8155    221.9124   8.1863783150e+01  -1.8710094128e+00    0.3810429    0.2278522  25.68  0.002008975    1.564    0.361
        67  -9.3204    123.9943    205.9937   9.5883149270e+01   1.3683259602e+01    0.1957047    0.1815502  40.95  0.001143067    1.002    0.002
        68  -8.4365     37.5065    185.4747   1.1402725559e+02   3.0796873104e+01    0.1311604    0.1126035  87.04 0.0001219511    1.027    0.026
        69  -8.8398    220.3522    155.3177   6.5038572389e+01   6.6030789381e+00    0.1466405    0.1038052  -3.14 0.0007047051    1.741    0.425
        70  -8.9301     20.7510    155.5879   1.1516401642e+02   3.9782566184e+01     0.172567    0.1117629  44.78 0.0009452224    1.624    0.384
        71 -11.3452     11.0005    142.1966   1.1638430205e+02   4.3887693097e+01    0.5444018    0.2639307 -87.20  0.002538737    2.027    0.507
        72  -9.4197     40.3605    141.3915   1.0784872394e+02   4.1508786146e+01    0.3750727    0.2311392  49.96  0.001848513    1.786    0.440
        73  -8.4974    111.6723     16.6702   4.8702259353e+01   5.4388396368e+01     0.222156    0.1348078 -14.46  0.001126329    1.955    0.489
        74  -8.0790     23.6971    141.3482   1.1269620611e+02   4.3102933523e+01    0.1391775   0.08991353  71.89 0.0007039962    1.693    0.409
        75  -8.9260     53.8577    143.6534   1.0422216151e+02   3.9401668481e+01    0.2654664    0.1758062 -55.11  0.001314628    1.387    0.279
        76 -11.4608    249.2504    129.1040   5.4694823586e+01   6.1708717624e+00     0.850043    0.3243093 -38.70  0.003564406    2.184    0.542
        77  -9.4680     94.5036     17.3864   5.3156363154e+01   5.8154492955e+01    0.3641108    0.2323519  75.43  0.001785333    2.176    0.541
        78 -11.8169    242.6958    133.9021   5.6694116956e+01   6.4800624611e+00     1.021729    0.4499179  50.53  0.004458045    2.763    0.638
        79  -9.9806     64.8585     16.1886   6.1904286356e+01   6.4233630167e+01    0.3715279    0.1959546  58.19  0.001728188    2.593    0.614
        80 -12.5728    239.0019    125.9218   5.5551691779e+01   8.5156580907e+00     1.307687    0.9608755  28.50  0.007165873    1.699    0.411
        81  -8.9867    132.9855     26.1271   4.7532288995e+01   4.8377441972e+01    0.3734467    0.1780175 -22.64  0.001611671    2.512    0.602
        82  -8.1766     55.6669    128.3055   1.0096481912e+02   4.3109296518e+01    0.1468522    0.1070191  70.80 0.0007038849    1.664    0.399
        83 -10.1293     17.2359    126.6354   1.1270332145e+02   4.7318888866e+01    0.3653085    0.1476782  48.00  0.001502749    3.064    0.674
        84  -8.8261    102.9984     25.9914   5.4238802695e+01   5.5356003315e+01    0.2170661    0.1834929  39.34  0.001295932    1.046    0.044
        85 -10.2931     10.7377    122.6692   1.1417711385e+02   4.8761625519e+01    0.4240356    0.1198113 -62.96  0.001687455    2.497    0.599
        86  -9.1194     58.8119    124.3964   9.9205301135e+01   4.3706614260e+01    0.1905527    0.1422578   9.28 0.0008200557    1.633    0.388
        87  -8.3291    188.6401    117.6812   6.2449447470e+01   2.0109307443e+01    0.1562354    0.1193559   5.08 0.0007043389    1.764    0.433
        88  -8.9393     20.6553     22.9275   8.5020659066e+01   6.9695111398e+01    0.2150656    0.1754631 -21.20  0.001509126    1.167    0.143
        89 -11.2845    244.1999    109.7496   5.1297840691e+01   1.0337882496e+01    0.4509224    0.3104559 -65.45  0.002379997    1.749    0.428
        90  -9.4164     68.4180    105.2368   9.1746539073e+01   4.7153696192e+01    0.2116095     0.137867 -65.47 0.0009531862    1.678    0.404
        91  -9.2780     17.0577    104.1482   1.0939592827e+02   5.2905028040e+01    0.3207867    0.2380613 -74.55  0.001883985    1.242    0.195
        92  -9.9745     47.0350    102.0770   9.8433511811e+01   5.0688429883e+01    0.5697855    0.1729325 -53.16  0.002041681    2.642    0.621
        93  -9.3505     30.8020    101.6145   1.0410793094e+02   5.2438867605e+01    0.3028945     0.164558 -42.13  0.001096961    1.728    0.421
