#   1 NUMBER                 Running object number                                     
#   2 MAG_AUTO               Kron-like elliptical aperture magnitude                    [mag]
#   3 X_IMAGE                Object position along x                                    [pixel]
#   4 Y_IMAGE                Object position along y                                    [pixel]
#   5 X_WORLD                Barycenter position along world x axis                     [deg]
#   6 Y_WORLD                Barycenter position along world y axis                     [deg]
#   7 A_WORLD                Profile RMS along major axis (world units)                 [deg]
#   8 B_WORLD                Profile RMS along minor axis (world units)                 [deg]
#   9 THETA_WORLD            Position angle (CCW/world-x)                               [deg]
#  10 FWHM_WORLD             FWHM assuming a gaussian core                              [deg]
#  11 ELONGATION             A_IMAGE/B_IMAGE                                           
#  12 ELLIPTICITY            1 - B_IMAGE/A_IMAGE                                       
         1 -12.7750    198.7194     33.1317   6.0418462713e+01   3.1089672689e+01    0.9816269    0.7691887  35.88  0.005166846    1.366    0.268
         2 -13.4413    214.8025     15.3539   5.3497048035e+01   2.8988323797e+01     1.203674    0.8807474  20.87  0.006405966    1.684    0.406
         3 -12.3899      2.4113      3.7077   1.1521112899e+02   7.4720576569e+01    0.6226299    0.4201213 -58.28  0.004113175    1.465    0.317
         4  -9.9401     73.6044    244.3259   1.3024628826e+02   1.7912543074e+01    0.3082185    0.1369781 -63.35  0.001882367    2.706    0.630
         5 -11.0456    185.3131    250.1978   1.1073592245e+02   1.9994170851e+00     0.431124    0.1210147  39.28  0.001490399    2.644    0.622
         6 -10.6638    169.3356    248.9132   1.1340930896e+02   4.4117445270e+00    0.2347369    0.1610526  14.33 0.0008077385    1.509    0.337
         7 -10.6068    163.1942    249.8208   1.1461399256e+02   5.1748576553e+00    0.2499744    0.1618956  36.01  0.001671991    1.130    0.115
         8 -11.3168    150.0906    247.7813   1.1673952132e+02   7.2862879137e+00    0.3238209    0.2696678 -83.44  0.002419758    1.831    0.454
         9 -10.6520    143.3316    248.8941   1.1808261486e+02   8.0957122851e+00    0.2908166    0.1953994  65.67  0.001859371    2.115    0.527
        10 -10.7531    135.7658    248.9555   1.1945612216e+02   9.1439952238e+00    0.2184086    0.1821406  34.18  0.001279978    1.142    0.124
        11 -10.7407    132.2192    248.8017   1.2008157068e+02   9.6560097616e+00    0.2751428    0.1476238  49.53   0.00168485    1.666    0.400
        12 -11.5196    116.6678    238.4587   1.2190526432e+02   1.3253417113e+01    0.5613916    0.3148663 -37.17  0.003187103    2.918    0.657
        13 -11.2848    128.7108    234.8360   1.1927204395e+02   1.2093913541e+01     0.314008    0.2226699  59.38  0.002074637    1.522    0.343
        14 -11.1256    122.7031    233.7005   1.2028715710e+02   1.3112212135e+01    0.4002762    0.2372319  44.29  0.001683726    1.323    0.244
        15 -11.8670    122.0814    246.7167   1.2171360101e+02   1.1333646949e+01    0.5801054    0.3971215  57.41  0.003906451    1.470    0.320
        16 -12.0481    124.5160    240.6074   1.2066148976e+02   1.1856430971e+01    0.5215341    0.3393233  46.90   0.00291103    1.250    0.200
        17 -10.4862    114.9175    250.2505   1.2333705460e+02   1.1810032600e+01    0.4202657    0.2247358  32.94  0.002024532    1.594    0.373
        18 -11.2663    109.3251    246.5346   1.2401106929e+02   1.3077302632e+01    0.3777862     0.266712  76.19  0.001971404    1.748    0.428
        19 -10.4629    102.5621    247.4670   1.2531236210e+02   1.3832271953e+01    0.3394587    0.1523319  48.99  0.001979503    1.805    0.446
        20  -9.4175     99.6599    250.6631   1.2609600213e+02   1.3748752142e+01    0.2663643   0.08959157  34.40 0.0009239237    2.565    0.610
        21 -10.8710     98.9215    247.1803   1.2594255129e+02   1.4345217534e+01    0.3708106    0.1822692  40.15  0.001545912    1.508    0.337
        22  -9.7028     90.8756    250.4013   1.2763079060e+02   1.4899036528e+01    0.3000293    0.1480294  34.98  0.001656243    1.695    0.410
        23 -11.0324     86.8613    248.2284   1.2817674076e+02   1.5716444578e+01    0.3280224    0.2192837  27.66 0.0007546103    1.621    0.383
        24 -10.1154     81.4483    246.8145   1.2903180985e+02   1.6591803690e+01    0.2398162    0.1746054  82.94  0.001554994    1.508    0.337
        25 -10.8356     60.3567    246.2723   1.3269064884e+02   1.9147559421e+01    0.4097331     0.237039  58.04  0.002570224    1.383    0.277
        26  -9.2522     67.1367    243.8717   1.3135831121e+02   1.8741723297e+01     0.245733    0.1282723  26.07  0.001072407    2.382    0.580
        27 -11.1978     16.0542    218.3721   1.3905579901e+02   2.8215401085e+01    0.5946696    0.2017996  48.85  0.002084704    2.079    0.519
        28 -12.5846     11.3992    208.5216   1.3949473808e+02   3.0349571794e+01     1.033667    0.7661378 -27.21  0.007410287    2.487    0.598
        29 -12.0841     43.1240    207.4301   1.3344741976e+02   2.7540449273e+01     1.097852    0.4291318  62.62   0.00550639    2.662    0.624
        30 -12.8342     28.2088    246.8394   1.3813690430e+02   2.2426987311e+01     1.029367     0.506022  35.44   0.00708097    1.805    0.446
        31 -11.5628     19.7589    237.1756   1.3915509841e+02   2.4748548321e+01    0.4535913    0.2580698  52.53  0.000880794    1.255    0.203
        32 -13.0923      4.6896    244.8081   1.4184153944e+02   2.4886338169e+01    0.9089519    0.3759336  62.18  0.006387599    1.761    0.432
        33 -12.2394     13.8112    239.2761   1.4021133639e+02   2.4954590014e+01    0.5262364    0.2986403  72.06  0.001389106    1.411    0.291
        34 -11.5156     50.3054    218.8309   1.3280585114e+02   2.4745201020e+01    0.5276671    0.1598762  39.90  0.002688443    2.413    0.586
        35 -12.4569     29.8868    226.7489   1.3697573236e+02   2.5499001922e+01    0.3840131    0.2353616 -74.23 0.0007238764    1.748    0.428
        36 -13.6459     36.2856    218.6595   1.3541034771e+02   2.6246550834e+01    0.8796722    0.7352797  81.76  0.007262457    1.217    0.178
        37 -11.9929    177.1648    242.9383   1.1126724282e+02   4.0012439231e+00    0.5608465    0.2002011  45.52  0.002582971    2.766    0.639
        38 -10.6454     97.1229    238.8807   1.2557031447e+02   1.5811126168e+01    0.3000981    0.1956011  60.28  0.001817896    1.462    0.316
        39 -11.2549     84.6497    230.4970   1.2718700296e+02   1.8725115185e+01    0.4723751    0.2409194 -74.85  0.002776667    2.485    0.598
        40 -10.5230     89.9659    238.0466   1.2681888483e+02   1.6861067912e+01    0.2655402    0.2392433 -85.40  0.001646424    1.345    0.256
        41 -10.8958    167.5315    242.5157   1.1295762407e+02   5.4478766792e+00    0.2095826    0.1357122  38.24 0.0007121976    1.199    0.166
        42 -10.7486    158.1553    241.8159   1.1458420851e+02   6.8950137222e+00    0.3043303    0.2117219 -73.42  0.001857857    2.747    0.636
        43 -10.0913    132.4796    223.9267   1.1731720684e+02   1.3161791511e+01    0.1920065    0.1628435  -2.86  0.001219023    1.463    0.317
        44 -10.9997    136.0550    224.8991   1.1673626983e+02   1.2486592682e+01    0.3160137    0.2081402 -45.36  0.001283054    1.928    0.481
        45 -11.5599    135.8121    241.1502   1.1862604429e+02   1.0191968646e+01    0.4004595    0.2170727  56.45  0.001851889    2.214    0.548
        46 -11.7552    135.2726    236.4115   1.1820903706e+02   1.0929941435e+01    0.4151429    0.2692655  25.17  0.001633111    1.527    0.345
        47 -10.4173     84.5925    241.0110   1.2803577952e+02   1.7082481551e+01    0.2845779    0.2094851  69.53  0.002142092    1.334    0.251
        48 -10.3373    142.9657    240.7303   1.1725630418e+02   9.2288892479e+00    0.1665675    0.1198864  37.22 0.0006366437    1.042    0.040
        49  -9.4635     54.0180    240.9859   1.3348277283e+02   2.0673120182e+01    0.1565534    0.1158094  54.45 0.0005525736    1.028    0.027
        50 -11.3207    105.4235    237.2772   1.2388843886e+02   1.4956720545e+01    0.3929461    0.2873881 -14.49  0.002494192    2.395    0.582
        51 -11.2310    113.3757    231.1095   1.2179330327e+02   1.4808064540e+01    0.3216679    0.2945587 -17.40  0.002224007    1.448    0.310
        52 -10.5525    108.7633    231.0438   1.2266614558e+02   1.5454668701e+01    0.2303443    0.1805109 -47.08  0.001519768    1.681    0.405
        53 -11.2935    105.4755    227.8086   1.2297820919e+02   1.6409580342e+01    0.3491407    0.2624431  53.95   0.00245794    1.162    0.139
        54  -8.7419     61.2205    239.3567   1.3211626179e+02   2.0124981571e+01    0.1494181   0.06884202  45.01 0.0008498065    1.585    0.369
        55  -9.5044    249.6714    236.3241   9.7832128917e+01  -5.4173388757e+00   0.09343369   0.07947003  28.12 0.0007049666    1.697    0.411
        56 -12.0501     98.9512    232.7229   1.2468517065e+02   1.6517843446e+01    0.5658969    0.3997066 -86.24   0.00390498    1.755    0.430
        57  -9.3832     54.7325    235.7700   1.3304951104e+02   2.1424691860e+01    0.2303458    0.1195695  46.95 0.0008984622    1.427    0.299
        58  -8.5288     70.5884    235.4393   1.3016986361e+02   1.9658225764e+01    0.1068892   0.08046864  53.66  0.000251851    1.009    0.009
        59  -9.4004    169.6389    232.8411   1.1134029311e+02   6.3607281559e+00    0.1264356     0.113659 -57.39 0.0004073005    1.620    0.383
        60 -10.3416    156.6381    232.1659   1.1368697320e+02   8.3892211074e+00    0.2063328    0.1749844   7.50 0.0006860158    1.282    0.220
        61 -11.3483    134.6561    231.5252   1.1777750693e+02   1.1718050236e+01    0.3098159     0.236792 -20.82  0.001190473    1.812    0.448
        62  -8.9455     45.8139    231.1521   1.3437252402e+02   2.3144420663e+01    0.1627859    0.1024946  59.70 0.0008435838    1.239    0.193
        63 -10.3976     79.3574    225.7322   1.2779758716e+02   2.0167583001e+01    0.3439867    0.2195956 -83.53   0.00161422    1.820    0.450
        64  -9.1744     77.1901    220.7823   1.2780646636e+02   2.1266427310e+01    0.1669347    0.1214548  59.67 0.0004592778    1.170    0.145
        65  -9.8752     92.7361    226.0320   1.2526180742e+02   1.8403400135e+01    0.1974636    0.1337027  41.97 0.0006524742    1.181    0.153
        66 -10.6779     98.0430    223.4848   1.2399717637e+02   1.8111738061e+01    0.3239674    0.2178725  21.59  0.001479696    1.805    0.446
        67 -10.0778     94.3340    219.3640   1.2432821437e+02   1.9289735432e+01    0.2941577    0.1438452  54.13  0.001104009    1.951    0.488
        68  -9.2115     65.0749    224.4223   1.3040364732e+02   2.2115673306e+01    0.1799153    0.1354708 -44.25  0.001165168    1.962    0.490
        69  -9.1507    172.8510    235.8582   1.1114063736e+02   5.4993656636e+00     0.145014    0.1177864  42.29 0.0002701892    1.296    0.229
        70 -11.1650     91.9939    241.3616   1.2671831626e+02   1.6096470886e+01     0.340117    0.2453477  52.36  0.001614157    1.105    0.095
        71 -10.5599    141.9900    221.0747   1.1510886282e+02   1.2167927022e+01    0.2574733    0.2181429 -43.99  0.001810677    1.484    0.326
        72 -10.6527    110.3749    219.2569   1.2114328563e+02   1.7097757169e+01    0.3685893    0.1763324 -74.05  0.001696369    3.680    0.728
        73  -8.3842     89.2943    218.6441   1.2525355318e+02   2.0079158269e+01    0.1199739   0.07209946  62.44 0.0003827242    1.691    0.409
        74 -10.5685    117.1189    224.5125   1.2038201174e+02   1.5301812187e+01    0.2771767    0.1986899  34.06 0.0004515727    1.214    0.176
        75  -9.5717     22.9112    215.0786   1.3768090153e+02   2.8165792409e+01    0.2260506    0.1439463 -87.95   0.00167223    1.462    0.316
        76  -8.9037    137.7299    215.3091   1.1522113709e+02   1.3693493515e+01    0.2408172    0.1455161  83.37 0.0009689495    4.610    0.783
        77  -9.3763     88.1624    212.8743   1.2493404984e+02   2.1215486468e+01    0.2148133    0.1459696  87.04  0.001088899    1.716    0.417
        78  -9.8851     63.4246    209.6770   1.2960777854e+02   2.4874755990e+01    0.4961326    0.3114739 -35.93  0.002774334    2.909    0.656
        79 -11.0686     55.1129    207.9547   1.3112672685e+02   2.6142588748e+01    0.5506809      0.29522  77.47  0.002423216    2.027    0.507
        80  -8.5820    130.7987    211.3793   1.1611718493e+02   1.5372231469e+01    0.1601478   0.09903455  32.23 0.0001295497    1.429    0.300
        81 -10.1352     70.1417    218.4232   1.2898083517e+02   2.2534294799e+01    0.3680215    0.2168955 -88.82   0.00228878    1.946    0.486
        82  -9.9414    156.2316    208.1989   1.1054116245e+02   1.1888942945e+01    0.1967757    0.1708955  31.69 0.0002485847    1.088    0.081
        83  -9.4797    112.3283    208.1472   1.1950325430e+02   1.8666576718e+01    0.1608494     0.139206  53.89 0.0004158222    1.091    0.083
        84  -8.7983     74.3628    208.2643   1.2729376119e+02   2.3802424733e+01     0.143581   0.09835334  87.02 0.0003903857    1.564    0.361
        85  -8.8830     69.9295    208.1698   1.2818117795e+02   2.4366266156e+01    0.1691244    0.1194019  58.10 0.0003105368    1.193    0.162
        86  -9.4599    125.8405    206.8503   1.1655655151e+02   1.6868649514e+01    0.1657842    0.1328933  64.21  0.001061043    1.364    0.267
        87  -8.8074     32.9949    206.9582   1.3537796303e+02   2.8654353780e+01    0.1356334    0.1203327 -56.37 0.0004616294    1.538    0.350
        88 -10.6101    249.9198    201.5490   9.2060560838e+01  -1.9695273147e+00    0.3942236    0.1632725 -12.46   0.00164803    3.541    0.718
        89  -9.5049     91.5616    204.6775   1.2341874947e+02   2.2204373773e+01    0.3753286    0.1753639  30.66  0.001583653    2.192    0.544
        90  -8.6504    103.0524    202.7777   1.2081053776e+02   2.0940863100e+01    0.3210147    0.1716411  47.37  0.001737081    1.611    0.379
        91 -10.5995      2.0052    202.0382   1.4096516705e+02   3.2282857724e+01    0.1894577    0.1188461  88.44  0.000893509    1.358    0.264
        92 -10.8411      4.1246    186.7003   1.3997867574e+02   3.4971768035e+01    0.2919463    0.2003936  56.04  0.001325736    1.198    0.166
        93 -11.0938      1.4991    192.0429   1.4069605756e+02   3.4161796738e+01     0.380898    0.1282889 -88.59  0.002007753    2.687    0.628
        94  -9.4684     84.4367    201.1220   1.2453988177e+02   2.3803639678e+01    0.3175607    0.2124724 -33.55  0.001519121    2.398    0.583
        95 -12.9501     40.1269    243.6271   1.3601117735e+02   2.1735938714e+01    0.8620685    0.6574659  59.14  0.007322025    1.084    0.077
        96 -12.3273      5.2876    226.3158   1.4119897610e+02   2.7800736490e+01     1.014962    0.5579007  51.38   0.00775728    1.326    0.246
        97 -11.7872    102.9023    196.0754   1.2005586841e+02   2.2168348584e+01     0.355462    0.2202897  32.46 0.0003754072    1.531    0.347
        98 -11.5780     57.9551    194.1131   1.2945663321e+02   2.8400230879e+01    0.3105641    0.2572409 -47.26 0.0006413786    1.584    0.369
        99 -10.9176     27.6912    195.3588   1.3575048840e+02   3.1317067103e+01    0.3180417    0.1943803  78.65 0.0001158309    1.437    0.304
       100  -9.3111     20.9200    194.8683   1.3706376354e+02   3.2028604408e+01    0.1673697    0.1252483 -62.53 0.0007530215    1.596    0.373
       101 -10.7724    249.4532    193.7762   9.0746960343e+01  -1.0485216292e+00     0.336274    0.1865941  13.20  0.001859538    1.743    0.426
       102  -9.6484    113.1246    191.6448   1.1728277376e+02   2.1459044648e+01    0.4178733    0.1752405 -42.79  0.001751653    3.357    0.702
       103  -9.2324    191.4090    191.3071   1.0082377298e+02   8.5648338403e+00    0.2119651    0.1701733  20.26  0.000627738    1.019    0.019
       104  -9.0045     38.6212    192.2098   1.3333825444e+02   3.0854746817e+01    0.1374742   0.09334765 -71.78  0.000389081    1.503    0.335
       105 -10.3260     15.5252    191.8838   1.3797434778e+02   3.3063556886e+01    0.1822772    0.1365607  66.99 4.322785e-05    1.028    0.028
       106  -9.1523     32.0823    190.1487   1.3454637015e+02   3.1897563146e+01    0.3055647   0.07793394  41.79  0.001426704    2.822    0.646
       107  -9.0521     40.8854    188.3694   1.3259630276e+02   3.1369499570e+01    0.2001051    0.1309413  75.53 0.0009905488    1.380    0.276
       108  -8.8580     77.0576    188.4948   1.2481886274e+02   2.7151560534e+01    0.1668613    0.1057861  38.92 1.330716e-05    1.415    0.293
       109 -10.8899     71.8643    187.0544   1.2581000450e+02   2.8094665460e+01    0.2638486    0.2311991 -31.05 0.0004239653    1.534    0.348
       110 -11.4175     64.5070    186.5492   1.2737314215e+02   2.9098594800e+01    0.2858168    0.2440442 -55.99 0.0005222179    1.402    0.286
       111  -9.4780     10.0634    187.6967   1.3885332764e+02   3.4314880039e+01    0.1859099    0.1152657  78.32  0.000622703    1.317    0.241
       112  -9.9111     83.6159    186.7179   1.2317961512e+02   2.6631456490e+01    0.2088996    0.1693871  61.97 0.0002985102    1.112    0.101
       113  -8.9918     29.5605    184.1985   1.3468695799e+02   3.3299401940e+01    0.2281848    0.1491749 -25.78  0.001293731    2.926    0.658
       114  -9.0562     24.1299    184.0503   1.3581008989e+02   3.3826443450e+01    0.1518099    0.1362212 -86.23 0.0006398531    1.254    0.202
       115  -8.9562    127.8005    182.8147   1.1279526387e+02   2.0757432035e+01    0.1689119    0.1424843  66.15 0.0002695272    1.305    0.234
       116  -9.1101     52.9496    198.4991   1.3085035449e+02   2.8133269702e+01     0.226543     0.136642  22.65  0.001323703    2.092    0.522
       117  -8.8030     36.4331    182.6678   1.3312778264e+02   3.2941924930e+01    0.1460142   0.09482013 -68.22 0.0009394974    1.562    0.360
       118  -8.2378      8.6390    182.2751   1.3888642072e+02   3.5475666275e+01    0.1147379   0.05694242  58.75 0.0007005943    1.660    0.398
       119 -12.5665    248.2494    173.7578   8.7176164462e+01   1.4583587660e+00    0.9361765    0.3761966 -30.94   0.00440719    2.399    0.583
       120 -11.8251    246.5508    157.8630   8.4269463758e+01   3.7009665849e+00    0.8726896    0.6618859  77.78  0.004244518    3.314    0.698
       121  -9.4852     85.7695    179.9719   1.2191149798e+02   2.7664253492e+01    0.2541998    0.1576007  65.84  0.001029733    1.802    0.445
       122  -8.8062     27.2492    179.9974   1.3490280162e+02   3.4347021996e+01    0.1542268    0.1183676  82.25 0.0003055256    1.106    0.096
       123 -11.4169    245.0825    162.1343   8.5387915092e+01   3.4043102653e+00    0.3287824     0.237104 -26.34  0.001975261    1.391    0.281
       124  -8.7082     47.2259    179.6706   1.3055121537e+02   3.2434521563e+01    0.1502321    0.1041383  25.33 0.0004710449    1.677    0.404
       125  -8.0770     92.6810    178.2731   1.2011901927e+02   2.7033086045e+01    0.1300957   0.08617374  61.18 0.0001830662    1.568    0.362
       126  -8.4314     12.4880    178.4640   1.3791176984e+02   3.5918509069e+01    0.1063777    0.0858648  76.61 0.0001670263    1.061    0.058
       127 -11.2047     65.1546    175.6472   1.2613932892e+02   3.1207960665e+01    0.2788777    0.2011413  44.47  0.000402993    1.260    0.207
       128 -11.1017     61.0349    172.6919   1.2678050592e+02   3.2309278045e+01    0.2856653    0.2399101 -54.73 0.0009131961    1.380    0.275
       129  -9.4339    103.0414    176.0310   1.1743000330e+02   2.5953301433e+01    0.1886924    0.1691042  51.16            0    1.009    0.009
       130 -10.6650     74.9968    174.6051   1.2375581642e+02   3.0185278962e+01    0.2555266    0.2007925  54.76 0.0004072518    1.134    0.118
       131 -10.1958     19.2483    173.8819   1.3622944289e+02   3.6279276240e+01    0.3617876     0.162651  70.12 0.0009057195    2.159    0.537
       132  -9.7413     12.2849    172.9432   1.3766233428e+02   3.7036875126e+01    0.2401941    0.1460903 -69.14  0.001593902    1.603    0.376
       133 -10.8613     43.9666    161.9704   1.2972405744e+02   3.6453335351e+01     0.409519     0.231667  82.61  0.001384784    1.855    0.461
       134  -9.4517     46.0225    172.5015   1.3020405386e+02   3.4026867039e+01    0.1905877    0.1486364 -86.39 0.0003368844    1.187    0.157
       135  -9.4321     47.8442    168.8188   1.2945381835e+02   3.4599413817e+01    0.3237716    0.1453085  48.09  0.001470251    2.014    0.503
       136 -11.2294      2.2688    170.8345   1.3966669067e+02   3.8211801677e+01    0.5034888    0.1969523  85.11   0.00132958    2.316    0.568
       137  -9.2496     27.9409    171.0309   1.3414669985e+02   3.6101314693e+01    0.3028907    0.1464483 -55.34  0.001436123    2.354    0.575
       138 -11.4069     83.1185    166.1487   1.2079370908e+02   3.0846567673e+01    0.5363404    0.4090673  25.21  0.003155556    1.457    0.313
       139 -10.6957     14.4894    167.3320   1.3687058865e+02   3.8003048461e+01    0.2777531    0.2547546  35.11  0.001393053    1.354    0.261
       140 -11.0608      7.6359    166.0983   1.3829370201e+02   3.8780030818e+01    0.2604692    0.2384442  -2.95  0.002083247    1.542    0.351
       141  -9.7650     64.9640    167.0424   1.2525151084e+02   3.3016508162e+01    0.1800584    0.1578532  70.24            0    1.006    0.006
       142  -8.5465     60.8803    164.8341   1.2598043408e+02   3.3973108354e+01    0.1667127    0.1219884  62.11 0.0003159788    1.272    0.214
       143  -8.8039     69.3223    164.0000   1.2385383560e+02   3.3119450930e+01    0.3978529   0.06710095  32.16  0.001139946    5.772    0.827
       144  -8.2253     36.7291    162.6839   1.3149525296e+02   3.7023477389e+01    0.1085587   0.08373011 -49.84 0.0003483412    1.558    0.358
       145 -10.2911      3.5314    158.9849   1.3882160416e+02   4.0535479290e+01    0.2681944    0.1165455  32.58  0.001555166    2.258    0.557
       146 -10.3873     83.2615    156.7972   1.1947901514e+02   3.2806729128e+01    0.3495669    0.2921367 -19.06   0.00206372    1.561    0.359
       147  -8.5405     52.4180    158.4829   1.2733833315e+02   3.6300872001e+01    0.1206048    0.1061995  80.95 0.0002005321    1.028    0.028
       148  -9.3544     16.0358    158.3257   1.3596474776e+02   3.9754684439e+01    0.1488205    0.1220684  61.15 0.0003805793    1.137    0.121
       149 -11.7837     10.2636    157.2818   1.3721672187e+02   4.0412144035e+01      0.56822    0.2105971  70.89  0.002626681    2.926    0.658
       150  -9.5314     12.2790    154.0332   1.3655356602e+02   4.0949011586e+01    0.2099858    0.1409554 -89.28 0.0009246739    1.242    0.195
       151 -10.9449     10.8665    150.0917   1.3663109520e+02   4.1891874847e+01    0.2181877    0.1882197 -48.01 0.0002756866    1.445    0.308
       152 -10.9225     25.7054    154.9941   1.3346616854e+02   3.9671360405e+01    0.3865634    0.1754905  35.81  0.002103445    2.100    0.524
       153  -8.6539    228.3440    155.2272   8.6844553502e+01   7.1955299984e+00    0.1778536    0.1143702 -34.46 0.0005015465    1.640    0.390
       154  -9.7632     90.0518    153.3405   1.1725685965e+02   3.2576341244e+01    0.2091387    0.1790016 -50.91 0.0005457349    1.258    0.205
       155 -12.8325    247.3063    100.6647   7.1403232201e+01   1.1145194971e+01     1.086427    0.6517687 -15.85   0.00535872    1.660    0.398
       156 -11.3286    248.2414    112.8145   7.4112123874e+01   9.3334926140e+00    0.5067163    0.3880297  20.94  0.001736342    1.297    0.229
       157 -12.0915    247.6779    142.5806   8.0863117833e+01   5.4783874279e+00    0.7301694    0.6074672  54.87  0.004425721    1.678    0.404
       158 -12.6750    248.8434    132.5731   7.8492333636e+01   6.5875947411e+00     1.288926    0.4593302 -28.60  0.005211606    2.579    0.612
       159  -9.8230     58.4748    147.6989   1.2457147994e+02   3.7978892477e+01    0.2619293    0.1771435 -40.18  0.001432667    1.855    0.461
       160  -8.8934     82.9926    149.9648   1.1854786763e+02   3.4324194740e+01    0.1579305    0.1451998  60.15 0.0004168421    1.028    0.027
       161 -10.6174     22.0647    149.4568   1.3390661746e+02   4.1171481900e+01    0.2655568    0.1557418  33.47  0.001609466    1.768    0.434
       162 -11.9031     68.4459    144.1951   1.2150066264e+02   3.7549097933e+01    0.6329149    0.4408379  76.05  0.002371887    1.585    0.369
       163  -9.2281     41.1299    147.3870   1.2898141486e+02   3.9912093789e+01    0.1957068    0.1523367 -67.39 0.0006108779    1.242    0.195
       164 -12.6777      7.9063    142.5337   1.3684836252e+02   4.3725399156e+01    0.5581138    0.4483198  80.23  0.004102957    1.034    0.033
       165  -9.9352    236.2583    145.8059   8.3455746429e+01   7.0687370627e+00    0.2663882    0.1602983  30.43 0.0007496453    1.596    0.374
       166 -11.0910     12.9313    137.2745   1.3523150587e+02   4.4531202600e+01    0.2147462    0.1408114 -74.94 0.0002869972    1.303    0.232
       167 -10.4004     19.5338    141.5455   1.3390136984e+02   4.3103221973e+01    0.1986788    0.1130382  54.08 4.459291e-05    1.682    0.406
       168  -8.7421     45.2712    148.3338   1.2802993745e+02   3.9284632933e+01    0.1184081   0.08699505 -46.11 0.0001854758    1.594    0.373
       169  -9.4295    133.0957    140.4791   1.0400497227e+02   2.8050641290e+01    0.2668175    0.2087236 -69.27 0.0009326006    1.598    0.374
       170  -9.7427     37.4219    140.4097   1.2920600121e+02   4.1826486100e+01     0.256871    0.1326962  64.46  0.001271201    2.155    0.536
       171  -9.3988     32.2685    140.2492   1.3053163767e+02   4.2334495877e+01    0.2645741    0.1229562  77.80  0.001024938    2.660    0.624
       172 -11.3383     59.8811    136.4095   1.2270320853e+02   4.0355439748e+01     0.268785    0.2108267 -73.96 0.0002289444    1.199    0.166
       173  -9.4028    108.7660    135.7968   1.0932060222e+02   3.3408944215e+01    0.3342526    0.2297368 -20.22  0.001520615    2.107    0.525
       174 -10.0772     48.0325    135.7535   1.2584157235e+02   4.1824901836e+01    0.2194748    0.1679276 -75.78 0.0005674985    1.192    0.161
       175 -11.4301      2.1550    131.6777   1.3756690384e+02   4.6457242805e+01     0.460595    0.1392322 -79.52  0.002073004    2.711    0.631
       176 -13.6993      2.1419    122.1278   1.3691882259e+02   4.8572645265e+01     1.917761    0.3750301 -76.79  0.007086899    3.910    0.744
       177 -10.4044     96.2349    150.7679   1.1527644111e+02   3.2201173504e+01    0.3039393    0.2312978 -43.14  0.001157175    1.465    0.318
       178 -10.1383     44.7742    130.3995   1.2606009885e+02   4.3385314130e+01    0.2937948    0.1631431  61.46 0.0009467765    2.041    0.510
       179  -9.8830     59.2711    128.0480   1.2165490380e+02   4.2345457408e+01     0.181147    0.1598076 -81.22 0.0003953888    1.048    0.046
       180 -12.0009     13.2746    127.2581   1.3434320904e+02   4.6739826690e+01    0.3419239    0.2166306 -60.08   0.00212583    1.488    0.328
       181  -9.4419    209.9651    125.7710   8.3630987765e+01   1.5052830867e+01    0.2440867    0.1920783 -20.80 0.0005347491    1.210    0.173
       182  -8.0805     48.2875    126.3202   1.2453110665e+02   4.3965304014e+01    0.1269891   0.09027661 -41.67 0.0002701686    1.597    0.374
       183 -11.2184    242.7160    120.3015   7.6691865079e+01   9.3651462454e+00    0.4854001    0.3147052 -59.02   0.00216147    2.855    0.650
       184 -11.9091     15.8186    117.6783   1.3277522039e+02   4.8743200469e+01    0.4180961    0.2512607 -24.31  0.002300601    2.406    0.584
       185  -9.9187    231.8576    116.2126   7.7492302756e+01   1.2044587028e+01    0.2049707    0.1847394 -29.69 0.0007093631    1.221    0.181
       186  -9.7889    167.9276    113.1005   8.9197069990e+01   2.6228661547e+01    0.3147682    0.2721366 -81.55  0.001045212    1.555    0.357
       187 -12.4308      9.5102    113.4334   1.3417502501e+02   5.0113224945e+01    0.4487374    0.2596161  70.72   0.00191206    1.747    0.428
       188  -8.8126    203.4908    111.5201   8.1379019213e+01   1.8665901242e+01    0.1495716    0.1336712   4.98 1.360419e-05    1.021    0.021
       189 -10.0266     35.3466    107.1263   1.2567516939e+02   4.9696407044e+01     0.198334    0.1958489 -88.43 0.0003341836    1.150    0.130
       190 -10.9640     16.2402    104.6003   1.3127771575e+02   5.1732159114e+01    0.2102213    0.1380101  42.00  0.001275919    1.667    0.400
       191  -8.2921     71.7373    100.0042   1.1270262288e+02   4.7301379257e+01    0.1681099    0.1141544 -57.32 0.0002597741    1.384    0.277
       192 -10.2984     16.7511     99.0001   1.3045957483e+02   5.3002457211e+01    0.1722341    0.1358029 -75.24 0.0002578121    1.052    0.050
       193 -10.8906    249.6260    150.9525   8.2328526583e+01   4.0640202616e+00     0.424526    0.2528014 -26.19  0.002308653    1.535    0.348
       194 -10.5117     21.4256     92.9613   1.2814114398e+02   5.4107969205e+01    0.2437348     0.162684 -62.80  0.001387678    1.247    0.198
       195 -10.7441      2.0000     83.5481   1.3350120714e+02   5.7365046822e+01    0.4137868   0.05444345 -75.34  0.001165469    6.026    0.834
       196  -9.8713    249.7065    117.9137   7.5063489319e+01   8.3769734233e+00    0.2868848    0.2268071  -4.88    0.0007278    1.114    0.102
       197  -9.8436    192.6855    248.9277   1.0928162736e+02   1.1015577961e+00    0.1547175    0.1199946  23.74  0.001161434    1.115    0.103
       198 -11.5281    199.3314    246.5600   1.0780991190e+02   4.2359163230e-01    0.3728433    0.1980592  40.72  0.002288646    1.619    0.382
       199 -10.7436     17.8953     26.0708   1.1456614321e+02   6.9388150178e+01      0.26414     0.155181  32.43   0.00150357    2.098    0.523
