#   1 NUMBER                 Running object number                                     
#   2 MAG_AUTO               Kron-like elliptical aperture magnitude                    [mag]
#   3 X_IMAGE                Object position along x                                    [pixel]
#   4 Y_IMAGE                Object position along y                                    [pixel]
#   5 X_WORLD                Barycenter position along world x axis                     [deg]
#   6 Y_WORLD                Barycenter position along world y axis                     [deg]
#   7 A_WORLD                Profile RMS along major axis (world units)                 [deg]
#   8 B_WORLD                Profile RMS along minor axis (world units)                 [deg]
#   9 THETA_WORLD            Position angle (CCW/world-x)                               [deg]
#  10 FWHM_WORLD             FWHM assuming a gaussian core                              [deg]
#  11 ELONGATION             A_IMAGE/B_IMAGE                                           
#  12 ELLIPTICITY            1 - B_IMAGE/A_IMAGE                                       
         1 -11.1120     70.1478     21.3544   1.2561716097e+01   6.4329355677e+01    0.2469434    0.1972872 -38.59 0.0006291026    1.353    0.261
         2  -9.9256    116.5978     12.1886   3.5778745414e+02   5.3957311413e+01    0.1757772    0.1322768  -4.05 0.0009524649    1.753    0.430
         3 -10.9509     71.8519      9.8326   6.2047117176e+00   6.5280365848e+01    0.2734973     0.184386 -37.52 0.0003760315    1.617    0.382
         4 -11.5497     72.6656      6.6822   4.3518790972e+00   6.5402282734e+01    0.3997903    0.1988054 -30.20  0.001733746    2.162    0.538
         5 -10.8909     83.2577      7.3644   2.0242935321e+00   6.2761849079e+01    0.2361171    0.2000903 -60.17 0.0002957066    1.260    0.206
         6  -9.8526     89.9974      4.0079   3.5903157358e+02   6.1400501996e+01    0.2224468    0.1431531 -65.88  0.001136382    1.747    0.427
         7  -9.5441     39.5286      3.5623   1.4812885957e+01   7.3178570815e+01    0.1282087    0.1100846  35.40 0.0001098907    1.030    0.029
         8  -9.0002     25.2367      1.9908   2.2047500149e+01   7.6121657308e+01    0.1496266    0.1014819 -29.23 0.0004954709    1.566    0.361
         9  -9.1784    128.3121      1.3560   3.5237592002e+02   5.2038580310e+01    0.1311695   0.09038202  43.93 0.0007044024    1.736    0.424
        10 -10.2570     43.0875    243.4895   6.8771801728e+01   1.7258002596e+01    0.1890406   0.09690136  29.36  0.000646324    1.571    0.364
        11  -8.8570    238.3585    250.7031   3.0947928112e+01  -4.5319267887e+00   0.08231468   0.07120735  10.38 0.0007033835    1.704    0.413
        12  -9.1434     87.0266    250.7408   5.9481186380e+01   1.1204261943e+01    0.1626369   0.08404645  28.65 0.0006904856    1.532    0.347
        13 -13.8865     34.4244    233.9563   7.0222237089e+01   2.0002673954e+01     1.440516    0.8450238 -56.50  0.008144416    2.093    0.522
        14 -13.0286     21.6003    196.4201   7.1291964389e+01   2.9477778382e+01    0.9848813    0.4743638  16.42  0.004457779    2.294    0.564
        15 -13.4081     20.2205    214.9803   7.2646179659e+01   2.5366582285e+01     1.394498      0.43713  58.16  0.005412709    3.182    0.686
        16 -13.1908     11.7833    189.7614   7.3583910999e+01   3.1930527970e+01     0.786578    0.5359359  81.98  0.003170275    1.379    0.275
        17 -12.9147      4.3208    202.1626   7.6095547996e+01   2.9616335150e+01     1.009994    0.6485323 -67.12  0.004936891    1.713    0.416
        18 -13.3002      3.2337    217.7454   7.6900993572e+01   2.6223726494e+01     1.328322    0.4607754 -83.23  0.005448777    2.929    0.659
        19 -14.6608     12.6771    235.6277   7.5305864303e+01   2.1687606813e+01     1.564351     1.097911 -70.02   0.00879453    1.677    0.404
        20 -12.5379      2.1790    248.6849   7.8005264780e+01   2.0022496603e+01    0.6690002    0.2261751 -87.22  0.003226592    3.211    0.689
        21 -12.2773      6.2392    247.2329   7.7097478086e+01   1.9960820620e+01    0.2855439    0.1771531  48.01 0.0003298286    1.205    0.170
        22  -9.8158    117.0097    241.2122   5.1999589729e+01   9.3896074554e+00    0.1886205    0.1597341  75.61  0.001258962    1.621    0.383
        23  -9.0921    142.6831    242.3266   4.6738604835e+01   6.2072369879e+00    0.1119512   0.08427565  47.79 0.0002777667    1.675    0.403
        24  -9.2955    101.5705    238.4795   5.5095133555e+01   1.1691219942e+01    0.1230003    0.1022691  26.12 8.983365e-05    1.010    0.009
        25  -9.1316     46.6554    234.6965   6.7409485568e+01   1.8613271415e+01    0.1168375   0.09124754 -14.63  0.000704031    1.686    0.407
        26  -9.3517    158.4118    233.2811   4.2413643794e+01   5.7901685064e+00    0.1362491    0.1136336 -47.41 0.0005718449    1.519    0.342
        27 -10.6327     72.8823    231.3093   6.0986181604e+01   1.6401868876e+01     0.427198    0.2269501 -62.87  0.002249355    2.170    0.539
        28  -9.9155     61.9593    231.0439   6.3542235680e+01   1.7692200707e+01    0.1874528    0.1464106 -16.78  0.001132362    1.638    0.389
        29  -9.7648    194.4920    228.9318   3.5034586546e+01   2.3622324350e+00    0.2650646    0.1001119 -42.08   0.00134068    2.644    0.622
        30  -9.7938    152.2898    229.5661   4.3143652758e+01   7.1004209251e+00    0.2313999   0.09769592  32.74  0.001132822    2.079    0.519
        31 -10.1248    138.1338    228.0214   4.5877608073e+01   9.0766415818e+00    0.1792714    0.1564646   8.13 0.0004510004    1.060    0.056
        32 -10.0087    231.5485    226.8649   2.8628085435e+01  -1.1278392569e+00     0.234261    0.1026901  13.40  0.001245277    2.805    0.643
        33 -11.1344    115.2049    225.7239   5.0603604871e+01   1.2335926851e+01    0.4251173    0.2651256 -49.32  0.002391931    1.800    0.444
        34 -10.9719    147.7406    224.6422   4.3410426012e+01   8.4589635024e+00     0.282319    0.1885264 -24.96 0.0006621339    1.585    0.369
        35  -9.4641     91.5782    224.9974   5.5967624265e+01   1.5410538723e+01    0.1693394    0.1274542 -63.74 0.0005789036    1.565    0.361
        36  -9.4586     80.4390    225.5119   5.8658247647e+01   1.6658906042e+01    0.1275024    0.1097443  31.05 3.489128e-05    1.030    0.029
        37 -11.0292    173.5213    220.3183   3.7642623872e+01   6.0159613292e+00    0.3482241    0.2339765 -51.19  0.002108464    1.894    0.472
        38 -10.6960    159.3357    222.0528   4.0680021970e+01   7.4577330271e+00    0.3556474     0.203574  43.35  0.001909205    2.087    0.521
        39 -11.6566    124.9255    221.6328   4.7916236749e+01   1.1851158790e+01    0.4076804     0.306717  35.38  0.001941096    1.242    0.195
        40  -9.7146    121.5096    217.0602   4.8088398294e+01   1.3131029492e+01    0.2217019    0.1323488 -61.62 0.0008030913    2.114    0.527
        41 -10.2016    119.5533    213.5535   4.8072328816e+01   1.4047612132e+01    0.2697848    0.1452578  32.81  0.001349988    1.626    0.385
        42 -13.0502      2.4853    181.1879   7.5756225128e+01   3.4751533963e+01     1.682072    0.5046889 -86.45  0.006207288    3.295    0.697
        43  -9.8536     76.9796    219.5199   5.8901924538e+01   1.8284275333e+01    0.2015048    0.1105976  30.64 0.0007495416    1.542    0.351
        44 -11.2280    145.3366    216.8142   4.2826337080e+01   1.0090590419e+01    0.3016398    0.2565528  50.68  0.001238632    1.478    0.323
        45  -9.5948     63.5570    216.7920   6.1950477747e+01   2.0444432491e+01    0.2894287    0.1277895 -85.06  0.001147451    3.437    0.709
        46 -10.3002    108.3492    214.9014   5.0849500784e+01   1.5257599591e+01    0.2361295    0.2195307  30.79 0.0008308354    1.090    0.083
        47 -11.0775     85.2515    214.5831   5.6364648391e+01   1.8283174603e+01    0.4603876    0.2373129  41.79  0.002231336    1.730    0.422
        48 -13.2633      6.5505    234.3315   7.6649621640e+01   2.2474269226e+01    0.6736429    0.5347708 -53.79  0.003412247    1.656    0.396
        49 -10.5559    127.7993    214.4987   4.6328639014e+01   1.2784580990e+01    0.1995479    0.1760988 -36.30 0.0003523027    1.233    0.189
        50 -10.1931    156.7992    213.8528   4.0008231467e+01   9.1294153035e+00     0.181708    0.1465069  -4.30 0.0003430469    1.128    0.113
        51 -11.1167     73.2176    210.1725   5.8891996429e+01   2.0706654256e+01    0.5906566    0.3327235  66.42  0.002256761    2.318    0.569
        52  -9.4088    193.9949    211.7453   3.2555876217e+01   4.8972390525e+00    0.1568354    0.1264743   1.15 0.0003344004    1.061    0.058
        53 -10.2572     96.9177    208.6466   5.2815830099e+01   1.8010253738e+01    0.3423178    0.1963914 -68.02  0.001666087    2.150    0.535
        54 -10.5083     25.9156    209.1325   7.0902348307e+01   2.6137463936e+01     0.275965    0.2034281 -78.43  0.001079586    1.441    0.306
        55 -11.1480    180.1220    207.4731   3.4438075989e+01   7.2289056485e+00    0.2316641    0.1954047 -11.49 -0.0001018155    1.067    0.062
        56 -10.5830    161.5331    207.8316   3.8137314236e+01   9.5376791300e+00    0.2990535    0.2217908  60.33  0.001467153    2.201    0.546
        57 -10.1866    228.5352    208.0120   2.6240486060e+01   1.5978123526e+00    0.1951947     0.128417  44.18 0.0009820902    2.406    0.584
        58 -10.3266    139.9305    207.1907   4.2601808122e+01   1.2515285676e+01    0.2340152    0.1704373 -89.46  0.001184083    2.526    0.604
        59 -11.4811     34.5779    207.7135   6.8591143343e+01   2.5606671164e+01    0.4179931    0.1544123  30.81  0.001804154    2.183    0.542
        60 -11.6305     37.1665    205.3129   6.7753823495e+01   2.5887325165e+01    0.4016015    0.1678251  47.45  0.001631689    2.068    0.516
        61  -9.9118    103.5111    205.9576   5.0867426184e+01   1.7687349519e+01    0.1860089     0.134513 -60.09 0.0007759781    1.566    0.362
        62 -10.8806     20.5095    204.9689   7.2058778346e+01   2.7588450716e+01    0.2994911    0.2107498  80.77  0.001748356    1.377    0.274
        63 -11.0841     16.8824    204.7689   7.2983730723e+01   2.7961314807e+01    0.3997182    0.1899187  64.36  0.001329097    2.011    0.503
        64  -9.9385     61.7126    205.2646   6.1350552688e+01   2.3171097748e+01     0.234684    0.1808059  29.82 0.0009139603    1.185    0.156
        65 -11.2673    146.9363    202.1720   4.0322698647e+01   1.2480792095e+01    0.5065251    0.2821535  48.45  0.002404012    2.324    0.570
        66 -11.9048     84.3094    198.8396   5.4788151135e+01   2.1765189603e+01    0.7292773    0.4675541 -61.95  0.002602827    1.709    0.415
        67  -9.4477    212.6691    200.3490   2.7546971950e+01   4.4007462897e+00   0.09904044   0.09225057 -63.82 0.0007048643    1.767    0.434
        68 -10.4909    101.6767    198.1013   5.0279659926e+01   1.9576405782e+01    0.3339678    0.1841736 -63.87  0.001553714    2.128    0.530
        69  -9.9669     53.9553    198.9512   6.2797154951e+01   2.5513330650e+01    0.2295913     0.137721  56.76 0.0009500221    1.656    0.396
        70  -9.7112    135.4015    198.1564   4.2252368079e+01   1.4833012843e+01    0.1669729    0.1290365 -65.05 0.0006751241    1.641    0.390
        71 -10.6962    122.6083    196.4180   4.4947337609e+01   1.6985514549e+01    0.2861647    0.2651357  57.75  0.001772082    1.229    0.186
        72 -12.8591     13.1164    213.6923   7.4345318966e+01   2.6283904802e+01     1.200791    0.4445037 -74.89  0.005414552    2.753    0.637
        73 -12.6967     91.5324    198.0789   5.2838355792e+01   2.0967325410e+01    0.9423038     0.415682 -52.78  0.003037407    2.403    0.584
        74 -11.0065    192.5429    193.9486   2.9959104729e+01   7.8105567431e+00    0.2764334    0.2162662  -4.24  0.000581702    1.138    0.121
        75 -10.1898    172.8711    195.8065   3.3963349642e+01   1.0080554106e+01    0.1536415    0.1487226 -34.14 0.0006370585    1.316    0.240
        76 -10.1516     52.5675    192.5196   6.2564866842e+01   2.7178168211e+01    0.2353899    0.2278481  48.42 0.0004795251    1.108    0.098
        77 -10.0647     50.3302    190.3148   6.2969760373e+01   2.7961169267e+01    0.2198231    0.2079449  -7.41  0.000531539    1.224    0.183
        78 -10.4368    133.3642    191.2996   4.1647787091e+01   1.6460610494e+01    0.3339069    0.2317311  -8.96  0.001700485    1.768    0.435
        79 -11.2726     20.8912    188.2953   7.0994631448e+01   3.1490699206e+01    0.3510625    0.1596732  31.73  0.001323764    1.890    0.471
        80  -9.5876    152.6921    188.6722   3.6919428271e+01   1.4160973267e+01    0.1365211   0.09494079 -10.92 0.0002685625    1.657    0.397
        81 -10.1601    110.6966    188.0178   4.6583101981e+01   2.0448574455e+01    0.1878444    0.1837661 -31.64 0.0006353077    1.094    0.086
        82  -8.9908    208.7230    186.3156   2.5872188883e+01   6.9550880842e+00    0.1028083   0.09119893 -52.71 0.0002663614    1.568    0.362
        83  -8.9480    187.2873    186.6629   2.9684542464e+01   9.6755969337e+00    0.1096364   0.09981809 -74.03 0.0002992862    1.633    0.388
        84 -10.2296    128.0840    185.8522   4.2008314887e+01   1.8333893560e+01    0.2105693     0.187201  55.90  0.001236077    1.278    0.218
        85  -9.9255    163.7620    184.0780   3.3815731663e+01   1.3405956627e+01    0.3142306    0.1720853 -55.00  0.001473702    2.281    0.562
        86 -11.0967     94.5732    181.8942   4.9832057419e+01   2.4152718332e+01    0.4845768    0.2787326 -58.84  0.002242299    1.845    0.458
        87 -11.0513     76.0777    182.7079   5.4966822695e+01   2.6555381430e+01    0.4653338    0.2065717 -74.51  0.001734231    2.994    0.666
        88 -12.0529     25.1367    183.4029   6.9478505113e+01   3.2295764934e+01    0.4420144    0.2313592  50.28  0.002099169    1.705    0.413
        89 -11.4655     85.9954    179.7580   5.1838737434e+01   2.5877083000e+01    0.6493764    0.2197447  45.65  0.002175964    3.159    0.683
        90 -10.2451     67.9912    180.4989   5.6948434808e+01   2.8158366187e+01    0.2016328    0.1229502  -3.91 0.0008106121    2.611    0.617
        91  -9.5211    191.4154    178.1530   2.7447964938e+01   1.0521276759e+01    0.1666618    0.1100084 -47.85 0.0005333638    1.638    0.389
        92 -10.3805     62.4272    177.3439   5.8151436706e+01   2.9646488609e+01    0.2758388    0.2108452 -10.43 0.0008912038    1.672    0.402
        93  -9.8373    136.3466    174.6773   3.8177318782e+01   1.9362729409e+01    0.1960961    0.1474562 -69.03 0.0005079639    1.708    0.415
        94 -11.9578    128.0726    174.8472   4.0170646066e+01   2.0623380455e+01    0.4571847    0.3739589 -64.29  0.002196596    1.402    0.287
        95  -9.9632    106.8504    175.4405   4.5602244993e+01   2.3787934809e+01    0.2363518    0.2061849 -55.15 0.0005971238    1.208    0.172
        96 -10.0528     31.1688    176.3556   6.7194026964e+01   3.3469190551e+01    0.1895125    0.1776169 -75.24  0.001145322    1.159    0.137
        97 -11.1028     91.4698    170.7151   4.8987155069e+01   2.7211933898e+01    0.4346743    0.2771428 -56.66   0.00177912    1.625    0.384
        98 -10.0563     79.9358    173.3505   5.2614534364e+01   2.8261796297e+01    0.2745446    0.2419952  18.21  0.001002639    1.175    0.149
        99 -10.3717    142.8692    172.1711   3.6228808470e+01   1.8847460672e+01    0.3957236    0.1299993  46.61  0.001243211    4.151    0.759
       100  -9.7447    158.5057    171.4783   3.2671882440e+01   1.6536724116e+01    0.1343174    0.1219429  -9.57 7.209348e-05    1.010    0.010
       101 -10.0787    197.2804    170.3906   2.5015472148e+01   1.0989827121e+01    0.2312438    0.1150877  31.93  0.001150833    2.219    0.549
       102 -10.4665    153.0595    170.1092   3.3588184909e+01   1.7650853634e+01    0.2045782    0.1896516 -14.95  0.000499946    1.025    0.024
       103 -12.0298     18.4932    167.5270   7.0310019078e+01   3.6914493464e+01    0.3287476    0.2425017 -72.77  0.001797031    1.348    0.258
       104  -9.3101    160.5166    168.5413   3.1706975667e+01   1.6783166414e+01    0.1333465    0.1228279 -11.38 0.0001427751    1.017    0.017
       105  -9.7980    120.6411    167.7010   4.0750209222e+01   2.3343281898e+01    0.1484722    0.1096924  -9.01 0.0007035541    1.710    0.415
       106  -9.6977    153.5979    176.1993   3.4573372503e+01   1.6388228921e+01    0.1880482    0.1181839 -35.25 0.0006181878    1.603    0.376
       107 -10.0422    152.2769    164.9601   3.2800480071e+01   1.8786596669e+01    0.1968797    0.1724574 -33.44 0.0007021371    1.101    0.091
       108  -9.6669    110.8139    165.1718   4.2832402552e+01   2.5492324723e+01    0.2013444    0.1703742  -3.20 0.0006749587    1.321    0.243
       109  -9.4550    205.4977    164.0038   2.2452403109e+01   1.0882876405e+01     0.191417    0.1050725 -37.42   0.00102614    1.574    0.365
       110 -11.3638      7.4864    163.4720   7.3416254411e+01   3.8854524827e+01    0.2475369    0.2134056  66.25 0.0007556212    1.010    0.010
       111 -11.3369    170.0739    160.8342   2.8293383789e+01   1.6727177492e+01    0.3662372    0.2130976 -37.21  0.001813592    1.635    0.388
       112 -10.7416     25.3903    160.0437   6.7571959495e+01   3.8241009365e+01    0.2297694    0.1956663  10.14 0.0006719495    1.331    0.249
       113 -12.6419     20.4099    156.0646   6.8827138025e+01   3.9745935661e+01    0.5940751    0.4090947 -68.20  0.002321313    1.426    0.299
       114 -11.8227     20.9625    149.5923   6.8088807516e+01   4.1423307741e+01     0.480788    0.3478145  14.14  0.002488455    1.538    0.350
       115  -9.6285    118.0489    157.1798   3.9485601030e+01   2.6115369406e+01    0.2415418     0.169779   0.11  0.001076606    1.982    0.496
       116  -8.8771    141.3346    155.6999   3.3480935700e+01   2.2482527510e+01    0.1397075    0.1131919  76.36 0.0002427474    1.655    0.396
       117 -10.2654     42.7632    155.0277   6.1477050169e+01   3.7758476804e+01     0.235376    0.2044273  33.39 0.0003784647    1.155    0.134
       118 -10.3064     26.4927    150.5362   6.6333974093e+01   4.0663163066e+01    0.3958269     0.231422  -2.71  0.001686575    2.389    0.581
       119 -10.7328      1.8174    153.5313   7.4639958934e+01   4.1847598735e+01    0.3167252    0.2009142  73.68  0.001630047    1.439    0.305
       120 -10.7421      5.0185    150.0514   7.3403437611e+01   4.2550824176e+01    0.2509828    0.2064399   6.19  0.001010269    1.409    0.290
       121  -9.1029    143.6869    152.6988   3.2342678379e+01   2.2704776799e+01    0.1435632     0.108841  -9.14  0.000261579    1.610    0.379
       122 -10.6769    172.1844    150.9135   2.5927584121e+01   1.8234184928e+01     0.259275    0.1570119 -50.07  0.001272365    1.693    0.409
       123 -10.3459    108.9027    148.7361   4.0299081847e+01   2.9618304764e+01    0.3153548    0.2453581 -59.18 0.0009039633    1.326    0.246
       124  -9.8224     84.5123    149.9632   4.7552219743e+01   3.3353246510e+01    0.2712548    0.2153176   6.97 0.0007310971    1.500    0.333
       125  -9.0734     96.4396    148.5598   4.3773757811e+01   3.1769415672e+01    0.1476173    0.1440013  55.58 0.0001195812    1.001    0.001
       126  -9.5836     74.8784    150.7828   5.0637094705e+01   3.4621997316e+01    0.2872557    0.1873418  79.45 0.0009869148    2.010    0.503
       127  -9.0434    158.3116    145.3432   2.7615845465e+01   2.1659278926e+01    0.1447288    0.1062127 -10.97 0.0007046048    1.702    0.413
       128 -11.0977    102.6006    142.5846   4.0841602547e+01   3.2170498773e+01    0.4767348    0.3244297  75.04  0.001645662    2.109    0.526
       129 -10.7870     10.8219    142.1717   7.0907990150e+01   4.4245570570e+01    0.2050107    0.1804327  52.68  0.001153968    1.098    0.089
       130 -10.1876     52.1412    142.6460   5.6718825859e+01   3.9923838228e+01    0.3964547    0.1363883  38.89   0.00137092    2.620    0.618
       131  -8.7826     37.6668    142.7276   6.1675495171e+01   4.1625531892e+01    0.1454023    0.1095377 -31.54 0.0002110561    1.595    0.373
       132  -9.6945     96.7656    138.4146   4.1692698903e+01   3.4195885539e+01     0.200799    0.1476139  22.76 0.0003680334    1.521    0.343
       133  -9.3844     68.6660    136.9875   5.0243963279e+01   3.9127757817e+01    0.2086104    0.1931073 -89.09 0.0004114407    1.065    0.061
       134  -9.7403      1.5256    137.5240   7.3805261160e+01   4.6126829370e+01    0.1381803    0.1223356  79.80 0.0001080303    1.005    0.005
       135 -11.0807     13.2327    134.4912   6.9419076518e+01   4.6148488985e+01    0.2709727    0.1863925 -82.20  0.000901861    1.349    0.259
       136  -9.2763    197.0078    134.5210   1.8113384319e+01   1.7078479977e+01    0.1634538    0.1159539  79.35 0.0008094026    2.482    0.597
       137 -11.2358     19.5773    131.8770   6.6857223765e+01   4.6353009419e+01    0.4089415    0.2241079  35.48 0.0004906057    1.755    0.430
       138  -8.9723    126.3055    132.7025   3.2327044409e+01   3.0158604208e+01    0.1478895    0.1180613  82.60 0.0002438461    1.587    0.370
       139 -10.3526     82.6218    131.0334   4.4539827601e+01   3.8455479400e+01    0.2741381    0.2060469  51.99  0.001295198    1.359    0.264
       140  -9.2026     50.5519    130.4605   5.5361831935e+01   4.3409566877e+01    0.1483102    0.1433309 -73.27 6.181509e-05    1.059    0.055
       141  -9.1945    130.4815    128.4650   3.0322492648e+01   3.0301733038e+01    0.1469449    0.1434266 -38.69 0.0001591776    1.019    0.019
       142  -9.4891    121.4345    128.2247   3.2579308181e+01   3.2088932661e+01    0.2122706    0.1430835 -63.59 0.0006886001    1.687    0.407
       143 -11.1752     10.0935    125.9222   6.9803376175e+01   4.8720191933e+01    0.3126611    0.1768499 -84.85   0.00143308    1.666    0.400
       144  -9.7129     57.2126    126.4022   5.2270462103e+01   4.3602327664e+01    0.2245295    0.1316761  41.70 0.0009506932    1.670    0.401
       145 -10.3309      1.5773    126.1950   7.3023435705e+01   4.9189039334e+01    0.2109002    0.1103445 -66.80 0.0009575238    1.741    0.426
       146  -8.6493     49.4952    123.5823   5.4576197508e+01   4.5409009816e+01    0.1491109    0.1429026  76.23 -0.0001639677    1.014    0.014
       147 -11.2521     14.9895    120.5774   6.7386534792e+01   4.9828210232e+01    0.5264089    0.1942568  49.54  0.001880996    2.897    0.655
       148  -9.2016    105.3944    121.1912   3.5382068063e+01   3.6789934374e+01     0.214556    0.1460038 -64.42 0.0007851327    1.620    0.383
       149  -9.2763     27.2807    125.6382   6.3250817899e+01   4.7369821540e+01    0.1577726   0.09999633  64.26 0.0007014595    1.674    0.403
       150 -10.3152     95.8042    119.2618   3.7798383354e+01   3.9063542486e+01    0.3204049    0.2340486 -57.35  0.001490735    1.372    0.271
       151 -10.6949     23.3109    118.3110   6.3834775627e+01   4.9757691849e+01    0.2192519    0.1593776  59.07  0.001090241    1.396    0.284
       152  -9.5159      5.3116    119.3091   7.1050575270e+01   5.0844902124e+01    0.1455342    0.0949819 -45.28 0.0003831582    1.624    0.384
       153  -9.0988    121.9660    117.9824   3.0033732452e+01   3.4290167378e+01    0.1768849    0.1710073 -61.84            0    1.010    0.010
       154  -9.5772    201.6778    114.0890   1.3080545493e+01   1.9736402828e+01    0.1812687    0.1423401 -38.31 0.0003241279    1.091    0.083
       155  -9.7288     73.8933    114.1414   4.3818661227e+01   4.4252200644e+01    0.2040288     0.181589 -17.81 0.0003629911    1.289    0.224
       156  -9.4427    165.3125    111.6633   1.8708998052e+01   2.6908095149e+01    0.1447071    0.1074647 -73.02 0.0005606503    1.689    0.408
       157 -10.5692     62.0336    109.4864   4.7072539322e+01   4.7383564073e+01    0.3192928    0.2303263 -59.95  0.001115991    1.359    0.264
       158  -9.3888     36.2467    110.2014   5.7375874090e+01   5.0670232958e+01    0.2077855    0.1621352  65.18 0.0004652246    1.343    0.256
       159 -10.8404     82.3131    116.0829   4.1384988298e+01   4.2304240066e+01    0.3795085    0.2918049   2.63 0.0002784717    1.732    0.423
       160 -10.5798      1.5709    108.7430   7.1628191257e+01   5.3944608895e+01    0.3279957    0.1466615 -75.12 0.0007726077    1.972    0.493
       161  -9.1288    123.6488    109.2345   2.7422674580e+01   3.5882256007e+01    0.2084071    0.1383413 -39.92 0.0005990724    1.556    0.357
       162  -9.0791    139.3304    106.6931   2.2952017085e+01   3.3163828439e+01    0.1516413    0.1159281 -84.64 0.0006060164    1.661    0.398
       163  -9.6418    167.4187    105.0117   1.6725770823e+01   2.7732497424e+01     0.219146     0.127194 -42.07 0.0004676212    1.576    0.366
       164  -9.3076     12.5352    104.9534   6.6569757803e+01   5.4301253125e+01    0.2242439   0.08017562 -52.15 0.0008095235    2.617    0.618
       165  -9.2313     79.2932    101.6555   3.8879603749e+01   4.6452462716e+01    0.1603571    0.1204817  79.88 0.0003437981    1.662    0.398
       166 -10.5759     55.9540    101.0504   4.7495377732e+01   5.0520843964e+01    0.2916511    0.2598307  -1.01 0.0004666593    1.263    0.208
       167 -10.0719     57.9155     97.5131   4.5859550628e+01   5.1138136326e+01    0.3032613    0.2090469  40.36  0.001187701    1.450    0.310
       168  -9.3533     10.0049     99.7842   6.7028345298e+01   5.5886744373e+01    0.1685695    0.1156876  15.78  0.000336509    1.581    0.367
       169 -10.3126     93.9452     98.1889   3.3037706340e+01   4.4470684312e+01    0.3303986    0.2079991  55.39 0.0007947509    1.745    0.427
       170  -9.5510     32.8017     97.6102   5.6504394276e+01   5.4467831069e+01    0.2164887    0.1256591  38.06 0.0009491544    1.732    0.423
       171  -8.9234    123.2770     97.3418   2.4388777246e+01   3.8517298093e+01    0.1492207    0.1218168  -9.23 0.0003505346    1.622    0.383
       172  -9.3554     83.4958     93.5072   3.5211904143e+01   4.7634750654e+01    0.1527654    0.1501361 -23.97 0.0008093295    1.081    0.075
       173 -10.4550     26.7890     92.2147   5.8170088519e+01   5.6548522848e+01    0.3413622    0.2575305 -28.27  0.001042372    1.469    0.319
       174  -9.6618     57.6063     91.7255   4.4514184745e+01   5.2666590141e+01    0.2619303    0.1851409  19.02 0.0004791065    1.638    0.389
       175 -11.2265     42.7034     92.0780   5.0945528549e+01   5.4741448249e+01    0.4530933    0.2021455  33.46  0.001756747    2.189    0.543
       176  -9.4118     73.5013     90.4386   3.7935261698e+01   5.0258188342e+01     0.152406    0.1476144  76.75 0.0002312989    1.020    0.019
       177 -11.4236      3.0648     88.0986   6.8781307668e+01   5.9455752171e+01     0.439597    0.2519602  87.36  0.001611364    1.791    0.442
       178 -11.1235      7.0282     86.8792   6.6693721841e+01   5.9560782623e+01     0.291005    0.2626236   4.31 0.0006538285    1.203    0.169
       179 -10.1381    125.1440     87.7324   2.1245245256e+01   4.0094723363e+01    0.3438657    0.2120412 -38.72  0.001359233    1.682    0.405
       180 -11.6659     54.2292     85.1142   4.4152012822e+01   5.4863938876e+01    0.6497324    0.5024092 -74.09  0.003190171    1.403    0.287
       181  -9.3455    135.1616     83.7893   1.7766333369e+01   3.8630672179e+01    0.2022516    0.1816744  -1.53  0.001070807    1.377    0.274
       182  -9.2884    189.7822     82.9711   7.7712941561e+00   2.7061563866e+01     0.176052   0.09680877 -38.73 0.0003246586    1.604    0.377
       183  -9.8278     10.0397     81.9305   6.4441697674e+01   6.0689305845e+01    0.2193189    0.2031305 -55.33 0.0009229038    1.031    0.030
       184  -9.5292     64.4638     81.5293   3.8850816341e+01   5.4032410047e+01    0.1484336    0.1473818 -62.34 8.716693e-05    1.018    0.018
       185  -9.5844    153.4908     79.9748   1.2938040882e+01   3.5232971966e+01    0.2230527    0.1335224 -41.97  0.001024762    1.568    0.362
       186  -9.9054     88.8686     79.1869   2.9110608194e+01   4.9820492884e+01    0.3094607    0.2148587 -35.87  0.001394995    1.615    0.381
       187 -11.0153      3.7695     79.5071   6.7277263181e+01   6.1704497311e+01     0.402604    0.2003095  41.41  0.001787157    2.163    0.538
       188 -10.1982      9.0567     76.1891   6.3980577257e+01   6.2266363982e+01    0.2434614    0.1846485 -68.16 0.0005196673    1.216    0.177
       189 -10.9654     27.7331     60.8417   5.0033351828e+01   6.4476527795e+01    0.3516389    0.1970954  40.52   0.00159799    1.888    0.470
       190 -13.1808     38.9200     68.4411   4.6415126051e+01   6.1225641034e+01     1.457241    0.9117125  58.31  0.006393945    2.094    0.522
       191 -10.6563     62.0766     67.9177   3.5480285882e+01   5.7618172931e+01    0.3628966     0.221584  52.53   0.00111919    1.819    0.450
       192 -10.1480     70.9282     69.8609   3.2537511492e+01   5.5511254114e+01     0.435676    0.2901801  -7.24  0.001669198    2.787    0.641
       193  -9.2617     13.4932     66.4951   5.9614492392e+01   6.4452070941e+01    0.1354362    0.1288585 -58.21 0.0008103398    1.038    0.037
       194 -10.0558    105.7229     73.6920   2.2156096125e+01   4.7285315882e+01    0.3280929    0.2399103 -71.36  0.001511401    1.630    0.387
       195 -11.4285     18.7125     60.8992   5.5218156783e+01   6.5405939762e+01    0.4685483    0.3341908 -25.08  0.001258325    1.488    0.328
       196 -10.8068     24.0332     56.1795   5.0711281094e+01   6.6007633295e+01    0.3724748    0.2365578 -39.27  0.001152412    1.578    0.366
       197 -10.6657     12.1153     59.8407   5.8857921220e+01   6.6227310873e+01    0.3219577    0.2360217  -3.79  0.001005971    1.454    0.312
       198  -9.3644    153.0504     57.5182   6.7318147326e+00   3.9086488636e+01     0.200712     0.134591  65.92 0.0004051014    1.508    0.337
       199  -9.7501    118.6404     56.2399   1.3090866864e+01   4.7481652256e+01    0.2073328     0.189592 -59.05 0.0003973392    1.082    0.075
       200  -9.8776    115.7117     54.3416   1.3139718733e+01   4.8504511480e+01    0.2209798    0.1306717  86.02 0.0006229599    2.557    0.609
       201  -9.6565    126.3186     54.6563   1.0864802569e+01   4.5896442019e+01    0.1559004    0.1058106 -71.39 0.0004791717    1.721    0.419
       202 -10.6685    110.1213     51.1535   1.3391750786e+01   5.0380885661e+01    0.2386028     0.208683 -26.26   0.00054532    1.300    0.231
       203 -10.0833    121.9054     52.8788   1.1233581403e+01   4.7251282942e+01    0.2210031    0.2039749  32.47 0.0008918963    1.270    0.213
       204  -9.6213    151.3829     52.1652   5.4501417491e+00   4.0297170297e+01    0.2101367    0.1127033 -47.54 0.0009449437    1.747    0.428
       205  -9.1563    106.3102     51.2996   1.4407645299e+01   5.1272225543e+01     0.143587    0.1147879  24.83 0.0001601222    1.601    0.375
       206  -9.2896    165.2885     53.6364   3.7572614480e+00   3.6860427169e+01    0.1488912   0.09076165 -62.47 0.0007024355    1.696    0.410
       207 -10.2569     30.6317     50.1051   4.4749059770e+01   6.6613408519e+01    0.2650958    0.2020663  18.25  0.001007696    1.339    0.253
       208 -10.2736     16.2020     50.0002   5.3579319553e+01   6.8261827982e+01    0.2128069    0.1872175  18.52 0.0003812796    1.166    0.143
       209 -10.6683     99.0361     48.5307   1.5342936557e+01   5.3471640520e+01     0.367787    0.2476239 -86.64  0.001612783    2.044    0.511
       210  -9.9887     97.5032     45.4766   1.4617250735e+01   5.4339274287e+01    0.2278145    0.2107614  75.46 0.0005735843    1.021    0.020
       211 -10.3982    128.9275     46.5818   7.6960292323e+00   4.6531122566e+01    0.3250037    0.1985775 -38.34  0.001535291    1.638    0.389
       212  -9.1611     49.8222     44.1229   3.1924000444e+01   6.4853208029e+01     0.186785    0.1593475   1.91 0.0004587846    1.283    0.220
       213  -9.2349     93.6605     40.6691   1.3825014804e+01   5.6021850502e+01    0.1485649    0.1102424  25.98 -2.354134e-05    1.742    0.426
       214 -11.0930     33.4458     40.1218   3.9052235274e+01   6.8359889161e+01    0.3161174    0.1939085  27.30   0.00092606    1.653    0.395
       215 -10.2974    103.9855     37.9781   1.0074320025e+01   5.3928610851e+01    0.1762979    0.1631544  81.41 0.0008025343    1.002    0.002
       216 -10.0464     80.4674     37.1517   1.6382478564e+01   5.9674238177e+01    0.3658441    0.1405151 -36.81  0.001363487    2.744    0.636
       217  -9.9701     21.5798     34.8203   4.4305299791e+01   7.1060877483e+01    0.1817942    0.1287388 -67.77 0.0009541849    1.731    0.422
       218  -9.9578     42.7366     33.4740   3.0664000792e+01   6.8128509315e+01    0.2491892    0.1894813 -41.92  0.001200816    1.365    0.267
       219  -9.5406     64.5471     33.5675   2.0532300504e+01   6.3801865933e+01      0.13834    0.1297813  46.95 -1.861782e-05    1.012    0.012
       220 -11.2539     30.9211     31.7114   3.6689229925e+01   7.0402663259e+01    0.3213912    0.2316154  22.16  0.001306896    1.393    0.282
       221 -10.4687     77.5433     30.5292   1.4428657217e+01   6.1351861079e+01    0.2585046    0.2165096 -87.46 0.0007880812    1.339    0.253
       222  -9.2716     72.0387     30.9831   1.6508003374e+01   6.2547388164e+01    0.1687375    0.1541663  53.98 0.0003605492    1.022    0.022
       223 -10.0444      3.8466     30.1290   5.5709242616e+01   7.3789745725e+01    0.2375916    0.1399397  24.36  0.001262087    1.712    0.416
       224 -10.4316     67.6679     27.5353   1.6461278261e+01   6.4040327627e+01    0.2325645    0.1295627 -35.03 0.0007499888    1.924    0.480
       225  -9.2330     61.6943     28.3458   1.9171487809e+01   6.5232750770e+01    0.1377523    0.1081709 -79.09 0.0005138119    1.694    0.410
       226 -10.2722     45.5853     25.4950   2.5061986065e+01   6.8968513441e+01    0.2696288    0.1993497 -60.96  0.001418822    1.795    0.443
       227 -10.9195     85.1571     23.8894   9.1546077480e+00   6.0452920047e+01    0.2952677    0.2274818 -75.57 0.0007224481    1.484    0.326
       228  -9.5331     19.2344     23.8330   4.0680540433e+01   7.3543976758e+01    0.1775892    0.1739381  33.13 0.0006263025    1.213    0.176
       229  -9.4990      1.4071     25.1716   5.5865429924e+01   7.5033200453e+01    0.1614222    0.1187953 -78.31 0.0005630802    1.633    0.388
       230 -10.1220    139.2088    248.6340   4.8199019235e+01   5.6263649816e+00    0.2067028    0.1544061 -30.43 0.0008095002    1.447    0.309
       231 -10.3479     81.2103     19.1850   8.1102035719e+00   6.1988658725e+01    0.2106201     0.180727  43.40  0.001226495    1.172    0.147
       232 -10.2895    132.8373     16.9477   3.5714510176e+02   4.9402297856e+01    0.2142217    0.1734644  81.10 0.0003265595    1.118    0.106
       233 -10.1927     99.9727     21.0145   4.2907240133e+00   5.7164718963e+01    0.2325595    0.1536816 -67.17  0.001137024    1.736    0.424
       234  -9.5229    114.4845    248.9715   5.3377135577e+01   8.3887402107e+00    0.1478667    0.1205672 -57.00 0.0005147254    1.550    0.355
       235 -11.4865     30.2122    247.4570   7.1863226799e+01   1.7763868581e+01    0.3159965    0.2678598  67.69  0.001518095    1.209    0.173
       236 -11.5432     36.0577    246.5446   7.0519290619e+01   1.7373195777e+01    0.3835276    0.1658127  30.34  0.001953207    1.780    0.438
       237 -10.6140     67.8286    246.5522   6.3395550417e+01   1.4075410535e+01    0.3412115    0.2386202  44.04  0.001677739    1.219    0.180
       238  -8.9371     99.6665    246.6601   5.6338679136e+01   1.0478131422e+01     0.121672    0.0845556  -8.71 0.0007051482    1.750    0.429
       239  -8.9671    246.2652    245.3255   2.9051768693e+01  -4.5907333806e+00    0.1007056   0.05402962 -11.47 0.0001814116    1.566    0.361
       240  -9.2279    204.6135    243.8206   3.5375199366e+01  -6.6138297021e-01    0.1318376   0.09288625 -38.90 0.0009451812    1.682    0.406
