#   1 NUMBER                 Running object number                                     
#   2 MAG_AUTO               Kron-like elliptical aperture magnitude                    [mag]
#   3 X_IMAGE                Object position along x                                    [pixel]
#   4 Y_IMAGE                Object position along y                                    [pixel]
#   5 X_WORLD                Barycenter position along world x axis                     [deg]
#   6 Y_WORLD                Barycenter position along world y axis                     [deg]
#   7 A_WORLD                Profile RMS along major axis (world units)                 [deg]
#   8 B_WORLD                Profile RMS along minor axis (world units)                 [deg]
#   9 THETA_WORLD            Position angle (CCW/world-x)                               [deg]
#  10 FWHM_WORLD             FWHM assuming a gaussian core                              [deg]
#  11 ELONGATION             A_IMAGE/B_IMAGE                                           
#  12 ELLIPTICITY            1 - B_IMAGE/A_IMAGE                                       
         1 -17.9928    149.8776    119.9464   7.1016012601e+01   2.8645768260e+01     4.529815     2.239597 -45.05   0.01747137    1.982    0.495
         2 -18.3053    119.2233    157.5783   8.7634467243e+01   2.6160386885e+01     5.572168     3.644321  83.58   0.02086979    2.878    0.653
         3 -19.2831     73.9644    198.4792   1.0594648775e+02   2.3610555110e+01     6.037978     5.696167  78.20   0.03453485    1.044    0.042
         4 -12.8990    217.3393     14.3323   3.3145841205e+01   3.0114845678e+01    0.2647856    0.1356795  84.46  0.001395683    1.938    0.484
         5 -11.2749    234.3372      3.3322   2.9583794185e+01   2.7748873493e+01    0.1037915   0.08278529  46.39 0.0007052036    1.739    0.425
         6 -11.8510    131.4062      3.2957   4.0212652613e+01   5.0700107483e+01    0.1643974    0.1131732 -37.83 0.0004702206    1.647    0.393
         7 -12.3695    213.0682    200.8781   7.5100238587e+01   9.4330147712e-01    0.2533466    0.2104333  88.21  0.001359551    2.322    0.569
         8 -11.2664    172.0819    249.9710   9.1536031869e+01  -9.3977569203e-01    0.1897515    0.1305109  -0.29 0.0005032967    1.607    0.378
         9 -11.1589    104.7185    249.6286   1.0522510491e+02   8.8040582546e+00    0.1723585    0.1344842  -2.44   0.00103699    1.728    0.421
        10 -12.8411    184.5763    236.2852   8.6941360026e+01  -5.9522083041e-01    0.3080563    0.1742921  18.69  0.001106293    1.838    0.456
        11 -12.5600    174.0111    235.9621   8.9029155027e+01   1.0135862760e+00    0.2026749    0.1716832  13.82 0.0006074887    1.008    0.008
        12 -15.4240    189.4801    193.9686   7.8496441876e+01   5.9278067960e+00    0.6964145    0.4521929  32.78   0.00141138    1.507    0.336
        13 -14.2108    190.4940    190.4848   7.7612787799e+01   6.4009607886e+00    0.4579752    0.2267214  40.69  0.001750752    2.072    0.517
        14 -11.9795    127.7742    234.7709   9.8564005377e+01   8.1909278898e+00     0.249978    0.2147175   5.90  0.001558668    1.251    0.201
        15 -12.4545    156.0342    198.0748   8.6513704538e+01   1.0787494682e+01    0.2138871    0.1944615   9.40  0.000330311    1.025    0.025
        16 -14.3410    159.6447    192.4112   8.4660340825e+01   1.1306260081e+01    0.4536614    0.3329462 -48.00   0.00123299    1.442    0.307
        17 -14.9105    164.7371    193.0014   8.3631897170e+01   1.0310730125e+01    0.9107952    0.4612201  14.14  0.002844749    4.306    0.768
        18 -15.1382    176.0763    186.7803   7.9946299138e+01   9.5718905801e+00     0.779259    0.4398269  13.73  0.003026318    2.735    0.634
        19 -12.4096     21.0611    191.7753   1.1759496557e+02   3.1187353478e+01    0.3665462    0.2383427 -81.41  0.001825852    1.336    0.252
        20 -12.3483    228.0269    192.1872   7.0640755924e+01   1.1834583101e-01    0.2144406    0.1631774 -25.53 0.0002637017    1.149    0.130
        21 -12.7765    117.1106    190.7036   9.4346561940e+01   1.8899796759e+01     0.469302     0.294665   9.81  0.001588547    2.424    0.587
        22 -11.9442     31.9734    232.3988   1.1838101644e+02   2.1268982865e+01    0.3340422    0.1722344 -65.73  0.001899316    1.941    0.485
        23 -11.8977     20.0253    233.4480   1.2076717902e+02   2.2281611134e+01    0.1973665    0.1405424 -68.13  0.001342052    1.490    0.329
        24 -14.8109    166.9209    181.1075   8.0844567848e+01   1.2315115077e+01    0.6068705    0.4506447   0.09  0.002403967    1.575    0.365
        25 -13.8984    124.5633    209.1595   9.5563475231e+01   1.3722341967e+01     1.214876    0.6374028 -70.47  0.004742587    3.144    0.682
        26 -12.8115     18.8730    179.1828   1.1702149949e+02   3.4315537583e+01    0.6862534    0.1991375  49.48  0.002592053    3.695    0.729
        27 -15.0952    167.3086    167.4865   7.7967188584e+01   1.5042327449e+01    0.6428092     0.411199  43.98  0.002953986    1.635    0.388
        28 -15.4727    180.0022    179.2295   7.7594540415e+01   1.0359556393e+01    0.6397365    0.5682099  56.02  0.003567646    1.376    0.273
        29 -15.2667    174.3846    175.2094   7.7997212102e+01   1.2164609354e+01    0.5963847    0.5322657   3.80  0.001411224    1.070    0.065
        30 -13.7369    190.7027    177.3201   7.4943245386e+01   8.8397987448e+00    0.3862627    0.1842189  42.90  0.001606852    2.223    0.550
        31 -11.4013    118.5511    232.0270   1.0018008440e+02   1.0086638367e+01    0.1735347    0.1293416 -57.70 0.0005151684    1.513    0.339
        32 -13.2435    113.8884    228.9358   1.0078488024e+02   1.1378320283e+01    0.3514954    0.3185233  40.76  0.002059548    1.013    0.013
        33 -13.5553    121.3024    218.7171   9.7734417209e+01   1.2281728913e+01    0.5215184     0.384946  28.37  0.002605029    1.306    0.234
        34 -13.7975    158.4032    172.2571   8.0996260936e+01   1.5692431918e+01    0.3384259    0.2867263  72.28 0.0008685103    1.534    0.348
        35 -14.0090    160.6087    169.8083   7.9981599809e+01   1.5802028729e+01    0.4094909    0.2807512 -58.65  0.001875545    1.755    0.430
        36 -11.9351      9.3426    172.2833   1.1869348975e+02   3.6731278814e+01    0.1979017    0.1513914 -66.75 0.0005629151    1.217    0.179
        37 -12.9328     27.6801    171.0674   1.1409098387e+02   3.5455044347e+01     0.235408    0.2009262  67.47 0.0004842642    1.145    0.127
        38 -12.2974     26.9353    166.9380   1.1384149611e+02   3.6523697992e+01    0.2768354    0.1884034  83.47  0.001227245    1.430    0.301
        39 -14.3944    181.3368    163.4275   7.4010798149e+01   1.3252366118e+01    0.7597997    0.1854545 -42.13   0.00218856    3.965    0.748
        40 -11.8808     13.4602    166.3817   1.1717343232e+02   3.7811604961e+01    0.2731746    0.2165395 -67.65  0.001009586    1.161    0.138
        41 -12.3887    205.4047    165.7788   6.9579536979e+01   8.4259804544e+00    0.2102161    0.1227855 -30.05 0.0008586516    1.686    0.407
        42 -12.1091     22.9814    161.2504   1.1424605559e+02   3.8261079428e+01    0.1987412    0.1537247  79.18 0.0005468178    1.230    0.187
        43 -11.7956     28.4496    160.0301   1.1267980342e+02   3.8070756749e+01    0.1800673     0.169912  77.29   0.00038712    1.131    0.116
        44 -11.0798     12.2540    160.3842   1.1691231972e+02   3.9347310858e+01    0.1309565   0.07701711 -52.82 0.0006197032    1.668    0.401
        45 -11.4688      2.0208    159.1064   1.1936981111e+02   4.0388301619e+01    0.2092534    0.1191045  64.91  0.001135243    1.813    0.448
        46 -12.0723    184.4944    157.5057   7.2052528692e+01   1.3842801587e+01    0.1481639     0.136647 -16.36 -7.997427e-05    1.009    0.009
        47 -16.3584    165.1005    149.0919   7.4443324367e+01   1.9324873129e+01     1.081327    0.9341047  85.82  0.005488237    1.503    0.335
        48 -11.8643    125.7420    224.6664   9.7601613404e+01   1.0420347115e+01    0.2195627    0.1840728  -6.24 0.0004697682    1.372    0.271
        49 -12.2138    125.4898    220.9858   9.7128248343e+01   1.1181389660e+01    0.2880073    0.2110411 -49.60  0.001067819    1.488    0.328
        50 -11.9518    218.2879    153.9244   6.4629008194e+01   8.3281202323e+00    0.1993401    0.1618515 -30.34 0.0005046535    1.090    0.082
        51 -12.1677     42.7008    244.6995   1.1716386938e+02   1.7647023096e+01    0.4496764    0.3004342  63.34  0.002940374    1.279    0.218
        52 -15.4326     84.1066    133.7794   9.2442504372e+01   3.7834795660e+01     1.137443    0.4328351  34.23  0.004054634    2.740    0.635
        53 -12.0949    154.5593    230.6541   9.2255666682e+01   4.8636092637e+00    0.2514665    0.1431936  37.36 0.0007019426    1.575    0.365
        54 -15.3653     90.6040    121.2576   8.7649861385e+01   3.9828253081e+01    0.8330033    0.5531065  40.19  0.002904814    1.585    0.369
        55 -14.3456     81.9313    113.0086   8.8341499060e+01   4.3199768304e+01    0.4239458    0.3265931 -58.20  0.002126933    1.310    0.237
        56 -14.8730    117.1414    131.5025   8.2406905759e+01   3.2670467781e+01    0.7976057    0.5272533 -85.98  0.002929458    2.877    0.652
        57 -10.7129    169.2877    246.7020   9.1617593384e+01  -2.6898423167e-02    0.1139061   0.09357647  53.13  0.000255492    1.554    0.356
        58 -11.4727    206.3286    230.3192   8.1671574741e+01  -2.7930797890e+00    0.1332888    0.0848407  -1.02  0.000704738    1.685    0.407
        59 -13.6033    125.8044    131.2795   7.9997675972e+01   3.1059370835e+01    0.3321454    0.2491522 -20.86 0.0009651379    1.564    0.361
        60 -11.3475     10.5681    229.5329   1.2233741056e+02   2.3979946263e+01    0.3073642    0.1680515  51.98  0.001916146    1.534    0.348
        61 -11.1667    116.3441    235.6937   1.0113112385e+02   9.7160680085e+00    0.2003368    0.1378283  64.49 0.0008695857    1.771    0.435
        62 -14.3093    171.2429    144.7325   7.2060710750e+01   1.9019697641e+01    0.5435935    0.3681308  -3.41  0.001602434    2.177    0.541
        63 -17.7031     53.1135    123.9664   9.9983361662e+01   4.4505804108e+01     3.856266      1.98702  25.31    0.0170379    2.196    0.545
        64 -11.9327    165.1761    238.8694   9.1287389886e+01   1.8470247252e+00    0.1800903    0.1665917  38.39 0.0006475962    1.250    0.200
        65 -13.4530    188.8086    221.5097   8.3639114470e+01   1.1879686108e+00    0.2546182    0.1831921 -26.16 0.0008447386    1.375    0.273
        66 -13.8466    119.9217    120.7954   7.9004322286e+01   3.4599295388e+01     0.388604    0.2983935 -31.55 0.0008701676    1.343    0.255
        67 -11.9505    116.9044    239.5096   1.0149538220e+02   8.9194188603e+00    0.2785966    0.2101186  68.31  0.001432368    1.573    0.364
        68 -12.5094    136.6139    210.7280   9.3064170393e+01   1.1467435744e+01    0.5597515    0.2169678 -44.38  0.002165537    2.824    0.646
        69 -11.8019    180.2360    244.3320   8.9067132024e+01  -1.2323300843e+00    0.1922741     0.151341 -15.66 0.0006218657    1.271    0.213
        70 -13.6803    159.9430    137.3939   7.2917989052e+01   2.2841865987e+01    0.5015407    0.2187515 -41.97  0.001499973    2.230    0.552
        71 -12.8374     12.8899    113.3324   1.1110645090e+02   5.0786309595e+01    0.2191022    0.1568814 -77.75 0.0006172243    1.293    0.226
        72 -15.2749     89.5545    109.7844   8.5125927530e+01   4.2706713720e+01    0.7855927    0.4763637 -51.10  0.002774148    1.592    0.372
        73 -14.5561     75.5839    111.0336   8.9891763926e+01   4.4648473798e+01    0.4769818     0.367526 -60.91  0.001256753    1.332    0.249
        74 -12.3936     53.6762    244.1078   1.1498296333e+02   1.6491849017e+01    0.4564425    0.2263418 -66.13    0.0025213    2.094    0.522
        75 -14.5266     61.9607    107.8524   9.3623324881e+01   4.7333415588e+01    0.6052974    0.3980705  10.26  0.002854836    1.883    0.469
        76 -13.6410     19.6238    114.8195   1.0915378525e+02   4.9958197098e+01    0.3227839    0.2359458 -87.03  0.001068504    1.432    0.302
        77 -11.8828    104.7522    233.4192   1.0333224508e+02   1.1841615907e+01    0.8301029    0.3569169  54.85  0.003263032    3.142    0.682
        78 -12.4949    108.5380    104.5084   7.7953404702e+01   4.0456326748e+01    0.2604004    0.1434126  51.00 0.0006413559    2.144    0.533
        79 -14.1340     52.7718     84.6975   9.0983203352e+01   5.3855033079e+01     1.117436     0.494913  46.43  0.004210079    3.359    0.702
        80 -13.2599     58.2322    100.2631   9.3068139448e+01   4.9614211195e+01    0.3741479    0.3102718 -60.68  0.001029468    1.226    0.185
        81 -14.2428     60.3516     95.5315   9.1131908640e+01   5.0434126862e+01     0.609997    0.3770801 -35.45   0.00199291    1.602    0.376
        82 -15.2065     79.4562     99.6923   8.5714915066e+01   4.6684447507e+01    0.6909713     0.493699 -34.00  0.003391697    1.379    0.275
        83 -11.3396     99.6568     99.2066   7.9145685780e+01   4.3299357629e+01    0.2136185     0.133082 -37.73 0.0003065116    1.595    0.373
        84 -12.1497     37.9941     96.5554   9.9366664748e+01   5.2785833712e+01    0.2701628    0.1656533 -10.49  0.001287483    2.088    0.521
        85 -12.7053     69.0566     96.2051   8.8282825515e+01   4.9065964559e+01    0.2763108    0.2075761  28.36 0.0006574375    1.409    0.290
        86 -13.4836    148.8608    216.5506   9.1270799076e+01   8.3550141629e+00    0.2826093    0.2185955  83.09  0.001463579    1.993    0.498
        87 -13.0367    137.0244     87.6294   6.5394504013e+01   3.7981131639e+01    0.5745792    0.2624595 -34.73  0.002122655    2.341    0.573
        88 -11.6850     20.0340     91.4889   1.0483937436e+02   5.5512000061e+01     0.176438    0.1279958   9.72 0.0007057542    1.582    0.368
        89 -14.2023     72.3084     98.0068   8.7654107375e+01   4.8174608759e+01    0.4665321    0.3065813 -13.73  0.002071108    2.016    0.504
        90 -13.1823     71.6213     87.4333   8.4962561406e+01   5.0635762872e+01    0.3303082    0.2033396  16.14  0.001301295    1.994    0.498
        91 -12.2449    122.1737     86.5897   6.8951599902e+01   4.1410745363e+01     0.293954    0.1461299  49.12  0.001143615    2.093    0.522
        92 -12.6477    115.5386     86.5126   7.0767267177e+01   4.2819636203e+01    0.3148386    0.1472941  44.17  0.001206027    2.149    0.535
        93 -12.2436    181.8548    219.1143   8.4651911076e+01   2.6623742118e+00    0.1818076    0.1400098  -2.25 0.0003565594    1.278    0.218
        94 -11.2752    215.5594     79.7367   4.8245635767e+01   2.1804640497e+01    0.2311425    0.1620695 -83.68  0.001171753    1.789    0.441
        95 -11.2758    172.0721     80.2536   5.5616148699e+01   3.1344673926e+01    0.1995404    0.1841113  59.55 0.0004523827    1.099    0.090
        96 -11.4454      6.4226    203.1090   1.2158961886e+02   2.9932961359e+01    0.3631244    0.1229024 -85.03  0.001564854    2.896    0.655
        97 -11.3889    105.0900     79.4895   7.1660437793e+01   4.6323075135e+01    0.2099663     0.143995  41.30 0.0003379511    1.460    0.315
        98 -13.3588     75.5163     75.7267   8.0069801350e+01   5.2475708251e+01    0.3169205    0.2606444 -35.86   0.00068421    1.153    0.133
        99 -12.8572     58.8142     76.9306   8.6497439759e+01   5.4743644224e+01    0.2369044    0.1972866  18.56 0.0006168003    1.236    0.191
       100 -12.6750     50.4036     76.1752   8.9464606096e+01   5.6001600885e+01    0.3159484    0.1511539 -48.84  0.001001066    1.866    0.464
       101 -12.9216    115.0276     74.8814   6.7349349349e+01   4.5143189233e+01    0.4713028    0.2813947   7.10  0.001614233    3.449    0.710
       102 -11.7066    125.1807     73.2454   6.4104991986e+01   4.3244627848e+01    0.2238077     0.199284  20.60  0.001203412    1.132    0.117
       103 -13.6502     98.7758     66.3899   6.9360440990e+01   5.0015804144e+01    0.4559205    0.3046827 -54.12  0.001725379    1.890    0.471
       104 -12.6189     87.0177     68.4789   7.3799391798e+01   5.1884356156e+01    0.2237412    0.1860632 -30.39 0.0004883219    1.164    0.141
       105 -11.8755    195.9768     68.0102   4.8307868664e+01   2.7891912623e+01    0.1682736    0.1575026 -83.13   0.00100569    1.044    0.042
       106 -11.8136     74.6261     66.3208   7.7325249082e+01   5.4460959123e+01    0.1355353    0.1148818  80.72  0.000703079    1.809    0.447
       107 -11.1044    188.0210     65.0005   4.8787346259e+01   3.0149120777e+01     0.166607    0.1572553 -76.41 0.0004477361    1.012    0.012
       108 -11.6145     16.0894    242.1429   1.2200560584e+02   2.0947191726e+01    0.1546815    0.1382848  89.08  0.001214384    1.278    0.218
       109 -12.3542     45.1343     60.4184   8.6669696536e+01   5.9872178165e+01    0.2480265    0.1833452 -47.43 0.0007707718    1.358    0.264
       110 -11.6872      1.7907     60.7163   1.0544891275e+02   6.3478028095e+01    0.2052916    0.1220328 -48.27 0.0004011451    1.272    0.214
       111 -12.4625    173.0715    218.5103   8.6380975832e+01   4.1402293137e+00    0.2039753    0.1209285  32.79  0.000658332    1.550    0.355
       112 -11.6629    138.9406     56.4935   5.5601900724e+01   4.2868440791e+01    0.2113834    0.1359996  54.90 0.0004074476    1.498    0.332
       113 -11.8439    139.1301    217.7283   9.3606942745e+01   9.6802673777e+00    0.1970125    0.1840392 -72.37 0.0004274463    1.251    0.200
       114 -12.0255    111.2629     53.5994   6.1443199295e+01   4.9538804416e+01    0.2103139    0.1227148  40.05 0.0007122535    1.671    0.402
       115 -11.1799     65.5169     52.5273   7.5831726175e+01   5.8447055672e+01    0.1358917    0.1188884  -4.16 -2.593136e-05    1.026    0.025
       116 -11.1804     94.2984     51.3589   6.5563154910e+01   5.3423109073e+01    0.1470384    0.1026558   7.75 0.0004306183    1.708    0.415
       117 -11.3352    202.6982     47.3083   4.2265074196e+01   2.9362132302e+01    0.1367692   0.09061722 -66.55 0.0003208642    1.601    0.376
       118 -13.8831    177.2950    215.0728   8.4904124659e+01   4.0842359492e+00    0.3305025    0.2431661 -41.93  0.001397291    1.456    0.313
       119 -11.9319    145.2485     45.4172   5.0887827467e+01   4.2971235410e+01    0.1998282    0.1305903  71.01 0.0009557533    1.668    0.400
       120 -15.2017    184.1591    211.7314   8.2885613643e+01   3.5892816166e+00    0.6181524    0.5012046  89.09  0.003267596    2.203    0.546
       121 -14.1293    164.8930    210.0232   8.6672751883e+01   6.9986901619e+00    0.5460168    0.1899676 -45.04  0.002055911    2.983    0.665
       122 -12.5470     26.9246     35.9272   8.5996945709e+01   6.6419271444e+01    0.3038014    0.1345851 -35.50  0.001176158    1.991    0.498
       123 -12.5599     11.7986     36.5817   9.3701084978e+01   6.7657770976e+01     0.224802    0.1814422 -45.98  0.001543853    1.324    0.245
       124 -14.8768    168.6161    205.4414   8.5059440093e+01   7.2503488525e+00    0.5895144    0.3552916  42.93  0.002330883    1.705    0.414
       125 -12.9467     43.3374     35.1040   7.8113654791e+01   6.4596873280e+01      0.35458    0.1910944   0.06  0.001560356    2.744    0.636
       126 -11.8198    106.8399     31.9011   5.5018402515e+01   5.3479158328e+01    0.2123563     0.170543  21.30  0.001220658    1.240    0.193
       127 -13.4320    143.7010    211.0991   9.1529265542e+01   1.0245486949e+01    0.4550537    0.3522603 -25.37  0.002490895    1.430    0.301
       128 -11.9021     39.1398     29.0795   7.7468499272e+01   6.6085653653e+01    0.1976965    0.1399699  -5.89 0.0005311551    1.265    0.209
       129 -11.8467    106.5061     24.4803   5.2415915772e+01   5.4404210809e+01    0.1335096    0.1161689  37.11 0.0001272405    1.013    0.013
       130 -11.2852     20.4035     23.7492   8.4254529533e+01   6.9084779114e+01     0.171558   0.08851461 -31.59 0.0009489003    1.665    0.399
       131 -12.1692    172.5876     22.3327   3.9823526335e+01   3.9289705826e+01    0.2457848    0.1115783 -35.76  0.001142186    2.212    0.548
       132 -14.3067    147.0254    202.7563   8.9376608798e+01   1.1362984396e+01    0.5464807    0.4741487  41.29  0.001305783    1.161    0.139
       133 -11.3523    191.4871     21.4844   3.7319728986e+01   3.5027563210e+01    0.1248495    0.1108015 -89.65 0.0008100903    1.035    0.034
       134 -12.1400     14.4640    201.9453   1.1982092898e+02   2.9490443053e+01    0.2758194    0.1608311 -83.01  0.001163392    1.488    0.328
       135 -15.2811    154.6001    209.9591   8.8914296385e+01   8.6912857299e+00    0.8380136    0.5490416 -45.49  0.004292579    1.617    0.382
