#   1 NUMBER                 Running object number                                     
#   2 MAG_AUTO               Kron-like elliptical aperture magnitude                    [mag]
#   3 X_IMAGE                Object position along x                                    [pixel]
#   4 Y_IMAGE                Object position along y                                    [pixel]
#   5 X_WORLD                Barycenter position along world x axis                     [deg]
#   6 Y_WORLD                Barycenter position along world y axis                     [deg]
#   7 A_WORLD                Profile RMS along major axis (world units)                 [deg]
#   8 B_WORLD                Profile RMS along minor axis (world units)                 [deg]
#   9 THETA_WORLD            Position angle (CCW/world-x)                               [deg]
#  10 FWHM_WORLD             FWHM assuming a gaussian core                              [deg]
#  11 ELONGATION             A_IMAGE/B_IMAGE                                           
#  12 ELLIPTICITY            1 - B_IMAGE/A_IMAGE                                       
         1 -13.4448     17.7601     10.8655   1.0361363069e+02   7.1063587721e+01    0.3182693    0.1875204 -28.12   0.00156647    1.433    0.302
         2 -12.0425    161.8824     11.8278   5.9578826273e+01   4.3083790851e+01    0.1981348    0.1640434 -69.39 0.0005618295    1.325    0.245
         3 -13.1580    149.8457      3.5438   5.8583784237e+01   4.6967691446e+01    0.5603828    0.2444964  42.48  0.002249439    2.341    0.573
         4 -12.2385     23.2715      2.1507   9.6527619879e+01   7.1898006355e+01    0.1950119    0.1347524   2.54  0.001314534    1.397    0.284
         5 -11.2387    164.6626      1.6847   5.5788318446e+01   4.3310083952e+01    0.1507629   0.09335628  39.07 0.0007047582    1.697    0.411
         6 -10.5536    167.2473    243.4586   1.1333188091e+02   4.1152466971e+00    0.1876989   0.08812288  39.74  0.001037761    1.665    0.399
         7 -16.9919    242.8429    227.1905   9.8316062833e+01  -5.7263588421e+00     3.193242      1.22758 -29.52   0.01644565    2.882    0.653
         8 -20.9413    104.1094    193.0189   1.1869353750e+02   2.2177616721e+01     8.959498     6.799393  39.06   0.04513617    1.352    0.260
         9 -10.2822     13.4412    236.9823   1.3834600752e+02   2.5634726840e+01      0.12622   0.08344714  76.11 0.0003932957    1.109    0.099
        10  -9.9797     13.3959    233.5606   1.3820735004e+02   2.6202505189e+01    0.1609364   0.08290336 -65.86  0.001123904    2.260    0.557
        11 -13.4275    217.0514    185.7731   9.5546146809e+01   3.4709631748e+00    0.3540411    0.2888707 -65.08  0.001354143    1.947    0.486
        12 -14.1191    215.6108    180.2873   9.4770191087e+01   4.5002962366e+00    0.5971486    0.2597554  40.94  0.002677724    2.078    0.519
        13 -15.1874    167.9956    214.9925   1.0938939962e+02   7.8957303559e+00     1.163558    0.8398939  18.35  0.006994198    1.620    0.383
        14 -10.8072     23.4272    188.7285   1.3409117565e+02   3.3289554832e+01    0.1623714    0.1244449  59.56 0.0005427967    1.218    0.179
        15 -10.1518     10.7874    188.0375   1.3638049848e+02   3.4610053574e+01    0.2964302   0.09648115 -76.30  0.001098119    2.535    0.605
        16 -11.6939    221.1482    231.8159   1.0259187701e+02  -2.9345996059e+00    0.1663869    0.1400903   7.27 0.0004403158    1.188    0.158
        17 -11.1232      4.8522    177.6808   1.3688362605e+02   3.7139708231e+01     0.136944    0.1006025  69.20  0.000305943    1.131    0.116
        18 -11.3421     10.2372    175.3521   1.3571951380e+02   3.7143835293e+01    0.1571262    0.1078887 -82.60 0.0004911408    1.216    0.178
        19 -10.6652    195.3758    231.9021   1.0696469482e+02   1.1086055983e+00    0.3834202    0.1129225  40.78  0.001643744    2.700    0.630
        20 -11.3065     27.3035    232.1945   1.3597091954e+02   2.5023534177e+01    0.1293601   0.09801656  77.51  0.001079088    1.162    0.140
        21 -11.3440      9.4305    231.7081   1.3873791665e+02   2.6892196730e+01    0.1164515   0.08931808 -71.51  0.000987826    1.682    0.405
        22 -10.4547     12.2153    159.3743   1.3423265324e+02   4.0226938503e+01    0.1059459   0.06599326 -63.59 0.0004284931    1.586    0.370
        23 -11.8364    220.6146    158.3388   8.9475382230e+01   6.7695258685e+00     0.182924    0.1638381 -74.19  0.000424037    1.575    0.365
        24 -11.8383    171.4397    230.5528   1.1094342882e+02   5.1404639167e+00    0.3379861    0.1934966  63.88  0.001662658    2.826    0.646
        25 -11.9748     18.1401    153.4406   1.3250888964e+02   4.0963988952e+01    0.1927176    0.1265721 -88.56 0.0004559974    1.211    0.174
        26 -11.5314    171.5569    226.4831   1.1036934135e+02   5.6736848687e+00    0.1617932    0.1384899  13.26  0.000596598    1.279    0.218
        27 -11.3194     24.1954    146.8171   1.3057550977e+02   4.1841547947e+01    0.1647876    0.1256308  82.39 0.0003758118    1.086    0.079
        28 -11.2199    202.6486    228.1219   1.0516389448e+02   4.0387512083e-01    0.1868761    0.1194576  41.64 0.0006916676    1.312    0.238
        29 -10.4595    210.2857    227.2390   1.0372549638e+02  -7.1096949976e-01    0.1133175   0.07337186  21.67 0.0002067074    1.455    0.313
        30 -10.5002     25.5577    237.8726   1.3652778250e+02   2.4265992784e+01    0.1830825   0.08783279  67.66 0.0005402944    1.624    0.384
        31 -10.8157     18.7525    130.5871   1.3022941459e+02   4.5853765376e+01    0.1353308   0.09816005  56.98   0.00024599    1.407    0.289
        32 -11.5701    182.3066    225.7282   1.0835848574e+02   4.0121089350e+00    0.1527039    0.1224755  41.80 0.0007006087    1.101    0.092
        33 -12.1251    175.7459    223.1843   1.0916157353e+02   5.4362810901e+00    0.2887541    0.1907039  59.43  0.001677069    1.805    0.446
        34 -13.9093     47.6542    122.5685   1.2187186284e+02   4.4889503535e+01    0.3807871    0.3313659   3.11 0.0009837365    1.555    0.357
        35 -12.7696     12.9156    221.0110   1.3772142252e+02   2.8376166362e+01    0.3231596    0.1730287  36.88  0.002257633    2.023    0.506
        36 -11.9277     22.0071    121.2066   1.2837193732e+02   4.7664854840e+01    0.2192563    0.2089169 -39.32   0.00106092    1.357    0.263
        37 -11.5883     43.5209    118.9636   1.2242208856e+02   4.6152862415e+01    0.2316251    0.1794088 -42.14 0.0007742732    1.490    0.329
        38 -13.7987     66.4383    113.9231   1.1532206700e+02   4.4589936170e+01    0.5966966    0.3499285 -64.67  0.002615326    1.564    0.361
        39 -13.5324     63.7359    108.3354   1.1499809317e+02   4.6216221805e+01    0.5971566    0.3575894 -28.38  0.002678827    2.669    0.625
        40 -13.0451     57.8461    113.8272   1.1767648026e+02   4.5701156290e+01    0.4576691    0.2479704  58.15  0.002150208    2.323    0.570
        41 -11.9995     12.0079    215.1230   1.3759084569e+02   2.9493463484e+01    0.2945076    0.1568223  74.48  0.001207092    1.443    0.307
        42 -11.9872     21.3961    237.9869   1.3717541037e+02   2.4676110675e+01    0.2803897    0.1181781 -65.27  0.001788726    2.689    0.628
        43 -12.3207    191.4666    218.2780   1.0563694868e+02   3.4829773143e+00     0.299109    0.1530687  36.42  0.001589387    1.652    0.395
        44 -11.1471     22.3470    242.7328   1.3724710572e+02   2.3810022941e+01     0.197837    0.0973291  73.98 0.0005399397    1.626    0.385
        45 -14.3903    174.1133    104.4890   8.5856119617e+01   2.5950125118e+01    0.6657639    0.4315913  81.03  0.002517201    2.697    0.629
        46 -12.6582    205.6512    212.5959   1.0223596312e+02   1.8528028503e+00    0.2205283    0.1885637  41.86 0.0006867218    1.240    0.194
        47 -11.5279     19.8707    115.9626   1.2829551326e+02   4.9009434015e+01     0.174615    0.1379158 -79.98 0.0004094264    1.007    0.007
        48 -12.4742     29.5041    239.5201   1.3599693251e+02   2.3581942259e+01    0.2572108    0.1251618 -68.91  0.001763688    2.199    0.545
        49 -11.2590    198.1324    209.6111   1.0308826415e+02   3.5167517496e+00    0.1687286    0.1570205  51.47 0.0007378715    1.306    0.234
        50 -11.8775     10.7091    209.9286   1.3755442439e+02   3.0541564742e+01    0.1513206    0.1193827  71.02 0.0005702567    1.197    0.165
        51 -11.0647      3.9206    208.8696   1.3863136217e+02   3.1350852367e+01    0.1521058   0.07641709  65.33 0.0004415559    1.497    0.332
        52 -13.7761     28.5807    244.7497   1.3639508683e+02   2.2837523335e+01    0.4091986    0.2147658  87.79  0.002982436    1.681    0.405
        53 -12.8680    151.1940     94.0561   8.8100920465e+01   3.3236843741e+01    0.3260382     0.227012  54.76 0.0008106512    1.497    0.332
        54 -12.7171     46.7704     90.4213   1.1640541280e+02   5.2293658701e+01    0.2524312    0.1902557 -56.27 0.0008917599    1.131    0.116
        55 -11.4425     18.5048    207.2566   1.3609731077e+02   3.0281256131e+01    0.1297519   0.08092093 -87.36 0.0004063806    1.333    0.250
        56 -13.3720    118.4597     89.0258   9.4875480634e+01   4.1366572061e+01    0.3292932    0.3157334  70.55 0.0005717403    1.104    0.095
        57 -13.3205    122.9700     87.0627   9.3114312292e+01   4.0838210005e+01     0.375493    0.2531007  52.46 0.0003558642    1.585    0.369
        58 -13.2266    111.0593     89.0396   9.6890363214e+01   4.2835913419e+01    0.4391028    0.2928891  46.91 0.0003377485    1.575    0.365
        59 -13.7190    110.4600     85.0988   9.5935745211e+01   4.3772466013e+01    0.5567623    0.3750324  53.70  0.002614242    1.657    0.396
        60 -11.8202     89.6333     88.3300   1.0281149779e+02   4.6870233031e+01    0.2775627    0.2217944  65.50 0.0006979397    1.497    0.332
        61 -12.5184     89.8018     85.5931   1.0202084969e+02   4.7432616666e+01    0.4541142    0.2540994  55.24  0.001937459    2.342    0.573
        62 -12.5026     73.1280     87.9963   1.0768929803e+02   4.9516763112e+01    0.3366137    0.2640436   8.34  0.001009798    1.629    0.386
        63 -12.3259     36.1117     87.8958   1.1922667716e+02   5.3937088538e+01    0.1855525    0.1517011 -85.43 0.0003592709    1.237    0.192
        64 -14.3093     44.3243     82.4145   1.1545985224e+02   5.4347924412e+01    0.5943123    0.3462951  44.65  0.003061415    2.047    0.511
        65 -10.7757    206.5447    205.4369   1.0090018577e+02   2.6386354423e+00    0.2313871    0.1211361 -35.35  0.001208104    2.172    0.540
        66 -10.9986     15.4357    203.9075   1.3644224936e+02   3.1191043498e+01    0.1384783   0.08046199 -83.08 0.0004031785    1.455    0.313
        67 -11.6683    195.1140    193.7273   1.0097320581e+02   6.2743231786e+00    0.2611701    0.2111251  28.15  0.001257223    1.079    0.073
        68 -11.6031    196.9958    202.2737   1.0208699462e+02   4.7197201524e+00    0.3130773    0.1628931  32.63  0.001261382    1.820    0.450
        69 -12.0120    195.3176    198.7309   1.0179620350e+02   5.5152014082e+00    0.2747248    0.1912795  55.08  0.001196023    1.636    0.389
        70 -12.4349    198.2391    197.2245   1.0100359612e+02   5.2131551142e+00    0.2700238    0.2338004 -79.48  0.001202262    1.722    0.419
        71 -12.3668     25.7044     65.9133   1.1806505908e+02   5.9695769994e+01    0.1954478    0.1798639  42.74 0.0004089384    1.343    0.255
        72  -9.4328      5.1121    202.3334   1.3812934070e+02   3.2429793291e+01    0.2470796   0.09894909  85.09  0.001436313    2.172    0.540
        73 -11.1971     24.3597    246.2921   1.3710473684e+02   2.3034806904e+01    0.1451277    0.1078128  72.77   0.00069864    1.160    0.138
        74 -12.4826      5.1028    237.8471   1.3963302324e+02   2.6291275821e+01    0.2723368    0.1593141 -62.68  0.002051313    2.312    0.567
        75 -10.7258      2.3094     56.3019   1.2455626055e+02   6.3270742150e+01    0.1185345   0.06315071 -44.87 0.0003049518    1.604    0.377
        76 -12.3766    118.4469     54.1590   8.3834902617e+01   4.8020127459e+01    0.3169488    0.1829897  34.11  0.001332648    1.990    0.497
        77 -13.3664    231.9602    191.2799   9.3962704720e+01   1.4061519489e-01    0.2394736    0.1816776   7.00 0.0006582864    1.212    0.175
        78 -10.9840    165.1926    240.6433   1.1333546798e+02   4.8005200251e+00   0.09651264   0.08019647  75.51 0.0006719518    1.537    0.349
        79 -11.0813     24.3596     46.5124   1.1357567191e+02   6.3880403869e+01    0.2091548   0.09290999 -56.32 0.0009965624    1.814    0.449
        80 -12.1643    207.3191    193.5046   9.8701738779e+01   4.1283248795e+00    0.3346868    0.2392394  64.27  0.001796004    2.081    0.520
        81 -11.5075    108.2683     44.4313   8.3131007463e+01   5.1835362671e+01     0.190099    0.1408824  61.04 0.0009407834    1.604    0.376
        82 -11.5143     96.9450     40.5004   8.4952646797e+01   5.4791435504e+01     0.209904    0.1362595  44.61  0.001030444    1.583    0.368
        83 -13.1294    129.4827     33.4531   7.3546475546e+01   4.8692037253e+01    0.3752662     0.267845  53.17  0.001032222    1.374    0.272
        84 -11.4961     60.3627     28.2653   9.2460188693e+01   6.3153604489e+01    0.3064982    0.1734627 -22.53  0.001512936    1.889    0.471
        85 -10.8286    250.6984     24.3257   5.2750299344e+01   1.9459011909e+01    0.1415448   0.08484674 -56.99 0.0003665838    1.638    0.390
        86 -11.7722    216.3222     17.2935   5.4294011132e+01   2.8461742199e+01    0.3733428    0.1588293 -40.65  0.001555434    2.175    0.540
        87  -8.6978    145.9437    246.4095   1.1730762052e+02   7.0196944364e+00    0.1511222   0.08455469  45.36 0.0009294006    1.360    0.265
        88 -11.3584     10.4250    245.0184   1.3911918902e+02   2.4633796532e+01    0.1692998   0.07293029 -81.51  0.001116343    2.092    0.522
        89 -11.1589    181.2411    245.3679   1.1119806268e+02   1.7007036866e+00    0.1056286   0.07631648  13.07 0.0005020601    1.610    0.379
        90 -11.0888    151.4837    244.5438   1.1615289409e+02   6.4201854308e+00    0.1683533    0.1066917 -71.59  0.001002055    2.549    0.608
