#   1 NUMBER                 Running object number                                     
#   2 MAG_AUTO               Kron-like elliptical aperture magnitude                    [mag]
#   3 X_IMAGE                Object position along x                                    [pixel]
#   4 Y_IMAGE                Object position along y                                    [pixel]
#   5 X_WORLD                Barycenter position along world x axis                     [deg]
#   6 Y_WORLD                Barycenter position along world y axis                     [deg]
#   7 A_WORLD                Profile RMS along major axis (world units)                 [deg]
#   8 B_WORLD                Profile RMS along minor axis (world units)                 [deg]
#   9 THETA_WORLD            Position angle (CCW/world-x)                               [deg]
#  10 FWHM_WORLD             FWHM assuming a gaussian core                              [deg]
#  11 ELONGATION             A_IMAGE/B_IMAGE                                           
#  12 ELLIPTICITY            1 - B_IMAGE/A_IMAGE                                       
         1 -10.7655     60.8448     48.0997   5.2160423511e+01   6.1371419135e+01     1.163155    0.5779461 -43.28  0.005081784    1.899    0.473
         2 -10.8264    110.1604     39.6575   3.1373349110e+01   5.2669360517e+01    0.8589395    0.6216667  13.99  0.003102317    1.748    0.428
         3 -11.2342     61.2166     35.9808   4.6917402288e+01   6.3634393264e+01    0.6159881    0.3623987 -19.61  0.002694466    2.241    0.554
         4 -12.2090    164.3131     27.6530   1.5931043470e+01   4.0362643791e+01    0.5629839    0.3738451  39.64  0.001386203    1.743    0.426
         5 -12.3636    104.8411     13.5982   2.1758827122e+01   5.7413915473e+01    0.5731964    0.5375075 -46.08  0.001943772    1.167    0.143
         6 -12.9469    105.3941     20.3765   2.4605256205e+01   5.6499449598e+01    0.3556681    0.3376658 -80.39 0.0004212907    1.158    0.136
         7 -12.4839    113.9012     25.2946   2.4583525581e+01   5.3774538454e+01     0.857183     0.370816  49.56  0.002218901    2.149    0.535
         8 -10.1006     12.7389      8.6563   6.0516948395e+01   7.5055043711e+01    0.3724197    0.2172961 -57.26   0.00133362    1.965    0.491
         9 -11.3637      6.4169     10.4396   6.6124793442e+01   7.5241227699e+01    0.5100027    0.4392909  21.80  0.002672548    1.397    0.284
        10 -11.9179     26.2871     28.4563   6.1326935948e+01   6.9977876524e+01    0.5406876    0.4103827 -30.40  0.002322474    1.152    0.132
        11 -12.0954     20.2805     21.8981   6.2051501068e+01   7.1871994340e+01    0.7478905    0.4071935 -32.21  0.002384784    1.745    0.427
        12 -11.9893     15.3320     14.9810   6.1995916329e+01   7.3656542935e+01    0.7986525    0.3460359 -30.17  0.003623705    2.569    0.611
        13 -12.0121     22.5055     11.1491   5.5120722763e+01   7.3613355695e+01    0.5070864     0.351382  -3.19  0.002158696    1.464    0.317
        14 -10.1449     25.9711      3.7621   4.8354672384e+01   7.4385655128e+01    0.1839482    0.1453352 -20.23 0.0002059667    1.098    0.089
        15 -10.4753     22.2048      3.2632   5.0547322213e+01   7.4944271872e+01    0.2526695    0.1820936 -25.73 0.0007943881    1.195    0.163
        16 -11.6231    136.4503     21.6368   1.8408603543e+01   4.8408054233e+01     1.183433    0.6433972 -64.32  0.004603958    2.613    0.617
        17 -11.4235    127.3035     16.7310   1.8246170166e+01   5.1350824009e+01    0.4518782    0.3890627  11.80 0.0009637632    1.283    0.220
        18 -10.8297    134.9477     14.9430   1.6168951981e+01   4.9541062008e+01    0.7727144     0.372064  69.94   0.00319756    2.011    0.503
        19 -10.7395    178.8569     20.8553   1.1864861484e+01   3.7375031920e+01    0.4905837    0.2644171  41.43  0.002088062    2.336    0.572
        20 -12.1608     47.7806     12.7005   4.1399592273e+01   6.9757102658e+01    0.8630757    0.3735028  45.43  0.003861616    2.416    0.586
        21 -11.6333     35.3678     18.4786   5.1249766926e+01   7.0740740331e+01    0.6134248    0.2441989 -38.38  0.002150579    2.343    0.573
        22 -12.6868    164.2773     18.5275   1.2975098395e+01   4.1422138583e+01    0.5736154    0.3056931  42.31  0.002429508    2.223    0.550
        23 -10.5577     75.9427     19.1704   3.2967442186e+01   6.3444816642e+01    0.5979744    0.2835579  40.85  0.002569645    2.086    0.521
        24 -11.3967     67.5386     18.4571   3.5773608768e+01   6.5276674884e+01    0.5386352    0.4582717  86.49  0.002472168    1.678    0.404
        25 -11.7616    228.7866     15.8759   5.7933329920e+00   2.5855148002e+01    0.3525907    0.2935681  87.18 0.0003797737    1.214    0.176
        26 -10.9959    225.6840     13.7003   5.4899786586e+00   2.6783842850e+01     0.310262    0.2182869 -30.00 0.0007285794    1.393    0.282
        27 -10.2295    147.8978     16.2135   1.4529604357e+01   4.5989856166e+01    0.5385702    0.2091978  42.80  0.001848247    3.212    0.689
        28 -11.2592     85.5835     14.5941   2.7480989875e+01   6.1897963943e+01    0.4425205    0.3216334  -2.23  0.001642083    1.506    0.336
        29  -9.9129    219.0863     12.8461   5.7730070741e+00   2.8380102152e+01     0.260318    0.2291136  34.79  0.001638256    1.446    0.308
        30  -9.9344    190.6818     12.5178   8.1334695977e+00   3.5266900681e+01    0.3414863    0.1424765 -36.93  0.001459544    2.138    0.532
        31 -10.9247    192.9741      7.3620   6.4599975913e+00   3.5214017182e+01     0.454235    0.2996408  -9.38  0.001814003    1.910    0.476
        32 -11.1391    206.8132      2.7439   4.0921699867e+00   3.2283296397e+01    0.5185743    0.2559025  89.33  0.001772344    2.055    0.513
        33 -10.7545    218.5611      3.8534   3.5511302432e+00   2.9415349430e+01    0.3168384    0.2553304  72.69 0.0008597618    1.305    0.234
        34 -11.5134    223.7779      2.7564   2.9379867917e+00   2.8330231588e+01    0.4710169    0.2484041 -86.32 0.0002233382    1.909    0.476
        35  -9.6404    120.7441     11.9003   1.7583268445e+01   5.3560046478e+01    0.3423247    0.1725267  71.86 0.0007921746    2.033    0.508
        36 -10.3893    169.0711      9.6176   9.5288987172e+00   4.1091731224e+01    0.5566109    0.1784279  59.68  0.002055906    2.724    0.633
        37  -9.8178    163.4650      6.4921   9.1694775062e+00   4.2855608217e+01    0.4961888    0.2245088  26.52  0.001588026    4.588    0.782
        38 -10.3230    145.5425      9.3810   1.2457204960e+01   4.7304138729e+01    0.2545511    0.2121533  44.38 0.0002456803    1.243    0.196
        39 -11.6357    247.0325      6.0226   2.3103705754e+00   2.2954948724e+01    0.4122591    0.2970472  -1.85  0.002234058    1.974    0.494
        40 -11.2781    244.9892      2.3290   1.5956169092e+00   2.3750648496e+01    0.4645228    0.2890368  48.56  0.002636134    2.186    0.542
        41 -10.5341    232.7576      7.3031   3.4596704352e+00   2.5873668103e+01    0.2878024    0.2031414 -58.31  0.001154667    1.198    0.165
        42 -11.5953    233.7627      2.9508   2.3717760085e+00   2.6089507985e+01    0.5472712    0.2433103 -61.90  0.002616888    2.154    0.536
        43 -10.9811    122.4576      5.3731   1.4607113675e+01   5.3740039598e+01    0.3136768    0.2420554 -30.40 0.0002348508    1.387    0.279
        44 -10.0363      1.0000      7.0893   6.8661582275e+01   7.6237775024e+01    0.2634143    0.1002431 -56.52 0.0007712187    2.234    0.552
        45 -10.8841      2.1751      2.1371   6.5119807942e+01   7.7082716787e+01    0.3515178    0.2017553 -10.93  0.002074883    1.806    0.446
        46 -10.4092    185.0893      6.4859   6.9257454461e+00   3.7278566118e+01    0.3954649    0.2194454 -60.16  0.001162218    1.815    0.449
        47  -9.3953     77.9992      7.4994   2.6263146129e+01   6.4412080007e+01    0.2846209    0.2077374  82.46 0.0009105695    1.879    0.468
        48 -11.0965     73.8626      3.1766   2.5278964638e+01   6.5777979035e+01    0.7518978    0.2972936  47.31  0.003195667    2.207    0.547
        49 -10.3253    177.0943      5.9765   7.5474532025e+00   3.9366692598e+01    0.3157707    0.1806304  89.14 0.0006760788    1.755    0.430
        50  -9.8609    154.1684      6.5993   1.0325158821e+01   4.5288827523e+01    0.2041946     0.114114  60.48 0.0006088882    1.638    0.390
        51 -10.9833    105.6750      2.5215   1.6610311703e+01   5.8283399978e+01    0.5173147    0.3522948 -77.99  0.002548115    1.866    0.464
        52 -11.1373    113.3522      3.0053   1.5289770713e+01   5.6295451851e+01    0.3727866    0.2858441  56.25  0.002051828    1.173    0.147
        53 -10.7398     41.0963      4.2460   3.9724981232e+01   7.2055413628e+01    0.3747589    0.2435894  12.31  0.001559297    1.660    0.398
        54 -11.5658    212.1927      9.1978   5.3703999195e+00   3.0367377229e+01    0.6082147    0.3761213  -3.35  0.002656762    2.349    0.574
        55 -10.1240    141.8885      3.6542   1.0911832086e+01   4.8795000139e+01    0.3706569    0.2272899  71.63   0.00152792    1.487    0.328
        56 -11.5455    134.0347      2.7538   1.1702540497e+01   5.0941832004e+01    0.4761626    0.3031164  70.47  0.002284117    1.429    0.300
        57  -9.0348    157.3565      3.6689   8.9497926379e+00   4.4716175672e+01    0.2546385    0.1499757 -78.19  0.001165814    1.854    0.461
        58 -10.1264    152.9618      1.4741   8.7276151899e+00   4.6063786686e+01    0.3564039    0.1635963  80.36 0.0008177054    2.166    0.538
        59  -9.4821     29.5595      2.4382   4.5197808787e+01   7.4087231202e+01    0.2732539    0.1071849 -41.29  0.001225558    2.615    0.618
        60 -10.1082     12.9082      2.0983   5.6521573405e+01   7.6174993788e+01    0.2364297    0.1680355   3.36 0.0007893676    1.350    0.259
        61  -8.7164     64.3198      2.2740   2.8096081274e+01   6.7917050581e+01     0.136405   0.08693817  26.66 0.0003653014    1.571    0.363
        62  -8.5843     52.6783      2.2875   3.2844196815e+01   7.0234947790e+01    0.1144229    0.1028571 -68.14 0.0002210009    1.600    0.375
        63  -9.1780     33.4745      1.7138   4.2342077606e+01   7.3609925772e+01    0.1611244    0.1048106 -17.78 0.0004736054    1.462    0.316
        64  -9.0233    128.6510      1.2711   1.1947834017e+01   5.2478854757e+01    0.1903865     0.133352 -86.52 0.0005732047    1.514    0.340
        65 -10.1591     61.8606      6.7214   3.1625363654e+01   6.7926532764e+01    0.2995575    0.1987123  39.23  0.001088157    1.391    0.281
        66  -9.4240     26.5980    127.6797   8.3510491655e+01   4.6345027668e+01     0.178849    0.1103859 -87.75 0.0009308057    1.496    0.332
        67  -8.9730    188.6814    250.3380   6.1647372947e+01  -3.1965131907e-01    0.1018824   0.07866271  48.63            0    1.707    0.414
        68 -10.6718     10.5801    126.8551   8.8278733475e+01   4.7833076004e+01    0.5272415    0.2588996 -73.38  0.001612892    1.705    0.413
        69 -10.1491     22.9004    127.0544   8.4571947999e+01   4.6823180330e+01    0.1904926    0.1604074 -89.27 0.0003466702    1.009    0.009
        70  -9.9219      2.4267    126.3204   9.0658310300e+01   4.8503661705e+01    0.3001694    0.1521221  54.82  0.001300838    1.900    0.474
        71  -9.8529     32.8539    125.7262   8.1351044794e+01   4.6244354645e+01    0.2723535    0.1448988  75.56  0.001219976    2.175    0.540
        72  -9.5298     82.6160    124.7888   6.5764380506e+01   4.0025854206e+01    0.3808407     0.235765  -3.57  0.001319121    3.710    0.730
        73 -11.5035    104.3620    122.3929   5.8842059897e+01   3.6803744648e+01    0.3826157     0.310454  55.41 0.0007857754    1.252    0.201
        74 -10.0551     13.5446    121.3100   8.6874361109e+01   4.8977581951e+01    0.4590087    0.1231662 -61.40  0.001785972    2.954    0.661
        75 -10.2514     49.7975    123.1320   7.5661442105e+01   4.5058842823e+01    0.2540549     0.203642   1.98  0.001387463    1.621    0.383
        76  -9.6289     56.1753    122.1840   7.3485931172e+01   4.4507087376e+01    0.1979878    0.1521844  67.25 0.0005099482    1.336    0.252
        77 -10.0766     44.9846    120.0040   7.6712069263e+01   4.6401155684e+01    0.2539432    0.2040138  83.04 0.0005136073    1.200    0.166
        78 -10.0310     43.5260    116.4946   7.6640137630e+01   4.7445139997e+01    0.3215567    0.2507018  34.05  0.001812164    1.384    0.278
        79  -9.6121     37.5208    116.0233   7.8541788900e+01   4.8204634968e+01    0.2205996    0.1823416 -44.99  0.001286176    1.321    0.243
        80 -10.2131      7.6961    114.9728   8.8122532128e+01   5.0934490767e+01    0.3833826     0.203729 -59.12  0.001643692    1.717    0.418
        81 -12.2760      2.5260    112.0474   8.9520103640e+01   5.1962936494e+01    0.4149686     0.273954 -78.60 0.0007091461    1.243    0.195
        82 -11.4842      5.2410    105.3182   8.8017329564e+01   5.3457452016e+01    0.4312646    0.3426726   4.41  0.002764081    1.592    0.372
        83  -9.4619     57.9615    115.1564   7.1671710979e+01   4.6032433772e+01    0.2721435    0.1750298 -84.85  0.001267749    1.748    0.428
        84  -9.6446     79.2172    114.7447   6.4732640785e+01   4.3025284933e+01    0.2788708    0.2368875 -52.40   0.00122009    1.171    0.146
        85  -9.1334     67.5721    114.8238   6.8476426224e+01   4.4787180272e+01    0.2052031    0.1333173 -78.34 0.0009344966    1.709    0.415
        86 -11.1043     16.4247    109.5149   8.4702239570e+01   5.1686866077e+01    0.3648062    0.2699891  69.85  0.000635585    1.323    0.244
        87 -12.0617      9.5669     97.1207   8.5631841563e+01   5.5224386332e+01    0.5505705    0.4608165  -7.72            0    1.480    0.324
        88 -11.7446      7.0627     88.8940   8.5554898016e+01   5.7401791365e+01    0.5407792    0.4208888  22.62   0.00242661    1.523    0.343
        89 -10.9207     26.7935     85.9257   7.7459747569e+01   5.6755390556e+01     1.234766    0.7292216  62.36  0.005960433    2.110    0.526
        90 -11.5702     42.3325     92.8735   7.2833535163e+01   5.3505003052e+01    0.9157741    0.6774585 -59.93  0.001626277    1.210    0.173
        91 -11.8659     42.9479     84.9956   7.0913075646e+01   5.5388313352e+01    0.9058158    0.4188882  16.66  0.003148901    3.024    0.669
        92 -12.6160     17.7411    100.5219   8.3136085086e+01   5.3831307653e+01    0.3388896    0.2849577  87.75 0.0003746937    1.099    0.090
        93 -11.9847     21.0199     93.1737   8.0894266962e+01   5.5418932941e+01     1.104535    0.5481551  65.03  0.004384765    2.666    0.625
        94 -11.8884     25.9491    106.9644   8.1137699674e+01   5.1568633918e+01     1.296283    0.7111184 -15.71  0.005614052    3.057    0.673
        95 -11.3930     21.5390    114.6149   8.3605927227e+01   5.0022644345e+01    0.4684918    0.2767749   2.37  0.001947645    2.430    0.589
        96 -11.5527     28.7655    112.2787   8.0914870853e+01   4.9988601600e+01    0.4255815    0.3213767 -47.74  0.002453691    1.395    0.283
        97  -9.5647    105.4981    107.5036   5.4948240233e+01   4.0050157232e+01    0.2682443    0.1898619  -9.52  0.001097153    2.252    0.556
        98  -9.9477    105.6419    112.6588   5.6189429687e+01   3.8828883709e+01    0.4390174    0.1814861  41.19  0.001537902    2.416    0.586
        99 -10.0336     48.7277    112.1611   7.4195850733e+01   4.7937600143e+01    0.2725754    0.2342321  53.94 0.0008943906    1.196    0.164
       100  -9.0355    170.4940    111.9908   3.9657421673e+01   2.5083109652e+01    0.2218574    0.1255195 -59.31 0.0008106576    2.610    0.617
       101 -11.2122     79.6073    108.3353   6.3186671859e+01   4.4527184911e+01     0.633329    0.3293839  36.36   0.00182823    1.985    0.496
       102  -8.7593     68.3241    110.6651   6.7382350777e+01   4.5708714274e+01    0.1530814    0.1078639  73.13 0.0007050978    1.712    0.416
       103  -8.5960    134.6940    109.7424   4.7453737188e+01   3.3475679099e+01      0.15007    0.1221322   9.15 0.0002136843    1.517    0.341
       104  -9.4133    120.1377    109.1647   5.1185933627e+01   3.6707856515e+01     0.237934    0.2125029 -12.56 0.0007926549    1.267    0.211
       105  -9.7236    181.6325    104.8587   3.5559701092e+01   2.3909171908e+01    0.3597525    0.2479477   6.65  0.001531922    2.137    0.532
       106  -9.2948    142.9847    105.7978   4.4327276579e+01   3.2471357447e+01    0.2562695    0.1831988  77.94  0.001074706    1.986    0.496
       107 -10.8098     88.0294    104.5268   5.9574162902e+01   4.4012657518e+01     0.464941    0.2554297  51.08  0.001893065    2.033    0.508
       108  -9.2030     45.7345    105.0714   7.3954182269e+01   5.0068059860e+01    0.2906422    0.1192628 -49.21  0.001143053    2.426    0.588
       109  -9.8651     64.6550     98.6983   6.6003835472e+01   4.9203066716e+01    0.4564203    0.1232985 -54.84  0.001455272    3.208    0.688
       110 -11.1880     68.6671     95.5462   6.3850523804e+01   4.9378484984e+01    0.5527543    0.4580128 -10.75  0.002893272    1.473    0.321
       111  -9.7612     50.7079    101.6647   7.1555679229e+01   5.0332606468e+01     0.335265    0.1720775 -61.32  0.001348717    1.752    0.429
       112  -9.9087     52.8092     97.8387   7.0019038794e+01   5.1025779349e+01    0.4274405     0.185556 -59.83 0.0009287295    2.060    0.514
       113  -8.9060    120.3079    101.3312   4.9062421774e+01   3.8403121134e+01    0.1577008    0.1249183  -4.01  0.000327346    1.665    0.399
       114  -8.9492    158.7668     99.6630   3.8967262284e+01   3.0097803787e+01    0.2076061    0.1438735  59.56   0.00020572    1.577    0.366
       115  -9.9364     67.0815     81.6810   6.0802502667e+01   5.2954511361e+01    0.4266331    0.3123679  -2.77  0.002023677    1.858    0.462
       116 -10.3524     79.6056     83.8750   5.6891200393e+01   5.0371179872e+01    0.5223728    0.4376386 -52.48  0.002236859    1.149    0.130
       117 -11.2757     89.6454     88.5340   5.4804112043e+01   4.7477278866e+01    0.7843049    0.3938386 -41.33  0.002601561    2.106    0.525
       118 -10.2562     76.9103     79.3535   5.6523083235e+01   5.1882910984e+01    0.4466527    0.3274599 -37.38  0.002186382    1.399    0.285
       119 -10.7175     73.2339     77.8244   5.7405444905e+01   5.2860323677e+01    0.5120063    0.4029831 -19.78  0.002578263    1.490    0.329
       120  -9.8928     78.1015     96.6488   6.0869838088e+01   4.7606883364e+01    0.2999525    0.2211373  29.70 0.0005493438    1.482    0.325
       121 -11.1360     80.8841     92.9038   5.8951736940e+01   4.8030372731e+01    0.8561832    0.6772451  50.21  0.004350342    1.330    0.248
       122 -12.2735    125.3645     94.4808   4.5759758005e+01   3.8780527246e+01    0.6123868    0.4409263  75.01  0.002634623    1.872    0.466
       123  -9.1824    141.0194     96.0139   4.2131281868e+01   3.4919336052e+01    0.2480864    0.1933413   4.02 0.0008555789    1.695    0.410
       124 -10.4808    119.9704     85.4836   4.4606696108e+01   4.1880203492e+01    0.3761812    0.3388575  27.78  0.001927003    1.171    0.146
       125 -11.2919     99.0049     91.2619   5.2560760640e+01   4.5051642527e+01    0.4856496    0.2599058  50.07  0.001927347    2.021    0.505
       126 -10.2525     49.6467     91.2809   6.9755285505e+01   5.3048033771e+01    0.2997406    0.2633161  27.36  0.001733369    1.256    0.204
       127  -8.9099    155.7186     89.6676   3.6863899867e+01   3.2724318659e+01    0.1553543    0.1228395   5.82 0.0002544248    1.611    0.379
       128  -9.6951     66.3107     88.6709   6.2965565969e+01   5.1403472989e+01    0.3638129    0.2451434   1.61  0.001344389    2.252    0.556
       129  -9.6301    103.9109     87.3670   4.9900928091e+01   4.4931903583e+01    0.2577735     0.186711 -39.92  0.001190164    1.399    0.285
       130 -10.3336    143.2552     84.5420   3.8260536966e+01   3.6673069591e+01    0.2739653    0.2648607 -50.32 0.0003770576    1.031    0.030
       131  -9.0724    133.7383     85.1400   4.0805597181e+01   3.8800249873e+01    0.2624867    0.1718376 -81.75 0.0009414309    2.767    0.639
       132 -10.7031    113.4572     83.4628   4.5856564786e+01   4.3746586393e+01    0.4200165    0.3387599  82.63  0.001739935    1.544    0.352
       133 -11.6731     53.1700     74.7435   6.4265780849e+01   5.6611253085e+01    0.6632443    0.3320976 -60.57 0.0008199842    1.951    0.488
       134 -10.7013     58.2037     77.7427   6.3097550449e+01   5.5206642509e+01     0.583029    0.3188294 -70.94  0.001646481    2.374    0.579
       135  -9.3319     46.8856     75.6378   6.7061973027e+01   5.7202359950e+01    0.2887513    0.2346372 -23.45  0.001031257    1.349    0.259
       136  -9.4496    103.4791     79.9663   4.7782314267e+01   4.6633811938e+01    0.2335041    0.1496729 -45.59 0.0004815286    1.541    0.351
       137 -11.3108      1.9240     73.0981   8.5520812168e+01   6.1517591794e+01    0.8905204    0.1401356 -71.83  0.002838806    4.274    0.766
       138 -12.6656      6.1346     61.9860   8.1887856294e+01   6.3989179553e+01     0.699303    0.4439144 -14.71  0.003000519    1.865    0.464
       139 -10.1768      7.6816     55.1325   7.9809799835e+01   6.5529990140e+01    0.2808435    0.2162631  70.23  0.001733962    1.538    0.350
       140  -9.1951     88.5777     73.4529   5.0573288678e+01   5.1058851635e+01    0.2324483    0.1918058 -36.98 0.0002279283    1.204    0.169
       141  -9.8386     92.6784     72.3666   4.8829119794e+01   5.0482488897e+01    0.3066711    0.2549412  86.96 0.0008970263    1.509    0.337
       142 -10.3950     88.9162     77.4856   5.1743638684e+01   5.0109788797e+01    0.7117604    0.3281456  45.78  0.002711438    2.270    0.559
       143 -10.1235     94.2087     76.5983   4.9689989635e+01   4.9264754450e+01    0.4670914    0.2502407  44.73  0.001672072    1.909    0.476
       144 -11.7085     13.7057     74.4149   8.0745200482e+01   6.0562470506e+01    0.4684266    0.3335675 -87.58  0.002072413    1.390    0.281
       145  -9.8752     14.9887     67.4624   7.8895023407e+01   6.2165137427e+01    0.4550695    0.2615263  -1.25  0.002328479    2.230    0.552
       146  -9.4491    158.9002     76.3448   3.2277371563e+01   3.4403216556e+01    0.2091926    0.1937349  51.05 0.0004472822    1.093    0.085
       147  -9.2968    112.4167     75.3529   4.3608706864e+01   4.5664195351e+01    0.2607964    0.1457229  48.46 0.0007650342    1.806    0.446
       148  -9.6666    103.5676     74.7772   4.6100049651e+01   4.7715204281e+01    0.3336684    0.2496025  65.78  0.001538479    1.603    0.376
       149  -9.5789     65.9597     74.5122   5.9151739296e+01   5.4804789449e+01    0.2451803     0.192999  73.72 0.0003661679    1.628    0.386
       150 -11.5322     34.1382     72.9030   7.1705497511e+01   5.9272941314e+01    0.5118034    0.4022086  -5.64  0.001283163    1.489    0.328
       151 -11.7275     40.9852     70.0437   6.8053240854e+01   5.9231475149e+01    0.4725885    0.3008106 -63.29  0.001526632    1.479    0.324
       152  -9.7271     24.6403     73.8148   7.5969073360e+01   5.9913664343e+01    0.2808569    0.2011597 -54.09  0.001152229    1.213    0.175
       153 -10.3832    186.9329     72.3519   2.5821407475e+01   2.8229763474e+01    0.4391903    0.3099586 -33.08  0.002048628    1.372    0.271
       154  -9.4461     81.0303     73.7405   5.3310188770e+01   5.2418344118e+01    0.2710095    0.1971672 -33.66  0.000566511    1.448    0.309
       155 -10.4770     79.1914     67.9149   5.2071914803e+01   5.4032200607e+01    0.5265209    0.3669632  66.52  0.002357472    2.018    0.504
       156 -10.1241    153.2120     72.8683   3.2442557005e+01   3.6422577514e+01    0.4971503    0.1918702  45.85  0.001581543    2.757    0.637
       157  -9.1263     19.1152     72.0322   7.7982951856e+01   6.0774712233e+01    0.2097439     0.122715 -40.64 0.0005600124    1.700    0.412
       158 -11.4081    123.3467     68.9122   3.8413732040e+01   4.4422160742e+01    0.5585202    0.3019196  47.11   0.00194256    1.843    0.457
       159  -9.3534     46.3431     70.2516   6.5832236030e+01   5.8550219875e+01    0.2139429    0.1501024  69.49 0.0008759098    1.974    0.493
       160  -8.4500    146.3329     68.3153   3.2544424728e+01   3.8934738477e+01    0.1599568    0.1212232  19.24 0.0003622875    1.686    0.407
       161  -9.2064    217.4914     66.4921   1.9706238559e+01   2.2008809824e+01    0.1388558     0.126274 -41.83 2.038681e-05    1.018    0.018
       162  -9.9091    170.4861     66.4908   2.7036521643e+01   3.3210592158e+01    0.1483128    0.1470381 -37.34 9.938706e-05    1.042    0.040
       163  -9.6201     91.5003     57.4644   4.4022306924e+01   5.3772069335e+01    0.2648157    0.1968725  46.45  0.000786117    1.368    0.269
       164 -10.5390     88.1304     55.8271   4.4569879373e+01   5.4787766665e+01    0.6236261    0.2769952 -35.51  0.002309128    2.441    0.590
       165 -10.9058     91.9880     62.6149   4.5725123737e+01   5.2649179488e+01    0.5287917    0.3510009  60.32  0.002339189    1.855    0.461
       166 -10.6939    201.1777     64.7038   2.1482309401e+01   2.6014675298e+01    0.3454454    0.2487274  84.21  0.001710007    1.629    0.386
       167  -8.8991    192.4734     65.5343   2.3020284035e+01   2.7962868078e+01    0.1466721    0.1357943 -55.43 0.0004359631    1.032    0.031
       168  -9.1600     52.1174     65.6721   6.2048991655e+01   5.8868916510e+01    0.1893052    0.1302271  15.84 0.0009328804    1.726    0.421
       169 -10.8116    157.6758     63.4594   2.8590104999e+01   3.6924017783e+01    0.5167689    0.2616358  42.54 0.0009138305    2.253    0.556
       170  -9.3642     59.6296     63.7229   5.8289594826e+01   5.8231884286e+01    0.2610229    0.1892389  24.14 0.0006510029    1.520    0.342
       171 -10.3966     64.9040     61.3154   5.5325707185e+01   5.7935701577e+01    0.3855795    0.3501431  22.72  0.001235768    1.147    0.128
       172  -9.0964     57.3131     61.3368   5.8465585694e+01   5.9109767762e+01    0.2217758    0.1276239 -47.57  0.000936504    1.600    0.375
       173 -10.3959     51.3100     56.3370   5.9364686623e+01   6.1076603463e+01     1.016159    0.2008276 -51.31  0.002943135    4.321    0.769
       174 -11.3218     51.7697     48.2142   5.6222837329e+01   6.2751150741e+01     1.111569    0.4296515  26.84  0.003066057    3.487    0.713
       175  -8.7687    113.3126    249.3385   7.5475200498e+01   1.0144517717e+01    0.1069743   0.08171825   8.88 0.0007046188    1.693    0.409
       176  -9.6264     55.5375     50.5191   5.5403075456e+01   6.1710042188e+01    0.2181165    0.2036117   3.17 6.252846e-05    1.087    0.080
       177 -11.7157     40.2408     56.9703   6.4588432276e+01   6.2353513775e+01    0.4073698    0.3099504  -5.08 0.0005007577    1.503    0.335
       178 -11.2101     43.0746     62.0800   6.4879203568e+01   6.0851918109e+01    0.3106568    0.2434862 -50.90 0.0007739615    1.145    0.126
       179 -11.1947     46.1985     59.2045   6.2590727937e+01   6.1120431484e+01    0.5224977    0.3323114  63.23  0.002336434    2.517    0.603
       180 -11.4345     44.0558     43.9661   5.8221256977e+01   6.4709042538e+01    0.4734697    0.2867288 -46.80 0.0003391764    1.497    0.332
       181 -11.4346     40.0180     43.9887   6.0211454321e+01   6.5222267974e+01    0.5144018    0.3134571   8.72  0.000742066    2.117    0.528
       182 -10.1560    234.4970     62.0355   1.6536377058e+01   1.8942216359e+01    0.2119463    0.1176426 -31.93  0.001033786    1.593    0.372
       183  -9.6576    113.8921     61.1242   3.8371193073e+01   4.8110692251e+01    0.3196985    0.2037519 -43.22  0.001402157    1.583    0.368
       184 -10.3985    124.2018     57.2341   3.4191801376e+01   4.6352030307e+01    0.9946548    0.5097519 -26.01  0.003694269    2.408    0.585
       185 -11.5091    117.8815     55.7848   3.5356477561e+01   4.8135065264e+01      1.33697    0.7701699 -73.27  0.004001379    4.401    0.773
       186  -9.7957    213.9176    248.3241   5.7023583366e+01  -3.3780816337e+00    0.1628697    0.1068341  22.05  0.001152726    1.132    0.116
       187 -11.2088    118.0534     44.7757   3.1246478490e+01   4.9942519476e+01    0.7303908    0.5054506 -80.93  0.002906147    2.158    0.537
       188 -11.7588    120.3711     40.8295   2.9155993338e+01   4.9982969805e+01    0.4849031    0.4631476 -20.85  0.001371352    1.075    0.070
       189 -11.9696    119.4927     37.4843   2.8089061032e+01   5.0701528987e+01    0.4829686     0.347726 -38.88  0.001545177    1.427    0.299
       190  -9.9390     96.5037     65.1243   4.5106581983e+01   5.1201371801e+01    0.2559785    0.2222845 -27.53 0.0007389883    1.171    0.146
       191  -9.5184     80.2754     58.5476   4.8392683646e+01   5.5800503545e+01    0.2527361    0.1743577 -22.79 0.0006587834    1.722    0.419
       192 -11.3021     25.4709     57.7632   7.1785889368e+01   6.3673661076e+01    0.6844555    0.5794953  35.09  0.003065161    1.358    0.264
       193 -10.1144     33.6923     51.6688   6.6011721976e+01   6.4276640411e+01    0.2703404    0.2221188 -11.90 0.0009163709    1.278    0.217
       194  -9.0878    135.2192     59.5963   3.2265395312e+01   4.3224594294e+01    0.2169486    0.1385774  44.21 0.0005654121    1.609    0.378
       195 -12.3994     73.8686     50.8318   4.7904625997e+01   5.8551970801e+01    0.9350716    0.4615501 -54.80  0.002330438    2.585    0.613
       196 -11.0973     72.6890     47.3508   4.6987037839e+01   5.9447790205e+01     0.246004    0.2342762  50.79 0.0005867482    1.171    0.146
       197 -10.4911    105.1279     57.6969   3.9725890598e+01   5.0761917162e+01    0.3624733    0.2578733  69.27  0.001626991    1.774    0.436
       198 -10.7939    157.5802     54.8827   2.5895486588e+01   3.8331300532e+01    0.5422894     0.385298 -46.70  0.002404333    1.418    0.295
       199  -9.7264    154.2838     51.3680   2.5399081843e+01   3.9721831878e+01    0.2905316     0.217863  -5.43  0.000914895    1.678    0.404
       200  -9.0814    219.8359     56.1879   1.6777815511e+01   2.2930189209e+01    0.1740246    0.1553628  -3.33 0.0002424921    1.289    0.224
       201  -9.6952     30.5460     53.5177   6.8123511397e+01   6.4181171414e+01    0.2583275    0.1727586  27.55 0.0006487393    1.653    0.395
       202  -9.0727     67.2068     55.0569   5.2158269183e+01   5.8883265795e+01    0.1933375    0.1087338 -45.19 0.0008549722    1.691    0.409
       203  -9.2787    246.7847     54.3961   1.3436763216e+01   1.7415805838e+01    0.1597622    0.1183196  54.17 0.0004558684    1.589    0.371
       204  -9.5001    201.1085     53.3499   1.8399007905e+01   2.7673896553e+01    0.2310974    0.1882791 -20.97  0.000476426    1.306    0.234
       205  -8.6420      3.3443     54.2717   8.1772281739e+01   6.5944523689e+01    0.1294895   0.07358494 -41.24 0.0002626605    1.617    0.381
       206  -9.6562    212.7775     53.4324   1.6919509733e+01   2.4916161739e+01    0.1904526    0.1259426  52.67 0.0009513898    1.657    0.397
       207 -10.3554    145.6029     49.2536   2.6441037265e+01   4.2280410922e+01    0.5879166    0.3155515 -12.87  0.002054751    3.018    0.669
       208  -9.2678     94.1948     52.4667   4.1238103480e+01   5.4151081559e+01    0.2895251    0.1398248  42.50  0.001131459    2.111    0.526
       209  -9.8800    240.2677     50.7027   1.3205261466e+01   1.9227674313e+01    0.2269338    0.1992226   4.89 0.0007933317    1.395    0.283
       210  -9.4843     11.3882     50.2941   7.6850246130e+01   6.6445590383e+01    0.2649682   0.09234822 -61.83  0.001152064    2.211    0.548
       211 -11.3050     83.1927     47.0570   4.2909809260e+01   5.7457426028e+01    0.3396471    0.2909834  -3.05  0.001831256    1.229    0.186
       212 -10.1694     26.2217     48.8777   6.8854076916e+01   6.5641067003e+01    0.2965441    0.1734683 -46.66 0.0008545603    1.465    0.317
       213 -10.6488    138.5067     44.6722   2.6358643066e+01   4.4802533412e+01    0.5708896    0.2624461  36.69  0.001878736    3.170    0.685
       214 -10.4499     20.4037     46.1623   7.1033178706e+01   6.6751852067e+01    0.4685663    0.2566318 -35.38  0.002386178    1.798    0.444
       215 -10.4508     26.2441     42.7046   6.6832919677e+01   6.7005566964e+01    0.3074254    0.2625774 -73.02  0.001533351    1.330    0.248
       216 -10.2139     23.0318     37.2859   6.6678776815e+01   6.8472945416e+01    0.4460152    0.2065592  37.70   0.00209329    2.571    0.611
       217 -10.3486    200.4392     45.1022   1.6217381086e+01   2.8966518876e+01     0.357546    0.2309718  77.48  0.001168887    1.669    0.401
       218  -9.3358    162.2279     44.3927   2.1676058250e+01   3.8701362392e+01    0.2148272     0.141068  78.63 0.0009524045    1.694    0.410
       219 -10.8189    116.1541     48.8478   3.3281712171e+01   4.9741639964e+01    0.5955765    0.3887006  37.80   0.00265323    1.649    0.394
       220  -9.6792      4.8462     43.0078   7.8532355559e+01   6.8472578826e+01    0.3805881    0.1076849 -47.17  0.001296339    2.676    0.626
       221  -9.7730     12.0318     30.1063   7.0529874179e+01   7.0886030881e+01    0.4393628    0.1819232 -40.87  0.001588892    2.099    0.524
       222 -11.1657      4.2099     35.9826   7.7065826562e+01   7.0078368753e+01    0.4468375    0.3181436 -36.87  0.002538002    1.247    0.198
       223 -10.3281      7.2916     30.4833   7.3565739791e+01   7.1111239248e+01    0.4569325    0.2010226 -27.09   0.00212829    2.566    0.610
       224 -10.4454    155.7449     42.5592   2.2227973069e+01   4.0645038928e+01    0.3990597     0.271642  45.72  0.001471157    1.539    0.350
       225  -9.4718     91.9804     41.6772   3.7674585675e+01   5.6546555109e+01    0.3616511    0.2319265  75.39  0.001452268    2.614    0.617
       226  -9.4070     17.7812     41.1126   7.0885084591e+01   6.8082645222e+01    0.2566513    0.1326024 -44.69  0.001315163    1.638    0.390
       227  -9.4121    231.5143     38.1043   1.1003061924e+01   2.2684288516e+01    0.2918907    0.1707689 -22.89  0.001456538    1.801    0.445
       228  -9.4623    188.9641     39.5471   1.6132422324e+01   3.2528997781e+01    0.2369804    0.1775945 -35.02 0.0006780789    1.294    0.227
       229  -9.6684      2.1014     49.2048   8.1384316215e+01   6.7178844505e+01    0.1825048    0.1673588  21.54  0.000812657    1.318    0.241
       230 -10.6316     80.1326     39.0423   4.0685135021e+01   5.9509303510e+01    0.4664139    0.3515241  81.29  0.001911879    2.056    0.514
       231 -11.3601     78.9480     33.8226   3.8825959342e+01   6.0627558048e+01    0.6199844    0.3405316  34.13  0.002690377    2.015    0.504
       232  -9.8377     59.8162     23.8209   4.1753295729e+01   6.5951734265e+01     0.350792    0.1844212 -44.97  0.001249379    2.115    0.527
       233 -10.0165    174.6405    247.1087   6.3746179135e+01   1.9708403214e+00    0.2127908    0.1260412  37.74  0.001347734    1.377    0.274
       234 -10.1914     68.8704     33.2483   4.2457077695e+01   6.2721194060e+01    0.5596905    0.4055334  71.23   0.00268687    2.167    0.538
       235 -11.4840     57.3311     31.1310   4.6424129717e+01   6.5168091556e+01    0.5027783    0.3342311 -38.80  0.001267585    1.448    0.309
       236 -11.4137     48.6493     30.6562   5.0295990736e+01   6.6658949842e+01    0.7366749     0.305562  32.69  0.003043673    2.648    0.622
       237 -10.1868     43.0096     28.2174   5.1988839920e+01   6.7941532289e+01    0.1963053    0.1680839 -18.21            0    1.029    0.028
       238  -9.3066     35.3783     38.1510   6.0317190076e+01   6.7000630395e+01    0.1866196    0.1185127 -60.92 0.0009486135    1.759    0.432
       239  -9.1855    206.2909     37.4332   1.3421389507e+01   2.8554708699e+01    0.1766665    0.1276806 -88.32 0.0004396838    1.454    0.312
       240 -10.9862    176.1383     34.4208   1.6358846754e+01   3.6449531740e+01    0.6994894    0.3117393 -42.25  0.002242093    2.141    0.533
       241 -10.2009    170.1158     30.6829   1.6055160032e+01   3.8477618772e+01    0.4049682    0.2624902 -39.22 0.0008587798    1.501    0.334
       242  -9.3737    132.4023     36.9258   2.4888315661e+01   4.7501978335e+01    0.3169353    0.1760037 -75.16  0.001038706    3.554    0.719
       243  -8.9802     94.6117     36.3019   3.4572289138e+01   5.6836168099e+01    0.1482635    0.1157482 -80.30 0.0007015133    1.795    0.443
       244 -11.8324    160.0228     29.7707   1.7274894857e+01   4.1227636661e+01    0.4077443    0.3797411 -20.17 0.0005102496    1.163    0.140
       245 -11.8039    126.3183    242.0446   7.2241650829e+01   9.4422947681e+00    0.3872975    0.2858558 -61.53  0.002647389    1.782    0.439
       246 -10.1054     47.3956    242.7934   8.7547204888e+01   1.9510091067e+01    0.1342878    0.0948628 -68.96 0.0009588295    1.726    0.421
       247 -10.4187    131.6438    240.8500   7.1080808880e+01   8.8693211914e+00    0.2168833    0.1313493  30.60  0.001309865    1.402    0.287
       248 -11.5354    106.2772     32.6906   2.9612095573e+01   5.4648409558e+01    0.5403684    0.3523779  18.41   0.00173136    2.058    0.514
       249 -11.2271    147.2327    238.1235   6.7756575385e+01   7.0414817785e+00    0.3998906     0.261118  43.71  0.002354724    1.338    0.252
       250  -9.7486    138.3409     32.7242   2.2121275675e+01   4.6537032957e+01    0.4096517    0.1971444  59.26  0.001649307    1.937    0.484
       251 -10.2136    240.5937     32.1362   8.7696405021e+00   2.1446332848e+01    0.2709557    0.1809259  61.02  0.001550384    1.692    0.409
       252 -10.8502    188.9465     28.4130   1.2903717137e+01   3.3930242370e+01    0.5366748    0.3376593   0.60  0.002361914    2.396    0.583
       253 -10.6866     32.5365     31.1544   5.8944185303e+01   6.8747848002e+01    0.2408718    0.1974395 -37.97 0.0002967865    1.094    0.086
       254 -10.5257    167.0891    238.0075   6.3971769966e+01   4.2093134675e+00    0.1886497    0.1648823 -26.40 0.0008433809    1.391    0.281
       255  -8.8346    112.6673    238.6588   7.4553909537e+01   1.1875450380e+01    0.1123923   0.08569717   6.32 0.0007051279    1.751    0.429
       256  -9.8270    200.0246    234.7800   5.7517958377e+01  -2.3035844189e-03    0.1543014   0.07530415  34.19 0.0008668809    1.655    0.396
       257  -9.0853     15.4061    233.7857   9.3111276879e+01   2.4446262892e+01    0.1316174   0.08659948 -75.21 0.0009426121    1.701    0.412
       258  -8.8173    205.6472    233.7053   5.6372265916e+01  -6.4071047674e-01    0.1197883   0.07154889  10.98 0.0004871596    1.685    0.406
       259 -11.3874     69.2529    239.9511   8.3183558820e+01   1.7404976698e+01    0.4563361     0.283529   8.02  0.002309465    3.346    0.701
       260  -9.5173    247.4556    231.5079   4.9086691424e+01  -5.7664720942e+00    0.1091047   0.07814316   7.44 4.385142e-05    1.010    0.010
       261  -8.7966    181.3047    228.3312   5.9997024821e+01   3.4621855013e+00     0.120643   0.07942208   7.58 0.0005221654    1.657    0.397
       262 -11.9181    126.0460     28.3742   2.3039762155e+01   5.0292500255e+01    0.5558176    0.4334557  76.09   0.00283167    1.339    0.253
       263 -10.9712    153.0403     36.1722   2.0576951038e+01   4.2232354783e+01    0.2984125    0.2530908 -37.22  0.001579418    1.197    0.164
       264 -10.1674    198.7209     28.6170   1.1845176243e+01   3.1474653407e+01    0.3758759    0.1867763  52.63  0.001645403    2.182    0.542
       265  -9.9617    147.9186     28.3352   1.8781628951e+01   4.4588843757e+01    0.3802581    0.2975012  89.10  0.001082771    1.339    0.253
       266 -10.7752    143.7713     24.7057   1.8220629658e+01   4.6122308520e+01    0.3730987     0.321445 -69.56  0.001756895    1.199    0.166
       267  -8.9534    197.0033    228.0000   5.7071904320e+01   1.2562913212e+00    0.1898566   0.05472333  37.06 0.0007141918    2.871    0.652
       268  -9.3689     69.3482    225.3066   8.2055988384e+01   1.9965902838e+01    0.1054481   0.09048018  -0.93 0.0007042811    1.702    0.413
       269  -8.7971     75.6861    224.3188   8.0672976068e+01   1.9331607744e+01    0.1264508   0.07143977  59.07 0.0007037836    1.650    0.394
       270 -10.7751    183.4798     25.6949   1.2761401791e+01   3.5636887087e+01    0.3836668    0.2834399 -40.64  0.001608298    1.299    0.230
       271  -9.4492    187.4766     22.9794   1.1492806776e+01   3.4936741807e+01    0.2169887    0.1854885  43.03 0.0005992714    1.337    0.252
       272  -9.8358    230.8198     27.1132   8.3744998783e+00   2.4148040301e+01    0.2068239    0.1510543 -59.66 0.0006485857    1.230    0.187
       273  -9.2185     97.2670     26.0077   2.9296822250e+01   5.7733275667e+01    0.1838221     0.124538 -27.24 0.0008889562    1.522    0.343
       274 -10.4922    148.6836     22.5872   1.6643328103e+01   4.5075523441e+01    0.4153891    0.1970003  60.51  0.001195265    1.920    0.479
       275  -9.9812    154.9563     23.6791   1.6025026143e+01   4.3293805946e+01    0.4873128    0.3302667 -42.52  0.002032298    1.482    0.325
       276  -9.4698    212.6952     24.1642   9.2280796766e+00   2.8628967937e+01    0.2254301    0.1446666 -47.63  0.001047743    1.389    0.280
       277  -9.9541     90.7498     23.3296   3.0039858398e+01   5.9610178271e+01    0.2789232    0.2510691  48.54  0.001508027    1.101    0.092
       278  -9.3789    233.9478    223.4993   5.0011766966e+01  -3.2244712633e+00    0.1642266   0.09005679  29.89 0.0004793461    1.539    0.350
       279  -9.7429     47.2099     19.4954   4.5443538844e+01   6.8807080120e+01    0.3082808    0.1784876 -27.66  0.001545713    1.727    0.421
       280  -9.5150     49.6542    222.6652   8.5883036461e+01   2.2846380548e+01    0.1019071   0.08930128 -20.85 0.0002217592    1.770    0.435
       281 -10.3934     38.5634     22.4379   5.1519932061e+01   6.9609867323e+01    0.2426013    0.1958812 -13.67 0.0006453026    1.127    0.113
       282  -9.1234    153.4446    219.4766   6.4130808946e+01   8.9001282289e+00    0.1244769     0.101879  30.12 8.877098e-05    1.006    0.006
       283  -9.2849    223.5126     22.3399   7.8056051984e+00   2.6330753839e+01    0.2020552    0.1171271  76.37 0.0003674488    1.775    0.437
       284  -9.2308      5.0782     22.0734   7.2057276443e+01   7.3014928790e+01    0.1604032    0.1378427  65.72 0.0005346733    1.591    0.371
       285  -9.3194    216.4229     20.7513   8.0063947512e+00   2.8140869458e+01    0.1720025    0.1251781 -16.93  0.000819532    1.578    0.366
       286  -9.4075    143.7646    215.2674   6.5510665139e+01   1.1056142867e+01    0.1765144   0.09623718 -36.44 0.0008839831    2.390    0.582
       287  -9.3093    164.6683    211.9618   6.0814685543e+01   8.3217565056e+00    0.1638973    0.1464505  19.20  0.000421884    1.098    0.089
       288  -9.3111     61.3460    206.5708   8.2210946666e+01   2.4538402519e+01    0.1538325    0.1079894  31.07 0.0008493696    1.471    0.320
       289 -10.9041    246.5411     19.6489   5.4219519504e+00   2.1618469552e+01    0.2469798    0.1902869  15.60   0.00147832    1.907    0.476
       290 -10.1599    236.0178     20.0228   6.2560863415e+00   2.3811656445e+01     0.190243    0.1636597 -53.54 0.0003574947    1.049    0.047
       291 -11.6127    238.7147     16.9307   5.3322937663e+00   2.3568081073e+01    0.3251334    0.2315043  88.82  0.001685138    1.419    0.295
       292  -9.0406      1.4732     20.5200   7.3931743327e+01   7.3533718746e+01    0.1219997   0.09275251 -41.37 0.0003111341    1.047    0.045
       293  -9.8038     16.5095    205.4768   9.1724058159e+01   2.9687597037e+01    0.1134999   0.08753005  65.23 6.618479e-05    1.038    0.036
       294 -11.0166      5.8769    198.9803   9.3654172157e+01   3.1955834187e+01    0.3777008    0.1036147 -69.10  0.001707271    3.434    0.709
       295  -9.6285     78.3731    203.8517   7.8202015567e+01   2.2852211578e+01    0.2149939    0.1397594  48.53 0.0004950129    1.283    0.221
       296  -9.0431    205.8261     17.3679   8.0571867104e+00   3.1026282334e+01    0.1855619    0.1131786  62.92 0.0007119401    1.673    0.402
       297  -9.2381    198.9959     17.4938   8.7292695765e+00   3.2675031386e+01    0.1946412    0.1266491  75.62 0.0004941217    1.501    0.334
       298  -9.3487    120.3499     16.1215   1.9382692367e+01   5.3217628908e+01    0.2981682    0.1875903  19.77   0.00116873    2.056    0.514
       299  -9.0851      1.3341    200.3007   9.4642371989e+01   3.2075354840e+01   0.09593432   0.08089827 -54.59 0.0004722899    1.655    0.396
       300  -9.6174    187.0023     15.0706   9.2382517466e+00   3.5926517922e+01     0.209012     0.193062 -83.63 0.0007131105    1.053    0.050
       301  -9.6898    233.8541    196.8616   4.5605883030e+01  -5.6855096445e-02    0.2052908    0.1447732 -27.05   0.00104113    1.409    0.290
       302 -12.1187      4.4488    184.0327   9.3344275244e+01   3.5176669460e+01    0.5790665    0.3555083  85.30  0.002792486    1.359    0.264
       303  -9.7101     28.1858    175.8882   8.7396430183e+01   3.4798991184e+01    0.1937201    0.1369952  68.00 0.0006163458    1.186    0.157
       304  -9.8084     51.7453    173.1922   8.1387018266e+01   3.2813455029e+01    0.4352916    0.1764346 -89.10  0.001600802    3.619    0.724
       305  -9.1849     39.3954    173.7755   8.4503082144e+01   3.4100642908e+01    0.1672048    0.1063975 -67.98 0.0006149326    1.566    0.361
       306 -12.6888     10.5770    164.1157   9.0909147107e+01   3.9045241811e+01     1.120445    0.6308565 -43.34  0.005903657    2.575    0.612
       307 -12.5631     22.6623    149.3702   8.6745894411e+01   4.1432440192e+01    0.5749164    0.3485619 -39.18  0.002139095    2.311    0.567
       308 -10.9358     16.5012    147.7080   8.8278695801e+01   4.2359600250e+01    0.3192672     0.250606  44.87  0.001642642    1.289    0.224
       309 -10.5248     19.0066    165.0564   8.8882472765e+01   3.8108585272e+01     0.311403    0.2511072  15.18  0.002033498    1.609    0.379
       310  -9.9566    205.0115    163.1900   4.4358931231e+01   9.2429495883e+00    0.2249472    0.1776546 -19.32 0.0006151719    1.201    0.167
       311  -9.5080     65.7299     10.4563   3.2204144013e+01   6.6694746916e+01    0.2285219    0.1277666  54.90  0.000717418    1.879    0.468
       312 -10.7012     28.0536    161.5061   8.6328385800e+01   3.8078595707e+01    0.3347918    0.2589745 -69.91   0.00178377    1.307    0.235
       313  -9.5227     38.0070    160.5023   8.3659184098e+01   3.7294791190e+01    0.2031282    0.1599447 -86.23  0.001248174    1.151    0.131
       314 -10.7283      9.2313    155.5866   9.0733846930e+01   4.1103219875e+01    0.2461962    0.2077831 -87.07  0.001236738    1.142    0.125
       315  -9.6246    104.3265    155.1341   6.5343545219e+01   2.9267630784e+01    0.2435426    0.1979564  29.53  0.001166383    1.290    0.225
       316 -10.4003     30.5288    152.3166   8.4879458669e+01   3.9991980084e+01    0.3152307    0.2269328 -80.74   0.00154531    1.246    0.197
       317 -10.5418      3.8151    153.4440   9.1992131659e+01   4.2006273268e+01    0.2858443    0.1549192  50.23  0.001333636    1.639    0.390
       318  -9.7152     62.1793    151.6913   7.6148689543e+01   3.6495033053e+01    0.2718511     0.210465 -14.65  0.001156018    1.889    0.471
       319 -11.2963     47.6265    146.8317   7.9579770757e+01   3.9472736052e+01    0.6324136    0.3978717 -43.37  0.003166137    1.992    0.498
       320 -11.9125     12.5884    136.5404   8.8489946325e+01   4.5339456300e+01     1.347881    0.4720497 -63.67  0.005962321    2.458    0.593
       321 -10.9103      5.9166    142.6497   9.0786362341e+01   4.4372986012e+01    0.3040814    0.2000726  67.64 0.0008750088    1.325    0.245
       322 -11.0011      2.1218    141.4004   9.1736542569e+01   4.4929652466e+01    0.4327116    0.1664072 -80.88  0.002035734    2.171    0.539
       323  -9.3783    104.4592    147.4495   6.3930928482e+01   3.0982394647e+01     0.146451     0.134353  65.44 2.622317e-05    1.049    0.047
       324  -8.8873     74.4064    145.7968   7.1888668836e+01   3.6203772823e+01    0.1865668    0.1255163 -54.44 0.0004530491    1.532    0.347
       325 -10.8891     33.0492    144.2411   8.3395639210e+01   4.1677374722e+01    0.2950892    0.2480621  72.31 0.0008417857    1.058    0.055
       326 -10.5288     40.2007    138.1492   8.0659781516e+01   4.2420069944e+01      0.34009    0.2329003 -81.41  0.001363398    1.339    0.253
       327  -8.4018    227.6761    140.2847   3.5643420695e+01   8.7630062290e+00     0.120455    0.1042866 -63.82 0.0003865694    1.599    0.375
       328  -9.0266    217.5585    138.8195   3.7016374076e+01   1.0811601398e+01    0.1798479    0.1194072 -42.00 0.0003682148    1.551    0.355
       329 -10.4178     80.4052    138.4515   6.8968716419e+01   3.7065735067e+01    0.2963904    0.2201465  50.20 0.0008225848    1.311    0.237
       330 -10.0178     32.0763    137.9038   8.3002592209e+01   4.3315080872e+01    0.3184748    0.2129321  40.86   0.00081419    1.491    0.329
       331 -11.6295     23.5151    136.6562   8.5361002397e+01   4.4415780053e+01     0.543353    0.3626482  49.19 0.0007071937    1.447    0.309
       332 -10.7055     30.1340    132.8554   8.3019605406e+01   4.4741201047e+01    0.3423409    0.2780154 -37.61 0.0009477229    1.508    0.337
       333  -9.4319     47.4440    134.6832   7.8073516678e+01   4.2463624750e+01    0.2826922    0.1229064 -69.22  0.001145804    2.135    0.532
       334  -9.6295     39.4771    133.4751   8.0299006225e+01   4.3648121560e+01    0.2352564     0.131299  28.05  0.000565363    1.952    0.488
       335  -8.9766    103.9162    131.0547   6.0850648070e+01   3.4863330270e+01    0.1747626    0.1649442 -77.28 0.0005519437    1.056    0.053
       336 -10.4791      2.9950    148.1817   9.1905064897e+01   4.3282857540e+01    0.3607645      0.22143  51.48  0.002179898    1.478    0.324
       337  -8.7553     92.9700    129.4862   6.3647317650e+01   3.7168150559e+01    0.2200484    0.1137285  57.64 0.0008099867    2.529    0.605
