#   1 NUMBER                 Running object number                                     
#   2 MAG_AUTO               Kron-like elliptical aperture magnitude                    [mag]
#   3 X_IMAGE                Object position along x                                    [pixel]
#   4 Y_IMAGE                Object position along y                                    [pixel]
#   5 X_WORLD                Barycenter position along world x axis                     [deg]
#   6 Y_WORLD                Barycenter position along world y axis                     [deg]
#   7 A_WORLD                Profile RMS along major axis (world units)                 [deg]
#   8 B_WORLD                Profile RMS along minor axis (world units)                 [deg]
#   9 THETA_WORLD            Position angle (CCW/world-x)                               [deg]
#  10 FWHM_WORLD             FWHM assuming a gaussian core                              [deg]
#  11 ELONGATION             A_IMAGE/B_IMAGE                                           
#  12 ELLIPTICITY            1 - B_IMAGE/A_IMAGE                                       
         1 -16.0132    244.1766     23.1595   3.5133774272e+02   2.3832685266e+01     11.80772     3.012842 -28.62   0.04574205    4.021    0.751
         2 -18.0314    229.1840    160.2733   2.0968347268e+01   7.4863531597e+00     4.701372     2.439252 -14.17   0.02208176    2.735    0.634
         3 -15.3941    121.4530     95.1205   2.7574055338e+01   3.9359643219e+01     2.018655     1.365809 -44.10  0.009059782    1.479    0.324
         4 -16.6221    156.5215    159.9881   3.4239404435e+01   1.8744729413e+01      6.05352     3.707414 -36.67   0.02919967    1.645    0.392
         5 -11.6463    129.8873    112.3090   2.9957423614e+01   3.3808673102e+01    0.3063823    0.2314507 -56.16 0.0007634827    1.369    0.270
         6 -10.2714    138.3437    248.4952   5.1761530444e+01   5.7822620297e+00    0.2911377    0.1510959 -56.58  0.001597058    2.716    0.632
         7 -10.8241    130.1363    236.1605   5.2034148337e+01   8.7086898022e+00    0.2843685    0.1778709  -6.63  0.001533621    2.043    0.510
         8 -12.2883    129.5108    246.7119   5.3387529136e+01   7.1061291600e+00    0.6884517    0.4615705  67.92  0.003771872    2.783    0.641
         9 -11.1820    131.7166    243.3039   5.2537667730e+01   7.3717944611e+00    0.3016222    0.2305735  87.82  0.001052081    2.284    0.562
        10  -9.8405    164.5845    247.8044   4.6451136674e+01   2.8285483639e+00    0.1689204    0.1566243 -53.80  0.001284636    1.668    0.401
        11 -15.9241    218.3468    135.4786   1.7801025087e+01   1.2805911415e+01      1.17828    0.7141715 -28.78  0.006525193    1.484    0.326
        12 -17.4037    205.6370    151.2756   2.2981483841e+01   1.2261594001e+01     3.251248     1.757229 -17.04   0.01444889    2.611    0.617
        13 -10.3954    127.1541    226.3977   5.1489255944e+01   1.0725543578e+01    0.2074609     0.196648 -77.25  0.001435581    1.385    0.278
        14 -10.9633    147.8815    221.7567   4.6391062199e+01   8.8036320805e+00    0.4073235    0.2369445 -36.55  0.002248008    1.876    0.467
        15  -9.8052    156.4992    247.3872   4.7977330955e+01   3.8160545112e+00    0.1936111    0.1103114 -42.92 0.0009150272    2.039    0.510
        16  -9.3356    225.3930    239.7638   3.4564404828e+01  -2.6206382424e+00    0.1765108   0.08741817 -36.75  0.001118938    2.063    0.515
        17 -10.4542    120.1228    226.7104   5.3090862951e+01   1.1583891860e+01    0.1919579    0.1761449 -88.50 0.0008838388    1.429    0.300
        18 -16.8293    225.8041    146.5630   1.8878895768e+01   9.9885330701e+00      1.57642    0.9948599   3.91  0.008467198    2.187    0.543
        19 -11.9687    135.8207    217.1549   4.8365473623e+01   1.1184277274e+01    0.4186102    0.2519637 -38.18  0.002270693    1.849    0.459
        20  -9.9064    245.6148    238.0013   3.1179532266e+01  -4.3164138639e+00    0.3717557    0.1250459  38.02  0.001785591    4.613    0.783
        21  -9.3887    188.1452    241.3983   4.1182745022e+01   1.0481599497e+00     0.153199   0.08589683  34.25 0.0009324634    1.785    0.440
        22 -11.6311    133.1555    210.0129   4.7968060844e+01   1.2821772407e+01     0.314448    0.2402357 -71.65  0.001795797    1.867    0.464
        23  -9.8606    232.8521    237.3711   3.3039856869e+01  -3.0631065639e+00     0.224794    0.1352527 -31.03  0.001615801    1.593    0.372
        24 -10.9045    119.1971    198.6591   4.9602236871e+01   1.6965755138e+01    0.2644089    0.2266655 -57.59  0.000678152    1.352    0.260
        25  -9.2145    134.6076    237.7542   5.1273531166e+01   7.8957090207e+00     0.137763    0.1205644 -66.10 0.0008023899    1.596    0.374
        26 -16.2871    230.2071    110.2670   1.0982032258e+01   1.4767763054e+01     4.694086      1.22535  47.23   0.01783598    4.642    0.785
        27 -16.2811    235.0915    128.8136   1.4102782185e+01   1.1270506455e+01     1.650594     1.172718  76.27  0.009504527    2.522    0.603
        28  -9.0678    140.0000    235.9488   4.9916190650e+01   7.5143999624e+00    0.1669803   0.06922263 -50.62 0.0007309958    2.885    0.653
        29 -11.1051    159.6733    239.9695   4.6411810915e+01   4.5111236269e+00     0.237163    0.2067188 -26.96  0.000681317    1.358    0.264
        30  -9.9179    170.3737    233.2386   4.3411247121e+01   4.2140284283e+00    0.3834114    0.1496474 -37.47  0.001870794    2.752    0.637
        31  -9.7610    183.0946    232.2886   4.0851919806e+01   2.8499967312e+00    0.1830656     0.132569 -14.27 0.0005040067    1.254    0.203
        32 -16.7912    225.6895    206.8115   2.9548748254e+01   1.4303053595e+00     5.020798     1.809303  31.44    0.0254643    2.790    0.642
        33  -9.9408    158.1393    230.3754   4.5448021286e+01   6.1297670391e+00    0.1957574    0.1661875 -31.37 0.0006163992    1.352    0.260
        34 -10.9621    128.9435    146.4180   3.8059511417e+01   2.6460636224e+01    0.2797036    0.2112225 -67.07 0.0007138622    1.581    0.367
        35 -14.6195    135.4201    127.4896   3.2249579458e+01   2.9372636414e+01     1.918129    0.7593121 -40.92  0.006619214    2.700    0.630
        36 -12.9153    130.3135    118.0260   3.1278469217e+01   3.2471135390e+01    0.6028229    0.4352083  59.71  0.002669716    1.568    0.362
        37 -10.2203    101.0350    138.7621   4.4174200504e+01   3.3319948294e+01    0.2409799    0.2193587 -64.35 0.0003348627    1.131    0.116
        38 -11.3115    153.0466    114.8215   2.5063873126e+01   2.8430397814e+01    0.2578945    0.2499937 -25.85 0.0008350989    1.035    0.034
        39 -11.6030    154.2989    105.6353   2.2495956669e+01   2.9986009222e+01    0.4143866    0.2817205 -31.38  0.001373514    1.575    0.365
        40  -9.5901    143.9939    230.4976   4.8383675185e+01   7.8827516814e+00    0.2013859    0.1777851 -77.29  0.001033125    1.695    0.410
        41 -12.6945    147.3009    111.8668   2.5618817916e+01   3.0225505164e+01    0.4938033    0.4209214  16.26  0.001630305    1.366    0.268
        42 -12.7539    148.0912    105.5255   2.3828372371e+01   3.1338224706e+01    0.6902084    0.4486473 -86.55  0.002611914    2.850    0.649
        43 -15.6130    247.3393    181.1797   2.2034762097e+01   2.3577692737e+00     1.684398    0.5241405 -33.02  0.007937466    2.687    0.628
        44 -13.1831    107.7274    112.2699   3.6107584688e+01   3.8420314801e+01    0.9423286    0.5898328  87.96  0.003164033    3.265    0.694
        45  -9.0831    196.7948    246.6369   4.0342151607e+01  -5.5148920255e-01    0.1946346    0.1592479  55.17  0.001320875    2.531    0.605
        46 -10.0099     78.3306    107.3406   4.4510120813e+01   4.5279911961e+01    0.1637031    0.1234249 -19.67 0.0007051546    1.744    0.427
        47 -13.1857    128.5736    107.2163   2.8981908453e+01   3.5193384225e+01    0.6119545    0.4764659 -16.94  0.002340433    1.634    0.388
        48 -13.3969    140.4697     94.6781   2.2681985134e+01   3.5186728857e+01    0.6164038    0.5302325 -29.83  0.003186166    1.240    0.193
        49 -16.6394    204.1353    133.9585   1.9715682739e+01   1.5338316680e+01     3.014688     1.819905  19.11   0.01426165    2.482    0.597
        50 -10.0197    169.4068     96.8721   1.7243308619e+01   2.8409992821e+01    0.3470587    0.2675064  30.93  0.001776955    1.577    0.366
        51 -10.7093    184.1162     92.1451   1.3499763865e+01   2.6147519241e+01    0.3107269    0.2473052  55.52  0.000375836    1.381    0.276
        52  -9.2297    182.6425     88.6869   1.2880786649e+01   2.7038350731e+01    0.2007985    0.1397863 -24.54 0.0009963075    1.607    0.378
        53 -11.5980     83.8249     88.5962   3.7459872938e+01   4.8876519068e+01    0.5094522    0.1975016 -49.44  0.001712241    2.575    0.612
        54  -9.9994    174.6644     84.6655   1.3178152203e+01   2.9424394203e+01    0.3663329     0.174989 -33.79  0.001260781    2.106    0.525
        55 -12.3344    116.8017    109.6543   3.2802700003e+01   3.7153002790e+01    0.5415326    0.3051636 -43.92  0.001265698    1.805    0.446
        56 -11.5869    153.5331     82.7975   1.6565771927e+01   3.4483249759e+01    0.3284093    0.2538883  41.87 0.0002768182    1.447    0.309
        57  -9.9845    210.9551     77.7475   6.2541239974e+00   2.3047628296e+01    0.4985788    0.2969932 -10.36  0.002138376    3.075    0.675
        58 -10.9531    201.0292     78.6523   7.7264325366e+00   2.4868677565e+01    0.2731438    0.1779687 -38.02 0.0001436157    1.345    0.256
        59  -9.2497    175.5353     79.1340   1.1594087644e+01   3.0166327110e+01    0.2088011    0.1279892 -40.77 0.0004978182    1.488    0.328
        60 -11.4563    121.3271    108.4433   3.1232003302e+01   3.6471177080e+01    0.3544258     0.315736 -37.09  0.000467524    1.160    0.138
        61 -13.1610    127.0759     74.8465   2.0090675017e+01   4.2181960248e+01    0.6429076    0.4499739  17.53  0.001641162    2.307    0.566
        62  -9.5127    151.2344    228.9666   4.6671176535e+01   7.2119062828e+00    0.1721505    0.1530743  30.40 0.0007505568    1.283    0.221
        63  -9.1051    170.6380     70.1106   9.9832083482e+00   3.2745486676e+01    0.2052396    0.1309927 -24.80 0.0009399639    1.847    0.459
        64 -11.8634    139.3435     67.1713   1.4913566716e+01   4.0631872482e+01    0.3117023    0.2418036 -44.96  0.001141397    1.260    0.206
        65 -16.5148    229.7946    183.7263   2.5065348691e+01   4.0702945227e+00     1.503346     1.023566 -25.41   0.01009056    1.198    0.165
        66  -9.1476     93.6751     67.6928   2.7265714612e+01   5.1428385291e+01    0.1548451    0.1239676   9.38 0.0007035944    1.649    0.393
        67 -10.2040    227.8270     61.6277   7.8490809832e-01   2.2127360805e+01    0.4283071    0.1554968 -28.73  0.001745804    2.969    0.663
        68  -8.8591    204.2364     64.4055   3.9028128169e+00   2.6336652366e+01    0.1243577   0.09780858  -8.76 0.0003452177    1.680    0.405
        69  -9.2239    207.6111     62.2389   2.9994064181e+00   2.5959158422e+01    0.2920321    0.1224093 -29.32  0.001224667    2.495    0.599
        70 -11.1782    157.4074    111.4175   2.3283643378e+01   2.8199386477e+01    0.3302454    0.2817935  -3.22  0.001404285    1.377    0.274
        71  -9.6433    219.2211     56.3890   4.2920699511e-01   2.4461783998e+01    0.2325805    0.1296714 -27.13   0.00113011    1.871    0.465
        72 -12.1746    126.3945     54.3243   1.3586111603e+01   4.6013497351e+01    0.6099716    0.3762138  -9.83  0.002295942    2.948    0.661
        73 -10.7878     72.7393     88.9919   4.1726646449e+01   5.0897872662e+01    0.3192432     0.224877 -32.10  0.001399278    1.694    0.410
        74  -9.0424    176.4953    246.4947   4.4016398547e+01   1.6643044513e+00    0.1136876   0.08650627  10.47 -0.0001049254    1.038    0.037
        75 -10.6435    206.1523     44.4504   3.5887528618e+02   2.8673568378e+01    0.3628477    0.2617318  -9.28  0.001344158    1.972    0.493
        76  -9.4898    223.3060     40.3269   3.5641939160e+02   2.5735171868e+01    0.2405106    0.1477116 -25.84 0.0008967341    1.742    0.426
        77 -10.0565    224.3650     35.9544   3.5535405237e+02   2.6062366323e+01    0.1952843    0.1490543 -37.67 0.0006413973    1.225    0.184
