#   1 NUMBER                 Running object number                                     
#   2 MAG_AUTO               Kron-like elliptical aperture magnitude                    [mag]
#   3 X_IMAGE                Object position along x                                    [pixel]
#   4 Y_IMAGE                Object position along y                                    [pixel]
#   5 X_WORLD                Barycenter position along world x axis                     [deg]
#   6 Y_WORLD                Barycenter position along world y axis                     [deg]
#   7 A_WORLD                Profile RMS along major axis (world units)                 [deg]
#   8 B_WORLD                Profile RMS along minor axis (world units)                 [deg]
#   9 THETA_WORLD            Position angle (CCW/world-x)                               [deg]
#  10 FWHM_WORLD             FWHM assuming a gaussian core                              [deg]
#  11 ELONGATION             A_IMAGE/B_IMAGE                                           
#  12 ELLIPTICITY            1 - B_IMAGE/A_IMAGE                                       
         1 -14.6035     68.3425    144.2661   1.0475966370e+02   3.7249415305e+01     4.926548     2.590762  75.37    0.0111232    3.610    0.723
         2 -13.9000    221.9891     19.2963   3.8243763333e+01   2.7695708508e+01      0.96164    0.8858191  39.35  0.002676676    1.388    0.280
         3 -13.5164    197.8789     41.1881   4.6460316194e+01   3.0653609687e+01     1.398521    0.8746015  31.04  0.003008157    2.404    0.584
         4 -14.1586    206.5886     35.2264   4.3795060889e+01   2.9345161291e+01     1.826238     1.518536  19.05  0.007487606    1.602    0.376
         5 -11.2422      2.4067      3.2746   9.0236349832e+01   7.3993184703e+01    0.3958584    0.1586933 -37.89  0.002234487    1.927    0.481
         6 -10.5895     51.3886      3.8997   6.6069105383e+01   6.7895198504e+01      0.21625    0.1604427  40.57 0.0006316693    1.403    0.287
         7 -10.6793     46.6854      2.0987   6.7015711163e+01   6.8839906756e+01    0.2546043    0.1613226  50.56  0.001171464    1.953    0.488
         8 -11.4317    244.5267      1.8549   3.2618412693e+01   2.4674263923e+01    0.5484225    0.1730183  76.09  0.002281718    3.055    0.673
         9  -9.9881     38.1203    215.9242   1.2022994592e+02   2.4492332609e+01    0.1900281    0.1229683  68.81 0.0005820527    1.296    0.228
        10 -14.4677     49.4160    220.0630   1.1835892485e+02   2.2310041277e+01     2.256859     1.166488  81.27   0.01184265    2.061    0.515
        11 -14.6209     84.8876    228.1893   1.1211416475e+02   1.5983242760e+01     3.260223     1.278021  43.32   0.01531064    2.130    0.531
        12 -13.8384      5.7678    186.6193   1.2457608938e+02   3.4012691504e+01     1.071043    0.5157912 -85.99  0.001207652    1.704    0.413
        13 -13.6361     24.0982    225.1680   1.2350888028e+02   2.4161910524e+01     1.137965    0.4759603  69.56  0.005839549    2.337    0.572
        14 -15.4681      9.9566    150.0014   1.2075650467e+02   4.2042819974e+01     4.837426     1.469067 -81.55    0.0182042    3.334    0.700
        15 -13.1719     36.2850    205.7915   1.1979470857e+02   2.6828379528e+01    0.4482582    0.3831533 -49.78   0.00143792    1.591    0.371
        16 -15.2801     44.2898    195.8533   1.1726530905e+02   2.8074843644e+01     3.930765     1.437573  53.91   0.01689949    2.749    0.636
        17 -10.2547    210.0171    199.8722   8.2263640453e+01   5.5286147271e-01    0.2179268    0.1791494 -23.81 0.0004900446    1.191    0.160
        18 -11.3811    193.3165    195.1059   8.4630689306e+01   4.2130064524e+00    0.8779088    0.4677224 -63.15  0.002692566    5.742    0.826
        19  -9.9800    111.0310    196.1772   1.0254617053e+02   1.8512291938e+01    0.3321394     0.192427 -80.30  0.001412841    2.535    0.606
        20  -9.3154     72.0886    188.2711   1.1029115598e+02   2.6220797880e+01    0.1815585    0.1503665  68.07 0.0004864192    1.089    0.082
        21  -8.9272     69.6349    183.8488   1.1029677367e+02   2.7570697376e+01    0.1823368    0.1149111 -82.03 0.0003912696    1.612    0.379
        22  -9.9798    146.3073    182.0650   9.2192520647e+01   1.5294483431e+01    0.2005477    0.1938487 -53.19 0.0005913632    1.083    0.076
        23  -9.5308     99.4623    180.8801   1.0287458270e+02   2.3779249304e+01    0.2091978    0.1802303  49.03 0.0005956062    1.134    0.118
        24 -12.0715     63.3983    178.3299   1.1105242451e+02   2.9691144998e+01    0.4180826    0.2941925 -34.65  0.001609491    2.048    0.512
        25 -11.9231     68.2815    173.0944   1.0919900157e+02   3.0265170006e+01    0.3222827    0.2627764 -38.81 0.0006630925    1.533    0.348
        26  -9.5617    113.1624    207.5910   1.0372757015e+02   1.5783709926e+01    0.2120977    0.1726307 -86.47 0.0006605021    1.324    0.245
        27 -11.2941     39.7813    176.0804   1.1629571288e+02   3.3085274098e+01    0.4044197    0.2033585 -48.05    0.0015818    2.486    0.598
        28 -13.6366     65.2533    159.2972   1.0798174060e+02   3.3984003264e+01    0.5818389    0.4531494 -45.28  0.002331818    1.444    0.307
        29 -12.6801     84.6432    156.9161   1.0261315752e+02   3.1770290159e+01      1.12629    0.7733416 -54.68  0.001440641    1.408    0.290
        30  -8.8458    108.6556    203.3040   1.0410683636e+02   1.7396060942e+01     0.142402   0.09511878  67.09 0.0007040644    1.687    0.407
        31  -9.8754    174.8217    148.9331   7.8898682684e+01   1.6573560075e+01    0.2787053    0.2152007 -61.86 0.0006140551    1.539    0.350
        32 -10.4180    139.0713    171.3179   9.1815913376e+01   1.8935967929e+01    0.4244355    0.2074157  52.88  0.001606337    2.419    0.587
        33 -11.0769     32.4946    144.1254   1.1437894715e+02   4.1492851177e+01    0.3830441    0.1675398  43.40  0.001770014    2.412    0.585
        34 -10.7838    100.0604    141.3190   9.5580651587e+01   3.3037390867e+01    0.5711226    0.3547843 -26.68  0.002257684    2.511    0.602
        35 -12.3812     87.0173    141.2456   9.9105054770e+01   3.5221826161e+01     0.300539    0.2514944 -51.01 0.0004137517    1.172    0.147
        36  -9.8048    159.6106    135.6578   7.9206556428e+01   2.2576384013e+01    0.2554204    0.2296478 -72.23 0.0003809265    1.234    0.190
        37 -10.3238    109.7673    131.4087   9.0786533318e+01   3.3678889960e+01     0.387071     0.294387   6.25   0.00103851    1.807    0.447
        38 -10.3618    106.3288    131.3231   9.1704711720e+01   3.4332464214e+01      0.35299    0.2580834 -59.00  0.001651598    1.347    0.258
        39 -11.9965     77.7595    163.4634   1.0544648393e+02   3.1222774960e+01    0.4870468    0.3570771  56.72 0.0003340547    1.376    0.273
        40 -10.5472    135.5960    124.2593   8.2237312825e+01   3.0208953432e+01    0.3746071    0.1509046 -51.83  0.001134738    2.684    0.627
        41 -10.0022    160.7038    128.1166   7.7105195285e+01   2.3955779016e+01     0.265441    0.2012555 -60.42  0.001211088    1.486    0.327
        42 -10.7339     97.1001    127.4645   9.3391975781e+01   3.6905417015e+01    0.2930648    0.2445215 -29.16 0.0005997372    1.333    0.250
        43  -9.2098     78.7487    128.3814   9.8829116381e+01   3.9669251982e+01    0.1899454    0.1434971  19.02  0.000699296    1.632    0.387
        44  -9.1021    125.6825    127.3479   8.5568020170e+01   3.1545814424e+01    0.1616324    0.1242569 -89.90 0.0007048259    1.729    0.422
        45 -10.3286    116.3900    125.7200   8.7648406965e+01   3.3765619627e+01    0.3889687    0.2414513 -60.58  0.001622735    1.773    0.436
        46  -9.8685    106.9115    119.8557   8.8829215549e+01   3.6955361175e+01    0.2187245    0.2077476 -48.33   0.00032424    1.016    0.015
        47 -10.4929     62.1630    200.6334   1.1391714189e+02   2.4805783520e+01    0.2342085    0.1607429 -87.62 0.0005855119    1.377    0.274
        48  -9.5832    168.0407    112.9995   7.1566094031e+01   2.5481151091e+01    0.2589501    0.1962659 -77.46  0.001134077    1.779    0.438
        49  -9.8267    158.9242    161.7827   8.5286678986e+01   1.7128487446e+01    0.4143036    0.2837942  79.50   0.00166222    2.536    0.606
        50 -10.5921    244.5049    110.4859   5.7039281575e+01   9.4037257167e+00     0.140065    0.1203603 -37.83 0.0002692113    1.020    0.019
        51 -10.1205    205.4883    110.1871   6.3323169454e+01   1.7573677512e+01    0.3085487    0.2180544  41.53 0.0009015217    1.551    0.355
        52 -10.5529     36.3379    162.1027   1.1557987525e+02   3.6757877386e+01    0.2571575    0.1934841   0.39  0.001464419    2.030    0.507
        53 -15.5045     65.3797    247.5857   1.1758670916e+02   1.4999238650e+01     9.499253      2.79532  29.53   0.02223543   12.210    0.918
        54 -10.3354    134.6960    106.4907   7.7792220648e+01   3.4344239909e+01    0.2918299    0.1401762 -43.60  0.001072652    2.020    0.505
        55 -11.5966     32.0565    155.8669   1.1591901233e+02   3.8691662421e+01    0.3803685    0.2917243 -73.79  0.001783577    1.112    0.101
        56 -10.8443    133.6606    144.0823   8.7440572022e+01   2.6090082631e+01     1.322505    0.2927873 -54.27  0.002526806    8.456    0.882
        57 -10.0352    241.3343    101.6734   5.5470282730e+01   1.1490249372e+01    0.1443703   0.09967256 -62.62 0.0007051556    1.717    0.418
        58 -10.7024     53.0568     90.7880   9.8338752640e+01   5.2253210865e+01    0.3247309    0.1716127 -51.01  0.001483357    1.608    0.378
        59 -10.1041     41.7447     91.8831   1.0250386590e+02   5.3274560430e+01     0.220786    0.1958509 -66.28 0.0004134583    1.129    0.114
        60 -14.7895      9.7036    207.1943   1.2508749281e+02   2.9257085040e+01     1.072116    0.9856579  -0.05  0.003284351    1.739    0.425
        61 -10.1303    244.3227     89.3170   5.2195528100e+01   1.2901746472e+01    0.1328372    0.1056594   3.79 0.0003014516    1.666    0.400
        62 -10.6448    250.1056     87.8779   5.1111803060e+01   1.1971032035e+01    0.2144121    0.1631714 -55.37 0.0006008459    1.257    0.204
        63 -10.2440     72.3954     83.2584   8.9656794754e+01   5.1308024690e+01    0.4645149     0.262538  59.54  0.001756505    3.234    0.691
        64 -11.4130      2.5827     77.0370   1.1337713503e+02   5.9703265415e+01    0.4806708    0.1285463 -66.13  0.001957858    2.763    0.638
        65  -9.6919    159.5197     81.9302   6.4802093898e+01   3.3577270097e+01    0.2367142     0.151017 -35.80 0.0007739006    1.555    0.357
        66  -8.9560     48.8436     62.8220   9.1933946176e+01   5.8917131624e+01    0.1596895    0.1521968 -58.11 0.0002466297    1.267    0.211
        67 -10.6118     13.4402     59.8949   1.0539901987e+02   6.2854157668e+01    0.2517623    0.1849158 -57.26 0.0004462427    1.180    0.153
        68  -8.4509    130.6761    213.2800   1.0079485103e+02   1.1774333227e+01    0.1344362   0.09570477  64.36 0.0002694496    1.590    0.371
        69 -12.3630    214.5574     27.2985   4.0905730908e+01   2.8459826775e+01    0.4718042    0.3758907  42.87  0.001079459    1.550    0.355
        70 -10.7037    170.7895    233.5933   9.5654365707e+01   1.6147696351e+00    0.2153218    0.2076938   7.86 0.0008003433    1.179    0.152
        71  -9.8826     66.4656    194.5077   1.1230257057e+02   2.5587263691e+01    0.2344567    0.1789941  47.47 0.0007531103    1.270    0.212
        72  -9.7829    140.8154     38.2218   5.5058738510e+01   4.5165682592e+01    0.3142487    0.2233094 -67.20 0.0007855857    1.812    0.448
        73  -9.3011    137.4665     35.5697   5.4856019289e+01   4.6328084484e+01    0.2048549    0.1992042 -79.08 0.0005985365    1.092    0.084
        74 -10.2979    137.6606     43.8030   5.7597784127e+01   4.5166606230e+01    0.2632844    0.2259054  85.93 0.0005331758    1.312    0.238
        75 -10.2125    189.8131     15.2736   4.0517854315e+01   3.5744616386e+01    0.2308667    0.1664916 -47.10 0.0008407237    1.361    0.265
        76 -13.9485     32.4592    247.9987   1.2340893446e+02   1.8905453671e+01     1.173155    0.7334406  37.19   0.00796079    1.700    0.412
        77 -12.1756    183.9325    214.8001   9.0048818556e+01   2.4910576694e+00    0.4040159    0.3565987  55.67  0.002508713    1.373    0.272
        78 -15.7121      8.8018    239.3463   1.2694299466e+02   2.2995592287e+01     2.150782     1.375887 -78.69   0.01572888    1.488    0.328
