#   1 NUMBER                 Running object number                                     
#   2 MAG_AUTO               Kron-like elliptical aperture magnitude                    [mag]
#   3 X_IMAGE                Object position along x                                    [pixel]
#   4 Y_IMAGE                Object position along y                                    [pixel]
#   5 X_WORLD                Barycenter position along world x axis                     [deg]
#   6 Y_WORLD                Barycenter position along world y axis                     [deg]
#   7 A_WORLD                Profile RMS along major axis (world units)                 [deg]
#   8 B_WORLD                Profile RMS along minor axis (world units)                 [deg]
#   9 THETA_WORLD            Position angle (CCW/world-x)                               [deg]
#  10 FWHM_WORLD             FWHM assuming a gaussian core                              [deg]
#  11 ELONGATION             A_IMAGE/B_IMAGE                                           
#  12 ELLIPTICITY            1 - B_IMAGE/A_IMAGE                                       
         1 -13.4614    234.2597     26.4252   3.5149004856e+02   2.5225745889e+01    0.7960508     0.614543 -51.46  0.004082199    1.063    0.059
         2  -9.9868    227.2557      9.6986   3.4831175619e+02   2.8353679039e+01    0.1988624    0.1654937 -59.65  0.000730743    1.151    0.131
         3 -10.1783    113.2175    241.9633   5.5033558287e+01   9.7141117646e+00    0.4255695    0.1972364 -35.41  0.001963034    3.088    0.676
         4 -10.5542    139.2373    249.4966   5.0315358788e+01   5.3893708941e+00    0.2269131    0.1482091 -52.77  0.001419503    2.024    0.506
         5 -11.2807    100.4247    247.8155   5.8461921594e+01   1.0270402513e+01    0.5291263    0.3737964 -59.63  0.003386281    1.814    0.449
         6 -12.8591    126.5950    238.1731   5.1668447069e+01   8.6975946157e+00    0.7225869    0.4198374 -27.25  0.003865362    2.198    0.545
         7 -11.6404     88.7361    222.2095   5.8590364557e+01   1.6378164948e+01     1.364631    0.3746123  44.80  0.004629277    3.755    0.734
         8 -11.5920     49.4184    248.5004   6.9959755286e+01   1.5927094754e+01    0.3535424    0.1587343  41.93  0.001888863    1.663    0.399
         9 -15.9072     70.4389    145.6190   5.3609759232e+01   3.6694656506e+01     8.615566     5.073586  82.30   0.02689911    2.503    0.601
        10 -11.4410    105.8319    214.0767   5.3514505120e+01   1.5728805101e+01     0.400072    0.3288945 -61.07  0.001748991    1.455    0.313
        11  -9.0914     59.3576    229.4479   6.6366737658e+01   1.8489472316e+01    0.1217898    0.1052612  35.76 0.0001241109    1.086    0.079
        12 -13.5750    130.5752    229.5419   4.9741958051e+01   9.6393694115e+00     3.590039    0.5498132  31.89   0.01081235    4.824    0.793
        13  -9.8418    210.8196    198.7322   2.9176499767e+01   4.2487576635e+00    0.2012009    0.1578609 -17.21 0.0004526652    1.097    0.089
        14 -10.1130    192.2769    193.5697   3.1606769894e+01   7.3805695306e+00    0.3521063    0.2104343 -65.38  0.001185599    6.629    0.849
        15  -9.1102     74.0266    194.0181   5.9262787088e+01   2.4270804789e+01    0.1616283    0.1470385  46.16 0.0003419236    1.043    0.042
        16 -10.9271     68.2177    192.9572   6.0729289909e+01   2.5273064786e+01    0.2561163    0.2069582  67.04 0.0005264292    1.269    0.212
        17  -9.2939     55.4238    193.7795   6.4337246182e+01   2.6675594939e+01    0.2439536    0.1357364 -80.40  0.001128152    2.059    0.514
        18  -9.0806    234.4767    191.0105   2.4081542265e+01   2.5359911403e+00    0.1641178   0.09028028 -32.80 0.0005355428    1.521    0.342
        19  -9.5712     69.9747    184.8353   5.9308743063e+01   2.6941373815e+01      0.23026    0.1977134  86.39 0.0005661887    1.242    0.195
        20 -18.5134     10.7921    221.7390   7.7657032592e+01   2.4995871444e+01     7.610048     2.827784 -82.85   0.02355138    2.842    0.648
        21  -9.2253     71.5784    223.0282   6.2859178646e+01   1.8345376087e+01    0.1712436    0.1249794 -60.47   0.00100138    1.621    0.383
        22 -10.6019    102.8268    238.2489   5.6965760108e+01   1.1628199895e+01    0.4507767    0.2650298 -54.16  0.001270214    2.059    0.514
        23 -10.9599    179.8149    166.6060   2.9134498331e+01   1.3661025841e+01     0.728438    0.3868407 -41.60  0.003541845    1.805    0.446
        24 -11.3591    171.5037    174.9974   3.2370602308e+01   1.3466615704e+01    0.3849652    0.2940674  28.24  0.001167576    1.278    0.217
        25 -10.9510    173.4650    171.4783   3.1319222425e+01   1.3790397457e+01     0.351446    0.2455493  42.62   0.00111188    1.576    0.365
        26 -11.1048    104.7410    171.8762   4.7749769288e+01   2.4860823012e+01    0.3292101     0.301252  42.76 0.0008599036    1.061    0.058
        27  -9.2606     57.3280    226.1778   6.6609328082e+01   1.9377806455e+01    0.1464047    0.1129947  80.02 0.0003189915    1.433    0.302
        28 -11.4498     88.9696    169.6640   5.1805502293e+01   2.7846097496e+01    0.4021607    0.3638251  62.73  0.001124674    1.127    0.112
        29 -10.7577    110.8302    167.8705   4.5422949188e+01   2.4785632531e+01    0.4677526    0.2888681 -76.98  0.001915884    2.491    0.599
        30  -9.2840    194.2345    222.9624   3.5938556549e+01   2.7815437523e+00     0.161663    0.1219589 -13.39 0.0004133832    1.141    0.123
        31  -8.8881     50.3471    242.7319   6.9400309039e+01   1.6903316968e+01    0.1371815    0.1113979 -66.02 0.0006506915    1.533    0.348
        32 -10.5049     60.9316    158.4234   5.8632839897e+01   3.4713077090e+01    0.3569177    0.2099284 -73.18  0.000797655    1.820    0.451
        33 -10.2576     51.8286    156.7902   6.1337006724e+01   3.6319310474e+01    0.2424081    0.2162191  73.73 0.0003059069    1.081    0.075
        34 -11.3993    133.5637    145.1379   3.5078220965e+01   2.5864015879e+01     1.153614    0.2937104 -54.17  0.002758338    6.059    0.835
        35 -11.1074    108.8112    145.4006   4.1765673341e+01   3.0349176727e+01    0.3139676    0.3071581 -88.04 0.0006696461    1.063    0.059
        36 -10.0291     47.1844    145.2264   6.1375217771e+01   3.9963456092e+01    0.4770736    0.2137866 -74.70  0.001678697    2.387    0.581
        37 -13.6232     20.7996    195.4986   7.3964518355e+01   2.9947494922e+01    0.3821547    0.2782942  66.36  0.001436624    1.233    0.189
        38  -9.9805    102.7019    143.3688   4.3121359343e+01   3.1929344919e+01    0.2618992    0.2228586  62.49 0.0004969905    1.253    0.202
        39 -10.4495     25.2225    137.3713   6.8177533393e+01   4.4445540090e+01    0.4279026    0.1821123  36.23  0.001717699    2.130    0.530
        40  -8.8652    108.3087    137.3438   4.0233293736e+01   3.2355676595e+01    0.1592641    0.1216326 -14.86 0.0007044228    1.697    0.411
        41 -11.7815    104.4745    131.5872   4.0107223992e+01   3.4453807591e+01    0.6208165    0.4631411 -10.34  0.001587302    1.851    0.460
        42 -11.5710     43.5039    130.6929   6.0630553701e+01   4.4353319158e+01     0.550384    0.3722187 -89.51   0.00226851    1.586    0.370
        43 -10.9813     38.8093    128.0356   6.1996462573e+01   4.5626347589e+01    0.4697939    0.1748161  46.53  0.001458287    2.794    0.642
        44 -10.4435    222.4883    129.9603   1.4623215758e+01   1.3011890027e+01    0.5256779    0.1692006 -47.25  0.001926576    3.669    0.727
        45 -11.4147     90.3542    131.4635   4.4441754671e+01   3.7071948570e+01    0.3428151    0.2805651 -45.91 0.0003382172    1.277    0.217
        46  -9.3568    162.5346    128.4416   2.4694369917e+01   2.3787848282e+01    0.1432129    0.1335128 -16.95 0.0001094219    1.058    0.055
        47 -10.5158     79.0748    125.9346   4.6995431419e+01   4.0448977914e+01    0.5279449    0.2873657  65.32  0.001758212    3.026    0.670
        48 -11.1348    111.8953    125.7512   3.6602178531e+01   3.4417384091e+01    0.3454334    0.2916591  17.24 0.0009639288    1.323    0.244
        49 -10.3819     98.8722    121.1701   3.9438501840e+01   3.8052348878e+01    0.3161261    0.2577863  15.87 0.0009363725    1.418    0.295
        50 -11.7356     45.9892    123.8654   5.8622682269e+01   4.5920709214e+01    0.4323907    0.3407926   9.30  0.001925473    1.436    0.304
        51  -9.8256    135.0000    120.0006   2.9004143198e+01   3.1037981075e+01    0.2528164   0.08561644 -45.94 0.0008000511    2.926    0.658
        52 -10.1590    174.9966    223.2693   3.9614863344e+01   5.0318563156e+00    0.1714106    0.1332525  10.64 0.0005265984    1.051    0.049
        53  -8.9062     58.5613    237.6190   6.7157381597e+01   1.6980745196e+01    0.1329442    0.1200956 -51.69            0    1.399    0.285
        54 -12.4842    110.0679    226.1989   5.3972719816e+01   1.2876180992e+01    0.6997805    0.4867954 -42.71  0.003725272    1.673    0.402
        55 -10.5684     32.5009    118.9744   6.3132029396e+01   4.8805901882e+01    0.2627016    0.2199891  28.61 0.0004892809    1.224    0.183
        56 -12.3097     33.4395    109.7291   6.1312518424e+01   5.1260702832e+01    0.8938488    0.3116547 -67.46  0.003092817    2.652    0.623
        57  -9.8208    107.8792    116.0010   3.5430497567e+01   3.7515850945e+01    0.2286802    0.2265762  80.90 0.0003356871    1.015    0.015
        58 -10.6115     40.1245    113.5623   5.9192399617e+01   4.9459294384e+01    0.2806163    0.2152213  66.04 0.0005720137    1.375    0.273
        59  -9.3055    129.9938    142.2655   3.5373644032e+01   2.7159375592e+01    0.2100608    0.1908194  39.07  0.000415985    1.091    0.083
        60  -9.1163     94.1462    110.1333   3.8246357185e+01   4.1670000701e+01    0.2168558    0.1828917  75.20 0.0004114542    1.318    0.241
        61  -9.2274     78.9026    110.0753   4.3456277112e+01   4.4563634268e+01    0.2337162    0.2006438  68.89 0.0002837099    1.237    0.192
        62 -11.3024    115.0800    108.7592   3.1477328969e+01   3.7700497789e+01     0.334595    0.2657566  42.01  0.001295105    1.260    0.206
        63 -10.7043    111.2142    104.4392   3.1447392702e+01   3.9503484068e+01    0.3778338     0.201977  51.25  0.001451074    1.963    0.491
        64  -8.6408     71.2911    218.3000   6.2495304968e+01   1.9345655611e+01    0.1229232   0.09773767 -12.18 0.0003021343    1.564    0.361
        65 -10.5918     39.0767    104.0523   5.7901639704e+01   5.2188150379e+01    0.3301121    0.2167937  52.12  0.001162012    1.625    0.385
        66 -11.8787     33.3510    100.5239   5.9741748462e+01   5.3796763295e+01    0.5551473    0.3836323  55.10  0.001723455    1.556    0.357
        67  -9.3058    113.3099     94.6623   2.8121353136e+01   4.1229507892e+01    0.1625326    0.1239437 -88.15 0.0003083062    1.685    0.406
        68 -10.1605    102.8202     92.0786   3.0511438602e+01   4.4113228206e+01    0.4907368    0.3069869  79.28  0.001696775    2.950    0.661
        69 -11.5957     60.3899     95.3190   4.6881450008e+01   5.1538677012e+01    0.8711876    0.3668344  54.62  0.002511769    3.966    0.748
        70  -8.7368    159.6917     87.2944   1.5081782007e+01   3.2171810634e+01    0.1479685    0.1095577 -73.39 0.0003281367    1.587    0.370
        71 -11.0474     54.0579    232.0001   6.7823703105e+01   1.8576613564e+01    0.5559751    0.2654386 -89.42  0.002011825    2.858    0.650
        72  -9.2516     77.3078     83.9388   3.6880017848e+01   5.1323015403e+01    0.2153399    0.2000584 -62.10 0.0004369725    1.096    0.088
        73  -8.7979    222.7833    234.0118   3.2654533381e+01  -1.7257348679e+00    0.1284348    0.0721423 -30.38 0.0004076957    1.607    0.378
        74  -9.2352     71.8173    232.7712   6.3654885960e+01   1.6394475624e+01    0.1754559    0.1186025  45.62  0.001026259    1.284    0.221
        75  -8.4090    133.3178     69.6574   1.5466711164e+01   4.1533798628e+01    0.1606332    0.1134295 -73.99  0.000704906    1.716    0.417
        76 -10.8384    103.9597    233.0611   5.6156543350e+01   1.2410213600e+01    0.4331562    0.3221579 -24.48  0.001521608    1.619    0.382
        77 -12.0269    186.1163     64.5751   4.8592655310e+00   3.0038090655e+01    0.4209076     0.361516  82.95  0.000792566    1.202    0.168
        78  -9.9468     83.4661     64.4952   2.8033171320e+01   5.4347632941e+01    0.2556618    0.2445823  69.03 9.948617e-05    1.040    0.039
        79 -13.6043    203.5821     52.5251   3.5982281532e+02   2.8036321042e+01     1.131679    0.8769081  39.21  0.004530962    1.776    0.437
        80 -12.4745    209.2555     47.8685   3.5815901075e+02   2.7490203039e+01    0.4696437     0.374261  81.98  0.001336569    1.331    0.248
        81  -9.7096     69.6668    243.1522   6.4996246031e+01   1.4689427740e+01    0.1493914    0.1363253  36.84 0.0003870008    1.161    0.138
        82  -9.4462     48.7452     39.5704   3.2931386700e+01   6.6402726072e+01    0.2498958    0.1643529  47.53  0.001087873    1.559    0.358
        83 -11.5959     76.0002    244.6366   6.3666955817e+01   1.3693164302e+01    0.1884596    0.1841301  41.54 0.0005027524    1.240    0.194
        84 -10.1207     60.5693     21.4412   1.7916117292e+01   6.6980236909e+01     0.248348    0.2183259  43.89 0.0007185168    1.029    0.028
        85 -11.4890    113.7328    231.6367   5.3764626433e+01   1.1428938260e+01    0.5144458    0.2639571 -49.55  0.002207669    2.270    0.559
