#   1 NUMBER                 Running object number                                     
#   2 MAG_AUTO               Kron-like elliptical aperture magnitude                    [mag]
#   3 X_IMAGE                Object position along x                                    [pixel]
#   4 Y_IMAGE                Object position along y                                    [pixel]
#   5 X_WORLD                Barycenter position along world x axis                     [deg]
#   6 Y_WORLD                Barycenter position along world y axis                     [deg]
#   7 A_WORLD                Profile RMS along major axis (world units)                 [deg]
#   8 B_WORLD                Profile RMS along minor axis (world units)                 [deg]
#   9 THETA_WORLD            Position angle (CCW/world-x)                               [deg]
#  10 FWHM_WORLD             FWHM assuming a gaussian core                              [deg]
#  11 ELONGATION             A_IMAGE/B_IMAGE                                           
#  12 ELLIPTICITY            1 - B_IMAGE/A_IMAGE                                       
         1 -15.0994     10.0105    148.7659   1.4000835370e+02   4.1863462425e+01     10.53905     3.537134  70.15   0.04668335    3.429    0.708
         2 -13.0622    196.8084     30.6895   6.4805119293e+01   3.1901952095e+01     1.293953     1.147645  25.63   0.00635248    1.141    0.124
         3 -13.4597    212.7322     11.5342   5.7099564707e+01   2.9823645424e+01     1.525599    0.9532765  36.50  0.007292934    1.814    0.449
         4 -11.7841      2.5308      4.3934   1.2152862185e+02   7.3682208668e+01    0.6649357    0.2125033 -62.97  0.003008872    2.769    0.639
         5 -10.5287    139.1204    248.8799   1.2283699482e+02   9.6657110877e+00    0.1785625    0.1355371 -42.92  0.001382417    1.840    0.457
         6 -10.4052    249.5778    248.3196   1.0426328422e+02  -5.5719605755e+00    0.2622986   0.08281603 -35.46  0.001280352    4.780    0.791
         7 -10.3198    127.2509    249.9940   1.2498509489e+02   1.1138261295e+01    0.1749572    0.1005427  53.75 0.0005915824    1.616    0.381
         8  -9.8704     65.8957    249.3332   1.3525887768e+02   1.8827057316e+01    0.1836694    0.1222321  65.64 0.0005391858    1.288    0.224
         9 -10.4490     46.2504    249.0399   1.3840676194e+02   2.0976793216e+01    0.2371844    0.1252439  67.42  0.001367731    1.635    0.388
        10 -11.0440     28.8456    248.8420   1.4111997847e+02   2.2726204356e+01    0.2871947    0.2201862 -72.89  0.002606976    1.698    0.411
        11 -12.2556     35.4530    245.2155   1.3994869663e+02   2.2616022739e+01    0.4739896     0.397326 -55.94  0.004304936    1.870    0.465
        12 -12.4849      5.3542    248.2845   1.4464107210e+02   2.4910734864e+01    0.9377667    0.4096866  45.13  0.001241143    1.574    0.365
        13 -12.3604     11.4834    239.6160   1.4348475592e+02   2.5657757153e+01    0.6630026     0.218227  52.69  0.004380374    1.962    0.490
        14 -10.6448    199.0095    247.0040   1.1234583333e+02   1.4346577759e+00     0.161401     0.118397  50.04  0.001148942    1.746    0.427
        15 -10.9666    100.1831    245.0847   1.2922017676e+02   1.5330312069e+01    0.2027169    0.1149657  48.22 0.0008403131    1.306    0.235
        16 -12.8411     19.4878    242.8367   1.4235308887e+02   2.4470687155e+01    0.8652597     0.395769  75.31  0.006293146    1.919    0.479
        17 -10.1946    234.1065    237.6554   1.0522467220e+02  -2.5898386380e+00    0.1671824     0.121765 -34.78  0.000928118    2.100    0.524
        18 -11.2619     50.8738    235.5268   1.3698414155e+02   2.2491664422e+01    0.2858185    0.1636846  63.43  0.002119988    1.430    0.300
        19 -10.3032    242.4904    250.0000   1.0561601923e+02  -4.7866058815e+00    0.2359202   0.04348671  38.93 0.0009401864    3.979    0.749
        20 -10.5471      4.9844    224.0355   1.4404805396e+02   2.8601299983e+01    0.1910436   0.09447931  77.99 0.0007554159    1.657    0.397
        21 -10.5456    136.8401    231.3054   1.2143690837e+02   1.2268253119e+01    0.1906615    0.1115488  47.85   0.00120263    1.427    0.299
        22 -10.9626      5.3865    228.8089   1.4412059899e+02   2.7820273425e+01    0.1855407    0.1454282  67.84  0.001233966    1.194    0.163
        23 -11.7292      9.3627    227.4413   1.4345009024e+02   2.7700693039e+01     0.380801    0.1278438 -73.52  0.002376278    2.964    0.663
        24  -9.9239     78.8240    218.6966   1.3095238263e+02   2.1947439413e+01    0.2047943    0.1106916  68.97  0.001223885    2.051    0.512
        25 -12.7086      9.3169    207.4626   1.4279885552e+02   3.0952989817e+01    0.6232172    0.5392104  20.04  0.003789688    1.689    0.408
        26  -8.5637    152.5555    212.9655   1.1632040004e+02   1.2478138696e+01    0.1368041    0.1203019 -41.46 0.0001317307    1.447    0.309
        27 -10.0319      6.8895    215.1611   1.4346778753e+02   2.9872735153e+01    0.1553262    0.1088278  43.77 0.0005447453    1.351    0.260
        28 -11.4073     59.3816    197.2394   1.3299124334e+02   2.7884973616e+01    0.2378479     0.205323 -57.50 0.0005627142    1.491    0.329
        29  -9.2590    193.4763    195.9581   1.0597103609e+02   8.2072341507e+00    0.1505965    0.1132063 -66.83  0.000809897    2.649    0.622
        30 -11.6714     65.8624    189.0071   1.3101852869e+02   2.8631708784e+01    0.2229724    0.2095906 -62.27 0.0004806356    1.350    0.259
        31 -10.6400     76.2118    176.4589   1.2762579691e+02   2.9731916774e+01     0.206926    0.1861673  59.42 0.0003652597    1.092    0.084
        32 -13.0429     62.8489    174.3215   1.3032020658e+02   3.1765953102e+01    0.4250445    0.2476235 -46.50  0.001913354    2.310    0.567
        33  -9.5573     95.5694    172.0407   1.2283160241e+02   2.7983823016e+01    0.2667767    0.1431817  45.36 0.0008822922    1.645    0.392
        34 -11.5363     83.6750    167.4829   1.2495058503e+02   3.0511117568e+01      0.49519    0.4702761 -64.00  0.003489088    1.215    0.177
        35 -12.6017     32.0796    230.6913   1.3987974722e+02   2.5137582741e+01    0.2331676    0.2131206  80.89 0.0007611297    1.421    0.296
        36 -13.7222     37.7675    223.3755   1.3858442019e+02   2.5738035477e+01    0.6260817    0.4642052  53.30  0.002567018    1.115    0.103
        37  -9.7522     96.7696    151.6048   1.1972322609e+02   3.1865704176e+01    0.2397813    0.2239537  71.42 0.0007321032    1.036    0.035
        38 -11.8950     85.3855    150.7318   1.2236753727e+02   3.3675326347e+01    0.2519005    0.2252884 -41.94 0.0005195898    1.300    0.231
        39  -8.8006     99.9658    147.6732   1.1833343395e+02   3.2193600036e+01    0.1795009    0.1595018  44.08 0.0003865107    1.077    0.071
        40 -12.0943     67.5978    143.5707   1.2580041904e+02   3.7500243908e+01    0.6183032    0.3661091  60.61  0.002464948    1.815    0.449
        41  -9.4040    108.7892    137.0994   1.1432437269e+02   3.2993813069e+01    0.3370817     0.213163 -21.23    0.0014334    2.725    0.633
        42 -10.2554     96.1223    134.0731   1.1704754386e+02   3.5638024702e+01    0.2125077    0.2008376   3.87 0.0004243592    1.186    0.157
        43  -8.3186    192.2711    143.7211   9.6330315980e+01   1.6032155094e+01    0.1231131    0.1144615  79.87 0.0002409122    1.491    0.329
        44  -9.9266      2.3139    227.6524   1.4457179261e+02   2.8251885276e+01    0.1635198   0.09003168  69.96 0.0009920932    1.346    0.257
        45  -8.8045    106.4563    123.5585   1.1234553880e+02   3.6243331437e+01    0.1359857    0.1331536  45.86 0.0001137553    1.014    0.014
        46 -10.1184    167.8497    112.8941   9.4437157595e+01   2.6345831542e+01    0.2985705     0.268389 -67.93 0.0006416474    1.405    0.289
        47  -8.5294    203.4614    111.5032   8.6559183114e+01   1.8776315287e+01    0.1518249    0.1310434  10.40 6.708028e-05    1.053    0.051
        48  -8.8765    158.3025     77.3278   8.6853673238e+01   3.4896751512e+01    0.1633704    0.1183291  12.31 0.0004955435    1.645    0.392
        49  -9.2351     46.8557     69.6049   1.1935428908e+02   5.6550277506e+01    0.2859398    0.1606712  56.30  0.001307732    2.626    0.619
        50 -11.3246     11.5383     53.7497   1.2976908719e+02   6.2751981757e+01    0.2835144    0.1905831  41.35 0.0009971895    1.845    0.458
        51 -10.9591      2.0052     47.9504   1.3267780691e+02   6.4438495669e+01     0.412676   0.09419742 -74.94  0.001468154    4.048    0.753
        52 -11.0330      2.8949     38.1627   1.3053381624e+02   6.6572247654e+01    0.2507291    0.1864552 -84.30  0.001697904    1.372    0.271
        53 -10.3535    216.0020    248.4214   1.0969118839e+02  -1.0790325686e+00    0.1887791      0.11474  10.38  0.001278907    1.621    0.383
        54 -10.6382    162.6564    249.0973   1.1880106292e+02   6.3593909147e+00    0.2037919    0.1131547  42.76  0.001335529    1.373    0.272
        55  -9.4279      2.3161     29.3283   1.2894244963e+02   6.8514700231e+01    0.1273457   0.06004716 -44.30 0.0004383489    1.677    0.404
