#   1 NUMBER                 Running object number                                     
#   2 MAG_AUTO               Kron-like elliptical aperture magnitude                    [mag]
#   3 X_IMAGE                Object position along x                                    [pixel]
#   4 Y_IMAGE                Object position along y                                    [pixel]
#   5 X_WORLD                Barycenter position along world x axis                     [deg]
#   6 Y_WORLD                Barycenter position along world y axis                     [deg]
#   7 A_WORLD                Profile RMS along major axis (world units)                 [deg]
#   8 B_WORLD                Profile RMS along minor axis (world units)                 [deg]
#   9 THETA_WORLD            Position angle (CCW/world-x)                               [deg]
#  10 FWHM_WORLD             FWHM assuming a gaussian core                              [deg]
#  11 ELONGATION             A_IMAGE/B_IMAGE                                           
#  12 ELLIPTICITY            1 - B_IMAGE/A_IMAGE                                       
         1 -14.4470    166.2225     53.7168   7.2425746439e+01   3.6903568532e+01     2.045355     1.426196  17.21  0.007131837    2.341    0.573
         2 -13.9804    180.2218     37.2796   6.5969085757e+01   3.5809807722e+01    0.8369846    0.6906576  87.31  0.002685641    1.079    0.073
         3 -13.4836    184.8399     30.5183   6.3684265991e+01   3.5564237339e+01    0.5586444    0.4523105  66.79  0.001210858    1.164    0.141
         4 -12.9001    189.6707     14.9564   5.9451370449e+01   3.6214110430e+01    0.3434401    0.2719243 -79.21  0.001334682    1.127    0.113
         5 -14.3522    200.6543      5.8713   5.6301651375e+01   3.4671093907e+01    0.9011261    0.6260321  76.50  0.004370179    1.197    0.164
         6 -10.7544     78.2109     10.5420   7.8471442892e+01   6.1128299814e+01    0.2260531    0.1064515  56.49  0.001136302    2.144    0.534
         7 -11.1927    114.6235      3.9391   6.7585546237e+01   5.4302132394e+01    0.2338881    0.1557164  66.71 0.0006182417    1.357    0.263
         8 -11.2864     58.1253    201.2686   1.3250775222e+02   2.5514170203e+01    0.2030955    0.1685066  81.11  0.000292913    1.042    0.040
         9 -17.9410     56.5456    239.1628   1.3687435098e+02   1.7195157942e+01     9.372348     7.648832 -82.36   0.05546379    1.211    0.174
        10 -11.4492    204.4798    165.3650   9.1999409505e+01   7.0896877965e+00    0.5983067    0.3193577 -51.18  0.001704395    1.961    0.490
        11 -11.8849    194.0973    167.0907   9.4481552349e+01   8.7896405661e+00    0.3827297    0.3260257 -53.58 0.0008111563    1.194    0.162
        12 -11.0680    190.0422    160.7970   9.3967257234e+01   1.0934051717e+01    0.3546033    0.2714568 -60.08  0.000884118    1.424    0.298
        13 -11.6167    189.4139    155.2904   9.2887722732e+01   1.2232395039e+01    0.4735036    0.4094619 -60.37  0.001282559    1.193    0.162
        14 -11.4959    151.9888    184.2172   1.0739661008e+02   1.3493202759e+01    0.2913867    0.2246423 -64.87 0.0008101221    1.431    0.301
        15 -10.2753    161.9629    167.3311   1.0159310269e+02   1.5298444425e+01    0.2175178    0.1977427  50.42 0.0006477085    1.111    0.100
        16 -10.2108    113.1487    160.3597   1.1217230749e+02   2.6714725573e+01     0.251651    0.2008149 -47.02 0.0003994203    1.268    0.212
        17 -10.3701     13.3467    160.2111   1.3830783458e+02   4.0364173737e+01    0.2236137    0.1724844  71.99   0.00068897    1.289    0.224
        18  -9.6066      8.5319    160.5693   1.3952167861e+02   4.0671344927e+01    0.1249476    0.0988838 -74.44 0.0001754998    1.055    0.053
        19 -19.0529     34.6055    102.0611   1.2295934054e+02   5.2262005607e+01     16.11666    0.9445493 -59.60   0.02710449   14.484    0.931
        20 -10.5418    120.2192    155.8809   1.0939444086e+02   2.6458940943e+01    0.2446727    0.2079294  86.07  0.001199317    1.289    0.224
        21 -10.8734    164.6895    152.4701   9.7691140878e+01   1.8078076978e+01    0.3443806     0.249047  83.08  0.001444774    1.979    0.495
        22 -12.1148    133.8879    145.4757   1.0356480782e+02   2.6213040700e+01     1.351743    0.3452664 -54.93  0.003017917    5.853    0.829
        23 -10.0654    129.1758    139.8820   1.0348239437e+02   2.8507809908e+01    0.2855591    0.2150603  55.38 0.0007797239    1.404    0.288
        24 -11.6518    148.7585    149.3713   1.0075434046e+02   2.2180916133e+01    0.4686663    0.2740963  65.96  0.001669494    2.610    0.617
        25 -10.5003    174.8058    148.9440   9.4608001317e+01   1.6695086089e+01    0.2870691     0.214732 -65.69  0.000666169    1.528    0.345
        26 -12.6066    110.9133    138.8247   1.0810391994e+02   3.2390675181e+01    0.7408447     0.439755 -32.79  0.002891776    2.192    0.544
        27 -12.4802    100.3071    138.3199   1.1091773483e+02   3.4482389188e+01    0.3001943    0.2893497 -28.43 0.0003201331    1.096    0.088
        28 -11.9037    105.9697    130.8661   1.0761957598e+02   3.5234941574e+01    0.4676159    0.3662661 -68.21  0.001274121    1.374    0.272
        29 -11.3012    105.5088    125.2860   1.0641189059e+02   3.6641021995e+01    0.2972364    0.2444096 -32.23  0.001205009    1.294    0.227
        30 -11.3902    135.4757    125.4919   9.8379250938e+01   3.0515316597e+01    0.4387888    0.1525993 -46.99  0.001379171    2.839    0.648
        31 -11.1545    117.2987    129.4454   1.0415432190e+02   3.3375489906e+01    0.3144164    0.2527618 -24.17 0.0006900987    1.455    0.313
        32 -12.4040    153.2237    193.8350   1.0897455088e+02   1.1107158694e+01    0.4020769    0.2889474  64.76  0.001067682    1.690    0.408
        33 -11.0421    160.3851    127.5148   9.2812413589e+01   2.4578775679e+01    0.3550277    0.2707908 -76.44  0.001595908    1.602    0.376
        34 -13.1847    144.9175    179.2307   1.0807260776e+02   1.6027657939e+01    0.6114381    0.4465748  31.12  0.002847466    1.481    0.325
        35 -10.1461    135.0000    119.9537   9.7108145216e+01   3.1860918879e+01    0.2630123   0.08852642 -46.09 0.0008019763    2.939    0.660
        36 -10.4445    112.0525    118.9048   1.0298956654e+02   3.6855956615e+01    0.2323138    0.2225495 -43.16 0.0005745878    1.026    0.025
        37 -11.0450    167.7942    112.7456   8.7483538371e+01   2.6038390715e+01     0.400761    0.2963281 -83.37    0.0013963    1.743    0.426
        38 -10.6791    205.5081    110.1736   7.9429556436e+01   1.7982836310e+01    0.3081384    0.2136307  47.06 0.0009032799    1.582    0.368
        39 -11.1619    167.2251    175.2330   1.0205852080e+02   1.2458555866e+01    0.5416512    0.3195022 -72.57  0.001866103    3.158    0.683
        40  -9.9454     79.5545    105.0768   1.0905949099e+02   4.5817904068e+01    0.2236182    0.1349351 -50.92  0.001021131    1.577    0.366
        41 -10.1661     65.6649     99.0210   1.1193834048e+02   4.9250445183e+01    0.2232084    0.1713015 -65.42  0.001182044    1.466    0.318
        42  -9.7715    150.9528     80.4711   8.2718863016e+01   3.6210756107e+01    0.2244813    0.1416487  53.45 0.0005413578    1.529    0.346
        43 -10.6274     81.7649     76.0301   1.0016479927e+02   5.1428438665e+01    0.2262777    0.1868182  29.94 0.0003559597    1.204    0.169
        44 -12.2777    174.2418     72.9420   7.5990952863e+01   3.1990306624e+01    0.9617929    0.5165403 -84.41  0.002732632    4.668    0.786
        45 -12.4276    248.8114    247.0380   9.9241054101e+01  -1.4198898630e+01    0.5193967     0.193443 -36.77   0.00248675    2.562    0.610
        46  -9.6176    168.6942    234.2781   1.1270442085e+02   7.0552094263e-02    0.1300622    0.1027009  63.89 0.0002707462    1.551    0.355
        47 -10.3681     13.4265     59.8980   1.2044022694e+02   6.2724708479e+01    0.1647417       0.1467 -13.85  0.000405139    1.207    0.171
        48 -10.5499    207.6196    194.1905   9.7303377441e+01   7.9415823062e-01    0.1965423    0.1251581 -32.06 0.0003026529    1.591    0.371
        49 -10.9292    201.3674    168.8721   9.3371150044e+01   6.9839859173e+00    0.4441811    0.2584629 -56.30  0.001749838    2.024    0.506
        50  99.0000     11.9556    206.0940   1.4292682460e+02   2.9745737875e+01    0.4328304     0.219488  37.76  0.002412251    2.071    0.517
        51 -11.8489    193.0253    194.8847   1.0042702858e+02   3.3116490819e+00     1.130746    0.5526156 -64.51  0.002951615    6.455    0.845
        52 -10.3165     89.0242     13.4702   7.6604201336e+01   5.8801325264e+01    0.1817804     0.103232  52.57 0.0004430152    1.530    0.346
