#   1 NUMBER                 Running object number                                     
#   2 MAG_AUTO               Kron-like elliptical aperture magnitude                    [mag]
#   3 X_IMAGE                Object position along x                                    [pixel]
#   4 Y_IMAGE                Object position along y                                    [pixel]
#   5 X_WORLD                Barycenter position along world x axis                     [deg]
#   6 Y_WORLD                Barycenter position along world y axis                     [deg]
#   7 A_WORLD                Profile RMS along major axis (world units)                 [deg]
#   8 B_WORLD                Profile RMS along minor axis (world units)                 [deg]
#   9 THETA_WORLD            Position angle (CCW/world-x)                               [deg]
#  10 FWHM_WORLD             FWHM assuming a gaussian core                              [deg]
#  11 ELONGATION             A_IMAGE/B_IMAGE                                           
#  12 ELLIPTICITY            1 - B_IMAGE/A_IMAGE                                       
         1 -10.2393     32.7544      2.5984   8.4674360080e+01   7.2138861406e+01    0.2310795    0.1223767 -28.05  0.001259347    1.652    0.395
         2 -10.3607     86.1631    239.3934   1.1865360977e+02   1.6632569087e+01    0.4158158    0.2138839  50.68  0.002449828    1.460    0.315
         3 -10.9804     35.2603    180.0391   1.2359257725e+02   3.3531843241e+01    0.8504716    0.4340913  55.50  0.005043676    1.666    0.400
         4 -11.3091      6.1468    217.6944   1.3095920537e+02   2.9256302130e+01     1.468039    0.2537055  64.92  0.004382524    8.862    0.887
         5 -11.0332     55.6421    230.6413   1.2326401088e+02   2.1860838557e+01    0.6928639    0.3022888  63.61  0.004021048    2.078    0.519
         6 -12.7751     10.3151    155.9601   1.2716026145e+02   4.0876098040e+01     1.927138    0.8792624  51.92   0.01121637    1.942    0.485
         7 -12.9488      4.4346    191.9008   1.3023110989e+02   3.4113540676e+01     2.171431    0.5764034 -76.20   0.01076191    3.082    0.676
         8 -12.2637     36.6671    216.5874   1.2570516565e+02   2.6427922217e+01     1.317575    0.2578475  53.24  0.005495002    3.881    0.742
         9 -11.6157     19.2868    206.4847   1.2823465378e+02   3.0032063526e+01     0.935154    0.5055816  58.82  0.006466217    1.393    0.282
        10 -11.9750     26.7156    241.2046   1.2857491710e+02   2.3322507889e+01     1.381666    0.3678088  61.06  0.006911452    3.203    0.688
        11 -11.9564      7.1326    228.3756   1.3117965621e+02   2.7339346556e+01     1.104377     0.119234  55.82  0.004574074    4.659    0.785
        12 -11.7624     20.0698    244.1895   1.2972992738e+02   2.3519441405e+01    0.5859905    0.2598508  85.29  0.003983481    2.030    0.507
        13  -9.9381     75.9487    239.2175   1.2038270715e+02   1.7979435045e+01    0.4628316    0.1297672  49.73  0.002249517    2.654    0.623
        14 -10.8664     77.3168    234.9906   1.1983788398e+02   1.8476576930e+01    0.5823177    0.2876561  45.76  0.003655236    1.543    0.352
        15 -12.1363    115.5557    211.1253   1.1061592439e+02   1.7061641619e+01     1.596707     0.822924 -79.61  0.007318149    3.403    0.706
        16  99.0000    105.5373    229.9326   1.1443956000e+02   1.5466304398e+01     1.071782    0.8674236  56.45  0.008022813    1.059    0.056
        17 -12.0662     91.4344    213.1834   1.1542212516e+02   2.0233383291e+01     1.093782    0.4346194  55.77   0.00455623    2.501    0.600
        18 -12.8921     99.9988    206.5379   1.1310280177e+02   2.0176506147e+01     1.470863    0.7720638  70.68  0.007186351    2.570    0.611
        19 -13.1051      6.9932    242.7579   1.3167447969e+02   2.5006336036e+01    0.8677672    0.5103701  70.67  0.007148846    1.185    0.156
        20 -14.1730    244.0094    196.6052   8.4953075187e+01  -1.8256851703e+00     2.878455     1.129091 -23.35    0.0131704    2.925    0.658
        21 -10.2903     74.9146    201.5118   1.1748277616e+02   2.4592879150e+01    0.6536798    0.2593106  61.31  0.002875785    2.991    0.666
        22 -13.3799    116.1421    186.6049   1.0742856171e+02   2.1335103573e+01      1.88334     1.242468  79.48  0.009983402    1.935    0.483
        23 -12.9006     98.5086    183.4101   1.1070538666e+02   2.4708403910e+01     1.037151    0.7914953  78.32  0.004963026    1.292    0.226
        24 -10.9995    136.6039    192.9008   1.0412674178e+02   1.6824685093e+01    0.4891919     0.359855 -83.77  0.002808124    1.778    0.438
        25 -10.2997     80.4403    184.7477   1.1466506681e+02   2.7069540951e+01    0.3329862    0.1890424 -72.62  0.001836626    1.814    0.449
        26 -11.4357     80.1986    222.5394   1.1834318765e+02   2.0153434643e+01     2.545638    0.7097067  56.25   0.00926779    4.668    0.786
        27 -10.6280     57.8318    193.0028   1.2008745855e+02   2.8389359872e+01      0.49118    0.2071941  62.04  0.002387777    2.446    0.591
        28 -10.1207     58.3698    173.3739   1.1815883299e+02   3.2279678627e+01    0.2961786    0.1671369  55.65  0.001295429    1.589    0.371
        29  -9.9412     21.6152    173.4970   1.2592073881e+02   3.6221158843e+01    0.3996737    0.1126666  53.73  0.001799287    3.090    0.676
        30 -11.0682     50.4288    164.4612   1.1900747279e+02   3.5112186546e+01    0.6654828    0.3032843 -73.37  0.003382268    2.021    0.505
        31 -12.6033    126.1757    167.7277   1.0245199279e+02   2.3279675760e+01    0.8612278      0.53997 -29.09   0.00391454    2.573    0.611
        32 -13.4647      8.6360    132.4007   1.2587109076e+02   4.6142415409e+01     1.866343    0.8432314 -77.06  0.009862171    1.732    0.423
        33 -13.1910    105.9669    156.0478   1.0511534805e+02   2.9110906572e+01     1.169698    0.6236343 -73.57  0.004986498    2.519    0.603
        34 -13.2857    114.4866    150.5629   1.0218752762e+02   2.8827827424e+01     1.233714    0.7196606  57.35  0.005700432    1.868    0.465
        35 -13.3713    100.5646    141.1465   1.0387501425e+02   3.3234020621e+01     1.260135    0.7663494 -75.66  0.005804216    1.987    0.497
        36 -12.8094     93.9307    126.5522   1.0284992994e+02   3.7607433718e+01      1.03033    0.5875701 -69.99  0.004566896    1.988    0.497
        37 -10.2931     74.8678    164.6525   1.1352589680e+02   3.1979201845e+01    0.4847837    0.2542578  61.04  0.002365645    2.022    0.506
        38 -12.0044     34.8235    228.5166   1.2666610507e+02   2.4560490247e+01     2.588724    0.2232986  53.64  0.008070028    7.392    0.865
        39 -10.9785     96.4395    159.9144   1.0793102068e+02   2.9822952244e+01    0.7336157    0.3894904  79.44  0.002754832    3.526    0.716
        40 -10.2618     79.9724    152.5218   1.1071941401e+02   3.3894252361e+01    0.2626164    0.1715371 -87.09  0.001376511    1.637    0.389
        41 -10.5035     83.6284    160.7130   1.1100621335e+02   3.1585378785e+01    0.4932103    0.1871318 -69.90  0.001898301    3.183    0.686
        42 -11.3210    141.0963    142.2695   9.4387076276e+01   2.5621381736e+01    0.3679585    0.2566551 -75.08  0.001693143    1.965    0.491
        43 -11.0800     53.1048    133.3529   1.1472265870e+02   4.1742804876e+01    0.2352187     0.159092 -62.49  0.001343935    1.368    0.269
        44 -12.8879     41.3655    201.8071   1.2393721334e+02   2.8615479098e+01     3.030185    0.7231027  59.75  0.009577096    6.478    0.846
        45 -12.1602     21.1362    191.9014   1.2713233368e+02   3.2599314346e+01     1.804637    0.4514955  63.69  0.006416275    5.333    0.812
        46 -12.7381     82.0611    104.1560   1.0147273980e+02   4.4676327340e+01     1.571749    0.4625033 -62.46  0.004286739    4.924    0.797
        47  99.0000     34.5152    237.2486   1.2715042528e+02   2.3144798588e+01     1.446295     0.277302  57.29  0.005828454    4.666    0.786
        48  -9.7356     32.8505    109.3928   1.1694224966e+02   4.9461966138e+01    0.2215382    0.1263337 -65.57  0.001207765    1.443    0.307
        49 -11.2476     59.6509    100.8052   1.0747396762e+02   4.8602992157e+01    0.3658673    0.2403921 -68.24  0.001924774    1.384    0.278
        50 -11.1998      2.0066     91.2305   1.2385608275e+02   5.5923906341e+01    0.5187162    0.1539971 -78.07  0.002194632    2.761    0.638
        51 -11.7762     11.2936     90.0215   1.2081496882e+02   5.5664993002e+01    0.5916545    0.3826572  55.99   0.00364068    1.728    0.421
        52 -11.8600      4.9307     81.0006   1.2168224051e+02   5.8120787141e+01    0.4997302    0.3345709  68.55   0.00316136    1.619    0.382
        53 -10.9489     72.1248     86.3416   1.0028579910e+02   5.0306913862e+01    0.3224459    0.2565811 -54.95  0.001792141    1.124    0.110
        54 -11.8934     13.9678     75.0671   1.1770908022e+02   5.8963992142e+01    0.5305838    0.3819906 -79.02   0.00341486    1.198    0.165
        55 -10.7760     21.9030     58.4148   1.1143632453e+02   6.2233254003e+01    0.3813064    0.2226009 -76.81  0.001835252    1.761    0.432
        56 -10.2164     33.0189     41.0012   1.0181627038e+02   6.5095194228e+01    0.2737337    0.1498704 -53.03  0.001458668    1.500    0.333
        57 -10.0892    250.2378     37.9987   4.8095344834e+01   1.8119479074e+01    0.1891538    0.1021404 -28.94 0.0008918172    1.653    0.395
        58  -9.4517     40.3342     29.3304   9.4112814725e+01   6.6656414081e+01    0.1348886   0.08405604 -22.24 0.0007052127    1.727    0.421
