#   1 NUMBER                 Running object number                                     
#   2 MAG_AUTO               Kron-like elliptical aperture magnitude                    [mag]
#   3 X_IMAGE                Object position along x                                    [pixel]
#   4 Y_IMAGE                Object position along y                                    [pixel]
#   5 X_WORLD                Barycenter position along world x axis                     [deg]
#   6 Y_WORLD                Barycenter position along world y axis                     [deg]
#   7 A_WORLD                Profile RMS along major axis (world units)                 [deg]
#   8 B_WORLD                Profile RMS along minor axis (world units)                 [deg]
#   9 THETA_WORLD            Position angle (CCW/world-x)                               [deg]
#  10 FWHM_WORLD             FWHM assuming a gaussian core                              [deg]
#  11 ELONGATION             A_IMAGE/B_IMAGE                                           
#  12 ELLIPTICITY            1 - B_IMAGE/A_IMAGE                                       
         1 -12.6593    153.6944     57.9190   7.9447534242e+01   3.9140757845e+01     1.173271     1.050788 -25.46  0.004308074    1.231    0.188
         2 -13.1718    165.1992     43.0302   7.3076766760e+01   3.8515113004e+01     1.136862     1.010442   4.50   0.00427586    1.380    0.275
         3 -13.1730    179.8627     10.3086   6.2311781715e+01   3.8827842974e+01     1.208706    0.9654646  84.49  0.005266555    1.074    0.069
         4 -12.0775    197.7099      6.8561   5.9446632773e+01   3.4999301175e+01    0.8763788    0.4802333 -70.03  0.004495725    1.963    0.491
         5  -9.1826    167.8860    242.8995   1.1778103027e+02  -1.0138965863e+00    0.1947602    0.1655876  11.75 0.0006620888    1.263    0.208
         6 -18.8694     65.4465    229.5001   1.3671262976e+02   1.8323886651e+01     5.296479     4.330367  69.05   0.02303817    1.060    0.057
         7 -10.8713    164.4401    189.3000   1.0928422510e+02   9.8657921686e+00     0.464508    0.3981439  -6.41  0.002433114    1.369    0.270
         8  -9.7249    157.2869    199.9552   1.1286212082e+02   9.0282454661e+00    0.3038458    0.2652374  60.01 0.0009992458    1.161    0.138
         9  -9.0700    150.6790    244.4668   1.2145947039e+02   1.6604451237e+00    0.2003117     0.177365 -51.35  0.001034989    1.315    0.240
        10 -11.8793    246.9321    236.9808   1.0166646286e+02  -1.2668559772e+01    0.2205689    0.1864377   4.67 0.0003745928    1.103    0.094
        11  -8.7944    130.8711    214.8108   1.2116500561e+02   1.0848605050e+01     0.226473    0.1852044  85.40  0.000624199    1.328    0.247
        12 -11.4280    204.1616    176.7501   9.8296309788e+01   4.5658028129e+00     1.154032     0.429752 -54.40   0.00326943    4.738    0.789
        13 -10.1895    202.0126    170.5007   9.7418198420e+01   6.2207262898e+00    0.3786803     0.314934 -67.91  0.001153352    1.442    0.306
        14 -10.4892    204.7173    167.5233   9.6238160695e+01   6.2720156258e+00     1.096082    0.4711905 -55.09  0.003579387    3.445    0.710
        15  -9.1958    198.9185    178.8829   9.9805966175e+01   5.1723396417e+00     0.258578    0.2150736 -59.52 0.0006556519    1.365    0.267
        16 -11.5039    194.8767    169.1872   9.8604140608e+01   7.9199873850e+00    0.5438172    0.4276265 -52.64 0.0008742925    1.332    0.249
        17 -10.2011    192.4989    164.4787   9.8088378493e+01   9.3688902234e+00     0.419007    0.2976311  32.78  0.001466823    1.521    0.342
        18 -10.7935    136.4104    171.1092   1.1215975830e+02   1.9470461080e+01    0.5007223    0.4092148  58.38  0.001602722    1.235    0.190
        19  -9.9429    125.6521    172.8174   1.1508255770e+02   2.1171262012e+01    0.3598329    0.2852742 -83.45  0.001766133    1.403    0.287
        20 -10.0270    142.0183    166.6751   1.0991912199e+02   1.9367976568e+01    0.3697305    0.2268092 -54.86 0.0008071352    1.675    0.403
        21  -9.5326    119.7790    165.0042   1.1499652588e+02   2.4135786346e+01    0.5935977    0.2917237  63.90  0.001796987    3.897    0.743
        22  -8.9516     13.3054    163.7883   1.4099311468e+02   3.9202012190e+01    0.2149796    0.1999971 -81.80  0.001564836    1.246    0.197
        23  -9.1250    189.0129    159.3361   9.7699451101e+01   1.1160064609e+01    0.3966496    0.2305131  24.12  0.001466379    2.658    0.624
        24  -8.4359    250.7102    158.8093   8.5954825816e+01  -7.6013452530e-01    0.1874231    0.1070889 -44.74 0.0002361942    1.619    0.382
        25 -11.3077    162.0662    201.4385   1.1208504781e+02   7.8080369871e+00    0.7546085    0.4631722 -74.58  0.002965764    2.859    0.650
        26 -10.8236    106.8778    157.1096   1.1668236513e+02   2.8424419503e+01    0.3856921    0.3277387  64.48  0.002007178    1.198    0.166
        27 -12.0755    109.6012    151.3385   1.1481067113e+02   2.9320033435e+01    0.8426524    0.7108883  73.50  0.002844533    1.257    0.204
        28  -8.0256    176.6430    155.7882   9.9583435942e+01   1.4537303836e+01    0.2085207    0.1814425  89.08  0.000390792    1.320    0.242
        29  -9.0005    173.8491    152.8447   9.9542579374e+01   1.5774232108e+01    0.2294631    0.2240887 -75.13 0.0003346427    1.028    0.027
        30  -9.8362    133.7133    246.7830   1.2516873769e+02   4.1297830108e+00    0.1981655    0.1852987  80.21 0.0003977284    1.157    0.135
        31 -11.2351    133.9059    145.9562   1.0743795005e+02   2.5842559191e+01     1.325936    0.3680508 -55.26  0.003240837    5.018    0.801
        32  -8.8300      2.7751    158.0102   1.4280859165e+02   4.1377582117e+01    0.2399361    0.1342837 -33.73  0.001222871    2.750    0.636
        33  -8.7256    153.0822    202.6418   1.1426988671e+02   9.2724998144e+00    0.2736442     0.201218 -71.91  0.001337604    1.677    0.404
        34 -10.2707    220.2252    147.3911   8.8858083896e+01   7.1052768344e+00    0.2473335    0.2267789 -48.77 0.0003005727    1.067    0.063
        35  -9.8566    143.2842    145.6628   1.0504998338e+02   2.3953155237e+01    0.6506261    0.2750831 -63.50  0.001576679    5.500    0.818
        36  -8.6681    121.5226    199.4958   1.2079347572e+02   1.5834177036e+01    0.1457284    0.1315495  69.76  0.000189526    1.028    0.027
        37  -9.1619     27.1932    145.5182   1.3546315004e+02   4.2250615791e+01    0.2423412    0.1530061 -69.77 0.0007263949    1.297    0.229
        38 -11.2166    106.6102    136.6492   1.1243915574e+02   3.3401069022e+01    0.3228402    0.2914624  48.91 0.0005772521    1.145    0.126
        39 -10.8812    107.2268    142.3869   1.1353703194e+02   3.1913124717e+01     0.566888     0.337474  18.44  0.002090851    2.859    0.650
        40  -9.8064      4.8690    138.3721   1.4021746379e+02   4.5734565361e+01    0.2577505    0.2186698 -63.34 0.0007473005    1.167    0.143
        41  -9.2879      7.2191    141.5874   1.4000564765e+02   4.4827125010e+01    0.2084898     0.153479 -47.91 0.0008850212    1.425    0.298
        42 -11.2165    116.4846    137.0391   1.0989554117e+02   3.1436374436e+01    0.5592085    0.4051723 -50.44   0.00178134    1.340    0.254
        43 -10.8999    135.3583    122.8049   1.0157154726e+02   3.0861119408e+01    0.6117201    0.2320125 -49.53  0.002003161    2.684    0.627
        44 -11.3070    175.4204    231.3396   1.1443543115e+02  -3.2443173028e-01    0.3981067    0.2852089 -34.10  0.002192117    1.587    0.370
        45  -7.8056    167.3242    130.2631   9.5729857990e+01   2.2129425369e+01    0.1535302    0.1258289  10.32 0.0002967423    1.560    0.359
        46 -10.8471    120.4565    128.4870   1.0684142636e+02   3.2657398104e+01    0.4133209    0.2869012 -52.19  0.001022752    1.412    0.292
        47  -9.4612    160.4925    128.6252   9.6896590894e+01   2.4024559835e+01    0.3679682    0.3059574 -55.49  0.001787654    1.206    0.171
        48 -10.2159    103.8294    128.9101   1.1143272565e+02   3.5750004924e+01    0.2978783    0.2422507  86.56  0.001278227    1.453    0.312
        49 -10.2631    109.4569    124.5543   1.0885867706e+02   3.5720433960e+01    0.2853931    0.2735493 -39.03 0.0005201152    1.056    0.053
        50  -9.3827    238.9987    129.0729   8.1569489649e+01   6.8125144004e+00    0.2097381    0.1901591 -44.57 0.0003327111    1.017    0.017
        51  -9.0015      6.0312    120.9459   1.3770908560e+02   4.9641731276e+01    0.1921246    0.1122868 -44.47 0.0007443447    1.664    0.399
        52  -9.8099    114.0279    118.4238   1.0610272653e+02   3.6247406960e+01    0.2896152    0.2223844 -48.04 0.0003625295    1.264    0.209
        53 -10.2833    174.6815    196.3795   1.0840740980e+02   6.4088946267e+00    0.3654187    0.2227858  30.08  0.001620358    1.805    0.446
        54  -9.2669    169.9593    196.2682   1.0940688289e+02   7.3441426141e+00    0.2078227    0.1855801  40.73 0.0006868725    1.070    0.065
        55  -8.6804     32.3654    115.2762   1.2927525340e+02   4.8878902732e+01    0.1313548   0.08514224 -34.82 0.0004169865    1.673    0.402
        56  -8.4277      7.3178    111.3284   1.3596140823e+02   5.1730299866e+01    0.1275002   0.06974117 -44.71  0.000356292    1.681    0.405
        57 -10.2325    180.2077    193.8283   1.0673279218e+02   5.8522279088e+00     0.387887    0.2831292  82.05  0.001460713    2.153    0.535
        58  -9.7291    153.7646    194.1048   1.1256998765e+02   1.0937481858e+01    0.3926503    0.1587208 -41.31   0.00137189    2.948    0.661
        59 -10.5475    170.6715    184.0576   1.0687855385e+02   9.7311504102e+00     0.449991    0.3294664  38.88  0.002110901    1.343    0.255
        60  -8.9662    113.6504     95.1195   1.0003274799e+02   4.1398651653e+01    0.2089809    0.1911587 -29.30 0.0005471465    1.087    0.080
        61 -11.4147    172.6238    189.5938   1.0754393456e+02   8.1918593065e+00     0.544552    0.4506396   5.00  0.002807237    1.420    0.296
        62  -8.7016    178.9927     83.4914   8.1368699173e+01   2.8763818634e+01    0.2166239    0.1936235 -51.81 5.787104e-05    1.114    0.103
        63  -7.8605    141.6701     84.2892   8.9677954204e+01   3.7464708604e+01    0.1519247    0.1194037 -86.74 0.0007016403    1.621    0.383
        64  -8.4651    145.2221     81.3964   8.8015537513e+01   3.7182511338e+01    0.2068843    0.1419654  62.80 0.0004868475    1.574    0.365
        65  -8.6210     80.8337     78.6481   1.0505359608e+02   5.0726093330e+01    0.1879226    0.1262449  45.79 0.0009383907    1.667    0.400
        66  -9.8089    234.5649     73.7070   7.0036334656e+01   1.7507035388e+01    0.2375708    0.2225334 -86.00  0.000330171    1.150    0.130
        67  -8.5787    120.9716     67.7235   8.9997872551e+01   4.5050503904e+01    0.1934037    0.1795398  37.24 0.0003004675    1.037    0.036
        68 -12.3962    187.3223    240.0262   1.1346138285e+02  -3.8348664615e+00    0.7775029    0.4589944 -53.31 0.0008994095    2.200    0.545
        69  -8.9231    159.8971    247.3129   1.2003038229e+02  -4.0143487609e-01     0.232135     0.184585 -38.75   0.00116139    1.484    0.326
        70 -11.4184    169.2821     35.0339   7.0214731661e+01   3.8570461045e+01    0.3685277    0.3376531 -62.00 0.0008191091    1.149    0.130
        71 -10.4400    132.8193     44.9108   8.0071985609e+01   4.5916173476e+01    0.2314156     0.216434  40.65 0.0002371486    1.033    0.032
        72  -9.1461    227.8684     25.1000   6.0328894474e+01   2.6034390679e+01    0.2774523    0.1693776 -39.91  0.001009769    1.678    0.404
        73 -10.2198    175.7571    186.8680   1.0632599974e+02   8.1352266327e+00    0.3745333    0.3016791  85.28  0.001362813    1.631    0.387
