#   1 NUMBER                 Running object number                                     
#   2 MAG_AUTO               Kron-like elliptical aperture magnitude                    [mag]
#   3 X_IMAGE                Object position along x                                    [pixel]
#   4 Y_IMAGE                Object position along y                                    [pixel]
#   5 X_WORLD                Barycenter position along world x axis                     [deg]
#   6 Y_WORLD                Barycenter position along world y axis                     [deg]
#   7 A_WORLD                Profile RMS along major axis (world units)                 [deg]
#   8 B_WORLD                Profile RMS along minor axis (world units)                 [deg]
#   9 THETA_WORLD            Position angle (CCW/world-x)                               [deg]
#  10 FWHM_WORLD             FWHM assuming a gaussian core                              [deg]
#  11 ELONGATION             A_IMAGE/B_IMAGE                                           
#  12 ELLIPTICITY            1 - B_IMAGE/A_IMAGE                                       
         1 -10.8014     54.7140     18.0445   1.0388699442e+02   6.7282672701e+01    0.5186112    0.3305204  -6.54  0.001687053    1.972    0.493
         2 -12.3709     25.8723     89.1620   1.3887386539e+02   5.4820878572e+01     1.598585    0.8493807 -55.48   0.00828144    1.655    0.396
         3 -12.5764     53.0180     87.1758   1.2885807829e+02   5.2650834412e+01     2.456467     1.509768  -4.55   0.01094519    2.652    0.623
         4 -12.0594     52.1611     34.0842   1.1281158583e+02   6.4708124753e+01     1.325054     0.995246  -7.04  0.007254367    1.475    0.322
         5 -12.4211     41.0543     48.7551   1.2349883110e+02   6.2999192213e+01     1.090355    0.8826916  73.93  0.006230111    1.642    0.391
         6 -11.8578     58.3189     69.1663   1.2245262448e+02   5.6219232477e+01     1.923501    0.8155184 -64.03  0.007135039    2.839    0.648
         7 -11.5448    164.7758     62.6082   8.9263597562e+01   3.6036807827e+01    0.7374176    0.5554791 -14.22  0.002159732    1.360    0.265
         8 -11.4518    122.1822     37.9813   9.0008721036e+01   5.0057438640e+01     1.718649     1.003098  -6.06  0.006719223    2.376    0.579
         9 -11.8244    132.1470     38.5501   8.7835571507e+01   4.7560960277e+01     2.921948     1.322022  -5.54   0.00668604    7.099    0.859
        10 -11.2782    143.9302     38.4179   8.5219042278e+01   4.4664009607e+01      2.15226     1.010993  29.22  0.006932965    3.480    0.713
        11 -12.2239     86.4925     55.1353   1.0744039583e+02   5.4752049152e+01     1.783519    0.6232643 -41.30  0.006203825    2.717    0.632
        12 -12.5517    135.8742      5.4222   7.3845388196e+01   5.0474865289e+01     1.623108    0.7534399  76.64  0.006288112    2.514    0.602
        13 -10.1565    109.9935     37.4112   9.3015781803e+01   5.3002873629e+01     1.028846    0.5172816 -13.96  0.003040216    3.033    0.670
        14 -10.9959    106.9375     30.2033   9.0828073741e+01   5.4797737291e+01     1.543564    0.6715213  43.13  0.005878676    2.361    0.576
        15 -12.5026     70.4869     30.9958   1.0349544377e+02   6.2286154954e+01     2.156493      1.59038  25.40   0.01139276    1.437    0.304
        16 -11.4988     88.5089     32.9315   9.7725029201e+01   5.8433570939e+01     1.481703    0.6007358 -38.40  0.005655035    2.354    0.575
        17 -12.3303    112.1111     22.3579   8.6013002159e+01   5.4650947744e+01    0.7816972    0.6528228  73.65    0.0041342    1.397    0.284
        18 -11.6681    117.1462     15.4214   8.1737724868e+01   5.4252594842e+01    0.3201455    0.2918776 -34.55 0.0002881497    1.164    0.141
        19 -11.7893    113.9269      8.8184   7.9480025342e+01   5.5760572325e+01     1.308077     0.678439  47.16  0.005710604    1.807    0.447
        20 -12.3121    130.7074     20.1282   8.0833516962e+01   5.0309455037e+01     1.239228    0.4468601  56.74  0.003281764    2.525    0.604
        21 -11.8275    127.2029     15.6715   7.9693978012e+01   5.1697116145e+01     1.518767    0.3595462  45.67  0.004248613    4.345    0.770
        22 -11.3042    123.4421     10.1057   7.8067997768e+01   5.3233428857e+01    0.3596636    0.3371773 -27.25 0.0006777024    1.117    0.105
        23 -12.8985    100.0626      6.3708   8.1571857036e+01   5.9408856807e+01    0.9658018    0.4406307 -32.78 0.0004713773    2.172    0.540
        24 -12.0994     93.1278      8.6485   8.4572757308e+01   6.0803672741e+01    0.7458689    0.5825894  25.00  0.002797573    1.227    0.185
        25 -11.0776     88.4359     21.8134   9.2577682889e+01   6.0171173891e+01     1.229818    0.5840873  45.87  0.004381215    2.080    0.519
        26 -11.0449     78.3172      6.7591   8.8125138700e+01   6.4349163705e+01    0.8632823    0.4841634   3.09  0.003677502    2.312    0.568
        27 -10.6831     26.6337      4.7480   1.1164295169e+02   7.3641177289e+01     0.669157    0.4328733 -19.49  0.003256377    1.513    0.339
        28  -8.3267     36.3427      4.6916   1.0565567655e+02   7.2352809365e+01    0.4911472    0.2940261 -49.84  0.001632492    2.079    0.519
        29 -12.8524     62.4769      4.2409   9.2536978854e+01   6.7929256679e+01     1.926664    0.5387244  53.55  0.006402821    4.146    0.759
        30  -8.1287     15.2311     33.5802   1.3161726892e+02   6.8778697626e+01     1.467454    0.3990264 -55.48  0.005988908    2.524    0.604
        31 -11.9622     29.3141     25.7477   1.2086019725e+02   6.9277608867e+01     1.088861    0.6847897 -46.09  0.003534673    1.323    0.244
        32 -12.2323     18.7312     13.7204   1.2176089227e+02   7.2782677594e+01     1.041283    0.6300255 -60.85  0.004806936    1.766    0.434
        33 -12.0529      7.0036     27.1573   1.3435894692e+02   7.0732574742e+01     1.161874    0.4509632   7.14   0.00518324    3.369    0.703
        34 -11.6492     13.5562      8.8807   1.2284953271e+02   7.4206653359e+01    0.3921251    0.3554225  49.76  0.001845052    1.525    0.344
        35 -11.6627      8.1997     19.6405   1.3111933096e+02   7.2331916927e+01     0.423687     0.402453 -61.70  0.002121122    1.237    0.192
        36 -11.5060      2.7368     18.8784   1.3439023390e+02   7.2796224967e+01    0.6026023    0.1932437 -60.69  0.002720178    2.243    0.554
        37 -12.7087      3.1236      5.1703   1.2868225001e+02   7.5706226228e+01     1.055954    0.7020082 -58.12  0.006613061    1.327    0.246
        38 -10.7389    167.2001     26.7834   7.6912684076e+01   4.0214144391e+01     1.014829    0.6166244  18.96   0.00433033    2.109    0.526
        39  -9.8692    169.9445     13.8294   7.2065608847e+01   4.0857712523e+01    0.3087988     0.222805 -45.62 0.0003655817    1.420    0.296
        40 -11.1393    147.4048     26.1265   7.9970974527e+01   4.5352986683e+01    0.8079306     0.517473  12.51  0.003532638    1.928    0.481
        41 -11.1173    148.8694     16.5910   7.6120140922e+01   4.6030730641e+01     1.010754    0.5951855   3.08  0.003382741    2.088    0.521
        42 -10.4421    156.2972     15.0015   7.4370280209e+01   4.4267280917e+01     0.593039    0.3794883 -24.76  0.002531372    1.531    0.347
        43 -10.3818    162.8688     16.8853   7.4091744708e+01   4.2379831577e+01    0.5156947    0.4172792  33.01  0.001940385    1.272    0.214
        44 -11.4084    164.2229      7.4533   7.0568566452e+01   4.2917774572e+01    0.9509524    0.5257951 -13.78  0.003749584    1.890    0.471
        45 -11.6153     66.6948     21.3304   1.0034140174e+02   6.4630501761e+01    0.8884435     0.621829  16.91  0.004401813    1.592    0.372
        46  -9.5656    184.8890     14.6062   7.0519995639e+01   3.6986433098e+01    0.5914037    0.4318045 -15.45  0.003103439    1.370    0.270
        47 -10.3857    177.5636     19.8298   7.3109485675e+01   3.8321939089e+01     0.366715    0.2576367 -37.58  0.001073709    1.386    0.279
        48 -10.0035    178.0452     14.4121   7.1255099751e+01   3.8732975001e+01    0.3849591    0.3010632  82.58  0.000815269    1.356    0.263
        49 -11.7126    184.2536     26.9221   7.4551089959e+01   3.5895580239e+01     0.680348    0.3951198  22.62  0.001233249    2.271    0.560
        50 -12.1271     40.8758     16.4723   1.0999439740e+02   6.9682485181e+01     1.242647    0.6142058 -41.16  0.005953759    1.779    0.438
        51 -10.0718    243.2883     13.1058   6.4907918981e+01   2.3559073350e+01    0.9749351    0.2030808 -38.87  0.003549541    3.373    0.703
        52  -9.3719    237.2684     14.5628   6.5710644784e+01   2.4707344023e+01    0.3058222    0.2133178 -84.26  0.001760188    1.629    0.386
        53 -10.0476    233.0672     11.6880   6.5271828967e+01   2.5877089996e+01    0.3354673    0.2248303 -36.38  0.001455662    1.298    0.230
        54  -9.8376    231.7122     17.5888   6.6929526748e+01   2.5635444296e+01    0.3734098     0.243358 -47.87  0.001128833    1.457    0.314
        55 -10.3507    216.9243     15.1651   6.7505052323e+01   2.9191543049e+01    0.7503195    0.3181316 -13.69  0.003046622    2.585    0.613
        56 -10.0283    211.9922     14.5689   6.7772795829e+01   3.0394974886e+01    0.5714284    0.3270927 -12.23  0.002749343    1.822    0.451
        57 -10.5523    202.0209     19.3341   7.0127601493e+01   3.2313844285e+01    0.4262482    0.3461257  35.77  0.001512056    1.331    0.249
        58  -9.7214    221.9401     11.2902   6.6014410257e+01   2.8394414217e+01    0.4202937    0.1835483 -42.01  0.001890389    2.063    0.515
        59 -10.0547     31.2178     11.4955   1.1275664303e+02   7.1866154225e+01    0.3223323    0.2292632 -20.27   0.00155232    1.313    0.239
        60  -9.0450    192.2873     12.1492   6.8945765525e+01   3.5371296734e+01    0.2254667    0.1797059  55.56 0.0005700431    1.288    0.224
        61  -9.5658    189.9743      8.3476   6.7994053309e+01   3.6285630710e+01     0.255428     0.206234  44.90 0.0003903886    1.295    0.228
        62 -10.0019    193.5898      5.7750   6.6847669335e+01   3.5611584057e+01    0.7109598    0.3150281 -62.30  0.002698342    3.013    0.668
        63 -11.5981    204.0883      6.7094   6.6190441009e+01   3.2974058333e+01    0.5343314     0.408253  44.50  0.001188623    1.414    0.293
        64 -11.3670    209.5444      3.7712   6.4889112569e+01   3.1921364922e+01    0.5822688    0.3220643 -87.69  0.001525946    2.077    0.519
        65 -10.1231    230.4140      2.5794   6.3067320322e+01   2.7244034352e+01    0.7066591    0.1843597  57.86  0.002652857    3.750    0.733
        66  -9.6679    225.7694      7.2078   6.4616117347e+01   2.7887307574e+01    0.5340276    0.1935766 -32.36   0.00127366    2.223    0.550
        67 -11.2566    222.3672      2.0660   6.3470168123e+01   2.9088807073e+01    0.5074836    0.2510854  62.71  0.001506485    2.086    0.521
        68  -9.2155    180.2519      7.9604   6.8878329453e+01   3.8762154095e+01    0.3700662    0.1814771 -27.34  0.001625135    1.901    0.474
        69  -9.7780    173.6446      8.8780   6.9924757161e+01   4.0365070163e+01    0.2638972    0.2182879 -37.21   0.00055549    1.193    0.162
        70 -10.2331    175.1092      4.7073   6.8356746468e+01   4.0350336151e+01    0.4095156    0.3100567  63.10  0.001119213    1.303    0.233
        71 -12.2399     50.6546     10.8421   1.0180275460e+02   6.9136051210e+01    0.4702046    0.3506122  17.58 0.0006365154    1.359    0.264
        72 -10.6459    247.4031      5.7717   6.2812105077e+01   2.3340781948e+01    0.4576022    0.3557214 -60.18  0.002960342    1.261    0.207
        73  -9.1708    157.6740      7.1026   7.1285924539e+01   4.4648405352e+01    0.2626297    0.1916991 -77.46  0.001013024    1.567    0.362
        74  -8.6158    241.3031      1.4377   6.2098635943e+01   2.4981473019e+01    0.1629267    0.1092902 -75.23 0.0009420205    1.597    0.374
        75  -9.6309    196.8901      2.8545   6.5661200063e+01   3.5044019647e+01     0.517782    0.3140154 -35.97  0.002189343    1.531    0.347
        76 -10.0991    104.9426    119.7449   1.1982844691e+02   3.7655443265e+01    0.2762648    0.2286042 -15.95 0.0009134291    1.416    0.294
        77  -8.4543    125.0000    249.9934   1.3359041174e+02   1.2291709977e+01    0.1297704   0.06001167 -54.83 0.0003509554    2.941    0.660
        78  -9.9606    105.1694    116.4453   1.1905337167e+02   3.8324328985e+01    0.4333572    0.1397812  36.55  0.001457032    3.249    0.692
        79  -9.6351     40.3014    116.6271   1.3806000111e+02   4.7010018914e+01    0.4057861    0.1998834  74.49  0.001709082    2.850    0.649
        80  -9.8441     12.7368    117.2565   1.4632072435e+02   4.9107218385e+01    0.2650072    0.1935363  39.52 0.0009783823    1.447    0.309
        81  -9.1425     64.5004    138.4908   1.3415469524e+02   3.9367006944e+01    0.2613375    0.1209484  32.26  0.001211699    2.169    0.539
        82 -10.2930    132.7031    111.3887   1.1062874210e+02   3.4348338986e+01    0.5213412     0.321106 -35.79  0.002068853    1.683    0.406
        83  -8.7572     45.0151    113.4559   1.3618630594e+02   4.7283682817e+01    0.1834417    0.1264973  29.48  0.001027228    1.585    0.369
        84  -8.8282    195.5061    112.4636   9.7272808846e+01   2.1500888394e+01    0.1418857    0.1256229  -0.95  0.000388622    1.006    0.006
        85  -9.7361    105.5388    109.1149   1.1729010548e+02   3.9836324692e+01     0.468961    0.2819512 -50.73  0.002004839    1.651    0.394
        86  -9.3665     75.8860    102.5060   1.2458217005e+02   4.6052656012e+01    0.2449061    0.2361504  72.32  0.001487136    1.067    0.063
        87 -10.6276     67.4788    108.1068   1.2834145675e+02   4.5912662051e+01    0.6788948    0.3479663 -46.09  0.003052751    2.024    0.506
        88 -10.1020     74.1089    108.0192   1.2628356505e+02   4.5034220150e+01     0.348232    0.3131825  10.46  0.001195973    1.257    0.205
        89  -9.2497     81.0800    102.3082   1.2292553347e+02   4.5333054499e+01    0.2519697     0.211598  43.87  0.001048537    1.239    0.193
        90 -10.7091     87.5641     99.6065   1.2030876583e+02   4.4939117472e+01    0.7290645    0.4742082   1.83  0.002720108    2.615    0.618
        91  -9.6985     34.9251    109.8548   1.3880509344e+02   4.9107533812e+01    0.2967469    0.2108211 -66.29  0.001751833    1.253    0.202
        92  -9.1887    211.0025    240.1696   1.1795272319e+02   2.6085233058e+00    0.1705831    0.1298789  -3.46  0.001309675    1.295    0.228
        93  -9.4204    120.5740    108.9751   1.1316170774e+02   3.7146553144e+01    0.2734892     0.202995  22.04 0.0007314658    1.525    0.344
        94  -8.6901     97.3924    103.7378   1.1835053884e+02   4.2403715527e+01    0.2661886     0.169315  48.54  0.001245509    1.692    0.409
        95 -10.1023     25.5435     66.5737   1.3500157326e+02   6.0293661594e+01    0.4908497    0.2354546 -44.41  0.002331918    2.003    0.501
        96 -11.3808      4.8905     80.1983   1.4527320710e+02   5.8309317965e+01    0.9514863    0.3319766 -68.38  0.004369788    2.151    0.535
        97 -11.0289    116.7528     98.6227   1.1156617267e+02   4.0007219288e+01    0.6153833    0.5087911  37.93  0.002584901    1.225    0.184
        98 -11.0538     68.4085     75.8863   1.2058315525e+02   5.3272020029e+01     1.197134    0.7158177 -19.06  0.004829774    2.786    0.641
        99  -8.8506    184.1770    100.7853   9.6456221355e+01   2.5645804777e+01    0.2107671    0.1636274   6.65  0.001080516    1.351    0.260
       100  -9.1248      9.9347     99.9224   1.4560961856e+02   5.3336214653e+01    0.1883515     0.147185  81.51 0.0007620574    1.153    0.133
       101  -9.8348    159.4208     96.5481   1.0043443307e+02   3.1640940776e+01    0.3565965    0.3219995  43.34  0.001207717    1.162    0.140
       102  -9.6533    187.6916     93.1323   9.3764298119e+01   2.6094295042e+01    0.3417568    0.2423545 -40.73  0.001054179    1.456    0.313
       103  -8.8951    206.8150     92.4572   9.0228864209e+01   2.2132570064e+01    0.2738115    0.1438226 -46.51  0.001141791    2.325    0.570
       104 -10.0944    114.3241     51.7457   9.7419333903e+01   4.9648949748e+01      0.60787    0.3869251 -28.13  0.002730056    1.575    0.365
       105 -10.0110     89.3921     78.1090   1.1402826916e+02   4.9409598161e+01    0.5811044    0.2744464  34.53  0.002303522    2.364    0.577
       106 -11.7865    124.1629     70.4169   1.0122353186e+02   4.4095143231e+01     1.375764     1.027096 -87.77  0.006066781    2.132    0.531
       107  -9.0322    126.6397     64.0128   9.8434484019e+01   4.4720659704e+01    0.2172933    0.1996288  29.79 0.0003451597    1.094    0.086
       108 -10.9789     96.0867     63.6954   1.0725571965e+02   5.1207196792e+01    0.9896939    0.4859183  29.70  0.003624924    2.803    0.643
       109 -11.3601    104.6137     54.4969   1.0129228022e+02   5.1263168415e+01     1.021021     0.507921  30.59   0.00181976    2.808    0.644
       110 -11.1758    118.0921     86.3955   1.0781489454e+02   4.2249674620e+01    0.8824189    0.6910872  71.66  0.003652861    1.688    0.408
       111 -10.6768    112.8720     82.9681   1.0828216964e+02   4.3988143021e+01    0.4127552    0.3638819  70.53 0.0003718119    1.342    0.255
       112 -10.9140    102.5001     70.4963   1.0749759041e+02   4.8579725706e+01    0.7169786    0.4400218 -54.36  0.002184343    1.846    0.458
       113  -9.2306    109.7371     59.0832   1.0142020367e+02   4.9325110039e+01    0.3457151    0.3057985 -18.60  0.001000321    1.091    0.084
       114 -10.9732    108.7868     67.7633   1.0469422189e+02   4.7861998189e+01    0.8531211    0.4685594  42.31  0.003609074    1.885    0.469
       115 -10.6816    114.8593     60.6517   1.0049185085e+02   4.7933078235e+01    0.7364522    0.4096317  22.58  0.002602135    2.999    0.667
       116 -11.3672    105.5819     87.1366   1.1161308185e+02   4.4531807275e+01    0.7715192    0.7408732  20.53  0.004390642    1.063    0.059
       117 -11.9515    100.5508     79.0343   1.1076745297e+02   4.7187181220e+01     1.022969    0.8150445  76.03  0.004731235    1.687    0.407
       118  -9.7988     82.4281     90.4859   1.1968349779e+02   4.7814941452e+01    0.3133774    0.2615117  30.44  0.001235368    1.278    0.217
       119  -9.0519    194.4166     89.7734   9.1641892562e+01   2.5154091026e+01    0.2873932    0.2026925   5.70  0.001071655    1.620    0.383
       120  -9.3493     74.4523     89.0288   1.2192875149e+02   4.9367931577e+01    0.3034107    0.2458834  15.13  0.001647284    1.426    0.299
       121 -10.0917    152.7056     87.2788   9.9340185070e+01   3.4735469111e+01      0.39445    0.2721419  31.01  0.001094724    1.564    0.361
       122  -9.6212    160.4326     81.7704   9.6023900406e+01   3.3964375050e+01    0.3798066    0.3364324 -79.07  0.001992193    1.421    0.296
       123 -10.2351     82.7105     83.8984   1.1786144800e+02   4.9254506852e+01    0.4463376    0.2927687 -47.17   0.00216676    1.433    0.302
       124  -9.7998    217.6160     79.6556   8.5192209498e+01   2.1624149568e+01    0.7402709    0.3142537 -10.82   0.00225748    4.382    0.772
       125 -10.2240    134.6325     80.8237   1.0176657412e+02   3.9869981037e+01    0.7181374    0.3626429 -28.28  0.002716027    2.302    0.566
       126 -10.0340    150.4888     75.1135   9.6213978308e+01   3.7354474176e+01    0.6866598    0.4540758   1.97   0.00285508    2.124    0.529
       127  -9.8859    132.3513     68.2172   9.8365147639e+01   4.2683899395e+01    0.5353496    0.3034362  62.75  0.002088342    2.381    0.580
       128 -10.3928    144.0485     76.4978   9.8134535201e+01   3.8573590002e+01    0.4757342     0.309079 -12.92  0.002011601    1.950    0.487
       129 -10.4985    138.9484     74.7638   9.8823196848e+01   4.0028072600e+01    0.7474121    0.2900622 -47.23  0.002426199    3.121    0.680
       130  -9.5409    143.9969     70.8523   9.6375860955e+01   3.9573265727e+01    0.3723959    0.2073505 -41.75  0.001169319    1.804    0.446
       131  -9.8135    140.5133     67.1284   9.5999528312e+01   4.1015951786e+01    0.5199913    0.4019583  -7.55  0.001778435    1.427    0.299
       132  -9.6961     17.2004     82.4014   1.4101412999e+02   5.7075191998e+01    0.2817331    0.1823044  -0.26  0.001578224    2.032    0.508
       133  -9.1864    123.2224     81.1309   1.0484637461e+02   4.2244886893e+01    0.3551655    0.2063387  30.09  0.001441596    2.104    0.525
       134  -9.0630     13.2187     77.2212   1.4176847164e+02   5.8573678540e+01    0.2855262    0.1475151 -88.92 0.0007638757    1.971    0.493
       135 -11.4584     76.9204     75.2339   1.1738873021e+02   5.2124421640e+01     1.059342    0.7397055   6.64  0.004986056    1.973    0.493
       136  -9.6210     37.0307     75.5390   1.3227439295e+02   5.7140446761e+01    0.2474542     0.186667 -57.27 0.0005906416    1.149    0.130
       137  -9.4423     18.0000     75.0079   1.3958788820e+02   5.8806579625e+01    0.3337873    0.1523659 -73.91  0.001215342    1.907    0.476
       138 -10.6439     21.5680     72.6528   1.3778457903e+02   5.9128704449e+01    0.3861187     0.239111  61.57  0.000802499    1.950    0.487
       139 -11.2057     40.7069     63.3505   1.2791754609e+02   5.9671063540e+01    0.5251324    0.3599317 -26.83  0.001869345    1.665    0.400
       140  -8.3393    192.6070     73.7663   8.7530570562e+01   2.7897896863e+01    0.2121257    0.1234398 -37.56  0.000945567    1.653    0.395
       141  -9.5635    214.9835     71.2920   8.3350519129e+01   2.3282270668e+01    0.3456564    0.1871162 -27.16  0.001155681    1.654    0.395
       142 -10.9501     89.0701     89.2411   1.1724216860e+02   4.7013652489e+01    0.5896389    0.4987111  -4.41  0.003106395    1.363    0.266
       143  -8.8963    155.3637     70.7831   9.3787563580e+01   3.6959439094e+01    0.3751945    0.2343508 -19.94  0.001615219    1.753    0.430
       144 -10.1100    150.6423     67.0686   9.3647194178e+01   3.8673466111e+01    0.4625757    0.3207594  39.23  0.001327736    1.483    0.326
       145  -9.0461    155.5163     66.4979   9.2402285511e+01   3.7622768768e+01    0.2672561    0.2346587  65.01  0.001395894    1.281    0.219
       146 -10.2578    250.1751     67.3664   7.7876581687e+01   1.6562292292e+01    0.5970457    0.1765144 -21.51  0.002072266    3.452    0.710
       147  -8.6691    202.2231     68.6332   8.4522071151e+01   2.6445746027e+01    0.1998619    0.1697388 -30.88 0.0008773855    1.124    0.111
       148 -11.4251    175.7044     57.2839   8.5544557228e+01   3.4198706252e+01     1.090867    0.7289776 -37.45  0.004793374    1.456    0.313
       149  -9.3560     12.1980    232.6743   1.5223170980e+02   2.6631381932e+01    0.2009501   0.09079897  53.18  0.001427855    1.567    0.362
       150 -10.8262     32.2557     70.9124   1.3317222603e+02   5.8690980312e+01    0.7044557    0.2975151 -62.68  0.002956801    1.964    0.491
       151  -8.8324    188.2443     64.6593   8.5627146229e+01   3.0191168413e+01    0.3781858    0.1971423  69.48  0.001467395    2.670    0.625
       152  -8.9172    135.5184     63.5613   9.6027657121e+01   4.2780844389e+01      0.30776    0.1454859 -34.62 0.0008373237    2.049    0.512
       153  -9.8221     76.4574     51.7214   1.0979427450e+02   5.7252659435e+01    0.5200302    0.3715602 -71.61  0.002344587    2.097    0.523
       154 -10.0291     77.8328     61.7588   1.1284748247e+02   5.4923308304e+01    0.6025233    0.3329964 -41.83  0.002404995    1.698    0.411
       155  -9.4783     74.7563     56.6538   1.1221969977e+02   5.6522104453e+01    0.3015579    0.2298378  34.08  0.001237782    1.405    0.288
       156 -10.2341     71.1257     54.7119   1.1290516430e+02   5.7531619797e+01     0.403199    0.2336632 -49.25 0.0007477431    1.633    0.388
       157 -11.2552     27.5642    102.0344   1.4011591313e+02   5.1597338243e+01    0.8474178    0.4295933   1.18  0.003756367    3.271    0.694
       158  -9.7106    149.7068     59.9120   9.1515352100e+01   4.0055059913e+01    0.4246374    0.2249331 -40.74 0.0009460459    1.896    0.473
       159  -8.8826    227.7111    231.7075   1.1413238103e+02   1.3392507014e+00    0.2334788   0.07399981  37.57  0.001194896    2.608    0.617
       160  -9.3985    136.6000    225.7171   1.2906075231e+02   1.4000951265e+01     0.179585     0.105052 -44.30  0.001145981    2.149    0.535
       161  -8.1192    114.7377    223.3192   1.3289012207e+02   1.7185145148e+01    0.1047546   0.07243835  58.00 0.0003976715    1.549    0.354
       162 -10.0847    123.9926    206.0080   1.2918668747e+02   1.8570466171e+01    0.1650769    0.1357969  35.74            0    1.004    0.004
       163 -11.1859     95.5992     47.3444   1.0140481615e+02   5.4455696421e+01      1.24659    0.8424203  11.93    0.0045717    1.999    0.500
       164 -10.4479     26.8203    191.8146   1.4785211074e+02   3.2339101690e+01    0.3239257    0.2382078  82.37  0.002275006    1.222    0.182
       165 -11.0839     17.8266    186.5102   1.4943515621e+02   3.4102410066e+01    0.3582108    0.2837946  10.48  0.001305544    1.715    0.417
       166 -10.0532     11.9694    184.2583   1.5054349315e+02   3.5000681060e+01    0.2193844      0.15673 -76.70  0.001174279    1.424    0.298
       167 -10.4898      4.9339    184.9849   1.5201387905e+02   3.5402033640e+01    0.4649423    0.1062129  47.63  0.002285177    2.882    0.653
       168  -9.8554     38.7541    176.9590   1.4438311183e+02   3.4071134166e+01    0.3021476    0.1507139 -76.98  0.001722742    1.971    0.493
       169  -9.0370      1.5855    177.7689   1.5244319494e+02   3.7016566065e+01    0.1487781   0.07613968  77.17 0.0009392971    1.651    0.394
       170  -9.3861     62.8938    167.8290   1.3806633623e+02   3.3342610925e+01    0.2422097    0.1633364 -82.08  0.001123821    1.531    0.347
       171  -9.0060      9.2199    167.3085   1.5037169247e+02   3.8516854993e+01    0.1901491    0.1350289  80.82  0.001366014    1.170    0.145
       172  -8.9616     13.4478    164.9601   1.4930759371e+02   3.8671335058e+01       0.2147    0.1192086  48.75  0.001359303    1.537    0.349
       173 -10.3864      2.5519    159.7768   1.5153056083e+02   4.0515589204e+01    0.5447462     0.202048  87.07  0.002764094    2.475    0.596
       174 -10.1379     22.9249    136.4745   1.4509314368e+02   4.3996999864e+01    0.5922426    0.1475242 -57.25   0.00230155    3.754    0.734
       175 -10.6665     16.6431    158.7450   1.4822516536e+02   3.9699296701e+01    0.3635958    0.2469702 -37.37  0.002301534    2.103    0.525
       176 -11.9376     19.6502    148.3411   1.4683306569e+02   4.1660950110e+01    0.6749063    0.6193017 -45.55  0.004176004    1.368    0.269
       177 -10.2963    221.4793     57.9507   7.8865844103e+01   2.3549350795e+01    0.5280069    0.3274502 -15.68  0.002126375    1.572    0.364
       178  -8.6982    219.1805     52.8683   7.7770641468e+01   2.4662766379e+01    0.2726351    0.1860635  25.71 0.0004998461    1.704    0.413
       179 -10.0741    221.4833     48.4900   7.6292024427e+01   2.4667273968e+01    0.4674379    0.2624559 -29.70  0.002262569    1.557    0.358
       180 -10.4756    201.0819     57.2971   8.1462967671e+01   2.8204959879e+01    0.6146579    0.3686672  12.67   0.00258444    2.320    0.569
       181  -9.0901    158.2482     58.6858   8.9308883251e+01   3.8198933072e+01    0.4358938    0.2384541  22.11  0.001521298    2.992    0.666
       182 -10.2927      3.0109     57.6888   1.4305388526e+02   6.3786206188e+01    0.3138334    0.2616258  66.65  0.002121514    1.338    0.253
       183  -9.8297    157.3087     51.3306   8.7056519678e+01   3.9524141907e+01     0.881254    0.5075955  16.63  0.003251449    2.731    0.634
       184 -11.5936    141.3933     51.6847   9.0549057422e+01   4.3344183324e+01    0.7838107    0.3952341  51.24  0.001277713    1.974    0.493
       185 -10.7800    149.8442     51.0964   8.8500928621e+01   4.1383747070e+01    0.5053419    0.4384484 -20.12  0.001504374    1.113    0.102
       186  -9.6993    188.9588     49.2809   8.0890467775e+01   3.2089724024e+01    0.3566949    0.2786215 -60.41  0.001274265    1.488    0.328
       187  -8.7622    192.8206     53.8012   8.1668265846e+01   3.0586320631e+01    0.1922083    0.1631772 -57.81 0.0003046098    1.318    0.241
       188 -10.7002     39.0008    145.7793   1.4172465255e+02   4.0524602778e+01    0.4508396     0.291252 -76.83  0.001758241    1.435    0.303
       189 -10.9054     27.7206     51.4040   1.3044902314e+02   6.3712581759e+01    0.6195564    0.2565939 -42.86  0.002696307    2.293    0.564
       190 -11.0761     34.8083    150.1547   1.4319076314e+02   3.9970706295e+01    0.4693959    0.2627752  51.21  0.002276015    1.650    0.394
       191  -9.9042     34.0660    155.8417   1.4385362902e+02   3.8825323872e+01    0.1762543    0.1643291  31.64 0.0003562382    1.269    0.212
       192  -9.2754     52.6563    151.9249   1.3887534847e+02   3.7797935253e+01    0.1889728    0.1688065  22.00  0.001280988    1.303    0.232
       193 -10.0522     67.2338    148.4586   1.3476436813e+02   3.6863565155e+01    0.3024335    0.1992711 -83.70  0.001433787    1.636    0.389
       194 -11.2858     22.2739     45.2535   1.3136830328e+02   6.5588926699e+01    0.5575973    0.4910068  56.52  0.003460922    1.380    0.275
       195  -9.6587     19.4638    119.1890   1.4453232189e+02   4.8188600125e+01    0.4032092    0.2412735 -58.90  0.002023802    1.592    0.372
       196  -8.7379     27.7260    115.9774   1.4175984003e+02   4.8289560697e+01    0.2182589    0.1338222 -60.52 0.0003290998    1.502    0.334
       197 -10.1095      3.4041    147.1062   1.5074750487e+02   4.3097859817e+01    0.4462983    0.2176275  60.51  0.002001667    1.801    0.445
       198  -9.7968      6.3976    142.5895   1.4977397174e+02   4.3866725170e+01    0.4289122    0.2031619  48.27  0.002458459    1.884    0.469
       199 -10.5263     27.0416    126.3838   1.4305326104e+02   4.5939450679e+01    0.7231404    0.3949801 -63.28  0.003986683    1.667    0.400
       200 -10.2332      4.3065    136.0943   1.4993981926e+02   4.5414664126e+01    0.4826837    0.2925455  71.88  0.003036335    1.430    0.301
       201 -10.5998     19.2836    128.8417   1.4544095768e+02   4.5994025496e+01    0.2997184    0.2386262 -49.07 0.0002824866    1.435    0.303
       202  -9.6329      9.0090    134.5305   1.4862373024e+02   4.5452227405e+01     0.221163    0.1931753  50.14 0.0007139434    1.218    0.179
       203  -9.4672    237.0764     49.9003   7.4910719442e+01   2.1158767067e+01    0.4298678    0.1475271 -30.76  0.001429097    2.331    0.571
       204  -7.9586    213.3144     50.3191   7.7802313605e+01   2.6277431180e+01    0.1434959    0.1009148  19.77 0.0003119253    1.652    0.395
       205 -11.7109     20.7825    109.4488   1.4315702581e+02   5.0363759947e+01     3.079195    0.8789483  11.35  0.008775741    8.189    0.878
       206  -9.9489     67.8922     44.9511   1.1051397406e+02   6.0078788716e+01    0.4675722    0.3923966 -57.13     0.002402    1.325    0.245
       207 -10.6562     24.5684     35.8258   1.2729778541e+02   6.7548189528e+01    0.5837582    0.2714655 -72.32  0.001524147    2.964    0.663
       208 -10.2155    164.4451     57.2217   8.7604724391e+01   3.6923460244e+01    0.4308151    0.3549252  23.76   0.00115872    1.264    0.209
       209  -8.6548     80.1398     46.6995   1.0649957218e+02   5.7592601943e+01    0.1985179     0.177696  20.96 0.0005767239    1.150    0.131
       210  -9.7843    206.9825     44.3096   7.6898988144e+01   2.8440090240e+01    0.4822941    0.3224522 -40.30  0.002441006    1.437    0.304
       211 -10.7003    202.5942     37.9050   7.5582400461e+01   3.0210174663e+01    0.5017397    0.3638251  37.16  0.002202118    1.499    0.333
       212 -10.2373    194.6581     31.0416   7.4510290483e+01   3.2883541467e+01    0.3792876    0.2874984  -6.28  0.001195975    1.368    0.269
       213 -10.1352    186.5071     52.9961   8.2406494795e+01   3.2193037363e+01    0.4407244    0.2375228   1.63  0.001580543    2.998    0.666
       214  -8.7407     76.0131     46.3005   1.0787974935e+02   5.8416902730e+01    0.1968092    0.1799367   1.83 0.0005222132    1.091    0.083
       215  -8.4776    248.5062     44.5291   7.2391092644e+01   1.9401993000e+01    0.1285089     0.110121 -18.79 0.0001971706    1.046    0.044
       216  -9.7731    232.8155     42.1803   7.3340451764e+01   2.2908333073e+01    0.5309945    0.2746401   1.83  0.002145904    2.892    0.654
       217  -8.1773      1.4758     44.4813   1.4152624762e+02   6.6981983412e+01    0.1279341   0.09358048 -56.05 0.0002187269    1.120    0.107
       218  -8.5496    215.5059     41.9704   7.5190144482e+01   2.6752285921e+01     0.196159    0.1116618   7.01 0.0008092327    2.469    0.595
       219 -10.0034    191.2821     39.6307   7.7593182909e+01   3.2721395157e+01    0.5270231    0.2653533 -10.71  0.001100152    2.415    0.586
       220 -11.1654    162.3707     38.1463   8.1617216168e+01   4.0071724004e+01    0.5525142    0.2927605 -23.81  0.001916552    1.861    0.463
       221 -11.6316     13.8498    130.1166   1.4702705029e+02   4.6102946542e+01    0.7287062    0.4316675  88.87  0.003618037    1.481    0.325
       222  -8.8145     98.3003    141.6279   1.2576610918e+02   3.4071304374e+01    0.1385339    0.1000942  74.27 0.0007030139    1.747    0.428
       223 -10.3537    154.2760     24.8721   7.8303493739e+01   4.3737548693e+01    0.4369394    0.2563359 -32.61   0.00181173    1.650    0.394
       224  -9.6961    159.4824     24.3217   7.7251376515e+01   4.2463333417e+01    0.3351028    0.2967797  58.35  0.001382967    1.138    0.122
       225  -8.4782     60.4956    147.4936   1.3637282346e+02   3.7872759150e+01    0.1228686    0.1118401  75.55 0.0002326905    1.016    0.015
       226  -9.4420     81.0149    138.9537   1.2982120768e+02   3.7133384786e+01    0.2033258    0.1550279 -27.64 0.0005157162    1.678    0.404
       227 -10.0562     54.7141    137.3792   1.3664316170e+02   4.0752458746e+01    0.2632235    0.2107837  67.16  0.001128278    1.197    0.165
       228 -11.7495     55.2810    129.3380   1.3542548665e+02   4.2499737431e+01    0.8871389    0.3143125 -60.36  0.002987853    2.518    0.603
       229 -10.4398     41.3037    133.8533   1.3987374659e+02   4.2949755494e+01    0.4248079     0.146384  52.31  0.001657467    3.375    0.704
       230 -10.7142    199.9667     31.4693   7.3989178978e+01   3.1554053673e+01    0.3683068    0.2655133 -61.46  0.000399216    1.568    0.362
       231  -9.7348    180.5997     39.1819   7.8998704435e+01   3.5391323732e+01     0.417394    0.2805994 -48.35  0.001984859    1.593    0.372
       232  -9.1718     77.2749     41.2742   1.0536416735e+02   5.9158547993e+01    0.2648925    0.1937937  51.44 0.0008909952    1.609    0.378
       233 -10.7616     65.0730    130.3484   1.3282832765e+02   4.1114408381e+01    0.3596815    0.2443574  37.00  0.001580482    1.479    0.324
       234  -8.1625      4.7018     41.0305   1.3919658586e+02   6.7655166361e+01    0.1581177    0.1285449 -57.51 0.0007846237    1.036    0.035
       235  -9.2067    173.6797     39.1312   8.0057373939e+01   3.7114980237e+01    0.2697457     0.205905 -85.99  0.001323089    1.619    0.382
       236  -9.2689    168.7134     36.5908   8.0014992401e+01   3.8672997779e+01     0.288782     0.232033 -40.55  0.001494693    1.251    0.201
       237  -9.4859    246.9157     33.2558   6.9707188552e+01   2.0887168965e+01    0.4039171    0.2212239  61.42  0.001848512    2.040    0.510
       238  -9.3346    234.2156     35.0057   7.1309369066e+01   2.3370750395e+01     0.220471    0.1731619 -13.66  0.001297429    1.206    0.171
       239 -10.8749    237.8068     32.7166   7.0375221646e+01   2.2840009868e+01    0.4750206    0.3463065  76.80  0.002289069    1.599    0.375
       240 -10.1729    210.5218     32.8691   7.3175280339e+01   2.8905379251e+01     0.437336     0.228506 -17.04  0.001656531    1.923    0.480
       241  -9.2706     37.5296     34.2861   1.2000055773e+02   6.6574785844e+01    0.3595439    0.1984596 -37.88  0.001592254    1.673    0.402
       242  -8.2093      1.2724     35.6405   1.3982663080e+02   6.9056817001e+01    0.1182788   0.08406153  77.50 0.0007001143    1.651    0.394
       243 -10.3763    226.5170     28.7253   7.0366756337e+01   2.5697795566e+01    0.6422663    0.2571336 -40.37   0.00273146    2.240    0.554
       244  -9.9494     74.2137    125.2117   1.2943829590e+02   4.1095975452e+01    0.6417407    0.1939597  46.44   0.00215558    3.828    0.739
       245  -9.6603     72.0048    132.4983   1.3123939157e+02   3.9755151278e+01    0.2460137    0.1985267 -22.05 0.0008062701    1.577    0.366
       246 -10.5110     72.3652    129.0624   1.3059522550e+02   4.0475728162e+01    0.4544776    0.3521844  32.13  0.002631878    1.349    0.259
       247 -10.5094    177.3790     29.0957   7.6194955265e+01   3.7377259150e+01    0.5679027    0.3594866 -19.53  0.002005568    1.562    0.360
       248  -9.5556     95.7573    130.3101   1.2441308601e+02   3.6860207295e+01    0.2790429    0.1806011 -45.92  0.001405509    1.608    0.378
       249  -9.0521    119.4600     27.6047   8.6448902173e+01   5.2181787817e+01     0.281745    0.1800457 -54.35 0.0007342336    2.033    0.508
       250  -9.4758     35.4200    130.1843   1.4109657871e+02   4.4339976633e+01    0.2399775     0.155481  52.00  0.001395116    1.504    0.335
       251  -9.1724    219.5275     25.3574   7.0111680690e+01   2.7610145625e+01    0.2342067    0.1649583  79.97 0.0005602284    1.605    0.377
       252  -8.4159    201.4133     25.4985   7.2033769313e+01   3.1840532551e+01    0.1373253    0.1268364 -28.02 0.0002236116    1.016    0.016
       253  -8.9083    193.4786     24.4553   7.2627696490e+01   3.3875439016e+01    0.2318763    0.1512877  15.87 0.0009542459    1.879    0.468
       254 -10.3889     37.8560    127.1653   1.4007672352e+02   4.4802389753e+01    0.2242977    0.1669114 -61.09 0.0008618172    1.308    0.235
       255  -9.0541    241.0287     23.5561   6.7734643522e+01   2.3065067942e+01    0.4431756    0.1992577 -27.77  0.001573673    1.841    0.457
       256 -10.7707     48.7371    125.3182   1.3673961428e+02   4.4136019492e+01    0.3252755     0.245133  43.75  0.001957838    1.336    0.252
       257 -10.1213     67.8091    115.4916   1.2960794630e+02   4.4158778067e+01    0.5782815    0.2139517  40.58  0.002194779    2.674    0.626
       258  -9.6238    242.9944     18.4906   6.6291074372e+01   2.3129687316e+01    0.5227165     0.206856 -61.36  0.001968493    3.778    0.735
       259  -8.7200    239.0880     18.6438   6.6625950473e+01   2.3941924609e+01    0.2479021    0.1958099  44.33  0.001519582    1.446    0.308
       260  -9.1737    230.8247     21.8435   6.8131570267e+01   2.5426983064e+01    0.4407721    0.1881402 -47.71  0.001639867    2.367    0.577
       261 -11.1251     67.6018    122.3429   1.3084746113e+02   4.2613115338e+01    0.7629724    0.3200209 -43.96  0.002999015    2.952    0.661
       262  -9.0112    235.4760    249.4984   1.1537378142e+02  -1.1679646965e+00    0.1019979   0.06807075  16.46 0.0002093182    1.017    0.017
       263 -10.2155     56.4760     48.6688   1.1665401507e+02   6.1055715132e+01    0.8765092    0.7626935  56.61  0.005105952    1.416    0.294
       264 -10.7868      3.7553     99.8289   1.4758918689e+02   5.3704325633e+01     0.740223    0.2529289 -73.67    0.0027173    2.284    0.562
       265  -9.3757    198.1962     16.7862   6.9758045483e+01   3.3486615389e+01    0.2800919    0.1877034  62.91 0.0008906961    1.527    0.345
       266  -8.2369     61.2849     15.6947   9.9654295866e+01   6.6521561874e+01    0.1254986    0.1072154 -57.66 0.0005236007    1.562    0.360
       267  -9.4149     16.9783    249.4938   1.5193481591e+02   2.3700192101e+01    0.1388301   0.06870392  36.01 0.0009273368    1.601    0.375
       268  -8.3874     25.6552    248.7227   1.5049704956e+02   2.3060539476e+01   0.07670148   0.06846554  14.14 0.0004519534    1.629    0.386
       269 -12.4724      5.6869    114.9598   1.4819516073e+02   5.0077877649e+01     1.192672    0.3105083 -61.58  0.004993212    3.094    0.677
       270 -11.7179     17.1891    102.4079   1.4352569024e+02   5.2283328794e+01     1.029943    0.4497016  71.01  0.004410216    2.920    0.657
       271  -9.7418     34.9891    245.2818   1.4881715164e+02   2.2719720983e+01    0.2153964   0.08707415 -58.01  0.001314534    3.480    0.713
       272 -11.0702     49.5603     25.5370   1.1015345388e+02   6.6752533515e+01     0.464775    0.2421012  33.08  0.001529064    2.105    0.525
       273 -12.0878     15.5531     61.9908   1.3832342864e+02   6.2098009094e+01     1.292994    0.6067751 -21.52  0.005661671    3.138    0.681
       274 -11.1793     13.5816     56.7401   1.3817842808e+02   6.3474488526e+01     1.206805    0.5102192  62.38  0.004261342    4.753    0.790
       275 -11.2119      3.0337     89.0022   1.4685337107e+02   5.6299610571e+01    0.4822398     0.340745 -62.43  0.003087886    1.256    0.204
       276 -11.8957     12.0874     87.2284   1.4349919306e+02   5.6233774975e+01     0.635846    0.3611089  50.07  0.003484594    1.922    0.480
       277 -11.2452     34.3593     58.6932   1.2940170080e+02   6.1402673143e+01    0.7849162    0.3963911 -43.93  0.002745119    1.843    0.457
       278 -12.0688     46.3312     69.6129   1.2724876225e+02   5.7584874942e+01     1.124331    0.4488929  38.91  0.004655735    2.758    0.637
       279  -9.7706    141.5293    244.2580   1.3016325920e+02   1.0964830026e+01    0.2122464    0.1438219   3.88 0.0009763919    1.917    0.478
       280 -10.9610     30.7778     43.0980   1.2653383287e+02   6.5346548670e+01    0.4059134    0.2929963  61.28  0.001652144    1.928    0.481
       281  -9.3406     92.7202    111.6439   1.2150725442e+02   4.1423395836e+01    0.3710037    0.2464328 -44.81  0.001836952    1.515    0.340
       282  -9.9374     91.7885    120.3224   1.2357703438e+02   3.9649242730e+01    0.4591282    0.2673014 -34.17  0.002017592    2.247    0.555
       283 -10.2534     97.4545    115.1267   1.2090984585e+02   3.9892359415e+01    0.4604305    0.2616478  25.41  0.001996814    2.177    0.541
