#   1 NUMBER                 Running object number                                     
#   2 MAG_AUTO               Kron-like elliptical aperture magnitude                    [mag]
#   3 X_IMAGE                Object position along x                                    [pixel]
#   4 Y_IMAGE                Object position along y                                    [pixel]
#   5 X_WORLD                Barycenter position along world x axis                     [deg]
#   6 Y_WORLD                Barycenter position along world y axis                     [deg]
#   7 A_WORLD                Profile RMS along major axis (world units)                 [deg]
#   8 B_WORLD                Profile RMS along minor axis (world units)                 [deg]
#   9 THETA_WORLD            Position angle (CCW/world-x)                               [deg]
#  10 FWHM_WORLD             FWHM assuming a gaussian core                              [deg]
#  11 ELONGATION             A_IMAGE/B_IMAGE                                           
#  12 ELLIPTICITY            1 - B_IMAGE/A_IMAGE                                       
         1 -11.0442      2.1965     20.9518   8.6676215309e+01   7.1360171724e+01    0.4115056    0.1847444 -50.32  0.001859198    1.736    0.424
         2 -10.1528     39.6052     15.5370   6.3832323971e+01   6.8694301529e+01    0.5252669    0.1610623 -42.68  0.002044405    3.693    0.729
         3  -8.9632      9.2817      9.6329   7.7736243034e+01   7.2852944678e+01    0.2179168    0.1143441  41.76  0.001101015    3.421    0.708
         4 -11.3361     16.1130     20.9855   7.8772403795e+01   7.0400287861e+01    0.4378481    0.2923657  25.56  0.002808178    1.685    0.406
         5 -10.2566     12.9975     12.7727   7.6959284871e+01   7.2042554271e+01    0.1841623    0.1650438  12.22  0.001005964    1.450    0.311
         6 -10.5895     62.2305     19.2737   5.5537543629e+01   6.4672687746e+01    0.2937499    0.1933662 -56.56  0.001380613    2.939    0.660
         7 -11.5964    235.0612     14.7437   2.0899568760e+01   2.4863899809e+01    0.2948007    0.2112388  60.22 0.0008284347    1.551    0.355
         8 -11.1319     85.5380     11.6204   4.3822724963e+01   6.1061413063e+01    0.2889038    0.2080327  14.15 0.0009583527    1.389    0.280
         9 -11.9815    192.5730     10.7476   2.3863081268e+01   3.5156527601e+01    0.4487187    0.3192351 -72.49  0.001495229    1.360    0.265
        10 -10.3534    176.8808     13.5340   2.6424934635e+01   3.8755587023e+01    0.2616256    0.1296106 -52.41 0.0009008175    2.220    0.549
        11 -10.8410     34.5807     12.0791   6.4642314708e+01   6.9852100442e+01    0.2858095    0.2255993  41.16  0.001309972    1.735    0.424
        12 -11.7028     29.5960      7.8725   6.5106272665e+01   7.1069189776e+01    0.4064086    0.2664674  -3.84  0.001554843    1.384    0.277
        13 -11.8069    125.8030     10.6049   3.3510943891e+01   5.1870963972e+01    0.3761212     0.252069 -53.89 6.945755e-05    1.856    0.461
        14  -9.6883    135.0029     11.2007   3.1989944603e+01   4.9538570240e+01      0.18966    0.1567173  59.17  0.001096313    1.059    0.056
        15 -12.9820    116.7545      8.4778   3.4571105623e+01   5.4265601848e+01    0.2861349    0.2813586  19.12 0.0005217971    1.145    0.126
        16  -9.8272     97.4990     10.8222   4.0075590931e+01   5.8532864276e+01    0.1778531    0.1296845 -13.60 0.0005513105    1.475    0.322
        17 -10.1057    182.3085      9.9959   2.4797196819e+01   3.7759950230e+01    0.1790081    0.1632735 -82.06 0.0004239063    1.066    0.062
        18 -10.3102     45.3011      9.8994   5.8288517390e+01   6.8640011844e+01    0.1999231    0.1507271  21.24 0.0005457633    1.169    0.144
        19 -10.5055      3.4904      7.4126   8.0314689450e+01   7.3636078302e+01     0.386373    0.1537611 -33.88  0.002057635    2.045    0.511
        20  -9.8458     21.9356      9.4029   7.0135066480e+01   7.1725556280e+01    0.2185568   0.09875326  18.77  0.001101182    2.375    0.579
        21  -9.5725     15.5715      8.8611   7.3567752439e+01   7.2438420132e+01    0.1763815    0.1176355  18.18   0.00116097    1.483    0.326
        22 -10.1000    149.4887      8.0009   2.8538365445e+01   4.6199660391e+01    0.1867106    0.1065952  20.98 0.0006482064    2.553    0.608
        23 -10.4677    241.4644      6.9509   1.8748157887e+01   2.4336911238e+01    0.1984401    0.1491389  83.27  0.001301524    1.259    0.206
        24 -11.7837    207.7357     12.4809   2.2769392889e+01   3.1329448198e+01    0.3569235    0.2623816 -82.29 0.0005446733    1.239    0.193
        25 -10.3861    104.8557      4.1354   3.5507293056e+01   5.7461378937e+01    0.1970174    0.1657367  44.21 0.0005043052    1.007    0.007
        26  -9.6121     43.2653      4.3378   5.6335006448e+01   6.9631764829e+01    0.1543884    0.1027792  40.91 0.0003850358    1.601    0.375
        27 -11.9803     19.0443      2.5071   6.8203646900e+01   7.3026465133e+01    0.5031602     0.205489  26.57  0.001578085    2.404    0.584
        28 -11.0882    163.6753      2.8026   2.4996015289e+01   4.3091997348e+01    0.2897156    0.1680749  84.35  0.001083813    1.697    0.411
        29 -10.1378     59.8103      3.0735   4.8599956241e+01   6.6998095301e+01    0.2135753    0.1538589  37.20 0.0005686568    1.233    0.189
        30  -9.1484     53.6894      3.2918   5.1169199688e+01   6.8055934245e+01    0.1025284    0.1006449 -65.40 0.0007000426    1.586    0.370
        31  -9.9284    150.0333      2.2205   2.6630277214e+01   4.6570652405e+01    0.1882753   0.09575289  68.35 0.0007130983    1.686    0.407
        32 -11.0024    123.0772      1.8446   3.0859966946e+01   5.3300429758e+01    0.2121473    0.1688456  61.42 0.0004687122    1.093    0.085
        33 -10.2803    116.2053      1.4011   3.2010548089e+01   5.5000459160e+01    0.4142031    0.1077993  63.47  0.001438281    3.178    0.685
        34  -9.3781     80.7169      1.3052   4.0619541737e+01   6.3058168847e+01    0.1123143    0.1003765 -66.39  0.000200713    1.559    0.359
        35  -9.6313     28.7890      1.2302   6.1954638227e+01   7.2048998122e+01    0.2558075   0.08478712  34.10  0.001023254    2.885    0.653
        36  -9.2244     22.5036    200.5401   1.0758900948e+02   2.9448581337e+01    0.1193751   0.09238342  72.75 -1.986697e-06    1.023    0.022
        37 -10.2601    110.0196    250.5656   9.4085917292e+01   8.6047132801e+00     0.187108   0.09574632  38.53 0.0005736934    1.557    0.358
        38 -12.0781     18.5462    248.4984   1.1098875780e+02   2.0467279495e+01    0.2730296    0.2453689 -44.92  0.001957087    1.806    0.446
        39 -10.8591      6.5776    249.8457   1.1307204149e+02   2.1414877987e+01    0.3326225    0.1192772  39.43  0.001955907    2.187    0.543
        40 -12.2737      3.3042    246.5407   1.1349363612e+02   2.2311047670e+01     0.469953    0.4023419  17.17  0.003841375    1.855    0.461
        41 -12.6703     10.5805    243.4905   1.1213991003e+02   2.2162986490e+01    0.5922037    0.2485426  85.29  0.003434527    2.222    0.550
        42 -12.9429      5.4293    240.1745   1.1288905279e+02   2.3259503847e+01    0.6959491    0.3976917  18.88  0.004195129    2.893    0.654
        43  -9.7637      6.2753    191.9572   1.1043410341e+02   3.2765318373e+01    0.1474418   0.08301054 -85.71 0.0008850397    1.485    0.326
        44  -9.6387      1.2678    191.1908   1.1142484199e+02   3.3341795037e+01    0.1644003   0.07801994  87.95 0.0007212059    1.794    0.443
        45  -8.7612     18.3245    182.3344   1.0722140754e+02   3.3811912409e+01    0.1153093   0.08316341 -49.92  0.000705106    1.712    0.416
        46  -9.7046     13.6531    181.4213   1.0819447934e+02   3.4431220899e+01    0.2332795   0.08402359  86.14 0.0009438908    3.179    0.685
        47 -10.0303      6.9852    168.4713   1.0880629683e+02   3.7887838814e+01     0.159073    0.1109012  35.84 0.0004582959    1.569    0.363
        48 -10.6594      5.5914    154.5901   1.0812837850e+02   4.1174608526e+01    0.2698745    0.1280717  64.41  0.001361515    2.151    0.535
        49  -9.1091     45.0346    149.0032   9.7283845527e+01   3.8961948858e+01    0.1535766    0.1377646  89.38            0    1.027    0.027
        50 -10.6570      6.4031    145.2929   1.0718009092e+02   4.3287459748e+01    0.1970804    0.1601272 -84.39 0.0004978079    1.025    0.024
        51  -9.7530     52.9831    141.7361   9.4043310008e+01   3.9835244577e+01     0.182109    0.1666122  82.44            0    1.056    0.053
        52  -9.7919    235.9574    138.2873   4.8905293269e+01   6.4582845335e+00    0.1844424    0.1685138   6.49 0.0005063911    1.109    0.098
        53  -9.7440     96.0296    133.7833   8.0128527516e+01   3.5547812017e+01    0.2049781    0.2010839  80.55 0.0007855124    1.017    0.017
        54  -9.2975     17.0000    133.9703   1.0324782108e+02   4.5218483642e+01    0.2069465   0.06100235 -72.76 0.0007870861    2.837    0.648
        55  -9.3925     61.8067    130.3923   8.9598195527e+01   4.1545531504e+01    0.1776212    0.1385477  13.46  0.000410066    1.546    0.353
        56 -11.7522     28.4719    127.9831   9.9219571044e+01   4.5740117955e+01     0.222905    0.2044459 -83.12  0.001456913    1.079    0.073
        57 -10.2325     41.4920    127.5159   9.5256830637e+01   4.4617945725e+01    0.1350293    0.1190177 -71.50 2.082176e-05    1.009    0.009
        58  -9.4101    226.4769    124.5399   4.7430914321e+01   1.0564623633e+01    0.1408375    0.1278458 -27.79 0.0001172939    1.030    0.029
        59  -9.4824     12.3182    129.3305   1.0406789704e+02   4.6674149947e+01    0.1296476   0.07842088 -48.04 0.0004040287    1.687    0.407
        60 -11.5801     10.1586    120.9715   1.0377816393e+02   4.8825386742e+01     0.383117    0.2360437  72.19  0.001173918    1.747    0.428
        61  -9.8605     86.4840    118.5187   7.9635951487e+01   4.0842966666e+01    0.1483782    0.1421013 -46.06 3.210276e-05    1.024    0.023
        62 -10.6982     69.1354    116.6756   8.4666908754e+01   4.3938321183e+01    0.2420753    0.1870469 -69.69 0.0006334899    1.304    0.233
        63 -10.4290      1.8597    114.0741   1.0549576648e+02   5.0959211400e+01    0.1799387    0.1380953  89.42  0.001170321    1.183    0.155
        64  -9.9834     34.9992    111.1780   9.4666259722e+01   4.9270550153e+01    0.3356177   0.07045743 -51.15  0.001070009    3.804    0.737
        65 -10.8755     24.9992    111.6856   9.7985873248e+01   5.0007841965e+01    0.1724838    0.1593165 -64.12 0.0004949743    1.094    0.086
        66 -10.3150     44.3325    110.0869   9.1407436730e+01   4.8611967853e+01    0.1918709    0.1572548 -64.39 0.0004157242    1.092    0.084
        67  -9.4388     69.5925    108.1564   8.2653342627e+01   4.5946748830e+01    0.1958013    0.1240572 -45.85 0.0002891432    1.505    0.336
        68 -10.2698     44.8863    104.9675   9.0241023337e+01   4.9802088719e+01    0.2008407    0.1787729 -60.52 0.0003891112    1.020    0.019
        69  -9.8053     39.3046    105.3291   9.2198417113e+01   5.0285870337e+01    0.1422386   0.08968284 -38.36 0.0004690841    1.653    0.395
        70 -10.7375     22.0534    105.0963   9.7940117019e+01   5.1831700079e+01    0.2050969    0.1408205  71.65   0.00112561    1.711    0.415
        71 -11.3872     12.4823    103.6421   1.0088452593e+02   5.2835719214e+01    0.3518454    0.1809597  51.71  0.001059546    2.415    0.586
        72  -9.7783     66.8291    104.2143   8.2664623698e+01   4.7287043225e+01    0.2074712    0.1634172 -26.12  0.001075841    1.387    0.279
        73 -10.0649      1.4457    103.9595   1.0449424578e+02   5.3375412709e+01    0.1924194   0.09553423 -70.45  0.001015687    1.573    0.364
        74  -9.3095    187.2678    102.3512   4.9234899347e+01   2.2964476738e+01    0.1533008    0.1192417   1.09 0.0002716842    1.624    0.384
        75 -10.4396    247.1995    101.5846   3.9044708945e+01   1.0284979639e+01    0.1710447    0.1247613  38.53 0.0006063061    1.616    0.381
        76 -12.3505    197.1114     97.5827   4.6121382069e+01   2.1566803807e+01    0.2651909    0.2471089 -44.51   0.00034169    1.042    0.040
        77 -12.4225     20.0641     92.9039   9.6621791589e+01   5.4896595516e+01    0.6678885    0.3770288 -22.32  0.003352673    2.231    0.552
        78 -11.6003     11.1401     93.0479   9.9787459899e+01   5.5435603885e+01    0.3719629    0.2184033 -50.84 0.0004547042    1.441    0.306
        79 -10.9793      7.1105     90.6564   1.0083490370e+02   5.6222313077e+01    0.3768182    0.1626373 -64.58 0.0004665245    1.768    0.434
        80 -10.0750    132.8573     96.1537   6.0178619984e+01   3.6823588134e+01    0.2124907    0.1843724   5.59 0.0003366139    1.279    0.218
        81 -10.4210      3.9029     96.3390   1.0273747783e+02   5.5050977868e+01    0.1852671    0.1434934  58.24   0.00119312    1.497    0.332
        82 -11.5312    125.1343     93.0598   6.1403721197e+01   3.9184241260e+01    0.2585134    0.2407407  22.79            0    1.075    0.070
        83  -9.7357     30.2943     92.4206   9.2872683448e+01   5.4218623494e+01    0.3332658    0.1817046  72.64  0.001334181    3.355    0.702
        84  -9.4567    160.9785     92.5377   5.2185522628e+01   3.1005655743e+01     0.222055    0.1525833  49.57 4.581484e-05    1.449    0.310
        85 -11.5590     57.8797     91.0573   8.2607715111e+01   5.1609708476e+01    0.3482246    0.2427861 -35.05 0.0009148049    1.438    0.305
        86  -9.9443     83.5947     90.2705   7.3428498624e+01   4.7958918462e+01    0.2220366    0.1702916   3.38 0.0002100691    1.558    0.358
        87  -9.8051    160.1747     89.1958   5.1429038753e+01   3.1834221514e+01    0.2115417    0.1846657 -84.79 0.0004310859    1.318    0.241
        88  -9.7801     11.9737     88.2348   9.8725909021e+01   5.6520000582e+01     0.171794    0.1441941 -59.07 0.0007057888    1.032    0.031
        89 -10.0832     17.3134     85.2951   9.6265130848e+01   5.6877170704e+01    0.2140481    0.1877715 -85.94 0.0009258523    1.225    0.184
        90  -9.6371     30.3111     84.9338   9.1340264100e+01   5.5983843344e+01    0.1885472    0.1380419 -53.41 0.0004293424    1.149    0.130
        91  -9.2861     35.3422     84.2738   8.9301511979e+01   5.5690217742e+01    0.1371889   0.08823989 -31.31  0.000519066    1.616    0.381
        92 -11.7052      7.5613     83.2771   9.9518459589e+01   5.7920811009e+01    0.4604991    0.1878408 -51.01  0.002255434    1.918    0.479
        93 -11.2013     11.9126     77.3146   9.6830773093e+01   5.9059603418e+01    0.2547234    0.1467442 -58.74  0.001204269    1.367    0.269
        94 -10.1369      2.8057     83.9360   1.0136027143e+02   5.8000963644e+01    0.1957021    0.1316663 -52.17 0.0007816571    1.227    0.185
        95 -10.7042     65.9931     80.4609   7.6833595653e+01   5.2927244551e+01    0.4344237    0.2588179 -18.51  0.001799121    2.434    0.589
        96  -9.7587    250.4091     80.7317   3.3988628004e+01   1.2862062944e+01    0.1776874    0.1158338 -28.02  0.000628501    1.526    0.345
        97 -10.0881     86.9877     78.9303   6.8943536712e+01   4.9853777929e+01    0.4478693    0.2746297  65.22  0.001672757    3.059    0.673
        98  -9.6149     87.5179     75.4355   6.7673129733e+01   5.0493037319e+01    0.2010498    0.1365634 -33.49 2.608376e-05    1.481    0.325
        99  -9.0763     80.4829     79.5507   7.1374969509e+01   5.0853174728e+01    0.1458585    0.1361394 -19.14 7.244818e-05    1.006    0.006
       100 -10.5005     48.0500     78.9712   8.3164335417e+01   5.5592888530e+01    0.2033994    0.1746385 -36.49 0.0003523352    1.039    0.037
       101  -9.9998     22.3298     76.6309   9.2632178340e+01   5.8537832318e+01      0.21244    0.1411546 -74.34 0.0005048543    1.561    0.360
       102  -9.4382     43.0987     80.8184   8.5534390961e+01   5.5718279225e+01    0.1734077    0.1352299 -30.82 0.0009840905    1.233    0.189
       103 -10.0714    177.0181     76.4832   4.4300251893e+01   3.0037555389e+01    0.2356456    0.1478524  55.92  0.001032573    1.590    0.371
       104 -10.6734     54.3698     75.6715   7.9836156381e+01   5.5570874502e+01    0.3581472    0.2325095  -8.90  0.001053159    1.988    0.497
       105 -10.7051     16.0291     76.0313   9.4980127276e+01   5.9105135230e+01     0.190188    0.1440867  69.91  0.001134056    1.697    0.411
       106 -10.2941     68.9395     74.3484   7.3943706009e+01   5.3828669307e+01    0.2661187      0.20513  54.36 0.0007286913    1.640    0.390
       107 -11.2669      5.8318     74.2927   9.8636631750e+01   6.0072946373e+01    0.2521334   0.09990161 -47.69 0.0007448472    1.995    0.499
       108  -9.2956    143.5853     74.1489   5.0897800593e+01   3.8622377442e+01    0.2000917    0.1498342 -21.52 0.0009152775    1.503    0.334
       109 -10.2056     35.0684     73.8120   8.6920555998e+01   5.8116889616e+01    0.2703631    0.1784101  45.16  0.001434976    1.912    0.477
       110  -9.4738     42.3389     73.6888   8.3993436615e+01   5.7415572449e+01     0.128296    0.1039616  71.59 0.0007045314    1.691    0.408
       111  -9.7588    105.9120     71.8401   6.0529777804e+01   4.7617777868e+01    0.2009449    0.1700521  58.67 0.0007192626    1.336    0.251
       112  -9.2342    117.7931     71.3283   5.6825129426e+01   4.5149759496e+01     0.202453    0.1340821  37.01 0.0001453672    1.534    0.348
       113  -9.7408     93.2089     71.6469   6.4540102299e+01   5.0204399183e+01    0.3109582      0.13186  49.61  0.001089145    2.833    0.647
       114  -9.5164    181.8096     70.3967   4.1701839768e+01   2.9884111281e+01     0.202377    0.1346035  46.70 9.873819e-05    1.553    0.356
       115  -9.3611    157.7015     70.3051   4.6489434758e+01   3.5852965490e+01    0.1536057    0.1194624 -74.40 0.0003129772    1.589    0.370
       116  -9.1581    100.2233     70.0137   6.1718167273e+01   4.9144107806e+01    0.1835938    0.1207533 -39.30            0    1.514    0.339
       117  -9.7901     12.9726     70.0412   9.4975019244e+01   6.0653105301e+01    0.1486136    0.1194706 -51.35 0.0009646417    1.004    0.004
       118 -10.2696     10.4010     58.6270   9.3545003066e+01   6.3329143076e+01    0.3313366    0.1319036 -44.24  0.001608928    1.991    0.498
       119 -12.0682      7.3616     65.3783   9.6316534816e+01   6.2004411508e+01     0.485987    0.2757221 -56.44  0.002799457    1.360    0.265
       120  -9.8086     45.1213     68.9274   8.1563114203e+01   5.8163634971e+01    0.2544393    0.1427737 -58.84  0.001213797    1.793    0.442
       121 -11.2397     80.7721     67.1667   6.7345952495e+01   5.3387278152e+01    0.2495304    0.2336582 -10.57 0.0002541346    1.039    0.038
       122  -9.9927     58.8967     66.3057   7.5275086987e+01   5.6997406693e+01    0.2948109    0.1737292 -42.79   0.00142804    1.544    0.352
       123 -10.6889     51.8384     65.7283   7.7902808030e+01   5.8051651534e+01    0.2565418    0.1939232 -39.39  0.000793567    1.174    0.148
       124 -10.0996    104.5328     64.7018   5.8585067164e+01   4.9265402419e+01    0.2757154    0.1449868 -34.38   0.00105566    1.981    0.495
       125 -10.7310     40.0600     65.1987   8.2564790220e+01   5.9525252474e+01    0.2004562    0.1841434  28.48 0.0002485309    1.274    0.215
       126 -10.6053     14.4913     63.0496   9.2808287756e+01   6.2120342155e+01    0.3393958    0.1636112 -57.34 0.0009390619    1.637    0.389
       127  -9.6390    130.8285     63.0381   5.0578208069e+01   4.3641371549e+01    0.2362692    0.1634517 -60.62 0.0004063631    1.897    0.473
       128  -9.7141     63.0000     61.9274   7.2244037736e+01   5.7314862096e+01    0.2294804   0.07396759 -47.87 0.0008008201    2.931    0.659
       129  -9.4932     33.8221     62.6760   8.4463658088e+01   6.0693544638e+01    0.1649558    0.1141216  30.01 0.0008728456    1.636    0.389
       130 -14.0929     20.5335     57.9783   8.8930106766e+01   6.2819017614e+01    0.4561258    0.3275277 -50.54  0.001109183    1.160    0.138
       131  -8.9705    169.2787     60.3181   4.1174635176e+01   3.4612054217e+01    0.1478116    0.1158218  20.77 0.0002045723    1.576    0.366
       132 -10.5826    145.3943     59.0271   4.5760403797e+01   4.0777000222e+01    0.2829502    0.2142766  52.62 0.0001134973    1.264    0.209
       133  -9.8156     57.7719     58.9850   7.3336320770e+01   5.8660126191e+01     0.185892    0.1637646 -17.94  0.000380442    1.012    0.012
       134  -9.7539     48.9840     59.2222   7.7019741903e+01   5.9768858146e+01     0.188116    0.1852615  73.70  0.001204491    1.299    0.230
       135 -10.2575      2.5708     58.5157   9.6926947714e+01   6.3741746372e+01    0.2507537    0.1099223 -34.46   0.00127025    2.131    0.531
       136 -12.3564     86.3698     53.9511   6.0763835074e+01   5.4873729062e+01    0.4489962     0.326875  15.29 0.0002972481    1.504    0.335
       137  -9.1078    130.6626     57.2501   4.8716375876e+01   4.4653914250e+01    0.1458686      0.11845  89.75 0.0002685377    1.564    0.361
       138 -11.4419    119.3058     47.2861   4.8252636952e+01   4.8923932273e+01    0.4225323    0.3685969 -64.39 0.0008696736    1.376    0.273
       139 -13.8235    114.5338     53.1549   5.1627199053e+01   4.9093695440e+01    0.4745337    0.3814965  39.10 0.0008870509    1.182    0.154
       140 -12.8913    106.2440     50.4035   5.3054819795e+01   5.1394101528e+01    0.3798582    0.3253045  48.24 0.0004412407    1.180    0.153
       141 -10.0920     32.8557     55.7516   8.2851487898e+01   6.2255941206e+01    0.2290761    0.1460453 -23.72  0.001240472    1.576    0.366
       142  -9.9667     36.4536     53.7673   8.0643761770e+01   6.2309660296e+01    0.2431893    0.1576213 -47.48 0.0007635143    1.357    0.263
       143  -9.4827     38.5749     49.4645   7.8281576563e+01   6.2953678307e+01    0.3923098     0.152921 -47.10  0.001718217    2.189    0.543
       144 -10.9339     71.5192     56.4001   6.7047987038e+01   5.7068788266e+01    0.3287498    0.2395809  41.71  0.001728054    1.491    0.329
       145  -9.6614    182.0179     52.2916   3.6607216966e+01   3.2641003627e+01    0.2040011    0.1804311  79.60 0.0004109747    1.100    0.091
       146  -9.6230    149.2588     52.4553   4.2827246172e+01   4.0847880859e+01     0.200091     0.142488  71.65 0.0009257881    1.538    0.350
       147  -9.6395     46.0046     51.4494   7.5686349446e+01   6.1702404094e+01    0.1856813    0.1052049  -2.23 0.0004270222    2.521    0.603
       148 -10.5439     13.6445     50.6382   9.0077954182e+01   6.4846519509e+01    0.3545145    0.1715861 -38.34  0.001022768    1.754    0.430
       149 -11.2016      9.0837     47.6590   9.1409760641e+01   6.5740428360e+01    0.2927531    0.2360862   0.60  0.002017705    1.355    0.262
       150  -9.7421    232.4762     50.0252   2.9128511894e+01   2.1036697021e+01    0.1741153    0.1172938  -2.03 0.0007209116    2.496    0.599
       151  -9.7837    140.5880     46.4114   4.2767672511e+01   4.3908751531e+01    0.3044668     0.217888 -17.41            0    1.614    0.381
       152 -10.2087    137.6987     46.6909   4.3510810656e+01   4.4582897970e+01    0.6015294    0.2891625 -41.12  0.002410099    2.215    0.548
       153  -9.0940    189.3245     49.2704   3.4607583015e+01   3.1261599127e+01      0.14107    0.1073306  34.91 0.0002164316    1.574    0.364
       154 -10.2246     74.5604     47.8194   6.2741343437e+01   5.8120848578e+01    0.2526215    0.1836446  56.32  0.001081483    1.849    0.459
       155 -10.4764    155.4351     46.5765   3.9712454599e+01   4.0162864354e+01    0.3897014    0.2409029  38.86  0.001174254    1.794    0.443
       156  -9.5352    146.9521     47.7198   4.1809770847e+01   4.2131217196e+01    0.1904713    0.1245895  55.81 0.0008735281    1.434    0.303
       157 -10.5848     68.6485     46.4311   6.4472508387e+01   5.9374575097e+01    0.2584302    0.1969377  19.51  0.001035554    1.280    0.219
       158  -9.9442     51.3322     47.6497   7.2033748530e+01   6.1754740435e+01    0.1235297    0.1085146  83.92 0.0007047637    1.775    0.437
       159 -10.6988     79.2319     45.3212   6.0060719981e+01   5.7710014846e+01    0.2307483    0.2171577  14.99 0.0002962229    1.137    0.120
       160  -9.3425     30.6400     44.8294   8.0342481810e+01   6.4685304031e+01    0.4070992    0.1280628 -42.23  0.001645758    2.692    0.628
       161  -9.9739     26.1482     44.8692   8.2473834549e+01   6.5091001961e+01    0.2643325    0.2461729 -47.87  0.001825977    1.283    0.221
       162 -11.1033     16.3339     43.1650   8.6643844106e+01   6.6207600564e+01    0.4025289    0.2465505 -53.53  0.001648412    1.418    0.295
       163 -11.3527      4.5042     41.0510   9.1829378777e+01   6.7343854138e+01    0.1965739    0.1910811 -23.26  0.001240994    1.304    0.233
       164  -9.0179    221.2871     43.2875   2.8810237550e+01   2.4455192919e+01    0.1226394     0.103654  29.79 0.0001657325    1.533    0.348
       165 -11.9970     66.7063     52.4738   6.7490739359e+01   5.8590961133e+01    0.4492074    0.2332412  33.68  0.001715949    1.962    0.490
       166 -11.0506    184.4584     40.7802   3.3004904825e+01   3.3638325878e+01    0.3345665    0.2784418 -61.24  0.001852857    1.197    0.165
       167 -10.5700    140.3804     40.4585   4.0843876383e+01   4.4802422497e+01    0.4261438    0.2813253 -75.46  0.001819952    2.271    0.560
       168 -10.3619     36.7085     42.0136   7.6508786207e+01   6.4604901367e+01    0.2827814    0.1984466  31.38  0.001123368    1.601    0.375
       169 -10.0463    170.5644     40.0322   3.4984749778e+01   3.7234225267e+01    0.2531763    0.1872325  88.54 -5.119154e-05    1.471    0.320
       170  -9.8428     44.2512     40.0564   7.2301044292e+01   6.4082290419e+01    0.1784213    0.1470929 -19.55 0.0004179374    1.024    0.024
       171  -9.0862    133.6726     39.7254   4.2080635756e+01   4.6565271701e+01    0.1508426    0.1045031  31.31 0.0002573058    1.587    0.370
       172 -12.7975    121.6107     37.1924   4.4063029763e+01   4.9839421856e+01    0.4695629    0.3623144 -51.32  0.000911371    1.527    0.345
       173  -9.8514     21.3406     37.5356   8.2329089026e+01   6.6936864509e+01    0.1921456    0.1107376  24.66  0.001083559    1.893    0.472
       174  -9.1678     97.7550     36.6915   5.0482563347e+01   5.5344979331e+01    0.1388766    0.1016733  11.89 0.0001962659    1.503    0.335
       175 -10.0381     49.8485     33.4738   6.7129890188e+01   6.4488869678e+01    0.2196148    0.1613639 -30.56 0.0002401248    1.248    0.199
       176  -9.8946     40.9267     34.5358   7.1655045183e+01   6.5482354366e+01    0.1994056    0.1401751  14.73 0.0005154389    1.396    0.284
       177 -11.5819     38.7925     30.5633   7.1035005762e+01   6.6431381950e+01    0.2274671    0.1776318 -16.32 0.0002717659    1.065    0.061
       178 -10.2879     28.2878     33.4158   7.7342090907e+01   6.7082644194e+01    0.2286687    0.1376307 -26.89 0.0007599618    1.500    0.333
       179 -11.2175    205.9152     32.3377   2.7903196104e+01   2.9469532915e+01    0.2309644    0.2065951 -57.09 0.0002470459    1.090    0.082
       180  -9.9231    187.8324     31.5636   2.9985743740e+01   3.3980051719e+01    0.3310246    0.2020609 -12.31  0.001497962    2.295    0.564
       181 -11.6716    136.1605     29.1849   3.7937130582e+01   4.7310972590e+01     0.381299        0.372   1.71 0.0004645846    1.104    0.094
       182 -11.0246    144.4239     31.0673   3.6905759871e+01   4.5010360525e+01    0.3303491    0.2505272 -28.57 0.0008527698    1.430    0.301
       183  -9.9484    129.0139     31.6214   4.0327331167e+01   4.8776758464e+01    0.2335758     0.151687  44.60  0.001032099    1.441    0.306
       184 -10.1413     43.9872     31.1865   6.8840523112e+01   6.5669395418e+01     0.209822     0.159502 -24.55 0.0005073581    1.147    0.128
       185  -9.6144     92.6532     31.3002   4.9930137997e+01   5.7188999072e+01     0.131312    0.1122894 -83.12 0.0007037541    1.684    0.406
       186 -12.5169      9.9792     29.4878   8.5399461396e+01   6.9308225698e+01    0.4399332    0.2228923  34.06  0.002388931    2.549    0.608
       187 -12.2547      4.2926    233.1259   1.1280128003e+02   2.4669210538e+01    0.3632681    0.2556025  67.27  0.001338469    1.020    0.020
       188 -10.4786      6.5756     20.1696   8.3855497907e+01   7.1243478093e+01    0.2091976    0.1341458 -20.40 0.0006869705    1.330    0.248
       189  -9.0208     54.4581     29.4325   6.3376008188e+01   6.4469424250e+01    0.1299615    0.1101534  -1.68 8.688267e-05    1.033    0.032
       190  -9.6552    164.9906     28.0154   3.2318664122e+01   4.0162138606e+01    0.1650739    0.1562919  83.33 0.0004409333    1.042    0.040
       191  -9.9471     99.5619     28.4591   4.6698323595e+01   5.6073491588e+01     0.262151    0.1307059  55.94 0.0009684219    2.019    0.505
       192 -10.1917    102.5647     22.4818   4.3466620382e+01   5.6137097915e+01    0.2372418    0.1999827 -14.61 0.0007691233    1.248    0.199
       193  -9.9482    104.0292     18.9924   4.1680461333e+01   5.6201343181e+01     0.256665    0.1387979  35.91 0.0007929452    1.852    0.460
       194 -10.8654     69.2580     26.1013   5.5864694907e+01   6.2499527198e+01    0.4055943    0.2776029 -24.15  0.002018857    1.432    0.302
       195  -9.8077     94.3151     27.3029   4.7795195981e+01   5.7365535749e+01    0.2234395     0.129195  48.26 0.0004060748    1.587    0.370
       196 -10.5278     91.1420     26.8833   4.8602983391e+01   5.8096153453e+01    0.2061636    0.1792549  21.54 0.0003129123    1.018    0.017
       197 -10.2501     81.0589     26.6822   5.1830140340e+01   6.0186904986e+01     0.205807    0.1804559 -25.06 0.0004371348    1.242    0.195
       198  -9.4383     75.6068     26.2634   5.3573394460e+01   6.1301281893e+01    0.1801746    0.1188521 -14.02 0.0009292364    1.595    0.373
       199  -9.6823     59.2221     23.7736   5.8834131117e+01   6.4562635462e+01    0.2075476   0.09463487 -24.57 0.0008893889    2.474    0.596
       200  -9.4567     51.4820     24.5616   6.2523739789e+01   6.5668850212e+01    0.1296921     0.106491  -0.16  0.000185367    1.009    0.008
       201  -9.8397     34.2476     23.7806   7.0346662159e+01   6.8107813567e+01    0.3578337    0.1758312 -11.74  0.001463407    3.305    0.697
       202  -9.5602     37.6469     18.3224   6.6139389691e+01   6.8544154942e+01    0.2371433    0.1748729 -43.12  0.001050042    1.631    0.387
       203 -10.0453    188.6732    248.3389   7.8396090498e+01  -2.8326780262e+00    0.1127312   0.08866133  53.34 0.0007051605    1.730    0.422
       204  -9.5035    224.5210    247.4978   7.1610907432e+01  -7.7877897347e+00    0.1187391   0.08805497  12.91 0.0008103166    1.001    0.001
       205  -9.3991     22.3293     21.3029   7.5488479995e+01   6.9791370719e+01    0.1244773   0.09592742 -18.32 0.0008262736    1.010    0.010
       206  -9.4956    230.0099    247.4601   7.0623330458e+01  -8.5145979117e+00    0.1641282   0.09140836  29.94  0.000473937    1.478    0.323
       207 -10.5360     14.2092     15.9245   7.7673837319e+01   7.1420567992e+01    0.2080016    0.1817078  -0.50 0.0003822253    1.302    0.232
       208 -10.0206    171.1347    246.6983   8.1553860792e+01   1.4472218976e-02    0.2300897    0.1406154  22.38  0.000936472    1.550    0.355
       209  -9.7045    108.9646     22.3087   4.1703544165e+01   5.4690634861e+01    0.1953858     0.151466  49.39 0.0003777431    1.160    0.138
       210 -11.0667     74.9045     17.6623   5.0018915002e+01   6.2543275144e+01    0.2873117    0.2242375  31.91 0.0008274014    1.128    0.113
       211  -9.8385    214.6017     19.7923   2.3871949967e+01   2.8911306775e+01    0.1783361    0.1058396 -45.41 0.0006340563    1.561    0.359
       212  -9.7977    132.0874     20.2095   3.5668362542e+01   4.9351857930e+01    0.2122106    0.1678136  39.96 0.0004813048    1.218    0.179
       213 -11.1898     28.6916    250.4603   1.0932211567e+02   1.9051640552e+01    0.2982388   0.07957824  36.25  0.001414249    3.001    0.667
       214 -11.2030    124.9281     17.2737   3.6097202481e+01   5.1426671212e+01     0.295643    0.2032044  33.52 0.0003930342    1.494    0.331
       215  -9.6968     88.9426     18.7406   4.5870249419e+01   5.9559623041e+01    0.1810687    0.1544352  35.00 0.0002201059    1.061    0.058
       216 -10.3397     68.7736     17.9217   5.2368879449e+01   6.3673735981e+01     0.265754    0.1708993  46.02 0.0008514444    1.548    0.354
       217 -10.7821    238.0450     16.9703   2.1146107160e+01   2.3965963501e+01    0.2079667    0.1652727 -59.74 0.0003147917    1.071    0.066
       218  -9.9391    146.5306    244.4945   8.6129275203e+01   4.1070517379e+00    0.1257136    0.1008211  33.11 0.0004749071    1.023    0.023
       219 -10.3768    202.9996     16.6955   2.4284777704e+01   3.2001399427e+01    0.1888912    0.1539751  89.75 0.0004736582    1.094    0.086
       220 -10.3112    159.9769     15.9807   2.9448052006e+01   4.2769424073e+01    0.2646176    0.1390302  53.02 0.0003926928    1.749    0.428
       221  -9.2117    163.2914     15.3055   2.8759504419e+01   4.1999111337e+01    0.1373641    0.0962889  39.60 0.0002379725    1.575    0.365
       222 -10.2495     82.8695     15.8918   4.6543369161e+01   6.1155368025e+01    0.2030451    0.1717248  23.79 0.0002871658    1.009    0.009
       223  -9.5925     52.1821    244.6167   1.0471831258e+02   1.7415859217e+01    0.1524605   0.09786652  30.02 0.0009468151    1.750    0.428
       224 -10.1496     39.1630    242.3315   1.0698811885e+02   1.9360002874e+01    0.2416203   0.09459884  76.83  0.001063429    3.320    0.699
       225 -10.1704     35.3399    239.9409   1.0754905299e+02   2.0231357325e+01    0.1743786    0.1220532  51.52  0.000522202    1.164    0.141
       226  -9.5503     61.2089    240.6600   1.0271736471e+02   1.7025379611e+01    0.1560906   0.09728616  31.58 0.0005254357    1.691    0.409
       227 -11.2230     30.1197    240.7697   1.0855179290e+02   2.0651350251e+01    0.3262118   0.09617271  29.22  0.001305834    4.466    0.776
       228  -9.5641    118.6940    239.3685   9.1127434254e+01   9.2100835123e+00    0.1288942   0.08403508  63.05 0.0007035108    1.753    0.429
       229  -9.1440     14.6834    193.2624   1.0875436520e+02   3.1747851316e+01    0.1206537   0.06764279  62.31 0.0001648744    1.544    0.352
       230  -9.9924    173.9845    235.7287   7.9421072160e+01   1.1930522852e+00    0.1624066   0.09274494  34.54  0.000405001    1.439    0.305
       231  -9.3257    249.4916    233.4173   6.4948599777e+01  -9.3914899827e+00    0.1171255   0.08594736   6.11 0.0001611032    1.014    0.014
       232  -9.9951     32.2249    233.3678   1.0773783785e+02   2.1810083219e+01     0.156995   0.07849239  46.96 0.0004475378    1.579    0.367
       233  -9.3283     57.4947     10.6200   5.3316334573e+01   6.6576356384e+01    0.1259617    0.1027691  16.08 0.0007979345    1.039    0.038
       234 -10.0619    244.8606    229.9791   6.5170985673e+01  -8.3777018883e+00    0.3382279   0.09043422  35.88  0.001397731    3.389    0.705
       235  -9.6590    209.5495    229.4990   7.1508998573e+01  -3.3526128711e+00    0.1247202     0.100097  14.73 0.0001655755    1.039    0.037
       236 -10.8849    140.0893    227.8620   8.5241676332e+01   7.8586546995e+00    0.2877137    0.1962626 -70.80  0.001552234    2.110    0.526
       237 -11.9555      2.7953    225.3067   1.1274184158e+02   2.6289357931e+01    0.3980705    0.1672381  72.62   0.00200808    2.059    0.514
       238 -11.6264     11.7390    226.5117   1.1117082278e+02   2.5226262239e+01    0.2914289   0.07889161  43.26  0.001453591    2.580    0.612
       239  -9.7990    223.4262    226.5113   6.8419925027e+01  -4.9796560081e+00    0.1238482   0.09657267   8.52 8.642783e-05    1.011    0.011
       240 -10.6092     26.8173    223.8267   1.0819515254e+02   2.4237198849e+01    0.1639364     0.100706  65.81 0.0004672596    1.320    0.242
       241  -9.7051    130.9767    221.0000   8.6233201214e+01   1.0545873125e+01    0.2310372   0.06535626  37.55 0.0008120228    3.009    0.668
       242  -9.2235    167.3118    221.3039   7.8587200929e+01   4.5366132728e+00     0.132029   0.09383802   7.16 0.0005927063    1.613    0.380
       243 -11.1737      8.3501    218.8064   1.1142858244e+02   2.7049907312e+01    0.3209912    0.1275945 -61.35  0.001385493    2.821    0.646
       244  -9.7948     29.9821    214.5092   1.0698854288e+02   2.5771385150e+01    0.1619768    0.1003409  40.37 0.0003830277    1.509    0.337
       245  -9.4561    205.4898    211.9810   6.9322260822e+01  -1.9665644372e-01    0.1830968    0.1211963 -30.46  0.001019904    1.560    0.359
       246  -9.5343     20.2585    209.4363   1.0861447313e+02   2.7806922752e+01    0.1591672   0.08278707  48.94  0.000840048    1.608    0.378
       247  -9.6737     39.4914    206.9394   1.0448912460e+02   2.6304071927e+01     0.176082    0.1058466 -79.22 0.0005232941    1.568    0.362
       248  -9.1661     46.4835    202.4746   1.0262586806e+02   2.6451733132e+01    0.1254084    0.1008002  69.44 0.0004692532    1.030    0.029
       249  -9.5971    193.9898    201.5018   6.9743010233e+01   3.3426282238e+00    0.2033667    0.1199086  35.11 0.0004659726    1.534    0.348
       250 -11.0975      4.1593    201.1750   1.1136063457e+02   3.0999814185e+01    0.1626482     0.134065 -89.35   0.00066993    1.197    0.165
