#   1 NUMBER                 Running object number                                     
#   2 MAG_AUTO               Kron-like elliptical aperture magnitude                    [mag]
#   3 X_IMAGE                Object position along x                                    [pixel]
#   4 Y_IMAGE                Object position along y                                    [pixel]
#   5 X_WORLD                Barycenter position along world x axis                     [deg]
#   6 Y_WORLD                Barycenter position along world y axis                     [deg]
#   7 A_WORLD                Profile RMS along major axis (world units)                 [deg]
#   8 B_WORLD                Profile RMS along minor axis (world units)                 [deg]
#   9 THETA_WORLD            Position angle (CCW/world-x)                               [deg]
#  10 FWHM_WORLD             FWHM assuming a gaussian core                              [deg]
#  11 ELONGATION             A_IMAGE/B_IMAGE                                           
#  12 ELLIPTICITY            1 - B_IMAGE/A_IMAGE                                       
         1 -16.6124    235.3504     96.4063   2.7292700881e+01   1.3863355338e+01     4.970236     2.431346 -33.92   0.02279572    1.741    0.426
         2 -12.4448     21.2578     97.8114   8.2572135298e+01   5.4167470791e+01    0.9927582    0.3629746 -82.34  0.003668037    3.081    0.675
         3 -11.5444     92.0785     47.0965   4.1811199945e+01   5.5630823254e+01    0.7125398    0.2034997 -39.12  0.002214829    3.361    0.702
         4 -11.0141     40.9482     13.9717   4.6717393617e+01   7.0719163032e+01    0.1904234    0.1610202 -12.67 0.0003067158    1.018    0.017
         5 -10.6036    147.3274    239.6517   7.0089717472e+01   6.8714982641e+00     0.113928   0.07789936  59.00 0.0007049358    1.756    0.431
         6 -10.3694    162.0318    224.8089   6.5507866098e+01   6.8367179028e+00    0.2035781    0.1234492  15.78  0.001096627    2.070    0.517
         7 -10.3503     98.4072    225.2251   7.7841266829e+01   1.6080979655e+01    0.2210397    0.1278322  31.12   0.00108513    1.723    0.419
         8 -11.0476     13.1347    222.3042   9.4151340108e+01   2.6780698755e+01    0.1757214     0.124427 -86.09  0.001111068    1.401    0.286
         9 -10.5960     59.4983    222.5087   8.5280788062e+01   2.1673920995e+01    0.1172137   0.08862873  58.91  1.30406e-05    1.012    0.012
        10 -10.6575    126.1573    220.6294   7.1865735218e+01   1.2848966031e+01    0.1847068    0.1567621  72.81 0.0007242516    1.312    0.238
        11 -10.5745    143.5944    216.7967   6.7960122865e+01   1.0835111300e+01    0.1492652    0.1186548 -71.15 0.0009504499    1.656    0.396
        12 -10.3036    116.6701    210.3442   7.2533427667e+01   1.6024113360e+01    0.1303108   0.08445375  63.96 0.0007050677    1.752    0.429
        13 -11.5449    186.3600    204.2506   5.7945167178e+01   6.0835632368e+00    0.2393458    0.1889031  43.26  0.001535087    1.324    0.244
        14 -12.1707    164.9058    202.0714   6.1678780335e+01   9.8231802018e+00    0.4170525    0.3171414 -71.26   0.00242097    1.986    0.496
        15 -12.4997    163.9561    194.5640   6.0680268936e+01   1.1187221917e+01     0.480983    0.3405047  74.72  0.002432539    2.433    0.589
        16 -10.7959    124.4516    197.1438   6.9197613702e+01   1.7197032068e+01    0.2782966    0.1455254  51.37  0.001338428    1.899    0.473
        17 -10.3001     66.0000    192.4984   8.1403138057e+01   2.6712573278e+01    0.2564201   0.06722867 -68.19  0.000937567    3.958    0.747
        18 -10.4926    138.8661    189.0411   6.4954423062e+01   1.6327979563e+01    0.2103151    0.1521558  85.87  0.001085973    2.036    0.509
        19 -10.4899    165.4845    186.4894   5.9039823817e+01   1.2272963590e+01    0.2106514    0.1271644 -56.91 0.0009636856    2.221    0.550
        20 -10.4087    109.3176    185.6519   7.0895442704e+01   2.1814477783e+01    0.1394458   0.09335662  68.68 0.0004121226    1.729    0.422
        21 -11.1929     95.0217    183.3727   7.3819300806e+01   2.4503528436e+01     0.373053    0.2001792 -70.24  0.001783688    2.136    0.532
        22 -10.8373    174.6855    183.5778   5.6707023726e+01   1.1187928387e+01    0.2046774     0.168283 -70.33 0.0009185547    1.711    0.415
        23 -10.8226    120.3165    183.8615   6.8188198789e+01   2.0390071548e+01    0.2498741    0.1244507 -64.49  0.001084561    2.571    0.611
        24 -12.1354      3.0558    178.3877   9.4363269828e+01   3.6486314837e+01     0.587614    0.1385511 -62.92  0.002309971    4.349    0.770
        25 -11.0754    147.7364    179.4028   6.1507694563e+01   1.6582162384e+01    0.2348525    0.1716717 -63.05  0.001158648    1.676    0.403
        26 -10.8096    138.1289    178.6920   6.3457325914e+01   1.8382350660e+01    0.2488687    0.1612208 -68.54  0.001131014    2.081    0.519
        27 -11.3221     77.8173    175.5471   7.6834345154e+01   2.8711122218e+01    0.2661877    0.1453536  69.97  0.001201845    2.241    0.554
        28 -10.6100    183.4299    175.2150   5.3485707365e+01   1.1051100705e+01    0.1761032    0.1256907 -50.36 0.0007837462    1.676    0.404
        29 -11.1847    177.0791    170.2596   5.3802944766e+01   1.3004617244e+01      0.29456    0.1946661 -46.00  0.001530415    1.657    0.396
        30 -11.5895    121.7596    167.9578   6.5347311558e+01   2.3352710325e+01    0.5444738    0.2917659 -65.81  0.002335549    2.396    0.583
        31 -10.7428    146.1732    162.8584   5.8897461301e+01   2.0004620319e+01    0.2063266    0.1817776  76.77 0.0006030552    1.289    0.224
        32 -11.5225    206.0021    161.8254   4.6661975808e+01   9.2331638261e+00    0.2329271    0.1675577 -47.54  0.001243576    1.643    0.391
        33 -11.2168    177.6256    159.1557   5.1524900765e+01   1.4833277798e+01    0.4095381    0.1688995 -44.70  0.001628847    2.558    0.609
        34 -11.0640     92.9668    159.3230   7.0885283307e+01   3.0035032448e+01    0.3758443    0.2231641 -83.33  0.001664982    2.187    0.543
        35 -11.6440    188.6669    156.6016   4.8831737629e+01   1.3219436083e+01    0.3836802    0.2361447 -45.01  0.001533585    1.737    0.424
        36 -12.9558    189.1884    148.4525   4.7025840698e+01   1.4517567376e+01    0.5732752    0.3199943 -46.71  0.002608136    1.952    0.488
        37 -11.5068    139.1633    163.9773   6.0669368675e+01   2.1067012715e+01     0.483987    0.2736107 -66.61  0.002000456    2.627    0.619
        38 -11.7064    197.0116    157.0230   4.7334888731e+01   1.1612600783e+01    0.2138509    0.1963951  -2.69  0.000906291    1.036    0.035
        39 -10.8871    167.9411    156.9960   5.3070900607e+01   1.7043148030e+01    0.2184158    0.1778071  87.14  0.001136021    1.719    0.418
        40 -10.3620    105.3277    157.6644   6.7545538890e+01   2.8376637239e+01     0.149589    0.1032672  72.66 0.0005916635    1.723    0.420
        41 -11.9864    204.8366    154.4456   4.5366214440e+01   1.0607352776e+01    0.2539061    0.1822913 -32.51    0.0008651    1.343    0.255
        42 -10.9243     79.6812    163.4632   7.4808999247e+01   3.1132835414e+01    0.4350267    0.2112405  80.90  0.001437081    4.224    0.763
        43 -10.7055     81.5014    154.0084   7.2982667037e+01   3.3032792000e+01    0.2096923    0.1312165 -68.20 0.0009043216    1.588    0.370
        44 -11.2745     67.8992    153.0627   7.6384738942e+01   3.5225346530e+01    0.3911946    0.2364065  72.25  0.001804584    1.859    0.462
        45 -10.8862     49.5614    154.0170   8.1301400736e+01   3.7371588568e+01    0.2859572    0.1516401  85.26  0.001310613    2.092    0.522
        46 -10.5790    132.8461    152.3304   5.9926946503e+01   2.4614043529e+01    0.2770272    0.1962775 -81.15  0.001280695    1.953    0.488
        47 -12.2471    200.1040    147.5215   4.4770476605e+01   1.2606874467e+01    0.3253326    0.2209342 -39.23  0.001454256    1.461    0.315
        48 -10.9468     38.8914    146.7655   8.3316512406e+01   4.0327059590e+01    0.2759295    0.1402523  75.36  0.001248497    2.177    0.541
        49 -11.6204    148.6225    143.4425   5.4462659160e+01   2.3412436581e+01    0.5642301    0.3082098 -60.63  0.002220897    2.498    0.600
        50 -11.2890    106.9423    144.4498   6.4783486843e+01   3.1067266683e+01    0.4680338    0.2793149 -89.66  0.001770475    2.908    0.656
        51 -11.3867     55.5061    144.5121   7.8540059844e+01   3.8914953679e+01    0.4345954    0.2334196  79.89  0.001886794    2.292    0.564
        52 -11.3588    124.6357    141.6796   5.9779606758e+01   2.8444611702e+01    0.4723437    0.2838407 -74.93  0.001848063    2.602    0.616
        53 -11.0004     87.7740    142.9179   6.9535580057e+01   3.4656475667e+01    0.2790707    0.1935864 -87.36  0.001352685    1.630    0.386
        54 -12.5392    188.8589    136.7650   4.4525878660e+01   1.6623730530e+01    0.7263071    0.2455393 -43.65  0.002516688    3.027    0.670
        55 -10.8894    182.0200    140.7984   4.6766082993e+01   1.7264920470e+01    0.2639337    0.1829892 -52.86  0.001280262    1.662    0.398
        56 -10.1008     52.9929    250.0000   8.8244990579e+01   1.7703814280e+01    0.1728299   0.04698317  35.74 0.0007995691    2.923    0.658
        57 -11.2563     70.7266    118.5229   6.9919583070e+01   4.3228042992e+01    0.3168026    0.1723702 -76.78  0.001293575    2.183    0.542
        58 -11.2983      2.2939    114.2397   9.0654992996e+01   5.1425058991e+01    0.6195161     0.108023 -83.81  0.001467639    7.918    0.874
        59 -11.9227    185.9856    115.2525   3.9989639120e+01   2.1070283531e+01     0.347591    0.2118683 -36.92   0.00113289    1.564    0.360
        60 -11.0312    179.5217    132.8254   4.5465908923e+01   1.9220533246e+01    0.3497192    0.1968257 -48.09  0.001511721    1.901    0.474
        61 -11.8670    108.9148    111.6609   5.7169575908e+01   3.8287844324e+01    0.8599598    0.3356908 -54.18  0.002937984    2.642    0.622
        62 -10.7019    112.7078    132.5051   6.0901537509e+01   3.2748439012e+01    0.3185984    0.1835672 -67.83  0.001286143    2.170    0.539
        63 -12.0046     92.2693    109.4024   6.1429344690e+01   4.1936865139e+01    0.9222303    0.2757845 -55.58   0.00282532    3.342    0.701
        64 -11.9552     78.4076    110.4802   6.5892070215e+01   4.4028328900e+01    0.7281628    0.3287129 -70.50  0.002476925    3.069    0.674
        65 -11.4447     13.8784    108.3697   8.6424198284e+01   5.2094579312e+01    0.4954939    0.1834034 -74.43  0.002148389    2.193    0.544
        66 -11.5412    122.0342    110.7006   5.3359500152e+01   3.5866471943e+01     0.487298    0.2243977 -48.67  0.001820123    2.132    0.531
        67 -11.4107    131.6819    129.4304   5.5393484302e+01   2.9748590420e+01    0.5766721    0.2551817 -56.31  0.002037905    2.680    0.627
        68 -11.5014    159.2526    110.1463   4.4189444152e+01   2.7914953595e+01    0.3942506     0.204281 -39.21  0.001564707    1.903    0.475
        69 -11.5676     66.1653    108.2722   6.9276606927e+01   4.6447630243e+01    0.5276722    0.1923574 -59.82  0.001929387    2.484    0.597
        70 -12.7676    189.3117    106.3676   3.7125023627e+01   2.1936154351e+01    0.4761141    0.2143889 -42.86   0.00183792    2.138    0.532
        71 -11.1893    182.8527    108.3026   3.8841038030e+01   2.3013766002e+01    0.2808207    0.1913018 -44.85  0.001155249    1.439    0.305
        72 -12.1563     83.2275    129.3876   6.8335092608e+01   3.8627760470e+01    0.8152483    0.2822939 -63.12  0.002721731    3.128    0.680
        73 -11.2275    174.6214    110.0970   4.0928543954e+01   2.4505226405e+01    0.4011101    0.1728307 -40.81  0.001487071    2.218    0.549
        74 -12.1328    150.0647    100.8031   4.3768204006e+01   3.1857946077e+01    0.7491107    0.2212899 -46.52  0.002159306    3.540    0.718
        75 -11.5828    139.5001    102.7855   4.6817227326e+01   3.3828372018e+01    0.4992075     0.241468 -47.85  0.001876884    2.068    0.516
        76 -12.3336     44.3327     98.7972   7.4663350040e+01   5.1665291001e+01     1.001536    0.4106304 -75.61  0.003634469    2.921    0.658
        77 -11.0382    142.8452    129.9467   5.2813226197e+01   2.7368701117e+01    0.4488734    0.1937995 -51.47  0.001621097    2.505    0.601
        78 -11.0977    166.5392    102.2342   4.0532718494e+01   2.7816316476e+01    0.3865192    0.1491779 -36.55  0.001302283    2.614    0.617
        79 -11.0982    162.6684    244.3214   6.7874599844e+01   4.0788737647e+00     0.108682   0.07688701  55.20 0.0007049405    1.698    0.411
        80 -11.2740    175.5875    100.7033   3.8276407347e+01   2.6040072069e+01    0.3003239    0.1448344 -33.67  0.001138183    2.101    0.524
        81 -11.1929    159.6256     99.0672   4.1151139251e+01   3.0013289062e+01    0.3726469    0.1432019 -39.98  0.001262468    2.509    0.601
        82 -12.6701    108.3209     96.2280   5.3300100152e+01   4.1954171798e+01    0.8424553    0.4438055 -56.55  0.003271001    2.042    0.510
        83 -12.1078     81.9339     97.6345   6.1733401095e+01   4.6577619060e+01    0.6404138    0.2138653 -55.19  0.002121096    2.844    0.648
        84 -12.1730    192.6364    129.4140   4.2124012887e+01   1.7156371609e+01    0.3329472    0.2639408 -23.27  0.001384111    1.243    0.196
        85 -12.5532     63.4242     92.5867   6.6658643334e+01   5.0736539826e+01    0.9779687     0.311289 -58.73  0.003314701    2.876    0.652
        86 -11.4131    168.6007    128.2514   4.6650529271e+01   2.2345193888e+01    0.3867953    0.2228824 -47.90  0.001667856    1.800    0.445
        87 -11.8212    176.6363     92.0055   3.5712148759e+01   2.7390149834e+01    0.3541408    0.1394123 -36.47  0.001233083    2.422    0.587
        88 -10.8726    164.5994     92.7228   3.8330378874e+01   3.0075757980e+01    0.3096743    0.1478183 -33.99  0.001143256    2.152    0.535
        89 -11.1466    152.7794    127.5224   4.9945958332e+01   2.5809822343e+01    0.5363916    0.1913391 -48.18  0.001771739    2.958    0.662
        90 -11.7504    138.7147     90.3810   4.3512556796e+01   3.6580932568e+01    0.5359292    0.2671899 -44.35  0.002049019    1.949    0.487
        91 -11.5866     95.2077     94.5058   5.6730703987e+01   4.4930062144e+01    0.6640749    0.2454751 -45.85    0.0022453    2.663    0.625
        92 -10.8588    157.6865     90.4987   3.9172532633e+01   3.2125241262e+01     0.288819    0.1385984 -38.65  0.001080634    2.015    0.504
        93 -12.4975    124.7509     87.8861   4.6332619941e+01   4.0273080426e+01    0.8275083    0.3782412 -36.73  0.002926758    2.395    0.582
        94 -11.9989      4.8712     88.7835   8.7220976549e+01   5.7545870590e+01    0.6030497    0.1118836 -64.54  0.002179731    3.263    0.694
        95 -11.3590     34.5260     86.4548   7.5773284018e+01   5.5815981156e+01    0.7373232    0.1816427 -64.00  0.002478136    3.237    0.691
        96 -12.2653     86.4105     83.9735   5.6537891335e+01   4.9020475597e+01    0.7873878    0.3123531 -50.34  0.002830911    2.366    0.577
        97 -12.5602     98.7388    124.6791   6.3009732915e+01   3.7129817367e+01    0.9461843    0.3927474 -57.21  0.003479184    2.423    0.587
        98 -10.3554    164.0000     85.9788   3.6535450114e+01   3.1480645034e+01     0.262279   0.08551848 -37.18 0.0008033685    2.949    0.661
        99 -11.1647     72.8231    127.8977   7.1052164439e+01   4.0600038041e+01    0.4305879    0.1875574 -68.87  0.001630743    2.494    0.599
       100 -11.4565     12.1821    125.1420   8.8643800799e+01   4.8075465961e+01    0.6525275    0.1174955 -70.13  0.002238474    3.722    0.731
       101 -11.8487     47.6459     82.8682   7.0017538979e+01   5.5244683341e+01    0.5198554    0.2206865 -71.49  0.001873673    2.923    0.658
       102 -11.8190    140.9304     81.7089   4.0385064180e+01   3.7803374499e+01    0.4246301    0.2115804 -37.82  0.001609469    1.985    0.496
       103 -12.0302    104.4632     80.4347   4.9782026301e+01   4.6271883606e+01    0.7425206     0.295761 -44.78  0.002593273    2.413    0.586
       104 -11.2413    158.5656     81.7329   3.6428185398e+01   3.3573756913e+01    0.3087021    0.1513905 -33.11  0.001146416    2.105    0.525
       105 -11.3435    150.2561     78.8960   3.7377157785e+01   3.6112369112e+01    0.3994938    0.2057526 -40.04  0.001557149    1.862    0.463
       106 -11.1511    119.2063     78.7962   4.5033759174e+01   4.3422374880e+01    0.4410647    0.2244337 -39.91   0.00170049    1.944    0.486
       107 -10.9288     74.3902     78.8979   5.9125822420e+01   5.2312975270e+01    0.4585114    0.1398301 -55.72  0.001396349    3.440    0.709
       108 -11.1846     24.1425     79.2931   7.8367738313e+01   5.8554056728e+01    0.4409769    0.1680483 -77.86  0.001625607    3.051    0.672
       109 -11.2480     25.6091     73.0080   7.6480430288e+01   5.9975738819e+01    0.4065646    0.1733095 -36.31  0.001593532    3.127    0.680
       110 -11.1024     22.3013    135.0998   8.6675468227e+01   4.4804182171e+01    0.5789255    0.2074222 -83.18  0.002317009    2.733    0.634
       111 -11.7089    180.1032    123.5276   4.3162007190e+01   2.0813660685e+01    0.4362301    0.2128603 -39.28  0.001768677    1.981    0.495
       112 -11.5481    117.3826    123.7651   5.7748603237e+01   3.3849656867e+01    0.5411894    0.2995227 -66.54  0.002054241    2.425    0.588
       113 -11.8021     58.5634    121.7027   7.4205737302e+01   4.4142964228e+01    0.7916909    0.3063639 -77.79  0.002438606    4.084    0.755
       114 -12.0512    188.5987    122.7553   4.1318705368e+01   1.9167455688e+01    0.3784027    0.2335101 -38.44  0.001312915    1.548    0.354
       115  -9.9471    138.6632    137.3330   5.5459515338e+01   2.6654397159e+01    0.1536254    0.1170158  84.19 0.0007052056    1.740    0.425
       116 -10.4807    157.5938     75.1859   3.4660854727e+01   3.5012393461e+01    0.2265538     0.148627 -24.90 0.0009576256    1.710    0.415
       117 -11.8388    128.0458     72.5141   4.0665054341e+01   4.2655857633e+01    0.6401815    0.3169079 -34.30  0.002389914    2.136    0.532
       118 -10.5143     10.0150     74.4784   8.3192960675e+01   6.0767887626e+01    0.1572508     0.128984  14.84 -4.51999e-05    1.506    0.336
       119 -10.5173    104.8647    123.1580   6.0981768939e+01   3.6374484048e+01    0.2232733    0.1941773  84.35 0.0003630841    1.189    0.159
       120 -11.9227     81.5149     70.5486   5.4016731604e+01   5.2963117602e+01    0.5666746    0.2472347 -55.36  0.002047279    2.514    0.602
       121 -11.8851     62.9207     68.8742   6.0278221125e+01   5.6482894867e+01    0.8212214     0.156539 -49.36  0.002249219    4.415    0.774
       122 -10.7766    115.6297     71.0117   4.3490803120e+01   4.5822163674e+01    0.3643075    0.1440826 -41.06  0.001245628    2.452    0.592
       123 -11.9990     42.6665    120.1599   7.8838803746e+01   4.6470319161e+01       0.7798    0.2850236 -82.32   0.00242601    4.200    0.762
       124 -11.4228    105.7486     69.3881   4.5796678270e+01   4.8342539452e+01    0.5083669    0.1997182 -36.92   0.00168121    2.786    0.641
       125 -11.6298     94.8147     68.2938   4.8810547348e+01   5.0872551054e+01    0.7551864    0.2013022 -46.00  0.002189256    3.615    0.723
       126 -10.7871    170.5983     70.1664   3.0566374373e+01   3.2690952828e+01    0.2234929    0.1461287 -22.01 0.0009545443    1.738    0.425
       127 -11.6082     50.8033     66.4398   6.4324339949e+01   5.8788344176e+01    0.7065797    0.1921701 -60.41  0.002028645    4.392    0.772
       128 -10.8892    146.9076     66.0376   3.4066837000e+01   3.9294682298e+01    0.4278738    0.2095631 -23.66  0.001448396    2.804    0.643
       129 -11.1581     28.8185    121.1718   8.3237632142e+01   4.7644110606e+01    0.5442802    0.1558936 -75.56  0.001882299    3.360    0.702
       130 -11.3394    138.5632     64.8136   3.5548502036e+01   4.1575604046e+01      0.39412    0.1431274 -38.68  0.001300039    2.616    0.618
       131 -11.5009    110.2455     60.8286   4.1490595959e+01   4.9049006087e+01    0.5391031    0.2751226 -28.39  0.001974952    2.436    0.589
       132 -11.2912    172.3499    137.2827   4.7945882257e+01   1.9853142086e+01    0.3699083    0.1201922 -49.38  0.001103702    3.981    0.749
       133 -10.6826    172.5477    119.8109   4.3792896968e+01   2.3121614732e+01    0.3711814     0.139833 -42.20  0.001293884    2.576    0.612
       134 -11.0052     99.9889     57.1496   4.3198247387e+01   5.2037792620e+01    0.5377717    0.2137625 -36.96  0.001874209    2.568    0.611
       135 -11.5164     73.3279     55.4542   5.1671541313e+01   5.7694358320e+01    0.8165554     0.217552 -42.70  0.002466055    3.656    0.727
       136 -10.8174    158.2987    119.7789   4.6838245875e+01   2.6201695231e+01    0.3626537    0.2053048 -46.79  0.001519591    1.773    0.436
       137 -12.1086    141.4297    116.9853   5.0045947804e+01   3.0405728037e+01    0.7885698    0.2738151 -49.86  0.002484795    3.117    0.679
       138 -12.1815    128.5586    100.2893   4.8888308496e+01   3.6773811939e+01    0.5633696    0.2948376 -43.37  0.002218058    1.876    0.467
       139 -11.1524    140.5443     73.7438   3.7992385685e+01   3.9435409104e+01    0.3107464    0.1536545 -33.49  0.001148309    2.117    0.528
       140 -11.3680    130.4585    117.3021   5.2832414802e+01   3.2653457993e+01    0.5142069    0.2640314 -60.40  0.001856343    2.547    0.607
       141 -11.1393    121.5243     64.0994   3.9536283898e+01   4.5815223570e+01    0.4746237    0.2154135 -36.82  0.001738415    2.194    0.544
       142 -11.9677     45.3115     49.4317   6.1030514819e+01   6.3354243368e+01    0.3889195    0.2105146 -42.93 0.0005665022    1.676    0.404
       143 -10.6672    105.5458     51.2032   3.9280456322e+01   5.1912752377e+01     0.382559    0.1475948 -35.08  0.001310977    2.643    0.622
       144 -11.5616    154.8318    240.8205   6.8861212113e+01   5.6453030625e+00    0.1562767    0.1171165  49.12 0.0007238119    1.339    0.253
       145 -10.6711    113.2213     43.0055   3.3948382385e+01   5.1527009747e+01     0.470429      0.25329  -7.86  0.001449711    4.049    0.753
       146 -11.0186     82.8859     42.2869   4.2919698163e+01   5.8419472134e+01    0.5588933    0.2446509 -25.49  0.001784356    3.689    0.729
       147 -11.0303    122.7772     42.2924   3.1251438204e+01   4.9310898989e+01     0.423898     0.220195 -11.53   0.00137042    3.527    0.716
       148 -10.7147     62.8925     49.4830   5.3467474948e+01   6.0728297461e+01    0.4196304    0.1612905 -39.52  0.001533288    2.661    0.624
       149 -10.5173     53.4173     48.8786   5.7223760828e+01   6.2338720136e+01    0.3520296    0.1018801 -42.98  0.001148318    3.370    0.703
