#   1 NUMBER                 Running object number                                     
#   2 MAG_AUTO               Kron-like elliptical aperture magnitude                    [mag]
#   3 X_IMAGE                Object position along x                                    [pixel]
#   4 Y_IMAGE                Object position along y                                    [pixel]
#   5 X_WORLD                Barycenter position along world x axis                     [deg]
#   6 Y_WORLD                Barycenter position along world y axis                     [deg]
#   7 A_WORLD                Profile RMS along major axis (world units)                 [deg]
#   8 B_WORLD                Profile RMS along minor axis (world units)                 [deg]
#   9 THETA_WORLD            Position angle (CCW/world-x)                               [deg]
#  10 FWHM_WORLD             FWHM assuming a gaussian core                              [deg]
#  11 ELONGATION             A_IMAGE/B_IMAGE                                           
#  12 ELLIPTICITY            1 - B_IMAGE/A_IMAGE                                       
         1 -14.6006     42.7170     45.1238   7.9484726720e+01   6.3547870718e+01     1.811309     1.002547   3.69  0.007136472    2.463    0.594
         2 -14.2486     67.7038     42.5386   6.8147088826e+01   6.0119458187e+01     1.489383    0.9535241  12.35  0.007435082    1.831    0.454
         3 -14.2629     31.4865     11.0700   6.9885711320e+01   7.0093162102e+01     1.793717     1.011353  10.84  0.009991268    1.869    0.465
         4 -14.3258      6.7509     23.3269   8.9151265233e+01   7.0986692089e+01     1.905649    0.6861087 -38.77  0.009487147    2.242    0.554
         5 -10.7396     64.6003     17.4668   5.8874139622e+01   6.3981255841e+01    0.8966216    0.4402064  22.97  0.003989736    2.625    0.619
         6 -12.6759    111.9160      3.5869   4.0864831034e+01   5.5291724364e+01     1.185245    0.3973933  47.43  0.005028495    2.578    0.612
         7 -11.7391     73.9843      1.4910   4.8862525485e+01   6.3652219294e+01    0.4447889    0.1625266  59.58  0.001440009    2.607    0.616
         8 -13.4807     75.4094     13.6864   5.3643174331e+01   6.2294229678e+01     0.708387    0.5584933  89.68  0.004146569    1.994    0.499
         9 -14.2968     85.5791     11.1028   4.9632760547e+01   6.0453837357e+01     1.492987    0.7150409  54.49  0.006954835    1.773    0.436
        10 -13.4135     87.3054      2.1400   4.5605406394e+01   6.0835151439e+01     2.163761    0.4159198  63.15  0.005968848    6.291    0.841
        11 -12.0783    115.5580     11.2889   4.2801155152e+01   5.3820886734e+01    0.5349669    0.2485265 -25.72  0.002579112    2.448    0.591
        12 -12.0895    124.2024     11.5067   4.1260905243e+01   5.1808142384e+01    0.4334149    0.2700643  62.90  0.001354112    1.363    0.266
        13 -11.5887    120.0860      7.6318   4.0730170149e+01   5.3095846041e+01    0.3151627    0.2406619   4.99  0.001855572    1.602    0.376
        14 -11.2134    242.1522     10.3703   2.8151703745e+01   2.5782425482e+01    0.2158754    0.1240473 -51.43 0.0005783458    1.410    0.291
        15 -10.5213    185.6561     10.3146   3.2695051804e+01   3.7650115499e+01    0.2062558    0.1182237 -68.78 0.0006595397    1.762    0.433
        16 -10.8573    150.7645      8.9511   3.6377103523e+01   4.5826756197e+01    0.2266312    0.1586344  70.69 0.0007370236    1.216    0.178
        17 -11.5633    137.5480      5.2470   3.7153295905e+01   4.9240226455e+01    0.3824942    0.1967877  70.91  0.001401564    1.688    0.408
        18 -10.0433    128.5204      5.5106   3.8616562416e+01   5.1320356640e+01    0.1265774    0.1062116  63.92 6.010719e-05    1.017    0.016
        19 -11.1049      6.2779      3.0277   7.9883347791e+01   7.4060165040e+01     0.293356    0.1531156 -12.84  0.001315131    1.885    0.470
        20  -9.8623    212.1977      1.4046   2.8450067859e+01   3.2754450123e+01    0.1571753   0.08978476 -87.01 0.0004846434    1.536    0.349
        21 -15.2506     93.8411     73.5994   7.0073782319e+01   4.9888824434e+01     2.380069    0.7151047  41.75  0.007631483    3.310    0.698
        22 -14.1823    117.9812     71.7769   6.2327127051e+01   4.5174942543e+01    0.6358885    0.5778111  -3.29  0.002990477    1.152    0.132
        23 -13.3316    150.9524     72.9485   5.4719615834e+01   3.7425478162e+01    0.5255634    0.3668221 -26.18  0.002494145    1.648    0.393
        24 -14.0183    142.1746     76.4965   5.7687584654e+01   3.8845900830e+01    0.7262757    0.5367497  34.89  0.002319123    1.495    0.331
        25 -13.6835    135.6282     74.4879   5.8640766627e+01   4.0711293928e+01    0.6069219    0.4605466  17.76  0.002063693    1.680    0.405
        26 -12.6348    165.0929     73.4559   5.1995995200e+01   3.4037503760e+01    0.5570017    0.4371127  67.43   0.00290838    1.291    0.226
        27 -12.6674     92.6670     56.4377   6.4673523490e+01   5.3186310232e+01    0.4754534    0.3488604 -56.05 0.0001095914    1.765    0.433
        28 -14.5992     80.9958     67.2297   7.2278670555e+01   5.3527291111e+01     1.409686    0.7167165  52.63  0.005567349    2.644    0.622
        29 -14.3938     86.4171     60.7681   6.8215991393e+01   5.3683445960e+01     1.486494    0.5050058  43.65  0.005301653    2.862    0.651
        30 -14.3697     62.8072     72.2871   8.0635883389e+01   5.5575289944e+01     1.244135    0.7793916   5.01  0.005598334    2.103    0.525
        31 -12.6229      8.9505     64.1224   1.0119292664e+02   6.2996658786e+01    0.4494982    0.2814665 -38.86  0.002303614    1.297    0.229
        32 -12.1152    103.4607     63.5816   6.3803014257e+01   4.9752034568e+01    0.3424623    0.3232771  85.56  0.001250613    1.242    0.195
        33 -10.9641    165.9899     62.9611   4.8980026858e+01   3.5534521335e+01    0.2441208    0.2005881  48.76 0.0004108832    1.268    0.212
        34 -10.9366    170.0456     62.5240   4.8141459089e+01   3.4652614660e+01     0.245449    0.2147118  80.37 0.0004691424    1.106    0.096
        35 -13.8859     20.0839     57.9808   9.4378586230e+01   6.3507348358e+01    0.7845081    0.4071208  -5.07   0.00376989    2.327    0.570
        36 -10.8276    214.8051     61.1691   4.1203670290e+01   2.4816074360e+01    0.2501103    0.1718051 -36.39  0.001203667    1.468    0.319
        37 -11.5280    147.3280     58.4300   5.1290554003e+01   4.0637868511e+01    0.2697556    0.1276784  52.86  0.001085858    1.990    0.497
        38 -11.6847    124.5009     57.6886   5.6185943513e+01   4.6076884979e+01    0.2836648    0.1886843  51.54   0.00137587    1.421    0.296
        39 -11.0893    174.5515     56.5166   4.5787543457e+01   3.4512079869e+01    0.2478809    0.2140554 -73.79  0.001432881    1.115    0.103
        40 -12.2082    132.6962     53.5242   5.2949574518e+01   4.4818609720e+01    0.5250558    0.2442009  57.26  0.002154369    2.069    0.517
        41 -12.1636     68.4089     54.8080   7.2503795353e+01   5.7988030216e+01    0.3750572     0.319827  73.91  0.001416078    1.774    0.436
        42 -11.1688    246.8094    183.1737   6.2247117981e+01  -1.7101595977e+00    0.1894173    0.1510316 -33.76 0.0006194845    1.174    0.148
        43 -12.9848    232.8713    163.8357   6.0790990235e+01   3.6640620224e+00    0.4969717    0.3937083  43.87  0.002643929    1.530    0.346
        44  -9.8755    208.8228     55.3618   4.0625494363e+01   2.6947298911e+01    0.1740605    0.1134285  56.83  0.000430416    1.649    0.393
        45 -13.6997    248.1858    140.3116   5.3588538149e+01   5.3584726285e+00     2.031608    0.5787821 -37.94  0.007369506    3.053    0.672
        46 -13.0614      2.7295     46.3532   9.9380659283e+01   6.7032036915e+01    0.5801985    0.4896138  69.52  0.003174836    1.829    0.453
        47 -12.4213    248.9025    153.8788   5.6197403868e+01   2.9217984377e+00     0.437698    0.2935564 -20.29  0.002188327    1.551    0.355
        48  -9.9611    213.3933     50.5396   3.8982137078e+01   2.6650635798e+01    0.1281358    0.1088727 -66.26 7.727154e-05    1.022    0.022
        49 -10.4781    145.3364     50.6873   4.9413691922e+01   4.2258763835e+01    0.1453434    0.1057582 -76.38 0.0006194013    1.688    0.408
        50 -10.9013    137.2122     48.2252   5.0332187655e+01   4.4527763256e+01    0.1911544    0.1606812 -80.56  0.000667498    1.324    0.245
        51 -11.9924     98.0979     46.7839   5.9607013100e+01   5.3568793913e+01    0.4285103    0.2079915  45.70   0.00187249    1.894    0.472
        52 -10.2070    116.2938     45.3292   5.4183878385e+01   4.9780426713e+01    0.1423961    0.1028759  22.18 0.0003478313    1.629    0.386
        53 -11.0810    157.0527     43.6269   4.5202034734e+01   4.0456004128e+01    0.2952249    0.1941935  62.49 0.0008374465    1.411    0.291
        54 -11.9614    141.5201     43.5318   4.8029257489e+01   4.4155349176e+01    0.2885628    0.2463029  11.57 0.0008092159    1.403    0.287
        55 -11.7748    144.2303     39.2567   4.6228441163e+01   4.4073164765e+01    0.5225241    0.2052664  65.47  0.001992205    2.631    0.620
        56 -10.3283    204.3262     43.5336   3.8445879298e+01   2.9575057942e+01    0.1627045    0.1146691  60.71 0.0009244805    1.475    0.322
        57 -10.4747     90.2163     43.1965   6.0687088690e+01   5.5730345302e+01    0.2063469    0.1757747  15.47  0.001202857    1.123    0.110
        58 -10.8181    197.1510     40.9099   3.8689137098e+01   3.1513288914e+01    0.1907556    0.1660411 -74.82 0.0004305981    1.020    0.020
        59 -10.0271    225.9555     39.4613   3.5239003410e+01   2.5516625956e+01    0.1671522    0.1106015  78.32 0.0003449651    1.477    0.323
        60 -11.5251    217.9892     38.2107   3.5761501419e+01   2.7336202926e+01    0.2442187    0.1833514  70.02 0.0003904475    1.355    0.262
        61 -10.7331    130.1053     38.3030   4.8729322697e+01   4.7528639912e+01    0.2528613    0.1947122 -43.45   0.00139997    1.412    0.292
        62  -9.9493    159.9592     36.4538   4.2714051129e+01   4.0693789585e+01    0.1901297    0.1214996  65.86 -3.368931e-05    1.437    0.304
        63 -10.5376    235.9812     35.3015   3.3462431822e+01   2.4031435674e+01    0.1669204    0.1345455 -74.56 0.0007057023    1.060    0.057
        64 -10.8536    122.1171     43.5280   5.2185673658e+01   4.8697817735e+01    0.2274698     0.196663 -13.32  0.000492141    1.279    0.218
        65 -10.2717    176.7558     33.7732   3.9538258681e+01   3.7079902081e+01    0.1874058    0.1377075 -75.84  0.001054771    1.355    0.262
        66 -10.5049    250.0800     32.3763   3.1737488001e+01   2.1681212044e+01     0.219147    0.1173622 -61.67  0.001276981    1.611    0.379
        67 -11.4926     30.3224     31.6551   7.9949616573e+01   6.7336219732e+01    0.2136947    0.1967477  30.71  0.001473643    1.516    0.341
        68 -12.0994     26.9797     28.8126   8.0430635339e+01   6.8174076542e+01    0.4271492    0.2239663 -35.63  0.002347252    1.721    0.419
        69 -12.2654     78.3761     30.6679   5.9670446747e+01   5.9797155627e+01    0.5984704    0.4270204  75.31  0.003006264    2.345    0.574
        70 -11.3011    241.8946     22.5488   3.0479147281e+01   2.4440677449e+01    0.2684539    0.1610813 -59.43  0.001140956    1.354    0.261
        71 -11.9700     84.3610     22.3449   5.4473460530e+01   5.9579509004e+01    0.3987249     0.232444  38.96  0.001866984    1.531    0.347
        72 -11.1287    153.8797     20.0146   3.9047777229e+01   4.4015666444e+01    0.2072796    0.1657504  74.38 0.0003036811    1.097    0.089
        73 -12.4902    241.4502    152.9935   5.7185280946e+01   4.2250248671e+00    0.3635693    0.3043199  41.94  0.002181245    1.446    0.309
        74 -11.8017     18.7163    154.0079   1.1269458699e+02   4.0418344652e+01    0.2000983    0.1579613 -77.05  0.001179869    1.074    0.069
        75 -10.7275    138.5074    152.4983   7.8334071116e+01   2.3333512404e+01    0.1555941    0.1520602 -30.02 0.0008106058    1.014    0.014
        76 -11.8297     51.5999    141.6893   1.0122437776e+02   4.0343301838e+01    0.4601432    0.2113706 -67.36  0.001827073    2.103    0.525
        77 -12.3404     47.6280    142.1824   1.0253300729e+02   4.0675891474e+01    0.4007925    0.2151483  23.01  0.001756489    2.148    0.534
        78 -11.7426    215.1202    141.2352   5.9148484405e+01   1.0831134397e+01    0.4779353    0.3776409  75.23  0.002522663    1.765    0.434
        79 -10.3094    175.4261     14.7775   3.4876399175e+01   3.9527225784e+01    0.1483834    0.1243065 -10.04 0.0007520787    1.588    0.370
        80 -11.0499     33.8030    135.6215   1.0579040688e+02   4.3827550371e+01    0.1926564    0.1218342  39.33 0.0009522534    1.734    0.423
        81 -10.7067     28.1783    126.1782   1.0611615355e+02   4.6774291120e+01    0.1930933    0.1557541  78.37   0.00108372    1.355    0.262
        82 -11.9624     74.4693    110.1270   8.7144048786e+01   4.5269561294e+01    0.4107845    0.2587655 -73.93  0.001674448    2.234    0.552
        83 -13.0643     62.4037    106.8317   9.0486655034e+01   4.7839794332e+01    0.5113391    0.2956474 -66.32  0.002163554    1.995    0.499
        84 -12.3269    140.2511     97.5138   6.4116127578e+01   3.5266461295e+01    0.3759483    0.3045584  48.23  0.001105417    1.247    0.198
        85 -10.3775    173.1837    100.4035   5.7492389021e+01   2.7303130952e+01    0.2133402    0.1440805  65.28 0.0009562759    1.718    0.418
        86 -11.8718     34.9784     89.0235   9.6345728794e+01   5.5345698432e+01    0.2396704    0.1412425 -31.26  0.001149786    1.733    0.423
        87 -12.8306     41.0147     81.6333   9.2050415878e+01   5.6415359501e+01    0.4543136    0.2750419  22.71  0.002274769    1.767    0.434
        88 -13.5136    120.0089     64.3102   5.9430719686e+01   4.6020337563e+01    0.5849947    0.4297957  69.32  0.002845237    1.622    0.384
