#   1 NUMBER                 Running object number                                     
#   2 MAG_AUTO               Kron-like elliptical aperture magnitude                    [mag]
#   3 X_IMAGE                Object position along x                                    [pixel]
#   4 Y_IMAGE                Object position along y                                    [pixel]
#   5 X_WORLD                Barycenter position along world x axis                     [deg]
#   6 Y_WORLD                Barycenter position along world y axis                     [deg]
#   7 A_WORLD                Profile RMS along major axis (world units)                 [deg]
#   8 B_WORLD                Profile RMS along minor axis (world units)                 [deg]
#   9 THETA_WORLD            Position angle (CCW/world-x)                               [deg]
#  10 FWHM_WORLD             FWHM assuming a gaussian core                              [deg]
#  11 ELONGATION             A_IMAGE/B_IMAGE                                           
#  12 ELLIPTICITY            1 - B_IMAGE/A_IMAGE                                       
         1 -14.3918     76.2325     69.1278   5.5956498668e+01   5.4287883224e+01     1.158681    0.7974318  14.60  0.005182843    1.835    0.455
         2 -12.5207     68.0491     84.9166   6.3801074120e+01   5.2182410456e+01    0.4476871    0.3170558  86.65  0.001997291    2.068    0.516
         3 -13.2170    153.3858    185.3764   5.9475087683e+01   1.6735471817e+01     0.514468    0.2905114  11.92  0.002329249    2.357    0.576
         4 -12.8432    130.6686    174.0703   6.2875905338e+01   2.2331527960e+01    0.4542402    0.2556245  30.35  0.002194262    1.566    0.362
         5 -15.9458    164.0061    154.6463   5.1646677023e+01   2.0013069933e+01     1.489984     1.256109  48.47  0.008704295    1.351    0.260
         6 -10.9154     83.5771    162.7758   7.3492872551e+01   3.1925307505e+01    0.1814066    0.1343895 -85.20 0.0009563018    1.670    0.401
         7 -10.3802    100.1525    164.6728   6.9198394656e+01   2.9042780464e+01    0.1966526    0.1767298  54.75   0.00116511    1.161    0.139
         8 -11.0037     78.3938    151.1851   7.3318152590e+01   3.5197987858e+01    0.1917806    0.1348518 -83.81 0.0009250093    1.763    0.433
         9 -13.4883    121.7081    142.3558   5.9458025909e+01   2.9960657764e+01    0.5655234    0.2747506  44.29  0.002331763    1.945    0.486
        10 -11.2030     89.4042    153.2130   7.0412043392e+01   3.3116030710e+01    0.1884913    0.1384829 -79.59 0.0009575356    1.703    0.413
        11 -14.6874    179.7220    135.9815   4.4531336707e+01   2.0193367204e+01    0.8889707    0.7722756   9.40  0.005327818    1.048    0.045
        12 -13.9969    108.3231    139.5448   6.2592988766e+01   3.2932060491e+01    0.7272342    0.5028372  27.58  0.003553424    1.399    0.285
        13 -12.7880     87.7114    140.5389   6.8815521440e+01   3.6162810260e+01     0.592854    0.3457163  74.95  0.002208485    3.215    0.689
        14 -15.5957    143.8978    128.8246   5.0915005837e+01   2.8371144491e+01      1.63406    0.7961071  40.87  0.006778599    1.894    0.472
        15 -13.6908    107.1371    108.9712   5.6313215021e+01   3.9681483342e+01    0.7000318    0.4942326 -74.73  0.003085952    2.045    0.511
        16 -15.3920    137.7166    112.2445   4.8592270439e+01   3.2764993710e+01     1.319996       1.0005 -25.80  0.006546012    1.471    0.320
        17 -14.4687     54.1406    119.4900   7.6267600980e+01   4.5879155502e+01     1.025197    0.7047853  17.10  0.005122039    1.560    0.359
        18 -15.0200     89.5195    106.7982   6.1414526027e+01   4.3476127187e+01     1.449789    0.6836862 -60.47  0.005385786    2.646    0.622
        19 -14.1534     83.0375    107.5577   6.3783859300e+01   4.4438704039e+01    0.7279969     0.540002 -66.03  0.003563866    1.531    0.347
        20 -12.9359     97.7264    105.6993   5.8460997782e+01   4.2206367532e+01    0.5740269    0.2783204  29.96  0.002128534    2.314    0.568
        21 -14.4902     79.3719     93.5465   6.1720667170e+01   4.8287202672e+01    0.9071183    0.6423047 -63.53  0.004300159    1.607    0.378
        22 -15.5041    128.3554    103.6448   4.8885049955e+01   3.6410483966e+01     1.283836     1.122568 -44.52  0.006800922    1.233    0.189
        23 -11.8130     57.7935    132.3607   7.6992135721e+01   4.2334198013e+01    0.4061157    0.2537157 -12.28  0.001742903    2.494    0.599
        24 -13.7596     52.5561     96.3837   7.2674446525e+01   5.1702501557e+01     1.047201    0.7434728 -79.03  0.005199192    1.603    0.376
        25 -14.4631    107.7989     88.1907   5.0646504042e+01   4.3909010434e+01     1.029711    0.7091439 -48.58  0.004758716    1.572    0.364
        26 -14.4520     71.6399    109.6929   6.8230011824e+01   4.5792919335e+01    0.9974769    0.6561626  73.75  0.004320338    2.171    0.539
        27 -12.9687    103.8207    113.2959   5.8355064782e+01   3.9390739431e+01    0.4075905    0.3160577 -48.63  0.002038673    1.390    0.281
        28 -12.8120     98.9829     91.2723   5.4319455893e+01   4.5090959169e+01    0.4756202    0.3145532 -23.59   0.00200829    2.060    0.514
        29 -13.1565     97.6434    100.0246   5.7074033454e+01   4.3465436907e+01    0.5453044    0.3047282  29.87  0.002205149    1.936    0.483
        30 -13.7390    128.5117     77.0280   4.1426252085e+01   4.1412636194e+01    0.9638149     0.329053  49.33  0.003166259    2.741    0.635
        31 -12.2600     87.4477     84.6288   5.6405760905e+01   4.8799325427e+01    0.3402742     0.250871  82.84  0.001501739    2.013    0.503
        32 -13.5984    137.7234     80.0061   3.9968392001e+01   3.8720648114e+01    0.7018778    0.4757808 -59.96  0.003095273    1.919    0.479
        33 -10.3307    175.3172     83.3352   3.2887261265e+01   2.9459160030e+01    0.1475861    0.1077768  17.14 0.0007048236    1.696    0.410
        34 -11.1755      6.2120     82.1574   9.0297458945e+01   5.9293306250e+01    0.2904911     0.147888 -62.20  0.001434216    1.746    0.427
        35 -12.0158    181.2315     76.5720   3.0067634456e+01   2.9133799892e+01    0.3591843    0.3109311 -12.68  0.002041128    1.210    0.174
        36 -13.6190    197.3878    206.7240   5.4013048694e+01   7.1744559931e+00    0.5116468    0.2994763  19.47  0.003059676    1.458    0.314
        37 -12.1952     96.6953     69.3224   4.8505448209e+01   5.0103782170e+01    0.4412936     0.213742 -36.56  0.001666667    2.369    0.578
        38 -12.3031    145.3290     69.2743   3.5018677238e+01   3.8720049206e+01    0.3736095    0.3071367 -43.51  0.001930833    1.280    0.219
        39 -13.8946    116.3761     93.8244   4.9637273577e+01   4.0930964927e+01    0.9435077     0.597781  -4.57  0.003366647    3.115    0.679
        40 -10.6196    201.3180     77.3238   2.7083583911e+01   2.4626831312e+01    0.1360486   0.09990578  17.70 0.0007044361    1.671    0.402
        41 -12.0706    168.2019     63.3128   2.8723160418e+01   3.4093611441e+01    0.4945839    0.3520036  82.83  0.002389323    1.709    0.415
        42 -11.8061    129.7800     61.7115   3.6325120642e+01   4.3759662098e+01    0.3456916    0.2811734  80.29  0.001714585    1.412    0.292
        43 -11.2493    118.5019     61.1830   3.9105320104e+01   4.6597814145e+01    0.3073012    0.2111062  51.16  0.001419591    1.361    0.265
        44 -12.2920    168.7761     57.0574   2.6841262674e+01   3.4838836868e+01    0.2795505    0.2593404  28.60  0.001609926    1.140    0.123
        45 -11.6468    170.5506     96.2010   3.7116601365e+01   2.8495877317e+01    0.3597034    0.1422796 -32.47  0.001316376    2.721    0.632
        46 -11.4120    171.9516     72.8308   3.0695854312e+01   3.1813626477e+01    0.4409601    0.2800206 -48.17  0.002075322    1.707    0.414
        47 -13.2423    157.7863     52.4221   2.7409687256e+01   3.8190286887e+01    0.8111032    0.3838002  36.53  0.002897024    3.005    0.667
        48 -12.8765    163.2758     48.7029   2.5329610573e+01   3.7329432892e+01    0.4654433    0.3264545 -19.30   0.00229634    1.621    0.383
        49 -11.8623     74.3808     49.7225   4.9896940494e+01   5.8612382043e+01    0.3344765     0.231198 -12.59  0.001492592    1.969    0.492
        50 -11.3782    120.9133     47.0108   3.3578199596e+01   4.8311526134e+01    0.5021769    0.2894816 -74.55  0.001608494    3.919    0.745
        51 -12.3351    178.9122     43.5108   2.1416213045e+01   3.4149756688e+01    0.5456418    0.3086261  21.96  0.002127954    3.135    0.681
        52 -10.2493    131.6552     54.6882   3.3572104150e+01   4.4422459050e+01    0.1589375    0.1122982  27.14 0.0007046182    1.707    0.414
        53 -11.3710     93.8593     42.0546   3.9595189009e+01   5.5723113591e+01    0.6796834    0.4104915  -7.70  0.002568685    2.861    0.650
        54 -10.5102    101.9784     44.4899   3.7947317663e+01   5.3392040820e+01    0.2407881    0.1395494  51.52  0.001032123    1.589    0.371
