#   1 NUMBER                 Running object number                                     
#   2 MAG_AUTO               Kron-like elliptical aperture magnitude                    [mag]
#   3 X_IMAGE                Object position along x                                    [pixel]
#   4 Y_IMAGE                Object position along y                                    [pixel]
#   5 X_WORLD                Barycenter position along world x axis                     [deg]
#   6 Y_WORLD                Barycenter position along world y axis                     [deg]
#   7 A_WORLD                Profile RMS along major axis (world units)                 [deg]
#   8 B_WORLD                Profile RMS along minor axis (world units)                 [deg]
#   9 THETA_WORLD            Position angle (CCW/world-x)                               [deg]
#  10 FWHM_WORLD             FWHM assuming a gaussian core                              [deg]
#  11 ELONGATION             A_IMAGE/B_IMAGE                                           
#  12 ELLIPTICITY            1 - B_IMAGE/A_IMAGE                                       
         1  99.0000     30.5901     22.0966   5.4122610433e+01   6.7658670278e+01     1.059506    0.4256676 -33.83  0.005468222    2.353    0.575
         2  99.0000     40.8887     21.6341   4.9389193063e+01   6.6403063662e+01     1.548035    0.7416219  21.91  0.007974346    2.154    0.536
         3 -11.6437     77.5512      6.9707   3.0307001208e+01   6.1779763737e+01    0.5039609    0.2683627 -43.50  0.001438833    2.864    0.651
         4 -14.1737    115.6736     64.0958   3.9578468950e+01   4.7050397040e+01     1.771365      1.21458  46.97  0.006466453    1.363    0.266
         5 -12.1768     60.0345      4.9730   3.4934858481e+01   6.5142692182e+01     1.394042    0.5636454  46.01  0.007219268    2.002    0.500
         6 -14.2554     42.9836     75.6817   6.7656512309e+01   5.7280318197e+01     1.795741     1.017529 -21.36   0.00705725    2.030    0.507
         7 -11.5815     25.7963     39.6916   6.3225591764e+01   6.5616016551e+01     1.847168    0.3978674 -45.62  0.006863488    4.108    0.757
         8 -14.2776     10.5213     69.4593   7.8916828017e+01   6.1365431077e+01     2.094219    0.9891146  10.35   0.01092815    2.389    0.581
         9 -13.1432     64.8004     34.2413   4.5095526051e+01   6.1200161074e+01     1.101481    0.6953602  -2.25  0.005968904    1.797    0.443
        10 -12.8738     53.3166     34.0036   4.9331075102e+01   6.3038569293e+01     2.176646    0.7513666  25.55  0.006778827    5.456    0.817
        11 -13.5307     39.1597     56.3294   6.3209683088e+01   6.1386316558e+01     1.208226    0.6231393 -36.57  0.002940556    1.729    0.422
        12 -13.2802     48.9428     51.2597   5.7486805142e+01   6.1053708866e+01     1.185553    0.5456182 -28.40  0.003842739    2.397    0.583
        13 -12.8797    151.9132     62.4952   3.0545910124e+01   3.9004908455e+01     1.218457     1.183778  89.61  0.007266443    1.062    0.059
        14 -13.5230     92.8863     66.5205   4.6997747303e+01   5.1323174466e+01     2.031615     1.228048 -59.51  0.008508318    2.740    0.635
        15 -12.5805     53.7758     26.5920   4.6208757768e+01   6.3927537878e+01     1.346755    0.4234778  32.69  0.005242133    3.420    0.708
        16 -14.0204     11.1577     35.3958   6.8527288682e+01   6.7592427700e+01     1.798349     1.431366 -55.57  0.009323386    1.733    0.423
        17 -13.4051     72.7018     21.3333   3.7381039124e+01   6.1344099030e+01     1.473879    0.9610154  55.68   0.00167054    1.761    0.432
        18 -13.1216    234.1128     61.2655   1.7533204551e+01   2.0422038973e+01     2.459938    0.8046798 -33.99  0.008770351    3.955    0.747
        19 -13.8009    193.9594     41.0959   1.8065063363e+01   3.2118528787e+01     4.022226    0.8438224 -43.33   0.01338228    4.210    0.762
        20 -13.1111    202.5521     37.2019   1.6099748454e+01   3.0664867973e+01     1.631582    0.5401351 -54.07  0.005909701    3.703    0.730
        21 -12.9802    222.6599     39.1843   1.4260661517e+01   2.5969448292e+01     0.877969    0.5525484 -88.54  0.002512481    1.519    0.342
        22 -11.6713    233.9020     37.0150   1.2691466137e+01   2.3882151579e+01     1.117735    0.6628621 -81.54  0.005041257    1.639    0.390
        23 -12.2171    221.9419      9.3520   8.3624222387e+00   2.9706374231e+01    0.6534317    0.2636271 -54.63   0.00318098    2.286    0.563
        24 -13.9665    244.4118      8.9081   6.5749081071e+00   2.5167271745e+01     1.394733    0.5804303 -86.91  0.006938239    2.542    0.607
        25 -12.7565    226.4145     22.6889   1.0576328425e+01   2.7246792801e+01    0.4245042    0.2717309  81.33  0.001416654    1.358    0.263
        26 -12.0883    229.2370     16.4106   9.1161986442e+00   2.7391581830e+01    0.3592211    0.3026763  -3.42 0.0009934932    2.057    0.514
        27 -12.0390    161.2300     38.3566   2.2225279423e+01   4.0150071413e+01     1.003227    0.4860893 -35.58  0.003635923    2.238    0.553
        28 -11.7254    148.9386     40.5270   2.4978883851e+01   4.2787601073e+01    0.7142197    0.3679257 -39.09  0.003350931    2.099    0.524
        29 -11.6409    150.2450     22.6865   1.9800966640e+01   4.4529057312e+01    0.5982845    0.2749276  39.13 0.0007048062    2.901    0.655
        30 -11.3943    191.2018     20.9010   1.3771574115e+01   3.5198748398e+01    0.8609021    0.4718027  43.56  0.004231113    2.510    0.602
        31  -9.5077    201.9938     17.6833   1.1893372932e+01   3.3123432948e+01     0.474361    0.3579564  82.48  0.003082859    1.106    0.096
        32 -11.9202    212.5283     20.1347   1.1358804727e+01   3.0524437374e+01    0.3635428      0.26454 -48.38  0.001128424    1.390    0.281
        33 -10.2893    187.3224     13.0656   1.2433580028e+01   3.6918846052e+01    0.2516394    0.1453648 -68.14 0.0008766308    1.808    0.447
        34 -12.2032    116.3526      9.7514   2.2046566250e+01   5.3484539518e+01    0.3887034    0.2840383  29.07  0.001527016    1.446    0.308
        35 -11.9987    124.5623     16.3977   2.2518182022e+01   5.1066099880e+01    0.3628756    0.2024768  56.49 0.0001449383    1.458    0.314
        36 -10.4066    124.2460     10.3189   2.0716179831e+01   5.1675942249e+01    0.3575263    0.2159664  26.91  0.001910815    2.046    0.511
        37  -9.9257    145.6462      9.8704   1.7012603680e+01   4.6829767771e+01    0.2783634    0.1553482  67.23  0.001500287    1.479    0.324
        38 -11.0049    153.8588     15.9150   1.7413649086e+01   4.4366053903e+01    0.3911327     0.285075  12.15  0.002253421    1.969    0.492
        39 -11.4457    150.0487     13.1537   1.7242162645e+01   4.5513766414e+01    0.2308095    0.1936954 -72.46 0.0005777921    1.265    0.210
        40  -9.9826    103.1164     13.6984   2.6183539675e+01   5.6024796590e+01     0.315465   0.08877049 -20.11     0.001088    5.178    0.807
        41  -9.6649    131.5499     10.7987   1.9555594170e+01   4.9981808949e+01     0.467883    0.2835035 -51.69   0.00254395    2.067    0.516
        42  -9.6295     93.8527     11.7152   2.7720865878e+01   5.8138739599e+01    0.1967101    0.1105444  42.21 0.0003991471    1.477    0.323
        43 -10.0516     88.5895     11.9484   2.9157135442e+01   5.9190591701e+01    0.1645209    0.1164761 -16.22  0.001017291    1.595    0.373
        44 -12.5263    172.9974      6.5406   1.2537195697e+01   4.0825111761e+01    0.3741939    0.2615427  -6.29  0.001578879    2.197    0.545
        45  -9.5097     44.7650     10.0436   4.2771982328e+01   6.7142599265e+01     0.154762    0.1211254  -0.40 0.0007927142    1.160    0.138
        46 -10.9856     26.9343      9.6603   5.0348773291e+01   6.9607844053e+01    0.2268037     0.143213   7.97 0.0006188494    1.326    0.246
        47 -11.1556    193.6528      7.1487   1.0461788965e+01   3.6088761761e+01    0.2524506     0.199883  60.65 0.0009748425    1.357    0.263
        48  -9.5755    156.5163      7.9588   1.4951620554e+01   4.4489565518e+01    0.1485593    0.1263154 -24.06 0.0007578059    1.478    0.324
        49 -10.8490      2.9116      6.1152   6.0991412712e+01   7.2487950844e+01      0.22431    0.1313986   9.12  0.001186804    1.434    0.303
        50 -11.1314    146.5121      5.4575   1.5685556796e+01   4.7009989351e+01    0.2426943    0.1626278  53.36 0.0005157326    1.337    0.252
        51 -10.5229    142.4157      2.3991   1.5446037560e+01   4.8197327767e+01    0.2639095    0.1953002 -74.55  0.001009272    1.489    0.328
        52  -9.7303     91.0837      6.5797   2.6563905875e+01   5.9129649989e+01    0.1508535    0.1003598  83.16 0.0005029741    2.288    0.563
        53  -9.9878    101.9397      4.3550   2.3261391403e+01   5.7038186028e+01    0.2100441    0.1633525 -48.04  0.001357555    1.675    0.403
        54  -8.8164    183.0895      3.2044   1.0659206420e+01   3.8838602022e+01     0.371126      0.18299 -77.68  0.001691473    2.346    0.574
        55 -10.6799    187.0599      1.3979   9.8563465004e+00   3.8112584828e+01    0.2187494   0.08890073  67.73 0.0005308504    1.965    0.491
        56 -10.5418    112.1238      3.8375   2.0986814575e+01   5.4882476349e+01    0.2456695    0.1656058  68.16  0.001134705    1.357    0.263
        57 -10.7590    217.2907      2.4013   7.3923189916e+00   3.1416913460e+01     0.210699    0.1562265  57.78  0.001246762    1.614    0.380
        58  -9.6390    207.3843      2.7839   8.2836788727e+00   3.3499452768e+01    0.1326159    0.1142543 -19.99 0.0009325017    1.689    0.408
        59  -9.4558    135.5542      2.7475   1.6571679679e+01   4.9732649606e+01    0.1569351    0.1067886 -46.80 0.0009415901    1.744    0.427
        60  -9.5977    210.6233      6.2184   8.6976055565e+00   3.2452360317e+01    0.1338846    0.1126532 -32.49  0.000727192    1.573    0.364
        61 -11.5902     86.7227      1.4714   2.5779309266e+01   6.0399125529e+01    0.4380051   0.08731489  54.01  0.001192439    3.247    0.692
        62 -11.6769     48.1750      1.5000   3.7640175340e+01   6.7406588461e+01    0.3972519    0.1052795  46.17  0.001720888    3.120    0.679
        63 -10.4099    250.2587      1.4223   4.8895902721e+00   2.4850113916e+01     0.138896   0.07980022 -84.24 0.0002842314    1.402    0.287
        64 -13.0741    201.5700     77.4969   2.5468398410e+01   2.4929985200e+01    0.6185399     0.395337  78.20  0.002620544    1.766    0.434
        65 -12.8076    192.0319     76.1662   2.6688129193e+01   2.7333740304e+01     0.609513    0.4021153  61.43  0.002408105    1.490    0.329
        66 -13.6904    195.3764     85.6694   2.8412309652e+01   2.4941368425e+01    0.8413417    0.6690795  50.42  0.003924238    1.352    0.260
        67 -11.3962    188.6707     81.8863   2.8650507511e+01   2.7140418861e+01    0.2964654    0.2441126  13.04 0.0009392091    1.718    0.418
        68 -10.1303    167.9154     89.9481   3.4634910243e+01   3.0548389915e+01    0.2350002    0.2146818  88.05 0.0007054706    1.088    0.081
        69 -11.7999    222.2908     88.1147   2.4756059307e+01   1.8586138099e+01    0.3783824     0.229031  70.87  0.001555101    1.861    0.463
        70 -11.3737    237.6078     86.5643   2.2325167836e+01   1.5690940258e+01    0.4480834    0.2812349  79.26 0.0007645005    1.883    0.469
        71 -11.0663    233.4227     84.7958   2.2504468752e+01   1.6832635422e+01    0.3213362    0.2648969 -76.24   0.00149963    1.128    0.113
        72 -10.9923    196.5006    107.9692   3.3528009845e+01   2.0583024501e+01    0.5582246    0.3511617 -71.84  0.002297929    2.256    0.557
        73 -11.7518    161.7970     84.6191   3.4510067110e+01   3.2958648450e+01     1.410188    0.6510061  36.63  0.004699714    3.296    0.697
        74 -11.5898    168.6700     80.3734   3.1985798080e+01   3.2089641324e+01    0.3598896    0.2827122  82.90 0.0008114327    1.385    0.278
        75 -11.2653    167.4335     76.5487   3.1227633890e+01   3.3040517447e+01     0.310702    0.2577326  45.56 0.0006484996    1.258    0.205
        76 -10.8957    175.2617     86.0807   3.2167177795e+01   2.9529346238e+01    0.4227047     0.221021  44.66  0.001069689    2.095    0.523
        77 -12.9059     79.5211     59.2387   4.8947290185e+01   5.5004724016e+01    0.7303079    0.4611275  28.49  0.003705073    1.558    0.358
        78 -13.1573      4.9352     54.6812   7.7431540694e+01   6.4597441614e+01    0.8284133    0.5091403 -48.21  0.003303639    1.322    0.244
        79 -11.2908    249.3046     83.2495   2.0196431665e+01   1.3940517769e+01     0.410794    0.3610864 -16.05  0.002597673    1.592    0.372
        80 -12.1476    249.8122     75.3484   1.8573174586e+01   1.5106184125e+01    0.2833512    0.2339155 -53.21 0.0002560037    1.141    0.124
        81 -10.8370    250.0908     67.0580   1.6919596373e+01   1.6337083682e+01    0.5244249    0.1597122 -37.50  0.001989989    3.406    0.706
        82 -13.0679    214.9357     82.9816   2.4692993199e+01   2.1039094065e+01    0.5633961    0.4228542 -61.64  0.003089317    1.245    0.197
        83 -11.5095    147.3813     83.3239   3.7337486824e+01   3.6572695975e+01    0.6029018    0.4390592 -50.96   0.00219453    1.453    0.312
        84 -12.4396    180.6424     82.5982   3.0267041893e+01   2.8885430705e+01    0.7994475    0.4705401 -77.00  0.003015379    2.845    0.649
        85 -11.1237    180.0000     77.0302   2.8983713529e+01   2.9993067025e+01     0.350865    0.2364216 -43.05  0.001714256    1.488    0.328
        86 -11.8248    177.3864     71.0006   2.7927638430e+01   3.1609271447e+01    0.5958794    0.3674256 -60.52 0.0008903836    1.862    0.463
        87 -10.4085    161.3600     66.8402   2.9838585998e+01   3.6081281739e+01    0.2312257    0.1953477 -31.53 0.0003450315    1.315    0.239
        88 -11.6421    166.7549     64.7659   2.8253993256e+01   3.5125697635e+01    0.8535584    0.6021983  56.82  0.004191344    1.337    0.252
        89 -11.2955     83.3247     83.6822   5.5478466467e+01   4.9890302383e+01     0.274629    0.2417524  26.47 0.0004150919    1.132    0.117
        90 -12.1893    222.2788     79.5141   2.2879676277e+01   2.0036299323e+01    0.4176269    0.2585591  79.52  0.002051061    1.865    0.464
        91 -12.0331    218.1767     75.4794   2.2563695701e+01   2.1580021785e+01     0.318984    0.2744328 -50.11  0.001745192    1.165    0.142
        92 -12.8956    221.5664     69.8651   2.0881048928e+01   2.1747929632e+01    0.5905094    0.3243825  61.63  0.002924469    1.847    0.459
        93 -10.3988    191.5262    103.4906   3.3382793850e+01   2.2552693231e+01    0.3791817    0.1669265 -51.12  0.001388101    2.420    0.587
        94 -11.3296    229.3219     77.5128   2.1504727570e+01   1.8878326375e+01    0.7001339    0.3037833  76.01   0.00251004    3.833    0.739
        95 -10.6349    153.1283    108.1849   4.2692747222e+01   3.0401004076e+01    0.2140997    0.1850196  88.64 0.0004980995    1.302    0.232
        96 -10.6887    155.4338     76.7147   3.3729942677e+01   3.5851171348e+01    0.3879156    0.2498314  61.06  0.001377651    1.557    0.358
        97 -13.0940    180.7901     61.9026   2.5046414080e+01   3.2241451454e+01     1.452611    0.8561752  74.09  0.006011456    1.837    0.456
        98 -12.6515    175.6018     53.9325   2.3895106721e+01   3.4649507549e+01     1.559343    0.3892781  57.72  0.001711649    3.452    0.710
        99 -12.9836    234.3880     48.0326   1.4826429540e+01   2.2285162566e+01    0.8839108    0.6687323  80.29  0.002295678    1.246    0.197
       100 -11.4997    161.4394    106.5746   4.0351334803e+01   2.8828354817e+01    0.3412866    0.2253813 -61.51  0.001446159    1.804    0.446
       101 -11.7450    215.2999     42.7215   1.5810669259e+01   2.7095298212e+01    0.5358698    0.4131989  -5.82  0.002946974    2.224    0.550
       102 -10.1251    209.9654    105.6610   3.0614511209e+01   1.8079189829e+01    0.2664731    0.1878648 -65.52  0.001006191    1.536    0.349
       103 -11.6634    155.9371    104.8989   4.1174160524e+01   3.0432360885e+01     0.353147    0.2225386 -46.92  0.001523334    1.594    0.373
       104 -12.2187    242.2719     61.7017   1.6711009507e+01   1.8691953873e+01    0.6954198    0.3794624 -44.59  0.001168387    1.628    0.386
       105 -10.7481    183.3116    103.2640   3.4902799821e+01   2.4459641991e+01    0.3926955    0.2914947 -48.62     0.001552    1.306    0.234
       106 -10.3336     15.4926    106.4756   8.4873251107e+01   5.2938755996e+01     0.129759    0.1052508 -52.81 0.0002563286    1.002    0.002
       107 -11.8815    218.7590     29.0015   1.2568851688e+01   2.8113990003e+01    0.7792457    0.3941008  87.16  0.002939886    2.055    0.513
       108 -11.0828    144.7221    103.0119   4.3353315203e+01   3.3378510347e+01       0.3842    0.3207045   9.63  0.001861785    1.457    0.313
       109 -11.7102     75.5136    103.6208   6.3716347635e+01   4.6927958286e+01    0.2900982    0.2175193 -72.51 0.0008683575    1.727    0.421
       110 -11.3485     69.4334    103.2911   6.5663019900e+01   4.7923965605e+01    0.2854265    0.1262973 -47.68 0.0009959262    2.065    0.516
       111 -10.7037    165.2243    102.4731   3.8452589563e+01   2.8777781018e+01    0.3016712    0.2127949 -43.07  0.001227182    1.412    0.292
       112 -11.6381    247.8806     57.7192   1.5339418726e+01   1.8165652899e+01    0.5736781    0.2616812 -46.70  0.001963451    1.849    0.459
       113 -12.3571    139.2883     57.6923   3.1866269266e+01   4.2702050437e+01      1.33833    0.7007404 -46.31  0.005785489    2.151    0.535
       114 -12.2129    209.5548     58.5549   1.9979261582e+01   2.6121462043e+01    0.3312966    0.3044357  77.44 0.0002645441    1.183    0.155
       115 -11.4840    127.0130     58.9580   3.5090280364e+01   4.5336237692e+01    0.5493426     0.260599  39.65  0.002199045    2.278    0.561
       116  -9.6990    163.3183     20.9546   1.7352839876e+01   4.1649424041e+01    0.3784157    0.1867909  40.04 0.0004065494    2.741    0.635
       117 -10.8559    181.9065     31.0865   1.7299820667e+01   3.6167984739e+01    0.4294947    0.2795247 -15.37  0.001857253    2.338    0.572
       118 -11.9747    161.4718     55.7606   2.6837595911e+01   3.7743484462e+01    0.5237996    0.3700566 -50.27  0.002172836    1.497    0.332
       119 -10.2100    162.2781     48.1959   2.4666562482e+01   3.8618221703e+01    0.3968463    0.2787087  64.31  0.002111566    1.291    0.226
       120 -10.7970    177.9672     37.7451   1.9471259580e+01   3.6272862936e+01    0.3064877    0.2499824   5.32 0.0009263969    1.780    0.438
       121 -10.8298    167.3936     32.6891   1.9765691132e+01   3.9381294734e+01    0.4131598    0.2616414  68.99  0.001483279    1.395    0.283
       122  -9.9669    168.8934     36.6739   2.0558868043e+01   3.8544836499e+01    0.3007625    0.2298465  30.14  0.001012403    1.714    0.417
       123 -12.3454    172.3065     44.7807   2.2098310411e+01   3.6697316614e+01      0.65847    0.5524302  46.54  0.002499163    1.307    0.235
       124 -13.7127    106.7705     91.9137   5.0534098805e+01   4.3840245389e+01     1.551894    0.6289608 -41.07  0.005595293    2.515    0.602
       125 -10.6590     69.1762     55.2335   5.1182974927e+01   5.7413052131e+01    0.3330906    0.2915176  30.24  0.001689424    1.220    0.180
       126 -10.9911    100.5864     53.7924   4.0482359084e+01   5.1830708907e+01       0.5112    0.2653131  43.86  0.002217941    1.761    0.432
       127 -14.7257     65.3233     84.7499   6.1996104467e+01   5.2546321854e+01     2.382612     1.535852   0.89   0.01111501    2.001    0.500
       128 -12.1311    246.5189     42.0631   1.2477523332e+01   2.0645013193e+01    0.3493316    0.2027046 -78.43 0.0008938591    1.690    0.408
       129 -10.8644    245.9155     50.1858   1.4083501557e+01   1.9639552082e+01    0.3427306    0.1667924  76.04  0.001740001    2.167    0.538
       130 -10.5954    248.4844     46.9867   1.3226046011e+01   1.9579454270e+01    0.3589289    0.1981615 -89.43  0.001368904    1.932    0.482
       131 -10.9111    206.4318     50.3748   1.8558079540e+01   2.8009944012e+01    0.4083719    0.2292027 -73.62  0.001894547    2.144    0.534
       132 -11.0343     90.3619     51.0066   4.2614356593e+01   5.4279445212e+01    0.2199971    0.1717912  31.20 0.0004925713    1.158    0.136
       133 -10.9010     99.6330     47.5576   3.8671733569e+01   5.2924550405e+01    0.5188364    0.2510788  34.23  0.001664845    2.255    0.556
       134  -9.5309    105.4459     43.6218   3.5733892015e+01   5.2246887886e+01    0.2643698     0.181405 -23.90 0.0009113257    1.614    0.380
       135 -11.4755    198.2857     26.0199   1.4112186112e+01   3.3005700287e+01    0.3733847    0.2352267  62.32  0.001132846    1.492    0.330
       136 -10.6556    181.2536     46.7828   2.1215932059e+01   3.4315990699e+01    0.4768789    0.2041165  47.68  0.001925107    2.679    0.627
       137  -9.9692    133.6611     46.8575   2.9899451489e+01   4.5540949273e+01    0.3708718    0.3621823  46.98   0.00231815    1.087    0.080
       138 -13.5822     80.2368     73.3297   5.3321051953e+01   5.2414746203e+01     2.769588    0.4940678  39.69  0.007276318    5.559    0.820
       139 -11.0121    142.5981     46.2643   2.7844603316e+01   4.3537515554e+01    0.4382487    0.2886364  55.35 0.0007816253    1.353    0.261
       140 -11.4993     63.0254     46.2943   5.0253749596e+01   5.9795348768e+01    0.4486743    0.3702108  34.73  0.002571057    1.305    0.234
       141 -10.9161    126.1559     44.9406   3.0997617276e+01   4.7516335453e+01    0.4235314    0.3164654 -74.94  0.001819403    1.822    0.451
       142  -9.7656    121.3269     45.2627   3.2229460676e+01   4.8564060717e+01    0.2546544    0.1666222  84.00  0.001134212    2.409    0.585
       143 -10.7575    132.2105     39.7463   2.8076647004e+01   4.6793741015e+01    0.4957138    0.3169693  83.44  0.001760988    2.143    0.533
       144 -10.0238     93.7598     42.3572   3.8599917379e+01   5.4821402548e+01    0.3510887    0.2183831 -25.00   0.00182064    1.758    0.431
       145  -9.4045     90.9759     39.0363   3.8262932508e+01   5.5808113916e+01    0.1738356    0.1571069 -86.73 0.0004789596    1.533    0.348
       146 -10.8358     99.3135     41.0895   3.6566146147e+01   5.3859164828e+01    0.2952927    0.2509193 -45.25   0.00144774    1.423    0.297
       147 -10.4241    249.6219     38.0624   1.1450526809e+01   2.0569363991e+01    0.2251602    0.1498469 -75.14 0.0006676611    1.275    0.216
       148 -11.1829    112.2575     33.1394   3.0521538812e+01   5.2075157869e+01    0.4135468    0.2665515  26.34  0.001381672    1.766    0.434
       149 -10.3324    122.7373     33.8471   2.8320277916e+01   4.9663523727e+01    0.2939324    0.1632841 -42.94  0.001428436    2.118    0.528
       150 -10.2284    152.2164     33.8095   2.2523653782e+01   4.2832445143e+01    0.1841471    0.1581861  81.65 0.0004183615    1.104    0.094
       151  -9.7206    132.4741     24.4595   2.3437115880e+01   4.8472807072e+01    0.2290197    0.1444153  52.67 0.0008145106    1.352    0.260
       152 -10.3985    131.8179     33.7342   2.6347879070e+01   4.7605838042e+01    0.2600749    0.1921672 -75.29 0.0006107241    1.741    0.425
       153 -10.1687    128.6327     27.0088   2.4959722206e+01   4.9085066377e+01    0.4701537    0.1958169 -29.27  0.002075527    2.744    0.636
       154 -11.0801     92.5430     33.2444   3.5757256752e+01   5.6209981193e+01    0.3097967    0.2243862  -5.33  0.001164937    1.533    0.348
       155 -10.4528     74.9860     33.5591   4.1304113736e+01   5.9523922951e+01    0.2754012    0.1858959  42.58  0.001304243    1.375    0.273
       156  -9.7691    206.8981     32.5931   1.4583023503e+01   3.0273528352e+01     0.284308    0.1303489 -53.18  0.001351358    2.150    0.535
       157  -8.4188    104.2962     29.0906   3.1142058220e+01   5.4249839774e+01     0.313923   0.08692437 -37.57  0.001127682    4.077    0.755
       158 -10.0598    124.5804     28.7019   2.6316426228e+01   4.9824793874e+01    0.2691984    0.1763412 -81.74 0.0009518684    2.357    0.576
       159 -11.4024     85.9893     28.5442   3.5979057612e+01   5.8051756593e+01    0.3583833    0.2113342  46.55 0.0006991514    1.480    0.324
       160  -9.7508    149.7337     27.8396   2.1302575575e+01   4.4097010228e+01    0.2574846    0.1883589  31.52  0.001441609    1.648    0.393
       161 -10.8095     35.9961    248.6797   9.6057946221e+01   1.7222897877e+01    0.2425007    0.1017845 -62.11   0.00120473    2.464    0.594
       162  -9.7355    114.3978     28.0386   2.8351786080e+01   5.2174309527e+01    0.1707597    0.1446582  31.56 0.0005299344    1.144    0.126
       163 -10.2363    167.9237     26.2010   1.8031366276e+01   4.0003199808e+01    0.2015776    0.1816736 -83.12 0.0007569749    1.108    0.098
       164 -10.2342    233.9919     24.2878   1.0217710410e+01   2.5474783582e+01    0.2776384     0.160925 -37.34  0.001617265    1.880    0.468
       165 -10.5667    176.1510     24.5638   1.6487925530e+01   3.8261718260e+01    0.3006001    0.1684362 -33.40  0.001571223    2.022    0.506
       166  -9.8964    135.9264     25.2987   2.3032829875e+01   4.7589415682e+01    0.2644142    0.1768814 -74.45  0.001358649    2.003    0.501
       167  -9.2275     90.5127     26.5782   3.3953833637e+01   5.7374810263e+01    0.1275563     0.107722  36.02 0.0001293894    1.042    0.040
       168 -11.8855    243.4350     22.8248   9.1571735729e+00   2.3736300801e+01    0.7089735    0.2068917  72.82  0.003036831    3.310    0.698
       169 -10.4236    244.7721     18.8079   8.3200665303e+00   2.3953358500e+01    0.2308335    0.1463529 -80.08  0.001219253    1.305    0.233
       170 -11.2447    113.5057    246.6007   7.9901869193e+01   6.6803123664e+00    0.2969779    0.2240493 -30.18  0.001408789    1.793    0.442
       171 -10.1386    180.4214    243.2177   6.4976206836e+01  -3.5245001472e+00    0.1693364    0.1301406 -55.72 0.0008367095    1.681    0.405
       172 -10.7569    209.4362     21.4907   1.1945872540e+01   3.1045495741e+01     0.221148     0.166096 -85.04  3.83478e-05    1.098    0.089
       173 -14.6227    124.1287     87.2684   4.4265081044e+01   4.1108555938e+01     2.342909     1.886344  70.24   0.01161692    1.471    0.320
       174  -9.2850    106.2766     17.7112   2.6811572837e+01   5.4983746327e+01    0.1661739    0.0925566  56.73            0    1.528    0.345
       175 -10.8170     98.8334     22.0133   3.0096843446e+01   5.6146820760e+01    0.4825234    0.2313902  58.66  0.002299763    1.994    0.499
       176 -10.5721    103.3118     19.8477   2.8237052305e+01   5.5415203599e+01    0.2089125    0.1794354   4.10  0.001287898    1.262    0.208
       177 -10.5889    170.1856     19.7696   1.6104035526e+01   4.0170501482e+01    0.3036106    0.2496926  24.93  0.001891263    1.631    0.387
       178 -11.3450    130.3634     19.4724   2.2346197473e+01   4.9457024383e+01    0.2668988    0.2093461  58.30 0.0005503348    1.068    0.064
       179 -10.0637    180.2842     20.0927   1.4883214673e+01   3.7792753907e+01    0.2043503    0.1405908  64.19 0.0004473994    1.293    0.226
       180 -13.3376     81.3643     42.0299   4.2318790956e+01   5.7255394214e+01     1.125099     0.572232  46.77  0.005411108    1.882    0.469
       181  -9.3921    159.9235     18.6346   1.7241305713e+01   4.2681994007e+01      0.27721    0.1359237  32.69  0.001091735    3.739    0.733
       182 -10.0280     19.9249     19.2116   5.7939345200e+01   6.9218570035e+01      0.15925     0.125449   8.44  0.001007214    1.237    0.192
       183 -10.1518    186.7599     17.8362   1.3583585583e+01   3.6546806050e+01    0.3668997    0.1463771  48.82  0.001544835    3.078    0.675
       184  -9.1506    236.6844    146.2724   3.4990478409e+01   5.1093866519e+00    0.1315177    0.1044157 -72.16 0.0002168116    1.560    0.359
       185 -10.6512    220.7508    123.2085   3.2725098148e+01   1.2516806315e+01    0.3893659    0.3466737 -51.62   0.00223623    1.008    0.008
       186 -10.0020    152.9732    124.0708   4.6802560206e+01   2.7038510778e+01    0.2299079    0.2232572 -65.20 0.0003122332    1.026    0.025
       187 -10.8979     57.4607    120.2983   7.3693315472e+01   4.5555247837e+01    0.2583241    0.2286655 -41.81 0.0004157448    1.041    0.039
       188 -12.5413     10.4150     81.4191   8.1733101323e+01   5.8875392641e+01    0.5061249    0.2425539 -50.08 0.0009873376    1.583    0.368
       189  -9.3614     72.9846    118.9981   6.8382526764e+01   4.3724477723e+01    0.1740669    0.1615669 -39.62 0.0009614627    1.003    0.003
       190 -10.7713    180.7219    115.7173   3.8480809340e+01   2.2576497266e+01    0.4039702    0.3000539 -69.61  0.001865536    1.585    0.369
       191  -9.8992    139.4205     16.6492   1.9904681393e+01   4.7646405074e+01    0.1497024    0.1255089   0.52 0.0009424759    1.494    0.331
       192 -10.6019     94.1875     16.0048   2.9167336062e+01   5.7688185804e+01    0.2170039    0.1459435  46.40 0.0009059252    1.216    0.178
       193 -10.3812    203.6477    116.0032   3.4098189891e+01   1.7467181839e+01    0.3993821    0.2156418  65.89  0.001563898    2.515    0.602
       194  -9.9638     36.3923     14.4083   4.8209382095e+01   6.7862864058e+01    0.1382643   0.09531696  33.64 0.0009121828    1.466    0.318
       195 -12.9279     59.4321     62.5663   5.7268161483e+01   5.7664527536e+01     1.198778    0.7885145 -51.42  0.006296454    1.820    0.451
       196 -11.6603     88.7980    114.8776   6.2349797585e+01   4.2160946297e+01     0.405635    0.2963863  48.71  0.001573307    1.521    0.343
       197 -11.4950     63.1894    110.4031   6.9537807622e+01   4.7166789209e+01    0.2399875    0.1831501  49.43  0.001233739    1.553    0.356
       198  -9.3862     52.2374     12.7031   4.1018337051e+01   6.5722185033e+01   0.09415629   0.08883023  -7.47 0.0006826781    1.472    0.321
       199 -13.0520     79.7503     50.6382   4.5907674062e+01   5.6317321199e+01    0.8015416    0.4649096  27.01  0.003906228    1.793    0.442
       200 -13.1650    136.7867     82.2360   3.9555887962e+01   3.9215801394e+01     1.516199      0.65385 -40.37   0.00284425    2.393    0.582
       201 -12.9819     85.8189     98.8008   5.9027202969e+01   4.6306127952e+01    0.7468088    0.3887482  29.41  0.001684824    2.141    0.533
       202 -11.1459     89.3309     93.9956   5.6538384832e+01   4.6720378675e+01    0.2849843    0.2246086  26.34 0.0001493638    1.287    0.223
       203 -11.2800     34.0606    100.3870   7.7237312146e+01   5.2847224791e+01     0.251938    0.1801149 -62.67 0.0005249945    1.351    0.260
       204 -14.0181    216.0813     61.0927   1.9686637508e+01   2.4295583652e+01     1.176367    0.8197612  49.88  0.004877576    1.703    0.413
       205 -11.5945    225.3838     98.2212   2.6509199905e+01   1.6177491127e+01    0.3952709    0.2997095   9.07  0.001936387    2.272    0.560
       206 -10.6958    170.4627     97.5832   3.6076961780e+01   2.8515969510e+01    0.3426256    0.2932833 -50.74  0.001269697    1.154    0.134
       207 -10.6066    158.9542     99.0402   3.8947423715e+01   3.0906466901e+01    0.2245232    0.2180784 -81.15  0.000333014    1.012    0.011
       208 -11.8340    153.2144     96.1354   3.9483183822e+01   3.2804743990e+01    0.7445265     0.431634  52.00  0.001681748    1.712    0.416
       209 -11.2847    199.7551     96.0751   3.0134242466e+01   2.2089750660e+01    0.3773378    0.2434103 -60.24 0.0007486673    1.658    0.397
       210 -11.1252     27.9782     97.4443   7.8750097259e+01   5.4062403710e+01    0.2819687     0.166414 -81.10   0.00129038    2.469    0.595
       211 -11.7283     11.7829     97.4270   8.4481179116e+01   5.5260346398e+01    0.3242068    0.1822714 -50.15  0.001283457    1.396    0.284
       212 -11.7208     72.7949     96.2873   6.2656577258e+01   4.8977493479e+01    0.2975112    0.2825551  38.58  0.001730813    1.188    0.158
       213  -9.9072    250.3410     94.1386   2.2245016320e+01   1.1946496416e+01    0.2581321     0.111122 -35.63  0.001085919    2.484    0.597
       214 -10.0769    211.2927     93.3233   2.7585060986e+01   2.0038747976e+01    0.1326088    0.1141866   3.27 0.0002313077    1.614    0.381
       215 -11.1451    173.5938     92.0883   3.4030264206e+01   2.8823554455e+01    0.3997783    0.2787545  88.86  0.001218737    1.905    0.475
       216 -11.4549     96.5237     90.8333   5.3343266491e+01   4.6056707743e+01    0.5259866    0.4175499  62.46  0.002405073    1.582    0.368
       217  -9.6203    211.3346    112.1676   3.1862024906e+01   1.6563635778e+01    0.2088693    0.1073484  61.63  0.000568356    2.345    0.573
       218 -11.1851     96.8495    109.7511   5.8514750217e+01   4.1909896665e+01    0.3164841    0.2013372 -36.21  0.001034485    1.637    0.389
