#   1 NUMBER                 Running object number                                     
#   2 MAG_AUTO               Kron-like elliptical aperture magnitude                    [mag]
#   3 X_IMAGE                Object position along x                                    [pixel]
#   4 Y_IMAGE                Object position along y                                    [pixel]
#   5 X_WORLD                Barycenter position along world x axis                     [deg]
#   6 Y_WORLD                Barycenter position along world y axis                     [deg]
#   7 A_WORLD                Profile RMS along major axis (world units)                 [deg]
#   8 B_WORLD                Profile RMS along minor axis (world units)                 [deg]
#   9 THETA_WORLD            Position angle (CCW/world-x)                               [deg]
#  10 FWHM_WORLD             FWHM assuming a gaussian core                              [deg]
#  11 ELONGATION             A_IMAGE/B_IMAGE                                           
#  12 ELLIPTICITY            1 - B_IMAGE/A_IMAGE                                       
         1 -14.4663    160.5268     53.1818   7.9223620623e+01   3.8305206217e+01     1.786571     1.363303  15.71  0.006410569    1.706    0.414
         2 -14.0447    172.7475     37.7600   7.2659975527e+01   3.7424592674e+01    0.8884952    0.8101593 -68.01  0.002991383    1.119    0.106
         3 -14.3620    189.8837      6.5153   6.2117417935e+01   3.6767510423e+01     1.040339     0.807749  70.63  0.004876133    1.131    0.116
         4 -10.6374    178.1486    226.3745   1.1618239894e+02   6.2946376519e-01    0.2162514    0.1795003 -26.22 0.0006573273    1.362    0.266
         5 -18.7718     69.3154    240.6928   1.3933640466e+02   1.6197357848e+01     7.986952     6.149088 -85.71   0.05201457    1.220    0.180
         6 -10.4998    175.0529    193.4842   1.1092685142e+02   7.2868111189e+00    0.2653005    0.2008424 -65.74 0.0007375593    1.623    0.384
         7  -9.8738    180.0398    192.4788   1.0968220837e+02   6.4995723037e+00     0.221192    0.1366394  44.74  0.000630229    1.554    0.356
         8  -9.6177    192.3111    222.6534   1.1274235208e+02  -1.2835725441e+00    0.1289513    0.1057843  77.33 0.0007045676    1.709    0.415
         9 -12.1640    167.4091    188.5811   1.1161165450e+02   9.7878988437e+00     0.478868     0.396851  26.86  0.001813581    1.273    0.214
        10 -12.6686    152.3793    183.7571   1.1397143088e+02   1.3804572564e+01     0.507621    0.3507384 -80.41  0.002222489    2.060    0.514
        11 -12.4885    145.5233    189.2322   1.1652878124e+02   1.3990027699e+01    0.3929676    0.2197137  39.13  0.001482378    1.785    0.440
        12 -11.4227    175.5744    186.6730   1.0948606095e+02   8.5368988120e+00    0.5473105    0.3183255 -67.15  0.002059917    2.914    0.657
        13 -19.1968     49.3236     98.6791   1.2299955408e+02   5.0940660874e+01       17.533    0.9932358 -56.65   0.02824987   15.314    0.935
        14 -11.0194    163.0280    188.2688   1.1249980892e+02   1.0727552136e+01    0.2741314    0.2398379  -2.05 0.0007885967    1.341    0.254
        15 -11.9632     36.3903    183.9119   1.4008033025e+02   3.2570031012e+01    0.2196941    0.1716612  70.43 0.0004029837    1.177    0.150
        16 -12.0670    133.7630    183.6703   1.1814478601e+02   1.7485073106e+01    0.2759098    0.2220226  74.05 0.0006781109    1.329    0.248
        17 -10.2686      9.6220    210.7677   1.4764034863e+02   2.9529786658e+01    0.2125872    0.1166249  82.92  0.000990285    1.482    0.325
        18 -11.9900    205.5936    179.8029   1.0187898600e+02   3.8705182356e+00     0.486781    0.3292288 -67.61  0.002119337    2.330    0.571
        19 -10.8657    209.6773    176.6471   1.0040925525e+02   3.6567585702e+00    0.4754669    0.3365177 -18.42  0.001805063    1.639    0.390
        20 -12.2754     10.5537    206.4964   1.4716925500e+02   3.0331042370e+01    0.3764434    0.2781431  22.94  0.002565999    2.116    0.527
        21 -12.4355    195.8567    170.1993   1.0181863352e+02   7.6853922799e+00    0.6292623    0.4208708 -45.56  0.002237962    1.513    0.339
        22 -11.3661    193.8041    164.9347   1.0110149955e+02   9.1591481704e+00     0.370193    0.3403556 -55.32  0.001364248    1.141    0.123
        23 -11.3095     29.3173    208.3068   1.4383643522e+02   2.7980924694e+01    0.1434022    0.1360995  19.88 0.0007075124    1.639    0.390
        24 -12.9813    229.9873    169.3443   9.4992720519e+01   1.0578262323e+00    0.7466273    0.3218372 -35.56  0.002970027    2.282    0.562
        25 -10.0150    203.1289    171.8970   1.0070512455e+02   5.8678715378e+00    0.2189916    0.2037797 -79.43 0.0006047139    1.248    0.199
        26 -10.2675    199.0137    222.3661   1.1137753047e+02  -2.4282013376e+00    0.1865132    0.1522388  32.30  0.001102733    1.099    0.090
        27  -9.5708    165.5320    172.5240   1.0879297725e+02   1.3517221797e+01    0.1498398    0.1457611  65.70 3.188053e-05    1.022    0.021
        28  -9.9432     11.7593    168.4133   1.4373974207e+02   3.8540783331e+01    0.1190016    0.1087401 -65.07 0.0002552228    1.348    0.258
        29 -10.4514    201.1753    163.6204   9.9307521697e+01   7.8811133786e+00    0.5185755    0.2939537 -40.45  0.002232405    1.738    0.425
        30 -11.2615    122.1338    165.2812   1.1736146670e+02   2.3902772849e+01    0.3056136    0.2337732  71.82 0.0003083151    1.453    0.312
        31 -10.3245    118.7611    162.9691   1.1771908457e+02   2.5083701017e+01    0.2103287    0.1729672 -86.10 0.0005665164    1.287    0.223
        32  -9.9452     24.8844    165.4967   1.4056490324e+02   3.7995412340e+01    0.1518946    0.1237034  34.94  0.001006126    1.541    0.351
        33 -10.1832    222.8695    162.2259   9.4780386606e+01   3.7355679020e+00    0.3616841    0.1696029 -53.61  0.001184379    2.959    0.662
        34 -11.8065    163.1609    203.4678   1.1529912443e+02   7.6408917924e+00    0.3358419    0.2394961 -46.72 0.0005114552    1.508    0.337
        35 -13.2279    134.0438    146.0113   1.1039124338e+02   2.6006145986e+01      1.50685    0.3611541 -54.11  0.003396127    5.958    0.832
        36  -9.7813    176.8208    154.8203   1.0246072306e+02   1.4877512904e+01    0.2070565    0.1801624 -86.30 0.0004727773    1.320    0.243
        37 -13.1300    135.6617    196.6682   1.2003375453e+02   1.4297752656e+01    0.6432442    0.4385277 -11.83  0.002610957    2.948    0.661
        38 -11.0613    174.3360    148.4963   1.0156117565e+02   1.6766295230e+01    0.3915387    0.2958156 -65.59  0.001393275    1.539    0.350
        39 -12.9200    144.5772    146.2694   1.0789446332e+02   2.3740180508e+01    0.8755377    0.4674191 -64.46  0.003049099    2.713    0.631
        40 -11.2124    156.7318    202.2189   1.1644146804e+02   9.1248955341e+00    0.2690665    0.2136601  84.89 0.0008630744    1.551    0.355
        41 -11.9632    136.6637    135.5907   1.0733162067e+02   2.7847624181e+01    0.7622204    0.1506839 -51.32  0.001597474    6.590    0.848
        42 -10.5296    134.7845    112.5322   1.0201719399e+02   3.3394442441e+01    0.5221151    0.1438092 -45.38   0.00147964    3.566    0.720
        43 -11.1074    134.5588    105.3245   1.0014443666e+02   3.4985978503e+01    0.5067677    0.1966976 -46.23  0.001711052    2.567    0.610
        44 -11.9715    135.7053    126.4685   1.0535287661e+02   3.0115921201e+01    0.6843295    0.2241135 -49.48  0.002077182    3.123    0.680
        45 -11.4842    135.1364    120.0186   1.0387181843e+02   3.1677317349e+01    0.4450484    0.2244982 -48.64  0.001280843    1.965    0.491
        46  -9.5407    168.6605    135.2793   9.9697433216e+01   2.0869544112e+01    0.1593657    0.1248086  88.49 0.0004901497    1.621    0.383
        47 -12.4808    105.9843    130.8260   1.1410707753e+02   3.5052417340e+01    0.4642837     0.375475 -67.95  0.001171969    1.262    0.207
        48 -12.3270    119.1626    129.3672   1.1029036552e+02   3.2869442931e+01    0.4988519    0.3271023 -32.60  0.001003019    1.827    0.453
        49 -12.1477    122.7151    125.9553   1.0853999193e+02   3.2940170469e+01    0.5459991    0.3833855 -78.44  0.002324817    1.947    0.486
        50 -11.5894    160.5010    127.7689   9.9709688633e+01   2.4339829855e+01    0.4713345    0.3274553 -61.32  0.002034519    1.640    0.390
        51 -11.5968    107.4911    125.2452   1.1239367316e+02   3.6072983545e+01    0.3144591     0.251978 -38.43 0.0008958496    1.282    0.220
        52 -11.0500    113.4148    118.6162   1.0917532833e+02   3.6460906985e+01    0.2722996    0.2655985  88.49  0.001262144    1.049    0.047
        53 -10.9110    168.4026    113.1587   9.4205938933e+01   2.5601597376e+01    0.4285007     0.299515 -76.57  0.001151682    2.010    0.503
        54 -10.7883    205.3342    110.1890   8.5973904452e+01   1.7500284067e+01    0.3330254    0.2463151  43.45 0.0008888827    1.471    0.320
        55 -11.6879    117.8145    107.8604   1.0520452723e+02   3.7978339769e+01    0.4226531    0.1974874 -37.11  0.001525622    2.413    0.586
        56 -13.3567    139.2967    200.5597   1.1990674068e+02   1.2790525579e+01    0.5559697    0.4316135 -47.87  0.001685676    1.401    0.286
        57 -10.0959     75.7190     86.4563   1.1154234972e+02   5.0055876162e+01     0.240142    0.1328202  41.50  0.001018477    1.999    0.500
        58 -10.2777    147.8574     80.1147   8.9787508416e+01   3.6923832295e+01    0.2091948    0.1823024   9.12  0.000527008    1.315    0.240
        59 -11.1100     89.9754     78.3897   1.0476783122e+02   4.9335374345e+01    0.2559098    0.2422548 -12.77 0.0006584706    1.043    0.041
        60  -9.1322    141.6406     71.3109   8.8638978694e+01   3.9938913933e+01    0.1537327     0.117617 -81.70 0.0007042116    1.742    0.426
        61 -12.2884    153.9525    195.8851   1.1589974864e+02   1.0948862160e+01    0.3752151    0.2855349  80.62  0.001621658    1.657    0.397
        62 -11.6856    167.9467    233.3536   1.1933500071e+02   1.2598443852e+00    0.3719234    0.2465077  58.31  0.001141408    1.682    0.406
        63 -13.3078    177.1395     29.9743   6.9842575416e+01   3.7312329194e+01    0.5152797    0.4460226  20.59  0.001360561    1.422    0.297
        64 -10.4889     13.5142     59.6224   1.2552140828e+02   6.2215361960e+01    0.1968232    0.1506677 -41.18 0.0001897383    1.022    0.021
        65 -10.0935    155.4243     38.2552   7.5815933367e+01   4.1599508665e+01    0.1797813    0.1286857 -45.54 0.0003383393    1.512    0.338
        66 -11.0352    187.8280     30.8977   6.8539683199e+01   3.4579227449e+01    0.2100209     0.180077  49.00 0.0008256287    1.268    0.211
        67 -10.2881    126.1601     26.9433   7.8137360296e+01   4.9824524300e+01    0.3057263     0.179645  76.86  0.001364621    2.379    0.580
