#   1 NUMBER                 Running object number                                     
#   2 MAG_AUTO               Kron-like elliptical aperture magnitude                    [mag]
#   3 X_IMAGE                Object position along x                                    [pixel]
#   4 Y_IMAGE                Object position along y                                    [pixel]
#   5 X_WORLD                Barycenter position along world x axis                     [deg]
#   6 Y_WORLD                Barycenter position along world y axis                     [deg]
#   7 A_WORLD                Profile RMS along major axis (world units)                 [deg]
#   8 B_WORLD                Profile RMS along minor axis (world units)                 [deg]
#   9 THETA_WORLD            Position angle (CCW/world-x)                               [deg]
#  10 FWHM_WORLD             FWHM assuming a gaussian core                              [deg]
#  11 ELONGATION             A_IMAGE/B_IMAGE                                           
#  12 ELLIPTICITY            1 - B_IMAGE/A_IMAGE                                       
         1 -14.2428    210.4454      5.2283   4.5789336712e+01   3.1577496412e+01     1.695102    0.9139237  53.16  0.007181354    1.824    0.452
         2 -14.8815    189.1019     32.9722   5.6988693524e+01   3.4018788853e+01     2.026551     1.209875  18.90  0.007916678    2.500    0.600
         3 -12.4718    190.0849     14.7223   5.1152736193e+01   3.5943594543e+01    0.4336088     0.430375 -57.44  0.001500037    1.052    0.050
         4 -10.0961     72.0042    229.9838   1.2180873073e+02   2.0512588145e+01    0.1522092    0.1034913  67.91 0.0003263962    1.082    0.076
         5 -17.0736     60.9583    248.5008   1.2476104660e+02   1.9005662488e+01     8.150692      2.56221  35.95   0.02812769    7.575    0.868
         6 -17.3076     31.6501    241.6462   1.2857784095e+02   2.3456149666e+01     6.763864     3.033323 -62.96   0.04509087    2.785    0.641
         7  -9.7593     43.9442    210.4156   1.2486955605e+02   2.7282821630e+01    0.2151129   0.09920651  60.24  0.001064834    1.758    0.431
         8 -11.2729     39.9863    207.7060   1.2532640210e+02   2.8210041651e+01    0.2112545    0.1009917  56.07 0.0005871149    1.671    0.402
         9 -13.5714     49.8627    217.9683   1.2444184536e+02   2.5280202061e+01     0.493177     0.173054  60.24  0.002592554    2.559    0.609
        10 -19.1156     18.0576    103.8468   1.2000649283e+02   5.1277347277e+01     15.31511    0.8761706 -69.17   0.03157013   12.349    0.919
        11 -10.5675     10.4845    214.1242   1.3030323827e+02   3.0129180319e+01    0.1347637   0.09580217  38.10 0.0007465928    1.928    0.481
        12 -12.2647     55.6346    211.6705   1.2305015836e+02   2.5681860634e+01    0.3192629     0.182927  50.41  0.002168915    1.502    0.334
        13 -11.8130     72.4276    211.7661   1.2025798330e+02   2.3531945440e+01    0.1998663       0.1369  68.35 0.0004418411    1.132    0.117
        14 -10.7089     76.3369    207.1178   1.1917606838e+02   2.3829395504e+01    0.2974625    0.1840022 -61.68  0.001469994    1.814    0.449
        15 -12.2843     64.1626    207.2155   1.2126860666e+02   2.5409556798e+01    0.3175149    0.2952612  89.75   0.00160885    1.487    0.327
        16 -12.6358     61.8159    202.3099   1.2125496224e+02   2.6590603065e+01    0.2905588     0.212983 -56.11  0.001401162    1.847    0.459
        17 -11.4949    156.9076    200.4052   1.0386699719e+02   1.2151962850e+01    0.4585612    0.2776814  86.40  0.001984059    3.361    0.702
        18 -11.5725    153.0494    193.8552   1.0360700415e+02   1.3916394353e+01    0.3631256    0.2192288  63.56  0.001229357    1.860    0.462
        19 -10.7442     95.0066    200.0602   1.1516612908e+02   2.2450862309e+01    0.2909601    0.1808044 -84.53 0.0005527326    1.689    0.408
        20 -11.3927    100.6789    196.9312   1.1378050162e+02   2.2164937520e+01    0.3872673    0.2163576  32.36  0.001973955    2.502    0.600
        21  -9.8297     87.9752    201.9254   1.1662713652e+02   2.3139185079e+01     0.192048    0.1101399  69.02  0.001113158    1.673    0.402
        22 -11.9682    192.9262    194.4362   9.6346733709e+01   6.4451275591e+00    0.8247235    0.4320717 -63.28  0.002935024    5.103    0.804
        23 -12.4838    136.3272    199.3325   1.0750404432e+02   1.5943507038e+01    0.3706211    0.2474121  61.84  0.001904215    1.405    0.288
        24 -11.9119    141.2182    198.0324   1.0641937465e+02   1.5317079509e+01    0.2783643    0.2404446 -84.62   0.00075737    1.238    0.192
        25 -10.8384    208.3762    196.7969   9.3991282972e+01   3.2431520563e+00    0.1716162    0.1638462 -70.50 0.0006344253    1.361    0.265
        26 -10.3007     82.0978    195.3078   1.1700020062e+02   2.5182376336e+01    0.2156627    0.1837233 -75.91  0.001560927    1.316    0.240
        27 -12.8259     71.3574    188.9355   1.1831235365e+02   2.7846949871e+01    0.5910226    0.4730828 -84.33   0.00261227    1.183    0.155
        28  -9.7467     71.9282    179.9574   1.1726650494e+02   2.9506085685e+01    0.2415673     0.138473  73.51 0.0006582334    1.754    0.430
        29 -10.2661     29.1115    192.8641   1.2611866249e+02   3.2078396086e+01    0.1539849   0.09330487  56.67 0.0006289088    1.405    0.288
        30 -12.6032    111.0603    187.9876   1.1073720496e+02   2.2180184308e+01    0.4445619    0.3452478  -5.32  0.002411125    2.637    0.621
        31 -11.2204     96.8953    188.4822   1.1349166712e+02   2.4301933636e+01    0.3660345    0.2704998  65.60   0.00129115    1.148    0.129
        32 -10.6891    151.0910    182.8111   1.0226237320e+02   1.6161003763e+01    0.1996853    0.1603922  70.37  0.000508671    1.263    0.208
        33 -10.8689     99.5100    180.7371   1.1202783492e+02   2.5377536477e+01    0.2243018    0.1855394  69.96 0.0005373802    1.033    0.032
        34 -11.6321    143.9920    179.0199   1.0303832500e+02   1.8142821622e+01    0.3050254    0.1806034 -37.04  0.001471296    2.322    0.569
        35  -9.6273     51.2115    174.2437   1.2063253675e+02   3.3232204855e+01    0.1569797    0.1266443 -85.17 0.0006818701    1.162    0.140
        36 -10.3636    165.7570    172.5418   9.7661102240e+01   1.5168828106e+01    0.2366722    0.1920596  85.42 0.0005330928    1.473    0.321
        37 -10.6254    201.9239    169.1985   9.0096558478e+01   8.5223058828e+00    0.3956947    0.2555759 -55.82  0.001737356    2.132    0.531
        38 -10.6685    204.2881    165.6149   8.8948008332e+01   8.6066996604e+00    0.5098427     0.268891 -46.34  0.002290907    2.247    0.555
        39 -11.5645    194.1252    167.1895   9.1170865016e+01   1.0413133736e+01    0.3365174    0.3119561 -56.11 0.0008763376    1.246    0.198
        40 -10.6815    189.9815    160.8551   9.0711054947e+01   1.2302620013e+01    0.3207701    0.2411182 -62.37  0.001109704    1.716    0.417
        41 -11.2378    189.1387    154.9384   8.9670644629e+01   1.3479768696e+01    0.4403421    0.3847539 -88.87  0.002022964    1.399    0.285
        42 -10.0518    139.8442    168.1388   1.0207576235e+02   2.0920441951e+01    0.2033807    0.1679776  73.66 0.0004524059    1.199    0.166
        43 -10.9786    230.3419    166.6700   8.4451579852e+01   3.2605854335e+00    0.1951787    0.1683786 -79.43  0.001114561    1.734    0.423
        44 -10.6407    160.2132    165.0822   9.7410235341e+01   1.7584650823e+01    0.2417483    0.1864914 -77.21 0.0006670521    1.597    0.374
        45 -10.4461      1.6159    161.1533   1.2884618524e+02   4.0646888195e+01    0.1632626   0.09380131  88.27  0.001154933    1.272    0.214
        46 -12.3515     97.6396    154.1855   1.0866306916e+02   3.1009660917e+01    0.5958817      0.41063 -34.63  0.003070264    2.231    0.552
        47 -10.8639    134.0000    148.0163   9.9697655598e+01   2.5957747512e+01     0.447961    0.2366741 -61.93  0.001914397    2.248    0.555
        48 -11.1962    134.0000    144.0129   9.8927907069e+01   2.6769196816e+01    0.8696955    0.2759528 -58.11  0.002475759    4.950    0.798
        49 -10.6327    174.5119    148.9833   9.1350238056e+01   1.7604364238e+01     0.281334    0.2313599  65.51 0.0006934638    1.297    0.229
        50 -10.9667    144.3067    147.1584   9.7305295414e+01   2.4135092484e+01     0.442418     0.249917 -74.02  0.001629868    3.259    0.693
        51 -12.6108     40.4497    213.4634   1.2563680448e+02   2.7144638331e+01    0.2547768    0.1259044  57.53  0.001584471    1.581    0.368
        52 -11.7190    108.3389    139.9290   1.0389480191e+02   3.2266360661e+01    0.5436178    0.3219646 -37.39  0.002455988    2.363    0.577
        53 -12.5287     96.9266    139.6016   1.0643614435e+02   3.4213017784e+01    0.2917883    0.2359243 -78.80 0.0004529285    1.148    0.129
        54 -11.4082    106.0214    130.1787   1.0260006541e+02   3.4750400927e+01     0.437666     0.284622 -61.09  0.002226494    1.483    0.326
        55 -11.3307    103.4100    126.0212   1.0240583295e+02   3.6091666826e+01    0.2867183     0.229344 -31.27  0.001186517    1.588    0.370
        56 -10.6562    115.4530    130.1847   1.0038836465e+02   3.3102641803e+01        0.275    0.2234529 -39.16  0.000735863    1.401    0.286
        57 -10.9907    135.7220    127.4953   9.5127166373e+01   2.9831686778e+01    0.5373606    0.1244236 -51.19  0.001430043    4.924    0.797
        58 -10.2447    160.6788    127.6729   8.9591172978e+01   2.4599447089e+01    0.3080873    0.2194118 -86.95   0.00134496    2.076    0.518
        59 -10.6632    120.1430    124.3774   9.8080490909e+01   3.3486774532e+01    0.2459451    0.1895597 -42.73 0.0008510264    1.375    0.273
        60 -10.1720    110.6466    119.0983   9.9228905167e+01   3.6344792268e+01    0.2140706    0.1831777  68.26 0.0003820127    1.193    0.162
        61 -10.2025    167.7394    112.5846   8.4420115953e+01   2.5971153994e+01    0.3019412    0.2219903 -70.92  0.001057657    1.778    0.438
        62  -9.8054    135.0000    112.0003   9.1727130922e+01   3.3201808264e+01    0.2483482    0.0823308 -46.10 0.0008058783    2.966    0.663
        63 -10.2551    205.6314    110.0925   7.6092421989e+01   1.7584092231e+01    0.2863369    0.2137373  40.46   0.00061696    1.346    0.257
        64  -8.9723     67.5548    225.4605   1.2216888059e+02   2.1831638689e+01    0.2109984    0.0874618  43.17    0.0012038    2.181    0.541
        65 -11.3047    118.6622    110.2185   9.5262188582e+01   3.6790632680e+01    0.4510297    0.2604485  70.29  0.001699366    2.959    0.662
        66  -9.7861     41.6480     91.8687   1.1182247754e+02   5.1873448101e+01    0.1731156     0.156099 -42.52 0.0004091241    1.257    0.204
        67 -10.2222     52.5275     90.6776   1.0852787386e+02   5.1008884796e+01     0.211164    0.1589915  39.73 0.0007685876    1.571    0.363
        68 -11.6871    166.8983     67.0830   7.1844400098e+01   3.4602375926e+01    0.6207638    0.3868077 -79.18  0.001736145    3.112    0.679
        69 -10.4046    249.6067    249.2149   9.5500703304e+01  -9.3820647181e+00     0.138514   0.08872312  -3.50 0.0009614714    1.715    0.417
        70 -13.1862    174.0041     48.0787   6.4432074712e+01   3.5857653711e+01    0.5893674    0.5173863   4.46 0.0008073038    1.219    0.180
        71 -10.1991     62.5038    234.5004   1.2361247138e+02   2.0995729774e+01    0.1493106    0.1296829  82.77  0.001004135    1.425    0.298
