#   1 NUMBER                 Running object number                                     
#   2 MAG_AUTO               Kron-like elliptical aperture magnitude                    [mag]
#   3 X_IMAGE                Object position along x                                    [pixel]
#   4 Y_IMAGE                Object position along y                                    [pixel]
#   5 X_WORLD                Barycenter position along world x axis                     [deg]
#   6 Y_WORLD                Barycenter position along world y axis                     [deg]
#   7 A_WORLD                Profile RMS along major axis (world units)                 [deg]
#   8 B_WORLD                Profile RMS along minor axis (world units)                 [deg]
#   9 THETA_WORLD            Position angle (CCW/world-x)                               [deg]
#  10 FWHM_WORLD             FWHM assuming a gaussian core                              [deg]
#  11 ELONGATION             A_IMAGE/B_IMAGE                                           
#  12 ELLIPTICITY            1 - B_IMAGE/A_IMAGE                                       
         1 -12.3535     25.4802     75.9577   7.1991017210e+01   5.8781794684e+01     1.175175    0.2868964 -46.93  0.004358258    3.036    0.671
         2  -9.5032     69.0350     40.9848   4.2923944447e+01   6.0009357882e+01    0.1900509    0.1715414 -84.26  0.001047438    1.742    0.426
         3 -10.9075     40.9335     13.8487   4.2788989967e+01   6.8128425813e+01    0.2112217    0.1537684   5.62 0.0002510049    1.129    0.114
         4  -9.2341      6.6791      4.7103   5.6185140637e+01   7.3236393734e+01    0.1148399   0.06369123 -12.26 0.0002136094    1.603    0.376
         5 -10.8300    167.1434    242.0938   6.3850318873e+01  -7.6463312537e-02    0.2018546    0.1591186  10.64  0.000795266    1.247    0.198
         6 -10.5381     52.9064    249.4885   8.8078621579e+01   1.5442254234e+01    0.2862813    0.1962483  34.99  0.001187506    1.517    0.341
         7 -10.3084     20.3656    249.9010   9.4107603454e+01   1.9124243216e+01    0.2027511     0.114774  53.02  0.001315125    1.380    0.276
         8 -10.1988     13.3824    250.1637   9.5349156771e+01   1.9802622839e+01    0.1858392    0.1008588  47.66  0.001204635    1.495    0.331
         9 -10.2207      3.6927    249.3370   9.6978730322e+01   2.0924025597e+01    0.1944632    0.1264972  59.39 0.0007572751    1.169    0.145
        10  -9.4194    250.4672    241.4900   4.7697336697e+01  -1.1855281967e+01    0.1190901   0.08824608  -0.85 0.0008096723    1.010    0.010
        11  -9.5669     16.6076    237.8163   9.4117212341e+01   2.1876786192e+01    0.1596059   0.08464199  83.88 0.0004404088    1.662    0.398
        12 -10.3612     90.1308    235.3622   7.9256941785e+01   1.3174211783e+01    0.1978562    0.1546335  26.44  0.001178049    1.432    0.302
        13 -10.0473    231.0216    234.0425   4.9925922028e+01  -8.3371540241e+00    0.1930981    0.1552596   3.69  0.001291333    1.057    0.054
        14 -10.0216    237.2707    229.9596   4.8070810343e+01  -8.6076667556e+00    0.1799452    0.1366505 -10.50  0.001171919    1.104    0.094
        15 -10.9424    162.3908    225.3716   6.2246330582e+01   3.5794863170e+00    0.4029242    0.2914975  14.54  0.002169064    1.466    0.318
        16  -9.7768     99.8864    217.1487   7.4926055598e+01   1.5464130319e+01    0.2801735    0.2214693 -70.88  0.001212422    1.350    0.259
        17 -11.0604     88.0919    227.2877   7.8787125117e+01   1.5115753919e+01    0.3173946    0.1657867  35.10  0.001510453    1.807    0.447
        18 -11.0380    126.3067    220.9098   6.9491947825e+01   1.0437467237e+01    0.3401645    0.2626764  76.61 0.0008563402    1.591    0.371
        19 -11.3972     98.4178    225.2949   7.6290958955e+01   1.3981490400e+01    0.4031978    0.2659745  39.24  0.001647642    1.365    0.268
        20  -9.2596    109.2998    222.3212   7.3494507803e+01   1.2902097450e+01    0.1284385    0.1058015  -9.86 0.0003424488    1.625    0.384
        21 -11.0497     95.7848    218.0425   7.5967857752e+01   1.5906350503e+01    0.4464482    0.2960496 -84.57  0.001555092    1.806    0.446
        22 -10.0716    115.0349    220.9832   7.2028849360e+01   1.2260720011e+01    0.2078716    0.1660049  -9.06 0.0009118323    1.695    0.410
        23 -10.1745    170.4066    215.2625   5.8830376234e+01   4.0806598568e+00    0.2634308    0.2262353  17.90 0.0008337421    1.055    0.053
        24  -9.1484    143.4933    216.5224   6.4970155464e+01   8.4299595545e+00     0.139692    0.1256882  29.24 -2.17556e-05    1.024    0.023
        25  -9.7805     74.6974    219.1429   8.0803198055e+01   1.8764390319e+01    0.2384427     0.154325  50.19   0.00100635    1.373    0.272
        26  -8.6838    131.3066    214.3413   6.7376379301e+01   1.0934521859e+01    0.1393066    0.1080553  -7.58 0.0007042357    1.685    0.407
        27  -9.8284    228.4973    213.5283   4.6745918529e+01  -4.9414957980e+00    0.1308371    0.1061726  -2.21 0.0001673725    1.013    0.013
        28 -10.1118     77.0851    211.5547   7.9404406603e+01   2.0088583393e+01    0.2325734    0.2176788   1.77   0.00145403    1.362    0.266
        29  -9.8311    213.3294    207.6696   4.8567865401e+01  -1.6831011126e+00    0.1205257    0.1102143  82.12 0.0006732368    1.715    0.417
        30 -10.3121    124.0228    205.9796   6.7747861310e+01   1.3918260515e+01    0.2016252    0.1855233  48.75            0    1.022    0.021
        31 -10.2687    186.1634    204.1581   5.3460077047e+01   3.4294725094e+00    0.1816128    0.1743204  70.42  0.001082849    1.337    0.252
        32 -11.7516    166.6711    197.1651   5.6404877943e+01   8.2059092852e+00    0.4176213    0.3033815 -47.96  0.002120692    1.484    0.326
        33 -11.9580    177.7676    197.0000   5.3921484389e+01   6.2475385337e+00    0.4441597    0.4037792  55.69   0.00253649    1.300    0.231
        34 -11.7363    173.0129    195.6524   5.4709749096e+01   7.3621844588e+00     0.573207     0.347193 -51.27  0.002276855    1.873    0.466
        35  -9.4305    113.0316    198.1610   6.9116661160e+01   1.7490498463e+01     0.254059    0.1502481  59.72  0.001085629    2.057    0.514
        36  -9.3541    105.2934    197.4245   7.0865150076e+01   1.8941884524e+01    0.2479286    0.1658486 -48.23 0.0006708442    1.625    0.385
        37 -10.2595    125.8928    197.0566   6.5855454908e+01   1.5530457413e+01    0.2982442    0.2034585  22.87  0.001274833    1.671    0.401
        38  -9.6864     66.8256    194.7378   7.9772312054e+01   2.5362357104e+01     0.275572    0.1589486  78.14  0.001234594    2.150    0.535
        39  -9.4535    112.8760    194.1654   6.8515960687e+01   1.8416345415e+01    0.1900983    0.1709401  -7.67 0.0003933876    1.307    0.235
        40  -9.9891    179.4971    190.5370   5.2299877750e+01   7.1918093448e+00    0.2432633    0.1395185 -54.91  0.001026448    2.208    0.547
        41  -8.9908    144.3730    197.7815   6.1616920148e+01   1.2098986928e+01    0.2055594    0.1321985 -37.99 0.0009446693    1.734    0.423
        42 -11.1501     98.2891    188.3261   7.1172938261e+01   2.2183230454e+01     0.435131     0.283967  59.71  0.000869105    1.686    0.407
        43 -11.0521     94.5982    183.0957   7.1273547156e+01   2.4015111524e+01    0.5182303     0.368128 -71.27  0.002569109    1.475    0.322
        44 -10.7152    204.3952    187.1046   4.6373198321e+01   3.3975328224e+00     0.430518    0.2583209 -50.69  0.001982329    1.989    0.497
        45 -10.6699     11.6775    187.3033   9.1816935053e+01   3.3255657645e+01    0.2085126    0.1781487 -82.83 0.0004949468    1.153    0.133
        46 -10.7199    162.7660    194.1862   5.6726979545e+01   9.5125004530e+00    0.4086493    0.2941103 -78.81  0.001830374    2.267    0.559
        47 -10.1362    109.6189    184.8750   6.7783711328e+01   2.1107398559e+01    0.3721746    0.2758345  40.06  0.001865274    1.302    0.232
        48 -10.0080     20.3804    181.1487   8.9338957393e+01   3.3907920478e+01     0.363924    0.1659535 -85.01  0.001392312    2.089    0.521
        49  -9.7413    138.6659    188.0387   6.1210259399e+01   1.5228692785e+01    0.3515927    0.1394795 -51.29  0.001264896    2.649    0.622
        50  -9.8746     44.0418    181.3181   8.3705185320e+01   3.1419982913e+01    0.3907282    0.1506587 -73.86  0.001567545    2.558    0.609
        51  -9.9487    147.7603    179.9671   5.7496331099e+01   1.5308479983e+01    0.2425982    0.1807712 -89.67 0.0009913706    2.003    0.501
        52 -10.4114    138.1997    178.7529   5.9575535071e+01   1.7378444149e+01    0.4046825    0.2505713 -67.97  0.001653501    2.207    0.547
        53 -10.3250     13.9528    178.3536   9.0590870040e+01   3.5142283125e+01    0.2542851    0.1528996 -70.94   0.00145655    1.417    0.294
        54 -11.4056      3.2530    177.8970   9.2998247443e+01   3.6124193445e+01    0.3145447    0.2725111   1.73  0.002203966    1.625    0.385
        55  -9.8577     88.9523    176.9850   7.1740479729e+01   2.6381018865e+01     0.238736    0.1666523  71.24 0.0006698539    1.674    0.403
        56  -9.9067    204.9830    175.4840   4.3885496038e+01   5.4483335162e+00    0.2151018    0.1383143  38.59  0.001033144    1.593    0.372
        57 -10.1008    183.2077    175.2078   4.8396866958e+01   9.5453958957e+00      0.19898    0.1819572 -79.05  0.000747223    1.371    0.271
        58 -10.2651    148.4509    174.8847   5.6321751656e+01   1.6296132454e+01    0.3084874    0.2030037  19.88  0.001153692    1.892    0.471
        59 -11.3370    174.3840    182.3490   5.1805862424e+01   9.7684886273e+00    0.5279289    0.2626268 -51.41  0.002093645    2.296    0.564
        60 -10.1994     77.0577    175.1086   7.4530349487e+01   2.8640620924e+01    0.2387523    0.1609524  72.78  0.001122078    1.729    0.422
        61  -9.1314     24.2366    174.4288   8.7802954061e+01   3.5146642961e+01    0.1718206    0.1047578  47.73 0.0009399914    1.636    0.389
        62 -10.8357    177.3223    169.1088   4.8410706190e+01   1.1920677132e+01    0.5547917     0.326369 -52.21  0.002355713    1.905    0.475
        63 -10.9007     10.1051    180.1365   9.1617777654e+01   3.5051746453e+01    0.1772478    0.1443876 -75.86   0.00038697    1.161    0.139
        64 -11.0887    206.5747    168.6841   4.2140427741e+01   6.4400856274e+00    0.3642472    0.2232116 -43.36  0.001705798    1.602    0.376
        65 -10.9022    121.8021    168.2330   6.1650471770e+01   2.2862173041e+01    0.6648908    0.3077815 -57.68  0.002448093    2.371    0.578
        66  -9.2374    168.3975    169.1978   5.0447119501e+01   1.3648245564e+01    0.2141109    0.1436002 -56.43 0.0008109956    1.730    0.422
        67  -9.0667     55.3372    169.6534   7.9408030779e+01   3.2926030393e+01    0.1503779   0.09522419  69.42 0.0007048056    1.778    0.438
        68  -9.1866     28.7127    169.6485   8.6218726263e+01   3.5872447610e+01    0.1312781   0.08700997 -48.59 0.0007023332    1.665    0.399
        69  -9.6254    220.5300    165.8698   3.8842181859e+01   4.4384940017e+00    0.2606772    0.1926911  60.74  0.001312722    1.904    0.475
        70 -11.4899    214.4833    164.5713   3.9716952290e+01   5.7640125305e+00    0.4169922    0.3036575 -77.16  0.001866073    2.519    0.603
        71  -8.8689    199.7251    166.6750   4.3098236621e+01   8.1012154831e+00    0.1482118    0.1089474  -7.64 0.0002305152    1.583    0.368
        72 -10.4333    139.3256    164.8082   5.6501023772e+01   2.0332996816e+01    0.4228025    0.2870595 -79.56  0.001557507    2.297    0.565
        73  -9.2777     19.2944    166.6617   8.8255911165e+01   3.7466535902e+01    0.1339952   0.08160698  71.01 0.0002835891    1.651    0.394
        74 -10.5894    149.8235    163.5673   5.3645174657e+01   1.8549980613e+01    0.4505753    0.3382006  22.51  0.002097568    1.481    0.325
        75  -9.9493     98.4011    165.2667   6.7242355854e+01   2.7711563229e+01    0.2140242    0.1420465 -71.53 0.0008060109    1.687    0.407
        76  -9.9393     80.1558    164.2964   7.1984856843e+01   3.0854989751e+01    0.3239897    0.1705216 -86.98  0.001088714    3.410    0.707
        77 -11.1383    206.2341    162.5556   4.0899569339e+01   7.6691998675e+00    0.3975107    0.2808645 -87.86  0.001602732    3.028    0.670
        78  -9.8978    177.6579    160.0716   4.6381310937e+01   1.3732535764e+01    0.3876773    0.2288281 -57.08  0.001495643    2.133    0.531
        79 -10.3586    146.8962    159.3830   5.3464895597e+01   2.0076255378e+01    0.2739197    0.2442116 -42.46 0.0004057264    1.126    0.112
        80 -10.6452    142.7598    158.5971   5.4323418524e+01   2.1080643314e+01    0.6337889    0.2026938  39.56  0.001934782    3.147    0.682
        81  -9.7970     92.6366    159.9279   6.7821200146e+01   2.9983445711e+01    0.2973146    0.1933759 -78.63  0.001186565    1.892    0.471
        82 -12.0519    200.5696    148.5712   3.8954252760e+01   1.1479161445e+01     0.608045     0.340785  53.40  0.002545661    2.146    0.534
        83 -12.5115    205.8259    154.8309   3.9298951714e+01   9.2306913286e+00    0.5968556    0.4803181  70.74  0.002533869    1.700    0.412
        84 -11.3106    197.3778    156.6366   4.1399534073e+01   1.0518520443e+01    0.5025741    0.2498224 -44.07  0.002045276    1.956    0.489
        85 -11.9993    192.3939    129.6580   3.6229257265e+01   1.6921300894e+01    0.8824781    0.2874613 -46.42  0.002758294    3.151    0.683
        86  -9.9709    183.5612    151.1822   4.3097629481e+01   1.4385400443e+01    0.4176368     0.299931 -84.07   0.00172141    2.407    0.584
        87 -10.9547    188.4334    156.5773   4.3258966251e+01   1.2297671584e+01    0.4745356    0.2865221 -52.87  0.001582491    1.880    0.468
        88 -11.9664    188.9162    148.5687   4.1356786859e+01   1.3828437064e+01    0.8418186     0.430152 -54.17   0.00314976    2.444    0.591
        89 -11.7934    188.5034    135.7566   3.8475559940e+01   1.6520156018e+01    0.8576887    0.3262326 -46.69  0.002903515    2.672    0.626
        90  -9.6895    186.6555    128.5037   3.7132931140e+01   1.8385316116e+01    0.3711204    0.2373208 -40.12  0.001147223    1.502    0.334
        91 -11.2187    188.5628    123.3205   3.5485360136e+01   1.9013198434e+01    0.4464999    0.2808273 -45.46  0.001424488    1.540    0.351
        92 -10.1196    168.0549    157.4144   4.7971657042e+01   1.6233975816e+01    0.3698222    0.2529568 -68.63  0.001535821    2.115    0.527
        93  -9.2192    128.3373    158.6729   5.8018089107e+01   2.3890501736e+01    0.1615498    0.1229271  77.33 0.0007051726    1.726    0.421
        94 -10.0211    105.2080    157.0773   6.3846695562e+01   2.8551298360e+01    0.3551847    0.2582709 -87.21  0.001020862    1.765    0.433
        95  -9.3207    157.6458    155.5825   5.0012657848e+01   1.8754677609e+01    0.2810639    0.1460413 -46.96  0.001088912    1.931    0.482
        96  -9.4776    119.4327    154.7401   5.9534231955e+01   2.6524292087e+01    0.3332095    0.2190315  87.39   0.00124315    2.621    0.619
        97 -10.0618     81.9691    154.3203   6.9745720863e+01   3.3074280505e+01    0.2779884    0.2024382  84.48  0.001012538    1.649    0.394
        98 -10.6803     68.3165    153.7717   7.3482250589e+01   3.5202261309e+01    0.4702492    0.2931105  75.25  0.001487414    2.168    0.539
        99 -10.0556     49.4994    154.6924   7.8877633080e+01   3.7363745024e+01    0.3177669    0.1930289  73.45  0.001320463    2.030    0.507
       100 -10.6864    133.3195    152.8095   5.5466353749e+01   2.4297185540e+01    0.5599406    0.3635717  81.93  0.001982175    2.969    0.663
       101  -9.5344     99.6703    152.9334   6.4543218349e+01   3.0536222788e+01    0.3167583    0.1976819 -73.02   0.00130138    1.994    0.499
       102  -9.3070    162.4328    150.2264   4.7666441667e+01   1.8948565530e+01    0.2239827    0.1478858 -57.02 0.0009442038    1.731    0.422
       103  -9.6317     28.7018    149.4439   8.3896383187e+01   4.0844764577e+01    0.3231372     0.132936  76.17 0.0008997798    5.956    0.832
       104  -9.3686    142.5815    148.3341   5.2093298681e+01   2.3472129677e+01    0.2981077    0.1531756 -52.41  0.001116288    2.051    0.512
       105  -9.9358     39.6619    147.5641   8.0599753139e+01   4.0238790343e+01    0.3663836    0.1788904  61.19  0.001471679    2.824    0.646
       106 -11.2695    149.0863    143.2396   4.9285490397e+01   2.3287905640e+01     0.951933    0.4392693 -54.08  0.003296348    2.505    0.601
       107 -11.4625    249.2419    151.7178   3.0880750442e+01   2.0006095871e+00    0.4669519    0.1652926 -33.19  0.001752477    2.808    0.644
       108 -10.6697     56.5081    145.6940   7.5500485330e+01   3.8790432787e+01    0.5689268    0.2779611  60.43  0.002095615    3.122    0.680
       109  -9.4681    175.9355    145.9764   4.3585479054e+01   1.7048021196e+01    0.2438835    0.1947511 -83.71  0.001116779    1.721    0.419
       110 -10.3131    106.8932    144.4956   6.0777701284e+01   3.1337007575e+01    0.5241324    0.3279788  81.50  0.001831943    3.060    0.673
       111 -10.1048    165.8038    143.4348   4.5305486009e+01   1.9722442069e+01    0.3659852    0.2101558 -58.35  0.001391513    2.216    0.549
       112  -9.2898    138.6318    144.3190   5.2182736135e+01   2.5206273716e+01    0.1653203    0.1264171  80.05  0.000213488    1.787    0.441
       113 -10.5180    124.8217    142.1097   5.5314343610e+01   2.8506978393e+01    0.5528722    0.3262833 -73.44  0.001898478    2.933    0.659
       114  -9.9517     87.9253    143.5880   6.5990894090e+01   3.4826275437e+01    0.3026529    0.2004573 -79.66 0.0007930198    1.919    0.479
       115 -10.1910    207.4120    142.4031   3.6216957673e+01   1.1319373514e+01    0.2848342    0.2066946 -75.51  0.001272293    2.146    0.534
       116 -10.1019    182.3053    141.4677   4.1135417144e+01   1.6655883646e+01    0.3554199     0.258714 -63.54  0.001245638    1.715    0.417
       117 -10.3458     69.2570    139.6512   7.0693274225e+01   3.8636829919e+01    0.4034699    0.2196467  86.30  0.001307214    3.852    0.740
       118  -9.9818    172.4982    137.6078   4.2392772914e+01   1.9547565259e+01    0.4194261    0.2611895 -64.39  0.001613938    2.329    0.571
       119 -10.4001     23.1707    137.8508   8.3964140549e+01   4.4205559262e+01    0.4641617    0.2158935  73.21  0.001753203    3.476    0.712
       120 -11.6961    198.1012    136.6221   3.6717998397e+01   1.4338142594e+01    0.4378283     0.317444 -49.12  0.002093964    1.387    0.279
       121 -10.1615    162.6210    135.7294   4.4219686199e+01   2.2075143682e+01    0.3347981    0.1938641 -51.27  0.001052701    1.824    0.452
       122 -10.6847    131.9214    130.2747   5.0599424090e+01   2.9845931472e+01     0.708843    0.3292381 -58.37  0.002301529    2.875    0.652
       123  -9.4928    112.6846    133.1141   5.6579130877e+01   3.3023159162e+01    0.2529099    0.2001609 -75.42 0.0008231078    1.492    0.330
       124 -10.6581     83.5633    131.6108   6.4776038710e+01   3.8515875899e+01    0.4378548    0.3003935  84.44  0.001547664    2.128    0.530
       125  -9.9880    142.9356    131.1217   4.7929636920e+01   2.7331180385e+01    0.3855366    0.2238874 -57.03  0.001344133    2.000    0.500
       126  -9.7705    138.5395    137.3006   5.0559576621e+01   2.6846578119e+01    0.3068632    0.1551498 -52.30  0.001128121    2.085    0.520
       127 -10.1056    179.8872    133.0008   3.9654594636e+01   1.8925423587e+01    0.4342343    0.2079819 -48.31  0.001616938    2.152    0.535
       128 -10.2768     39.8164    131.1883   7.8064940021e+01   4.4330709387e+01    0.1938242    0.1447393 -45.28 0.0007645591    1.314    0.239
       129 -10.4172    168.8196    128.7063   4.1071804250e+01   2.2234300466e+01    0.4429892    0.3161265 -59.87  0.001764322    1.624    0.384
       130 -10.5432    152.8743    128.0588   4.4681443427e+01   2.5869243743e+01    0.6369573    0.2916222 -53.48  0.002024151    2.583    0.613
       131 -11.5427     98.7791    125.6795   5.8858442600e+01   3.7398951505e+01     1.016371     0.468279 -60.55  0.003530622    2.611    0.617
       132  -9.8710     73.3234    129.0883   6.7360704324e+01   4.0708152342e+01    0.3869627    0.2447049  88.19  0.001544394    2.502    0.600
       133  -9.9662     12.6034    129.0246   8.5893921659e+01   4.7180232318e+01    0.3840333    0.1782756  70.01  0.001551116    3.264    0.694
       134 -10.8170    111.8198    128.2552   5.5667705381e+01   3.4354066309e+01    0.4783192    0.3327185   7.18  0.001958412    2.103    0.525
       135 -11.0781    116.8436    122.8006   5.2892320585e+01   3.4661526384e+01    0.8146322    0.4542449 -55.26  0.003199149    1.920    0.479
       136 -10.6032     59.6230    124.1785   7.0627478375e+01   4.3813082308e+01    0.5776259    0.3260508  79.10  0.002001661    3.672    0.728
       137 -11.2135    180.4431    121.5115   3.6734673859e+01   2.1162857338e+01    0.9694475    0.3663485 -37.76  0.003202652    2.733    0.634
       138 -11.0824    185.9058    114.6041   3.3884443907e+01   2.1330555531e+01    0.4266488    0.2473957 -40.64  0.001388152    1.657    0.397
       139 -11.0271     43.9461    122.2028   7.5225577185e+01   4.6143046820e+01    0.7537894    0.4092395  86.96  0.002867481    3.146    0.682
       140  -9.7328    105.0443    123.6934   5.6524510800e+01   3.6730212735e+01    0.2125237    0.1969537  29.58 0.0003539458    1.110    0.099
       141 -10.9859     28.7430    122.1924   8.0028561815e+01   4.7610447955e+01    0.5594735    0.2962667  80.66  0.002282557    2.944    0.660
       142  -9.9709    172.5974    120.1726   3.8102004201e+01   2.3183528720e+01    0.3843665    0.2582145 -52.95   0.00128272    1.579    0.367
       143 -10.2553    158.5321    120.1064   4.1308955986e+01   2.6344372745e+01    0.4307867     0.279918 -48.22  0.001593857    1.551    0.355
       144 -11.0767    141.5279    117.6899   4.4889457561e+01   3.0638604563e+01    0.8357056    0.3324457 -51.89  0.002637279    2.935    0.659
       145  -9.8788     71.1165    119.8912   6.6065192347e+01   4.3309387135e+01    0.3170986     0.211747  74.14  0.001345044    2.290    0.563
       146 -10.4760    130.4011    117.4239   4.7754586258e+01   3.3102108018e+01    0.5120289    0.2871394 -60.04  0.001879687    2.320    0.569
       147 -10.6666    192.8718    114.0286   3.2353971741e+01   1.9895102338e+01    0.4582857    0.2187231 -40.24  0.001386008    1.994    0.498
       148 -10.6676     92.5318    111.2171   5.7190816857e+01   4.1968062151e+01    0.7885396    0.3455402 -58.05  0.002727284    2.680    0.627
       149 -10.9195     79.4053    112.5979   6.1705261700e+01   4.3831283115e+01    0.5233544    0.3419232 -89.45  0.002043006    2.712    0.631
       150 -10.4629    121.8196    111.4669   4.8545311712e+01   3.6250032072e+01    0.4575672    0.2242625 -54.43  0.001633841    2.347    0.574
       151 -10.4681    174.7851    109.9994   3.5042222192e+01   2.4757292061e+01    0.5097454      0.25783 -45.08  0.001811768    1.945    0.486
       152  -9.3542    167.5256    112.0091   3.7150308293e+01   2.6006664273e+01    0.2491493    0.1516656 -41.21  0.001039163    1.613    0.380
       153 -10.3452    159.2008    110.6043   3.8688846675e+01   2.8193907946e+01    0.4547242    0.2479859 -44.04  0.001559916    1.812    0.448
       154 -10.5280     21.0939     92.7742   7.7376928957e+01   5.5302093799e+01    0.4853501    0.1554183 -42.75  0.001891142    2.885    0.653
       155 -11.1435     22.8103    101.5255   7.8438788763e+01   5.3111847589e+01    0.6620143     0.347157  68.13   0.00261893    3.638    0.725
       156 -10.9784     66.3981    109.7510   6.5278332688e+01   4.6449960062e+01    0.4321031    0.2704754 -79.15  0.001800593    2.348    0.574
       157 -10.1901    133.3326    108.3947   4.4564248035e+01   3.4468182548e+01      0.44006    0.2556859 -51.14   0.00176192    1.822    0.451
       158  -9.1165     22.4876    110.0082   8.0041532457e+01   5.1099429295e+01    0.1846005    0.1033711  85.33 0.0008097794    2.517    0.603
       159 -11.8353    189.3322    106.6528   3.1216512548e+01   2.2106324787e+01    0.5410303    0.2162844 -44.57  0.001919216    2.423    0.587
       160 -10.2984      2.7230    116.1181   8.7230711152e+01   5.0910598807e+01    0.4772556     0.195352  85.41  0.001775021    3.804    0.737
       161 -11.4692     45.9414    102.3591   7.0551953810e+01   5.0772882087e+01    0.7577835    0.4279779  70.98  0.002711256    4.001    0.750
       162 -10.3167    139.5098    102.9858   4.1465496274e+01   3.4253807261e+01    0.5670553    0.2654214 -46.64  0.002066377    2.181    0.542
       163 -11.5208     13.8642    109.4656   8.2785254603e+01   5.1841963318e+01    0.5527728    0.2924519 -73.50  0.002796097    1.697    0.411
       164 -10.7217    149.8640    100.4214   3.8174049943e+01   3.2426849042e+01    0.7649396    0.2477729 -45.38  0.002322633    3.169    0.684
       165 -11.3885    108.5955    112.4510   5.2622066939e+01   3.8696263734e+01    0.8130094    0.3241193 -54.36   0.00255647    2.882    0.653
       166 -10.1267    166.6278    101.9015   3.4700525145e+01   2.8246263524e+01    0.4280244    0.2266916 -35.22  0.001664967    1.988    0.497
       167 -10.8834     18.0733    103.7453   8.0455968017e+01   5.2927761373e+01    0.4236614    0.2504735 -43.02  0.001822368    1.545    0.353
       168 -10.7915    175.5648    100.6980   3.2468891298e+01   2.6405724413e+01     0.368357    0.2695396 -34.48  0.001729887    1.390    0.281
       169 -10.7836    128.5388    100.2021   4.3591221064e+01   3.7274481330e+01    0.5653477    0.2972908 -40.05  0.002201824    1.926    0.481
       170  -9.8025    159.6805     99.1923   3.5531237791e+01   3.0398834459e+01     0.368985    0.1843207 -37.80  0.001398916    2.043    0.510
       171 -10.8469    109.1725     98.4755   4.8627067030e+01   4.1720004533e+01    0.6389816    0.4462765  84.51  0.002331031    2.578    0.612
       172  -9.8662     82.1094     99.4592   5.7441424129e+01   4.6477452257e+01    0.3913647    0.2426523 -75.67  0.001473627    2.868    0.651
       173 -10.7344    182.7968    107.9929   3.2857002389e+01   2.3328224974e+01     0.360854    0.1915658 -46.07  0.001387481    1.855    0.461
       174 -10.3564     95.0370     96.1020   5.2310500967e+01   4.4968923426e+01    0.4387422    0.2449591 -57.60  0.001519967    2.139    0.532
       175 -11.0273     63.8576     95.6576   6.2649327322e+01   5.0126280092e+01    0.4820117    0.3238357 -87.77  0.001829915    2.612    0.617
       176 -10.8028    183.5803     95.6752   2.9547700724e+01   2.5497158735e+01    0.2887358     0.146235 -34.76  0.001125166    2.055    0.513
       177 -10.3681    176.9108     91.9020   2.9882573335e+01   2.7756144260e+01    0.3273005    0.1998086 -34.92  0.001412875    1.684    0.406
       178 -10.0509    138.4265     90.3332   3.8172116440e+01   3.7079280668e+01    0.4757057    0.2500348 -48.34   0.00184637    2.037    0.509
       179 -10.9600    124.6978     88.9871   4.1409595821e+01   4.0434293574e+01    0.7508489    0.3505657 -46.50  0.002791572    2.235    0.553
       180 -10.2853     44.3778     92.0556   6.8719887571e+01   5.3363675376e+01    0.2881324    0.1672335  -3.70  0.001274806    2.433    0.589
       181 -11.1512      4.4739     89.9872   8.2854097530e+01   5.6970665935e+01    0.4583254    0.1879346 -76.16  0.002006262    2.559    0.609
       182 -10.6662      7.5836     84.2396   8.0699258998e+01   5.8122896386e+01    0.3016945    0.0783494 -48.99  0.001227275    2.673    0.626
       183 -10.6758     34.7179     87.2944   7.1156661919e+01   5.5434063051e+01    0.8425202    0.2324357 -58.95  0.002989674    3.125    0.680
       184  -9.2485    150.6967     87.5255   3.4372392625e+01   3.4770963896e+01    0.2787714    0.1395293 -39.42  0.001070483    2.015    0.504
       185 -10.8427     86.9511     86.6140   5.2179002219e+01   4.8488245682e+01    0.4624044    0.3382176  74.43  0.002048215    2.245    0.555
       186  -8.9690    164.0000     85.9817   3.0960772092e+01   3.1907310205e+01    0.2503076   0.08630938 -38.41 0.0007977585    2.910    0.656
       187 -11.2892     48.6160     82.2843   6.4635580201e+01   5.5095349503e+01    0.8396699    0.3730821 -59.43  0.003437818    2.414    0.586
       188  -9.5792    164.9132     92.3887   3.2518777102e+01   3.0492322247e+01    0.3168183    0.2078524 -22.04  0.001324396    1.945    0.486
       189  -9.4985    116.6987     83.3978   4.1977883686e+01   4.3287736631e+01    0.2569659    0.1808047 -18.92 0.0005945391    1.725    0.420
       190 -10.9505    104.3319     82.0754   4.5235715480e+01   4.6129459438e+01    0.5359095    0.2721221 -53.81  0.002013718    2.493    0.599
       191 -10.2289    140.6901     81.6041   3.5061331289e+01   3.8232723311e+01    0.4278528    0.1750482 -41.58  0.001513345    2.469    0.595
       192  -9.4904    158.5066     80.9634   3.0747272579e+01   3.4132665253e+01    0.2358672    0.1505359 -36.08  0.001035717    1.611    0.379
       193 -10.3789    161.5023    248.9843   6.6020784330e+01  -3.2408330277e-01    0.1720691    0.1274667 -43.75  0.001034228    1.594    0.373
       194  -9.8769    127.8714     70.9944   3.5090640648e+01   4.3127003531e+01     0.468127    0.2590471 -17.00  0.001654523    3.037    0.671
       195  -9.1177    157.4005     74.7564   2.9223222033e+01   3.5496760534e+01    0.2126342    0.1463997 -23.70  0.000952054    1.714    0.417
       196 -10.2005    140.5266     73.7926   3.2778664689e+01   3.9690918550e+01    0.3782413    0.1444168 -40.11  0.001313759    2.652    0.623
       197 -10.4918     10.3096     74.2618   7.7644537992e+01   6.0203828437e+01     0.264171    0.1908161  -9.17  0.001430167    1.494    0.331
       198 -10.8434     82.1958     70.7630   4.8840437369e+01   5.2554708326e+01    0.7263008    0.2480611 -46.02  0.002529483    2.994    0.666
       199 -10.0328     94.9549     70.3021   4.4433850417e+01   5.0274308480e+01    0.4737874    0.1955864 -53.64  0.001468235    4.045    0.753
       200  -9.8067     74.4355     80.2170   5.4544636803e+01   5.1951992559e+01    0.2048206    0.1354068 -57.39 0.0009534713    1.753    0.430
       201  -9.8645    119.3031     78.4904   3.9735604628e+01   4.3672695313e+01    0.4496853    0.1910242 -41.37  0.001642975    2.386    0.581
       202  -9.8474    105.8257     71.0411   4.1290339535e+01   4.7947764079e+01    0.2381048    0.1735085 -66.97  0.001075263    1.999    0.500
       203 -10.3041     62.4957     70.5136   5.5891345745e+01   5.5772288797e+01    0.2656457    0.1107583 -38.06  0.001039749    2.402    0.584
       204 -10.7425     51.1931     68.4686   5.9616541494e+01   5.7720596278e+01    0.5385563     0.242139 -60.42  0.002013034    3.307    0.698
       205 -10.3425      5.4825     70.4919   7.8771879469e+01   6.1290672495e+01    0.2601556    0.1001932 -63.88  0.001210422    2.168    0.539
       206  -9.0914    163.0406     69.9454   2.6679186880e+01   3.4953498239e+01    0.2588853    0.1681415  -5.79  0.001020763    2.597    0.615
       207 -10.9944     17.7638     62.7343   7.1792106554e+01   6.2201989427e+01    0.5476955   0.05760157 -49.09  0.001787227    4.141    0.759
       208 -10.0115    138.4318     65.2102   3.0672982295e+01   4.1657544847e+01    0.3544081    0.1218111 -44.42  0.001148464    3.238    0.691
       209 -10.3656    121.4990     64.1544   3.4602942156e+01   4.5758664527e+01     0.533823    0.1448321 -37.30   0.00161076    3.795    0.736
       210 -10.0508    150.2713     78.4852   3.1877230927e+01   3.6544543273e+01    0.3895597     0.139828 -32.27  0.001193143    3.458    0.711
       211 -10.1380    100.1317     59.2785   3.9101979085e+01   5.1203893257e+01    0.3361507    0.1811744 -47.32  0.001422177    2.180    0.541
       212 -10.5436     73.1400     57.0670   4.7391949677e+01   5.6657817141e+01    0.7980356    0.2239325 -41.78  0.002687245    3.509    0.715
       213  -9.3094    174.7824     76.9814   2.6310495515e+01   3.0929915230e+01    0.2041703    0.1200011 -37.38 0.0008792541    1.714    0.416
       214 -11.4291      6.9462     56.3576   7.4836840288e+01   6.4203418184e+01    0.2934389    0.2163555 -58.48   0.00192213    1.287    0.223
       215  -9.4184    110.3808     63.5772   3.7500621759e+01   4.8312639642e+01    0.2798355    0.1204215 -50.00 0.0009504324    3.216    0.689
       216 -11.7859     45.3841     49.4261   5.5628187343e+01   6.2112450084e+01    0.4279388    0.2066629 -36.60 0.0006954065    1.897    0.473
       217 -10.1189     62.5390     53.6128   5.0149976795e+01   5.8974878339e+01    0.2814696     0.124571 -42.69  0.001216495    2.205    0.547
       218 -10.1176     53.7929     51.7304   5.2952882709e+01   6.0587168726e+01    0.6057571    0.1770869 -50.25  0.001912572    4.662    0.785
       219  -9.4905    146.8744     66.6789   2.9171979020e+01   3.9400371676e+01    0.4732742    0.1068832 -33.80  0.001195902    5.302    0.811
       220 -10.1017     92.5982     50.3089   3.8305290930e+01   5.4193735060e+01     0.296868    0.1647296 -47.91    0.0012214    2.262    0.558
       221  -9.2769    167.5016     75.9916   2.7471022313e+01   3.2850264178e+01    0.2076416    0.1362742  -6.74 0.0008104536    2.547    0.607
       222 -10.0354     22.2665     47.2384   6.5185506692e+01   6.4944382477e+01    0.3568324    0.1588907  -9.46  0.001411393    3.695    0.729
       223 -10.1366     82.0076     45.7651   4.0125326914e+01   5.6952697477e+01     0.332912    0.1667201 -35.17  0.001505111    2.032    0.508
       224 -10.3914     16.6535     42.4818   6.6254169621e+01   6.6290199647e+01    0.4335486   0.08629794 -48.72   0.00164938    3.406    0.706
       225 -11.5250      4.9329     40.6336   7.1350288931e+01   6.7419402897e+01    0.4645392    0.1951173 -66.31   0.00202859    3.398    0.706
       226 -10.7521      6.1396     34.1111   6.8639996435e+01   6.8556048705e+01    0.2610501    0.1415165 -19.85  0.001100359    1.709    0.415
       227  -9.5034    113.8772     41.4236   2.8999913862e+01   5.0951655443e+01    0.2209696    0.1790822  15.77 0.0003084606    1.303    0.233
       228  -9.6705     58.1826     42.0142   4.7528770145e+01   6.1599927424e+01     0.197396     0.156057 -62.89  0.001085135    2.061    0.515
       229  -9.0067    247.7047    247.3579   4.9165789323e+01  -1.2264484219e+01   0.09618258   0.09111763  -7.78 0.0007032467    1.699    0.411
       230  -9.7609    128.4677     75.9405   3.6464225107e+01   4.2100129369e+01    0.3175565    0.2162012 -65.66  0.001342829    2.099    0.524
       231  -9.7272     95.4170     37.2549   3.2640721759e+01   5.5522627503e+01    0.1841961    0.1258407 -40.41 0.0009517726    1.671    0.402
       232  -9.2343    123.4909     40.4634   2.6280690658e+01   4.8877314797e+01    0.1429462    0.1256174  37.60 3.630324e-05    1.066    0.062
       233 -10.3884     27.5181     28.9496   5.5908329002e+01   6.7650881167e+01    0.3060749   0.07164157 -36.48  0.001043715    4.409    0.773
       234  -9.3511    101.3490     28.1812   2.7562700938e+01   5.5402204746e+01    0.1840699    0.1185559 -37.97 0.0006722927    1.771    0.435
       235 -10.2793     12.5890     30.3254   6.3976901020e+01   6.8779649430e+01    0.2134492    0.1015975 -52.28  0.001133141    2.105    0.525
       236 -11.1939      2.9668     26.2836   6.7550465899e+01   7.0136039097e+01    0.3973705    0.1228892 -43.64   0.00194868    2.300    0.565
       237  -9.1416    110.4085     24.7214   2.3967011696e+01   5.3788898600e+01    0.1768125    0.1261312  -2.96 0.0009451215    1.637    0.389
       238  -9.3543     44.1991     25.2104   4.6501845726e+01   6.6169584628e+01    0.1868735    0.1348916   1.82 0.0005433453    1.215    0.177
       239  -8.7790    118.5003     24.5081   2.1996091034e+01   5.1962880450e+01    0.1366755    0.1179558  44.41 0.0008104916    1.027    0.026
       240 -10.7345     12.9113     21.0443   6.0121431496e+01   7.0289900898e+01    0.2192851    0.1611546   7.81 0.0007486468    1.295    0.228
       241  -9.2034     50.2331     15.7840   3.9654509246e+01   6.6506469702e+01    0.2116294    0.1160241  10.28  0.001044165    2.212    0.548
       242  -9.6177     29.5264    243.4917   9.2069369316e+01   1.9371252553e+01     0.117258   0.08710416  67.78 6.036897e-05    1.027    0.026
       243  -9.0245     97.5149     12.4991   2.2627354782e+01   5.7880764324e+01    0.1329997    0.1065845  36.84 0.0004048496    1.069    0.065
