#   1 NUMBER                 Running object number                                     
#   2 MAG_AUTO               Kron-like elliptical aperture magnitude                    [mag]
#   3 X_IMAGE                Object position along x                                    [pixel]
#   4 Y_IMAGE                Object position along y                                    [pixel]
#   5 X_WORLD                Barycenter position along world x axis                     [deg]
#   6 Y_WORLD                Barycenter position along world y axis                     [deg]
#   7 A_WORLD                Profile RMS along major axis (world units)                 [deg]
#   8 B_WORLD                Profile RMS along minor axis (world units)                 [deg]
#   9 THETA_WORLD            Position angle (CCW/world-x)                               [deg]
#  10 FWHM_WORLD             FWHM assuming a gaussian core                              [deg]
#  11 ELONGATION             A_IMAGE/B_IMAGE                                           
#  12 ELLIPTICITY            1 - B_IMAGE/A_IMAGE                                       
         1 -12.1362      1.8948     73.7875   1.0846762058e+02   6.1004631628e+01     5.514258    0.1996491 -67.29  0.006470009   33.417    0.970
         2 -11.1308     59.3270    135.8163   9.9831766661e+01   4.0805720389e+01     1.196904    0.3850167 -71.35  0.002804648    6.383    0.843
         3 -11.8904    215.3128     35.8128   3.6676745022e+01   2.7779935082e+01     1.185473    0.6610434 -36.58  0.006270598    1.760    0.432
         4 -11.4596    223.7872     30.4807   3.4662681806e+01   2.6623979175e+01    0.6445237     0.529292  -1.18  0.002454895    1.876    0.467
         5 -11.6782    237.9160     17.9014   3.0871268803e+01   2.5197570980e+01    0.6761264    0.4843003 -62.18  0.002689594    1.127    0.113
         6 -13.2016      3.5937    129.6686   1.1613757335e+02   4.7473533436e+01     4.085546     1.091419 -81.06   0.01261331    4.552    0.780
         7  -9.6196      2.1008      4.2906   8.5603528010e+01   7.4230674443e+01    0.3704539    0.1040833 -41.78  0.001744105    2.954    0.662
         8 -10.6034     84.5306    221.2394   1.0569882232e+02   1.6419503589e+01    0.5329226    0.3906607 -78.95  0.002387135    1.468    0.319
         9 -11.7121     82.1752    241.9572   1.0848009398e+02   1.2457478084e+01    0.8055286    0.4073795  30.66  0.002912248    1.947    0.486
        10 -11.2955     68.7078    244.1658   1.1151548212e+02   1.3820540061e+01    0.6423371    0.4742956  53.11  0.003674642    1.134    0.118
        11 -11.5402     10.8398    232.0488   1.2225515376e+02   2.2884191278e+01    0.6886718    0.3566651  88.49  0.001293461    1.718    0.418
        12 -13.1982      8.9033    207.6745   1.2124215741e+02   2.8305587299e+01     2.780313    0.9682988 -84.98  0.004158248    2.757    0.637
        13 -10.7032     57.6324    241.0615   1.1353227849e+02   1.5854803842e+01      0.52877    0.3520716  42.98  0.001330155    1.302    0.232
        14 -12.0042      3.4609    243.7710   1.2420341192e+02   2.1219738115e+01     1.712518    0.6108876 -79.62  0.008908171    2.529    0.605
        15  -9.1776     76.8243    223.9696   1.0775387167e+02   1.6909299717e+01    0.1870196    0.1790715 -22.36 0.0009562926    1.292    0.226
        16  -9.5699     75.4053    220.2260   1.0766164763e+02   1.7915722207e+01    0.3083887    0.1261857  46.16  0.001313785    2.221    0.550
        17  -9.5778     43.0741    217.7177   1.1464172395e+02   2.2564114801e+01    0.3284853    0.1616247 -68.82 0.0001718432    1.951    0.487
        18  -9.3341     67.9081    217.1258   1.0902994923e+02   1.9610879053e+01    0.3935334    0.1637594  32.14  0.001687892    2.354    0.575
        19 -10.8392     20.7893    195.2834   1.1777000253e+02   3.0049142787e+01    0.4207242    0.2338865  64.39 0.0009077308    1.724    0.420
        20 -11.7988     99.2805    228.5186   1.0323557264e+02   1.2738759699e+01    0.9472944    0.3311778  36.79   0.00378129    2.458    0.593
        21 -13.1465     34.7618    194.3046   1.1443902924e+02   2.8875447925e+01     2.211092     1.131572  61.44   0.01030203    2.031    0.508
        22 -10.0602     54.2732    177.7979   1.0776535807e+02   3.0680709253e+01    0.4542977    0.2865945 -30.49  0.001279185    2.316    0.568
        23 -10.3009     60.4115    172.1661   1.0538367882e+02   3.1326018522e+01    0.3800744     0.290265 -27.27 0.0006969027    1.676    0.403
        24 -12.1940     39.0929    249.6703   1.1787336708e+02   1.6357105076e+01     2.518767    0.5936085  31.93  0.009603844    4.057    0.754
        25  -8.1333     72.9573    172.9520   1.0211280211e+02   2.9441189994e+01    0.2085213    0.1955498  78.56  0.001191626    1.025    0.024
        26  -8.2998     97.9691    170.0000   9.4839736909e+01   2.6363373221e+01     0.251433    0.0850185  34.30 0.0008069306    2.974    0.664
        27  -9.0672     93.4892    168.4733   9.5785840717e+01   2.7469893211e+01    0.2731937    0.1976279  70.95 0.0007119218    1.685    0.406
        28 -11.5262     79.1937    156.6925   9.7689701353e+01   3.2667899560e+01    0.8584344     0.745895 -78.77  0.001760483    1.148    0.129
        29 -10.0552     71.3709    162.6731   1.0093142920e+02   3.2269641298e+01    0.3078822    0.3004164 -36.37 0.0005479392    1.114    0.103
        30 -11.6251     57.6826    158.8315   1.0419332658e+02   3.5069870806e+01    0.5527385    0.3057666 -41.44  0.001369264    2.108    0.526
        31  -9.4145     35.1462    159.4277   1.1059233828e+02   3.7453363916e+01    0.5362511    0.2431212  63.73  0.002012588    3.165    0.684
        32 -11.0311     67.8148    142.7955   9.8514543192e+01   3.7877821396e+01    0.5319765    0.3907338  42.33  0.001396226    1.437    0.304
        33 -10.9407     69.8259    146.1602   9.8528850104e+01   3.6730360613e+01    0.5061758    0.4158912  18.55  0.001429668    1.371    0.271
        34  -9.9190     95.9962    141.0253   8.9693439420e+01   3.3965741729e+01    0.7351085    0.4268367 -17.14  0.002364875    3.587    0.721
        35 -10.5361     82.4133    140.7461   9.3692089606e+01   3.6259813722e+01    0.3542233    0.2864119 -47.13 0.0005461577    1.196    0.164
        36 -11.6484    113.6613    230.5074   1.0026426672e+02   1.0175008635e+01    0.8450611    0.6602122 -79.51  0.004856986    1.542    0.351
        37 -12.3401     15.9550    165.0202   1.1632483926e+02   3.7791400383e+01     2.683415    0.9445559  77.61   0.00726679    6.522    0.847
        38  -9.5816     93.8052    127.6148   8.7332707066e+01   3.7700057391e+01     0.304703    0.2536818 -44.44 0.0003992985    1.156    0.135
        39  -9.1931    106.6940    131.3361   8.4340092445e+01   3.4466183886e+01    0.3718332    0.3039788  13.27  0.001160972    1.385    0.278
        40  -8.1847    105.0437    119.6786   8.1968341538e+01   3.7603045448e+01    0.2127204    0.2002772  10.99 0.0003995563    1.085    0.078
        41  -8.3493     33.0000    119.9607   1.0547828457e+02   4.7758387757e+01    0.2414639   0.06971873 -65.39 0.0008109162    3.002    0.667
        42 -10.2410     65.9092    126.9462   9.5993780425e+01   4.2212278876e+01    0.4943379    0.3240963  69.73  0.002103172    2.210    0.548
        43  -7.6678     41.3397     92.2871   9.6825169484e+01   5.3773714375e+01    0.1464272   0.09354687 -28.30 0.0004951436    1.638    0.389
        44 -11.3133     23.8938    204.4545   1.1778602384e+02   2.7623088478e+01    0.4307336    0.3175952 -47.31 0.0008856706    1.703    0.413
        45  -8.0650     58.3266     77.6708   8.6268508478e+01   5.5033871039e+01    0.1347468    0.1142738  76.93 0.0004769852    1.704    0.413
        46  -9.9694     13.3519     61.1015   1.0054956013e+02   6.3181546293e+01    0.4094164    0.1598394 -61.00  0.001428493    2.353    0.575
        47 -11.6438    208.9650     41.7765   3.8740092966e+01   2.8404536139e+01    0.6316261    0.4217982 -34.47  0.002830744    1.559    0.359
        48 -12.2812    125.4453    231.0607   9.7707095104e+01   8.2547052161e+00     1.459608    0.4448089  35.50  0.005328312    2.865    0.651
        49 -10.7983     14.6456    248.5005   1.2239756066e+02   1.9209799314e+01    0.6467347    0.3978885  85.83  0.004310421    1.417    0.294
        50  -7.6436    127.2854     34.6826   4.9750138545e+01   4.8670912068e+01    0.1344823    0.1050281 -72.18 0.0003261369    1.587    0.370
        51  -7.6145    129.5587     29.4725   4.7552543088e+01   4.8750641605e+01    0.1355305    0.1227526  58.50 0.0002367455    1.021    0.020
        52  -8.2082     58.8243    228.8217   1.1220670173e+02   1.8243655290e+01    0.1775334    0.1719119  69.93   0.00122159    1.219    0.180
        53  -8.4343      9.6788     23.3452   8.9799429732e+01   7.0674416769e+01    0.0976762   0.09384968  48.43 0.0007049773    1.731    0.422
        54  -8.3692     32.7009    234.1797   1.1808467234e+02   2.0195821421e+01    0.2331285   0.09596988 -85.43  0.001078168    2.629    0.620
        55  -8.0374    189.6507     15.3237   3.4590008353e+01   3.5948645806e+01    0.1374348   0.08086041 -68.54  0.000704899    1.749    0.428
