#   1 NUMBER                 Running object number                                     
#   2 MAG_AUTO               Kron-like elliptical aperture magnitude                    [mag]
#   3 X_IMAGE                Object position along x                                    [pixel]
#   4 Y_IMAGE                Object position along y                                    [pixel]
#   5 X_WORLD                Barycenter position along world x axis                     [deg]
#   6 Y_WORLD                Barycenter position along world y axis                     [deg]
#   7 A_WORLD                Profile RMS along major axis (world units)                 [deg]
#   8 B_WORLD                Profile RMS along minor axis (world units)                 [deg]
#   9 THETA_WORLD            Position angle (CCW/world-x)                               [deg]
#  10 FWHM_WORLD             FWHM assuming a gaussian core                              [deg]
#  11 ELONGATION             A_IMAGE/B_IMAGE                                           
#  12 ELLIPTICITY            1 - B_IMAGE/A_IMAGE                                       
         1 -12.0915    225.0005     25.5125   6.0407698591e+01   2.6757139616e+01    0.4805963    0.1256628 -50.35  0.001716189    3.802    0.737
         2 -10.3752    198.6744      7.0531   5.9062257998e+01   3.4867190869e+01    0.1723535     0.148251 -85.19 0.0008331846    1.093    0.085
         3 -10.9449    222.5405      5.4907   5.6476181079e+01   2.9624027848e+01     0.121979   0.09653913 -85.41 -2.428504e-05    1.032    0.031
         4  -9.8090    225.6716      1.6706   5.5443924909e+01   2.9340675114e+01    0.1120277   0.08404706  52.23 0.0007051234    1.709    0.415
         5  -9.8141    163.4423    246.7709   1.1896167605e+02  -8.1461536502e-01    0.2147209    0.1305834 -55.11  0.001081471    2.028    0.507
         6 -11.6270    230.2461    235.8657   1.0418472451e+02  -9.9677171292e+00    0.4949356    0.4120307 -85.42  0.002887197    2.327    0.570
         7 -11.8338    224.8988    177.3468   9.4029211993e+01   6.8450059222e-01     1.367148    0.3167032 -38.21   0.00384609    4.616    0.783
         8 -13.0960    227.5925    157.6640   8.9389311869e+01   3.8587531402e+00     5.539713    0.5451115 -41.59   0.01062358    9.305    0.893
         9 -12.2461    217.6498    184.7317   9.6924091657e+01   6.5042367663e-01     2.004976    0.5407563 -35.82  0.005610244    4.803    0.792
        10 -12.0951    247.1781    241.6555   1.0211531982e+02  -1.3229196349e+01    0.8989713    0.5201859 -55.67   0.00401283    4.053    0.753
        11 -11.7016    236.3427    229.4103   1.0192009974e+02  -9.9316048949e+00    0.4762262    0.3940372 -58.45  0.002110375    1.841    0.457
        12 -12.0657    227.9859    222.5516   1.0223316799e+02  -7.5985012948e+00    0.9759825    0.3549872 -46.28  0.003820906    3.383    0.704
        13 -13.1634    227.8128    193.6960   9.6784478211e+01  -2.7733154688e+00     3.644453    0.9122736 -35.14   0.01005844    5.325    0.812
        14 -12.5360    236.1734    216.8571   9.9665990773e+01  -7.9901812610e+00     1.142082    0.7417862 -64.41  0.005034897    3.459    0.711
        15 -12.9480    236.2575    191.7674   9.4839591949e+01  -3.8782343460e+00     2.762717    0.5851306 -44.66  0.007777506    5.288    0.811
        16 -12.0310    248.7230    180.8499   9.0449399400e+01  -4.0870691719e+00     1.239944    0.3014022 -44.44   0.00387366    4.262    0.765
        17 -13.4082    244.5967    188.3865   9.2671984613e+01  -4.6877909254e+00     2.845668     0.895577 -49.98  0.007845364    6.115    0.836
        18 -12.6115    235.8955    144.5028   8.5094434583e+01   4.7318712413e+00     1.593113    0.7058278 -29.10  0.005633358    3.089    0.676
        19 -12.5538    248.2639    229.2036   9.9729725589e+01  -1.1645344265e+01    0.8859015    0.3971853 -43.55  0.004244272    2.551    0.608
        20 -13.1655    247.6935    214.4789   9.7140095834e+01  -9.3803560558e+00      1.46854    0.5874941 -46.53  0.006085788    3.140    0.682
        21 -12.3806    246.0331    162.7681   8.7227486279e+01  -4.7282009870e-01     1.570664    0.3203978 -39.57  0.004519205    4.507    0.778
        22 -12.9117    243.8148    149.0420   8.4728765427e+01   2.4013571483e+00     1.600971    0.7813173 -20.31  0.004843422    4.904    0.796
        23 -14.5651    247.0699    123.2212   7.8707804829e+01   6.4748219472e+00     3.663966     1.837395 -56.03   0.01528469    2.319    0.569
        24 -16.0951    246.9976     65.9438   6.6523036501e+01   1.6239726593e+01     9.385431     1.900231 -38.75   0.02928471    4.401    0.773
        25 -10.3480    219.7411    239.9151   1.0684970926e+02  -8.9622653709e+00    0.2713929    0.1780526 -49.90 0.0008167475    2.036    0.509
        26 -11.4506    216.2525    233.3718   1.0638460952e+02  -7.4228942309e+00    0.3933387    0.3546764 -47.00  0.001683419    1.415    0.293
        27 -10.6753    211.7897    227.4353   1.0620163239e+02  -5.7623922949e+00    0.3064116     0.209906 -37.74  0.001155696    1.532    0.347
        28 -10.3025    214.0706    240.8285   1.0808029371e+02  -8.2158190123e+00    0.2057449    0.1751331 -28.03 0.0009434558    1.276    0.216
        29 -10.4270    183.4991    239.5598   1.1383812288e+02  -3.0114563444e+00    0.3125244    0.2475328 -60.07  0.001622868    1.635    0.388
        30  -9.5288    134.6006    240.8142   1.2392604334e+02   5.1841344673e+00    0.1740345    0.1252174 -74.91 0.0009503523    1.698    0.411
        31 -10.4868    159.0412    238.4298   1.1859557906e+02   1.3921720486e+00    0.3420374    0.2029461 -58.91  0.001691061    2.132    0.531
        32 -11.3623    190.9328    235.2185   1.1164463182e+02  -3.5504169140e+00      0.49514    0.3493843 -63.25  0.002616313    2.096    0.523
        33 -11.3752    204.9771    235.2415   1.0888311590e+02  -5.8940774002e+00    0.4029194    0.3344071 -67.10  0.001975994    1.772    0.436
        34 -10.7393    176.6931    235.4598   1.1454194896e+02  -1.1524988405e+00     0.374572    0.2012118 -39.60  0.001766635    2.128    0.530
        35  -9.8305    170.4195    234.6929   1.1569217675e+02   7.1507056080e-02     0.225879    0.1329812 -51.62   0.00102821    1.990    0.498
        36  -9.9142    144.9569    232.5015   1.2059775908e+02   4.9504149958e+00    0.2010695    0.1867063 -68.63  0.001248069    1.200    0.167
        37 -10.0470    122.4353    232.3124   1.2525546614e+02   8.9061660992e+00    0.2364039    0.1278409 -52.19   0.00112959    2.073    0.518
        38  -9.8846    133.4698    232.0231   1.2291815771e+02   7.0561271700e+00    0.1798445    0.1144394 -29.32 0.0008097443    2.559    0.609
        39  -9.9142     99.6073    232.2086   1.2995805390e+02   1.2731078472e+01    0.1776005    0.1186795 -53.29 0.0009557023    1.730    0.422
        40  -9.8933    148.4608    240.0041   1.2098727312e+02   2.9453588156e+00    0.1853395    0.1331611 -53.75  0.001032607    1.599    0.375
        41 -10.1214    113.5028    230.9902   1.2693296864e+02   1.0687246498e+01    0.1949388    0.1307455 -63.06  0.001040672    1.613    0.380
        42  -9.6916    173.9323    228.7297   1.1400182028e+02   5.1394249795e-01    0.1929216     0.167502  36.31  0.001091073    1.037    0.036
        43  -9.4072    152.2394    229.0129   1.1854565456e+02   4.3212613252e+00    0.1672375    0.1168576 -51.14 0.0008790332    1.602    0.376
        44 -10.7376    198.8424    226.6952   1.0861388074e+02  -3.4709163669e+00     0.310178    0.2330192 -44.09  0.001175572    1.484    0.326
        45  -9.8241    184.5069    227.9214   1.1170650534e+02  -1.2034070204e+00    0.1910246    0.1335855 -43.57  0.001026305    1.573    0.364
        46  -9.9847    162.9632    227.1631   1.1601310418e+02   2.7524255835e+00    0.2277804    0.2056834 -45.96  0.001152914    1.232    0.188
        47  -9.3833    138.4820    228.4868   1.2134942515e+02   6.8663699791e+00    0.1370832    0.1220119  50.02  4.39807e-05    1.018    0.017
        48 -10.4959    223.1474    226.5541   1.0386791008e+02  -7.4588284917e+00    0.2380647    0.1988452 -25.57 0.0009149283    1.209    0.173
        49 -10.7764    205.9613    225.1549   1.0693513821e+02  -4.4198613064e+00    0.3307649     0.193156 -41.18  0.001218737    1.818    0.450
        50 -10.4763    190.3929    225.9007   1.1016815450e+02  -1.8789670313e+00    0.2923091    0.1937936 -43.65  0.001124303    1.648    0.393
        51 -11.0717    216.9313    223.2091   1.0445290644e+02  -5.9236020378e+00    0.3894423    0.2638217 -52.76  0.001514373    1.943    0.485
        52  -9.4274    155.0237    224.9938   1.1732438080e+02   4.5873360520e+00    0.1622646    0.1579704  54.19 0.0008574533    1.084    0.078
        53  -9.8438    129.1455    224.8041   1.2277560793e+02   9.2462386801e+00    0.1837236    0.1658431  10.83  0.001079316    1.358    0.264
        54 -10.6641    180.0884    222.8308   1.1173790844e+02   4.8175137593e-01    0.3508334    0.1996459 -44.63  0.001104189    1.913    0.477
        55 -10.4679    148.0423    222.8009   1.1844973322e+02   6.2718051016e+00    0.2924301    0.2028569 -45.93  0.001520149    1.612    0.380
        56  -9.9364    174.4081    222.2542   1.1281324802e+02   1.6053718315e+00    0.2273546    0.1777329 -56.30  0.000946003    1.491    0.330
        57  -9.5953    140.3810    221.7551   1.1991748477e+02   7.8605896240e+00    0.1841623    0.1299885 -42.11 0.0009426194    1.654    0.395
        58 -11.1675    202.2601    218.6609   1.0650340750e+02  -2.6894807629e+00     0.502031    0.2662205 -46.68  0.002343313    2.099    0.524
        59  -9.6685    204.3970    212.7817   1.0500024649e+02  -2.0391271532e+00    0.1832365    0.1235008 -27.93 0.0004428072    1.582    0.368
        60 -11.1631    193.3370    218.6988   1.0830343777e+02  -1.1341964268e+00    0.4105102    0.2981016 -54.73   0.00164695    1.679    0.404
        61  -9.9259    185.7999    220.5287   1.1016411004e+02  -1.2245548911e-01    0.2443573    0.1870804 -40.56 0.0009737347    1.402    0.287
        62  -9.5261    165.4890    221.4764   1.1454424816e+02   3.3633211901e+00    0.1386827    0.1259236  34.34 0.0002518719    1.022    0.021
        63 -10.8999    210.8718    218.1715   1.0471374206e+02  -4.0821205506e+00     0.395885    0.1947496 -43.34  0.001270051    2.151    0.535
        64 -10.3324    209.8693    212.2564   1.0381844508e+02  -2.9009106696e+00    0.3258811    0.1944968 -28.39  0.001575834    1.838    0.456
        65  -9.8848    158.5696    218.7728   1.1555313085e+02   5.1437266174e+00     0.248507    0.1355127 -44.61  0.001122961    2.027    0.507
        66 -11.8864    217.6499    212.9810   1.0243621000e+02  -4.3538647487e+00    0.6753815    0.3612151 -50.30  0.003083089    2.335    0.572
        67 -10.7116    217.2939    204.3638   1.0087339587e+02  -2.8163774374e+00    0.3499752    0.2075676 -39.53  0.001138368    1.676    0.404
        68 -10.8417    170.8216    216.1855   1.1251587163e+02   3.3941062327e+00    0.3908738    0.2023557 -42.39  0.001676458    2.116    0.527
        69  -9.4986    119.5026    218.4933   1.2391358229e+02   1.2239881287e+01    0.1395034    0.1243389  61.96 0.0008106308    1.011    0.011
        70 -10.1169    179.0928    216.8058   1.1089249453e+02   1.7655152737e+00    0.2348764    0.2038868 -37.89  0.000899387    1.233    0.189
        71  -9.7852    165.4110    215.3518   1.1351615999e+02   4.5504089333e+00    0.2507818    0.1346793 -42.72 0.0009905358    2.051    0.513
        72 -10.2920    143.1104    215.3703   1.1831142229e+02   8.6567643942e+00    0.2364615    0.1986272 -38.23  0.001064043    1.367    0.269
        73  -9.8680    185.5003    214.9978   1.0924202531e+02   9.3640831920e-01    0.1997525    0.1369922 -43.62 0.0007124019    1.557    0.358
        74 -10.3999    131.8296    214.9664   1.2070022374e+02   1.0791674619e+01     0.222807    0.1638683 -23.92  0.001080765    2.002    0.500
        75 -10.2751    154.3237    213.5931   1.1558945990e+02   6.9493099196e+00    0.2650685    0.1791056 -45.81  0.001003746    1.612    0.380
        76 -10.5849    176.7839    210.4727   1.1024434326e+02   3.3850694386e+00    0.3289174    0.2448653 -44.84  0.001463131    1.432    0.302
        77  -9.9371    200.1241    210.3475   1.0540431446e+02  -8.5124758136e-01    0.2380166    0.1763483 -28.68 0.0007541719    1.403    0.287
        78 -10.5834    192.9541    209.5323   1.0670980268e+02   5.8832518795e-01    0.3241269     0.200818 -43.47  0.001171316    1.693    0.409
        79  -9.8984    186.1847    210.5222   1.0828765422e+02   1.6407937933e+00    0.2254268    0.1854466  -8.64 0.0008243429    1.344    0.256
        80 -10.6288    160.9862    210.0573   1.1354102455e+02   6.4156925225e+00    0.3280282     0.208404 -39.59  0.001497241    1.767    0.434
        81  -9.3084    149.2890    211.3449   1.1629978818e+02   8.3393742805e+00    0.1397126    0.1124765  -6.42 0.0004104949    1.654    0.395
        82  -9.7127    124.6882    211.6547   1.2174745858e+02   1.2775743355e+01    0.1371184    0.1135078 -10.73  0.000704614    1.708    0.414
        83 -10.8308    205.9726    207.5397   1.0370480628e+02  -1.3901112644e+00    0.3591931    0.2179913 -33.55  0.001222554    1.712    0.416
        84  -8.9683    167.3252    208.3166   1.1186795905e+02   5.5725895690e+00    0.1441635    0.1112121   1.93 0.0007044185    1.671    0.402
        85  -9.7489    182.9745    206.9872   1.0830533520e+02   2.9010363773e+00    0.2198938    0.1680499  -4.24 0.0008228872    1.612    0.380
        86 -10.2856    172.8846    203.6097   1.0981795678e+02   5.4556693682e+00    0.3531728    0.2205995 -27.10  0.001518692    2.116    0.527
        87 -10.1442    156.3960    206.2555   1.1386779165e+02   8.0489580611e+00    0.2678813    0.1369159 -44.86  0.001127034    2.119    0.528
        88 -10.5936    149.5208    206.0548   1.1534093291e+02   9.3877314504e+00    0.2140971    0.1434839 -51.40  0.001032398    1.591    0.371
        89 -10.7416    197.7659    203.5809   1.0460690443e+02   8.0852132907e-01    0.3875088    0.2337289 -32.48  0.001613416    1.798    0.444
        90 -10.8880    139.6952    204.7102   1.1728623217e+02   1.1515039062e+01     0.261428    0.1753603 -41.51  0.001246161    1.709    0.415
        91 -10.3310    186.7074    202.8894   1.0675737251e+02   2.9876783312e+00    0.3142538    0.2472999 -57.80  0.001293041    1.482    0.325
        92 -10.0005    178.9511    203.5122   1.0850683011e+02   4.3262147771e+00    0.2727171    0.1961398 -28.31  0.001148909    1.586    0.370
        93 -10.9777    210.3643    200.8839   1.0155887636e+02  -9.8001978452e-01    0.4056399    0.2808321 -53.68  0.001382499    1.742    0.426
        94  -9.7388    192.5808    201.9826   1.0536529908e+02   2.0641948714e+00    0.2086115    0.1368148 -44.49 0.0009773301    1.587    0.370
        95 -10.7731    164.9206    201.5045   1.1114985552e+02   7.3980102882e+00    0.2794496    0.2055027 -27.59  0.001369457    1.632    0.387
        96  -9.6073    144.2251    201.7032   1.1575570700e+02   1.1305325071e+01    0.2198635    0.1116788 -41.44 0.0008752826    2.328    0.571
        97 -10.5020    131.4883    201.9635   1.1866052214e+02   1.3634968378e+01    0.2181911    0.1425587 -54.06   0.00103534    1.604    0.377
        98 -10.6465    202.0017    196.9391   1.0246366161e+02   1.2650499407e+00    0.3305906    0.2317294 -44.51  0.001317547    1.473    0.321
        99  -9.7437    191.1454    197.5759   1.0481484921e+02   3.1737176774e+00    0.2644061    0.1702188 -31.38 0.0009356044    1.712    0.416
       100 -10.0286    194.1160    194.1964   1.0353902577e+02   3.2629690672e+00    0.2469947    0.2158027 -54.21   0.00099212    1.267    0.211
       101 -10.2432    176.3496    197.0546   1.0784148878e+02   6.1017106476e+00    0.3384444    0.1742712 -45.76   0.00100015    2.019    0.505
       102 -10.1649    170.1027    197.2949   1.0923649345e+02   7.2592533861e+00    0.2517711    0.2005135 -32.20  0.001046328    1.368    0.269
       103 -10.4628    149.1436    198.0819   1.1401042290e+02   1.1141733753e+01    0.2259164    0.2045847  -6.97  0.001046098    1.285    0.222
       104 -10.7128    184.1372    196.0299   1.0598448185e+02   4.8084473541e+00    0.3496695    0.1981214 -33.99  0.001504493    2.013    0.503
       105 -10.1317    140.4937    196.5116   1.1567817290e+02   1.3135166620e+01    0.1460621    0.1388218  55.00  6.38612e-05    1.030    0.029
       106 -10.1993    219.3351    194.4159   9.8540137838e+01  -1.4167223556e+00    0.2505081    0.1771354 -37.59 0.0009108311    1.375    0.273
       107 -10.4061    209.2590    194.2699   1.0048326947e+02   4.2575776363e-01     0.295286    0.1987229 -37.57 0.0008281093    1.469    0.319
       108 -10.2853    210.2081    188.5852   9.9160673102e+01   1.3073983530e+00     0.298594    0.1848997 -40.13 0.0008980333    1.586    0.369
       109 -10.3145    161.9307    191.5213   1.0993276135e+02   1.0052556789e+01    0.2854426    0.2068103 -32.14  0.001361125    1.593    0.372
       110 -10.6003    146.4590    192.0172   1.1350667772e+02   1.2970661075e+01    0.2233165    0.1462685 -50.25 0.0008003202    1.587    0.370
       111  -9.9736    205.1440    190.5757   1.0057081889e+02   1.8766327912e+00    0.2457252    0.1535338 -37.15  0.001094104    1.599    0.375
       112 -10.3476    198.7781    190.4359   1.0183428659e+02   3.1029278673e+00    0.2813171    0.2211309 -23.13  0.001011009    1.340    0.254
       113 -10.0230    185.4115    190.2139   1.0457452990e+02   5.7174935057e+00    0.2714112    0.1385204 -40.04  0.000970325    2.044    0.511
       114 -10.1212    172.2400    190.4773   1.0745964481e+02   8.2429144368e+00    0.2827374    0.2045374 -45.14  0.001218454    1.426    0.299
       115 -10.2316    178.8957    189.2135   1.0576811823e+02   7.1936195497e+00    0.3181536    0.2062255 -40.68  0.001195993    1.595    0.373
       116 -10.1047    193.1491    187.7712   1.0246174554e+02   4.7007894978e+00    0.2616354    0.2116914 -23.33 0.0008937052    1.306    0.234
       117 -10.1171    156.4190    187.7673   1.1044553561e+02   1.1942581592e+01    0.2103065    0.1407293 -37.41 0.0009469857    1.678    0.404
       118 -10.2169    166.3450    185.5325   1.0778490312e+02   1.0448203593e+01     0.292541    0.1859737 -42.47  0.001100681    1.639    0.390
       119  -9.1849    150.6830    186.3172   1.1146866843e+02   1.3392935482e+01    0.1536251    0.1169914  79.16 0.0007039177    1.653    0.395
       120 -10.7124    203.4532    183.1850   9.9416579959e+01   3.6101201352e+00    0.3545633    0.2449629 -42.47  0.001126272    1.435    0.303
       121  -9.5463    189.5193    184.9026   1.0264178275e+02   5.9780955242e+00    0.2192153    0.1427315 -41.83 0.0008737371    1.547    0.354
       122 -10.2382    139.9974    184.7697   1.1363722972e+02   1.5836406967e+01    0.2195294     0.170537 -26.87  0.001046821    1.619    0.383
       123 -10.9551    210.9102    181.9436   9.7671813416e+01   2.4283494195e+00    0.4453332    0.2181825 -37.90  0.001366252    2.031    0.508
       124  -9.8570    197.2938    182.2823   1.0048866744e+02   4.9780206351e+00    0.2673441    0.1683293 -33.05 0.0008026041    1.684    0.406
       125 -10.4475    183.5309    182.2434   1.0337146507e+02   7.7016871142e+00    0.3258676    0.2319152 -32.46  0.001134332    1.510    0.338
       126 -10.4285    176.5624    181.1093   1.0464556583e+02   9.3324252991e+00    0.3507151    0.1446016 -43.68  0.001267315    2.479    0.597
       127  -9.6887    154.6838    182.6672   1.0984514083e+02   1.3399424679e+01    0.1525875    0.1210246  -5.40 0.0007047098    1.688    0.408
       128 -10.5049    190.9524    178.6884   1.0106636205e+02   6.9466197220e+00    0.3691567    0.2167741 -39.31   0.00127898    1.727    0.421
       129 -10.0822    192.5346    172.8866   9.9520174521e+01   7.8079646631e+00    0.3343356    0.1404828 -38.18  0.001191712    2.551    0.608
       130  -9.4459    145.4934    179.5064   1.1134287661e+02   1.5937980014e+01    0.1495612    0.1468967  46.05 7.478109e-05    1.054    0.051
       131 -10.8940    169.2497    177.2668   1.0547010995e+02   1.1628297915e+01    0.2680922    0.1867288 -42.65 0.0009474974    1.468    0.319
       132 -10.5558    150.4355    177.2395   1.0974401739e+02   1.5456376213e+01    0.2910523    0.1459935 -45.14  0.001130995    2.070    0.517
       133 -10.3699    205.0667    176.4675   9.7702626907e+01   4.6051527215e+00    0.3223937    0.1994768 -38.13 0.0009402527    1.592    0.372
       134 -10.3227    197.7255    176.1227   9.9123728101e+01   6.1163355272e+00    0.3273124    0.1845788 -37.39  0.001122142    1.808    0.447
       135 -10.2536    210.5012    175.0517   9.6324481987e+01   3.8266642215e+00     0.348351    0.1373805 -42.31 0.0009172213    2.453    0.592
       136 -10.1339    182.2719    175.4787   1.0224484852e+02   9.3537749893e+00    0.2896603    0.2055798 -42.48  0.001157885    1.414    0.293
       137 -10.1179    139.4976    176.0049   1.1206198377e+02   1.7925476825e+01    0.2153594    0.1299729 -29.26 0.0008101568    2.505    0.601
       138 -10.1549    101.0007    175.9790   1.2137096327e+02   2.5134654853e+01    0.2109747    0.1911284  85.14 -0.005334738    1.027    0.026
       139 -10.1662    161.4954    174.9899   1.0674638953e+02   1.3706851241e+01    0.2346668    0.1504102 -47.81  0.001030641    1.583    0.368
       140  -9.6886    187.5085    171.9845   1.0038874455e+02   9.0131921370e+00    0.2291656    0.1457271 -41.58 0.0009656615    1.568    0.362
       141 -10.5488    205.1878    169.0201   9.6107143355e+01   6.0475462121e+00    0.3814294    0.2081921 -45.32  0.001367773    1.801    0.445
       142  -9.6425    200.6069    171.2684   9.7510882753e+01   6.5131498662e+00    0.2083108    0.1351791 -31.83  0.000936472    1.634    0.388
       143 -10.9771    218.8232    167.6684   9.3154944060e+01   3.6423043053e+00    0.4900828    0.2952979 -32.50  0.001400873    1.686    0.407
       144 -10.4826    221.1680    161.5293   9.1403321098e+01   4.3638152699e+00    0.3282591    0.2046843 -35.87 0.0009861164    1.541    0.351
       145 -10.8994    223.4108    145.9391   8.7603682204e+01   6.9177500502e+00    0.4365543    0.2977799 -20.05  0.001666219    1.823    0.452
       146 -10.5793    224.2905    139.4837   8.6020953486e+01   7.9815760565e+00    0.3646798    0.1805685 -33.97 0.0009411862    2.127    0.530
       147  -9.8492    221.7981    156.0036   9.0095560465e+01   5.3010258615e+00    0.3087711    0.1526061 -41.88 0.0008066067    1.886    0.470
       148 -10.3095    221.1477    152.0446   8.9355506565e+01   6.1927114995e+00    0.3452059    0.2336613 -26.16   0.00103003    1.630    0.387
       149 -10.0358    158.3765    169.8006   1.0638184056e+02   1.5495678333e+01    0.2224673    0.1425366 -38.12 0.0009477371    1.705    0.413
       150  -9.7192    211.8925    168.8632   9.4746347836e+01   4.7558883751e+00    0.2206725    0.1889178 -15.16  0.000644632    1.206    0.171
       151 -10.5287    178.7865    168.1786   1.0145613463e+02   1.1607980773e+01    0.3487083    0.1949062 -39.12  0.001121237    1.866    0.464
       152  -9.8605    134.3385    169.3282   1.1196422605e+02   2.0492530014e+01    0.1556514     0.124366  -8.61  0.000705179    1.732    0.423
       153  -9.9663    169.6408    168.1900   1.0348153585e+02   1.3509821781e+01     0.222519    0.1410001 -36.99 0.0009460407    1.706    0.414
       154 -10.3242    215.2611    174.7510   9.5330360051e+01   2.9720137941e+00    0.5620418    0.1658386 -37.04  0.001702234    3.819    0.738
       155 -10.6111    191.7388    164.5797   9.7907891811e+01   9.6762204255e+00    0.4289777    0.2265503 -36.33  0.001504336    2.018    0.505
       156 -10.3056    199.4756    164.1262   9.6210104398e+01   8.1793982099e+00     0.373939    0.1431647 -42.90  0.001219654    2.541    0.607
       157 -10.0330    184.6798    164.7220   9.9435278364e+01   1.1112496137e+01    0.2829944    0.1811339 -34.12  0.001179691    1.688    0.407
       158 -11.0959    212.9733    162.2635   9.3123049169e+01   5.8307951962e+00    0.5051376    0.2761264 -37.76  0.002063664    1.783    0.439
       159 -10.5851    205.2950    160.9824   9.4354010370e+01   7.6271180398e+00    0.3819088    0.2453492 -31.10  0.001403361    1.664    0.399
       160  -9.3099    146.3361    162.3254   1.0762415529e+02   1.9679910042e+01    0.1583586    0.1259263  -5.14 0.0007051409    1.719    0.418
       161  -9.3231    132.6917    162.6678   1.1100118486e+02   2.2379281036e+01    0.1548652    0.1247269 -12.81 0.0007041054    1.668    0.400
       162 -10.1987    176.8059    158.5085   9.9783598747e+01   1.4097365243e+01    0.3189712      0.19914 -30.55  0.001309761    1.919    0.479
       163  -9.2567    158.5033    159.4800   1.0414053022e+02   1.7778132493e+01    0.1531856    0.1527292 -89.68 0.0008101882    1.028    0.027
       164 -10.4226    197.1129    156.5469   9.5032841462e+01   1.0213960133e+01    0.3830324    0.2105373 -35.58  0.001558403    1.919    0.479
       165 -10.6144    216.1039    155.9923   9.1162329680e+01   6.4328887135e+00    0.3520118    0.2053963 -38.00 0.0009795823    1.645    0.392
       166 -10.0738    187.5543    155.2679   9.6739991320e+01   1.2497659323e+01    0.3668815    0.1467485 -40.64  0.001258673    2.542    0.607
       167 -10.5152    215.0764    148.3516   8.9677638398e+01   8.1385608069e+00     0.350531    0.2340406 -37.79    0.0010852    1.433    0.302
       168  -9.7201    211.5017    154.9582   9.1818030793e+01   7.5644453587e+00     0.331824    0.1395172 -41.79 0.0008752086    2.259    0.557
       169  -9.7344    211.6103    151.2339   9.0976188870e+01   8.2798840790e+00    0.2419461    0.1673801 -16.65 0.0007890824    1.904    0.475
       170  -9.7995    205.9349    153.7414   9.2637181283e+01   8.9485775248e+00    0.2718444    0.2006094 -18.05 0.0009981358    1.641    0.391
       171  -9.1899    192.4996    153.5261   9.5312130105e+01   1.1810672818e+01     0.151022    0.1466173 -28.62 2.939097e-05    1.023    0.022
       172  -9.2618    171.4696    153.4876   9.9846907853e+01   1.6332827848e+01    0.1542866     0.151148 -16.55 9.937881e-05    1.055    0.052
       173 -10.1377    157.4619    152.0427   1.0273083130e+02   1.9673915189e+01    0.2240279    0.1365455 -24.85 0.0008090667    2.520    0.603
       174  -9.6498    202.3662    150.7931   9.2689417978e+01   1.0287953942e+01    0.2156466    0.1367411 -33.26 0.0008315005    1.657    0.396
       175  -9.9029    196.8281    149.4113   9.3495964742e+01   1.1742050555e+01    0.3053602    0.1930778 -27.13  0.001021603    1.919    0.479
       176  -9.6112    181.6264    149.2425   9.6648825420e+01   1.5050953451e+01    0.2211161    0.1436187 -35.14 0.0009421547    1.640    0.390
       177  -9.4852    191.3461    147.7677   9.4252116684e+01   1.3258091451e+01    0.2179805    0.1393382 -35.09 0.0008665164    1.637    0.389
       178  -9.5443    176.3639    145.7321   9.6990524244e+01   1.6954599299e+01    0.2222932    0.1442792 -35.58 0.0008571009    1.647    0.393
       179 -10.3642    208.0024    144.2360   9.0108877617e+01   1.0425098714e+01    0.3301397    0.2160882 -30.49  0.001069342    1.657    0.396
       180  -9.8386    200.4753    144.5170   9.1651439331e+01   1.1967097331e+01    0.3119498    0.1447257 -41.97  0.001181962    2.074    0.518
       181  -9.8968    218.5620    143.8550   8.8029452958e+01   8.3052052197e+00    0.2721348    0.1364165 -36.87 0.0008959774    1.969    0.492
       182  -9.4618    194.4581    142.9923   9.2518589137e+01   1.3577818476e+01    0.2354118    0.1466229 -41.32  0.000851611    1.561    0.359
       183 -10.0215    214.0855    141.6806   8.8375927412e+01   9.6573822029e+00    0.2922595    0.2050218 -35.11 0.0008866265    1.404    0.288
       184  -9.2218    155.3319    142.3389   1.0100367377e+02   2.2322935582e+01     0.162443     0.128065  -3.06 0.0005349464    1.743    0.426
       185  -9.5072    138.6901    142.6492   1.0511904230e+02   2.5830459369e+01    0.1608824    0.1270257 -10.44 0.0007044515    1.717    0.418
       186  -9.5479    181.5076    140.9909   9.4770534764e+01   1.6838962891e+01     0.243083    0.1509046 -43.85  0.001028098    1.576    0.365
       187  -9.3070    203.4757    140.5248   9.0147777023e+01   1.2135353495e+01    0.1503929    0.1435299 -34.56 0.0003089023    1.042    0.040
       188 -10.3909    218.5818    137.6466   8.6639497189e+01   9.5112595518e+00    0.3713942    0.2529432 -27.74  0.001227036    1.628    0.386
       189 -10.2355    208.7138    137.1762   8.8370961384e+01   1.1685772766e+01    0.3370964    0.1910132 -35.35  0.001176167    1.813    0.448
       190  -9.9127    198.7586    136.3007   9.0106738717e+01   1.4016542790e+01    0.3100893    0.2035369 -32.57  0.001100544    1.634    0.388
       191  -9.2103    172.5009    136.9795   9.5794680725e+01   1.9704920818e+01    0.2212902    0.1390825 -20.92 0.0008095389    2.478    0.596
       192  -9.5318    192.6212    136.2048   9.1321209963e+01   1.5385859840e+01    0.2214536     0.142373 -33.18 0.0009426279    1.680    0.405
       193  -9.6615    215.3119    135.3017   8.6709627963e+01   1.0654655691e+01    0.2542095    0.1372866 -32.82 0.0007917503    2.019    0.505
       194  -9.6144    217.7281    132.6356   8.5665342284e+01   1.0665723979e+01    0.2245702    0.1767287 -21.04 0.0006782594    1.457    0.313
       195  -9.3981    187.5508    134.5354   9.1974885027e+01   1.6859032640e+01     0.153264    0.1487462 -40.89 0.0004063838    1.042    0.040
       196  -9.6061    179.5808    131.2303   9.2873942141e+01   1.9344158138e+01    0.2234037    0.1481173 -32.86 0.0008177369    1.664    0.399
       197  -9.6584    205.7115    130.0511   8.7303026452e+01   1.3757360490e+01    0.2214631    0.1846334 -41.62  0.001024093    1.149    0.129
       198 -10.6843    220.8107    128.1189   8.4092941948e+01   1.0889465932e+01    0.3311452     0.248442 -27.87  0.000972433    1.442    0.307
       199  -9.8953    212.0327    128.2351   8.5700142343e+01   1.2742373188e+01    0.2754311    0.2048001 -41.69 0.0009278592    1.270    0.213
       200  -9.6861    192.5542    128.2382   8.9456523068e+01   1.7042610641e+01     0.217403    0.1461391 -31.46 0.0009438239    1.643    0.391
       201  -9.5523    217.4830    125.0305   8.3979613247e+01   1.2192796441e+01    0.2256525    0.1383364 -39.60 0.0006254441    1.547    0.354
       202  -9.1560    221.3051    123.3384   8.2922960081e+01   1.1701414190e+01    0.1451026    0.1163809  -2.69 0.0007040421    1.675    0.403
       203  -9.6243    179.8366    123.0055   9.0825774007e+01   2.1013766741e+01    0.2540611    0.1843765 -14.33  0.001074021    1.956    0.489
       204  -9.9036    212.6879    121.6702   8.4064916043e+01   1.3882290547e+01    0.2718503    0.1745741 -32.52  0.000971514    1.662    0.398
       205  -9.4981    220.3133    119.8214   8.2293765666e+01   1.2584559317e+01     0.214337    0.1277778 -33.85 0.0007712045    1.748    0.428
       206  -8.9876    203.2935    120.3783   8.5494895260e+01   1.6215208080e+01    0.1531235    0.1209889  -3.36 0.0005697181    1.745    0.427
       207  -8.9780    194.2943    120.3363   8.7219470786e+01   1.8255114990e+01    0.1519103    0.1235066  -0.33 0.0006030924    1.646    0.392
       208  -9.8878    219.8446    114.1829   8.1083001927e+01   1.3755232696e+01    0.2705575    0.1849036 -38.87  0.001149184    1.406    0.289
       209  -9.3772    223.2607    111.3786   7.9868124544e+01   1.3540338869e+01    0.1423581    0.1138695 -10.28 0.0005989983    1.669    0.401
       210  -9.4223    218.5510    108.9520   8.0096927865e+01   1.5021192627e+01    0.1997253    0.1298946 -16.56 0.0008075497    2.465    0.594
       211 -10.4527    222.1389    102.8612   7.8102176373e+01   1.5358251316e+01     0.436998    0.1649131 -49.02  0.001552258    2.652    0.623
       212 -10.6831    224.5502    249.5954   1.0757811425e+02  -1.1081431716e+01    0.2323642    0.2096607 -38.22  0.001247315    1.457    0.314
       213 -11.0684    209.6360    249.0832   1.1029400820e+02  -8.7478425648e+00    0.3188729     0.281902 -18.60  0.001844061    1.228    0.186
       214  -9.8851    225.1628     98.2636   7.6570820668e+01   1.5527291412e+01    0.3397422     0.139068 -48.23  0.001291443    2.330    0.571
       215 -10.6173    225.1202     92.5538   7.5276218572e+01   1.6553124707e+01    0.2239049    0.1895997 -30.03 0.0005723124    1.332    0.249
       216 -10.0491    225.4793     81.0994   7.2617698264e+01   1.8452588073e+01    0.2137027    0.1305371 -40.38  0.001022863    1.572    0.364
       217  -9.5385    223.3880     75.7644   7.1703730529e+01   1.9814725280e+01    0.1869994    0.1307079 -31.56 0.0006903324    1.626    0.385
       218 -11.0258    191.5102    248.4561   1.1368089148e+02  -5.7689119215e+00    0.3580495    0.3159738  83.20  0.002284969    1.609    0.379
       219  -9.4756    112.6998    246.6636   1.2908695571e+02   7.7515895046e+00    0.1169338    0.1022367  -1.28 0.0007034852    1.659    0.397
       220  -9.2770    222.0000     70.9500   7.0801700839e+01   2.0917904725e+01    0.2209162   0.07469082 -38.31 0.0007892887    2.852    0.649
       221  -9.3112    151.4801    245.5193   1.2117492770e+02   1.4399769642e+00    0.1320201    0.1127952  45.43 9.497818e-05    1.020    0.020
       222 -11.2172    225.2236    242.9657   1.0634085644e+02  -1.0243269553e+01    0.3030702    0.2682899 -18.43  0.001290632    1.236    0.191
       223  -9.8029    103.5079    243.9867   1.3058827320e+02   9.7535525048e+00    0.1633012    0.1067256 -36.75 0.0008100669    2.502    0.600
       224 -10.5061    201.8450    242.1722   1.1065593238e+02  -6.4720109321e+00    0.2628441    0.2063331 -49.76  0.001424628    1.598    0.374
       225 -11.0663    242.3899    247.6782   1.0400163515e+02  -1.3376153109e+01    0.2842309    0.2171388 -24.55  0.001026559    1.311    0.237
       226 -10.6048    239.9525    240.3472   1.0318573666e+02  -1.2033374452e+01    0.2731331    0.2147579 -49.93  0.001182783    1.832    0.454
       227  -9.9534    169.1443    242.1319   1.1711844633e+02  -9.9792166248e-01    0.1995384    0.1711055  13.72 0.0009126695    1.218    0.179
       228 -11.2214    233.1703    246.6994   1.0550601693e+02  -1.1939078678e+01    0.3156897    0.2759812  -3.05  0.001225411    1.166    0.143
       229 -10.5168    175.9479    246.5914   1.1644719085e+02  -2.8971155240e+00    0.2925574    0.1916421 -45.03  0.001627706    1.765    0.433
