#   1 NUMBER                 Running object number                                     
#   2 MAG_AUTO               Kron-like elliptical aperture magnitude                    [mag]
#   3 X_IMAGE                Object position along x                                    [pixel]
#   4 Y_IMAGE                Object position along y                                    [pixel]
#   5 X_WORLD                Barycenter position along world x axis                     [deg]
#   6 Y_WORLD                Barycenter position along world y axis                     [deg]
#   7 A_WORLD                Profile RMS along major axis (world units)                 [deg]
#   8 B_WORLD                Profile RMS along minor axis (world units)                 [deg]
#   9 THETA_WORLD            Position angle (CCW/world-x)                               [deg]
#  10 FWHM_WORLD             FWHM assuming a gaussian core                              [deg]
#  11 ELONGATION             A_IMAGE/B_IMAGE                                           
#  12 ELLIPTICITY            1 - B_IMAGE/A_IMAGE                                       
         1 -13.5195     55.5623    146.0233   1.0982654745e+02   3.8511867034e+01     4.963806    0.8717323 -67.10   0.01436038    5.159    0.806
         2 -14.7772     68.6548    144.2874   1.0606234920e+02   3.7214077649e+01      5.62925     2.044978  57.02  0.003079416    4.410    0.773
         3 -14.5022    199.6547     36.8275   4.8223312424e+01   3.0650738302e+01     2.250888     1.526656  26.34  0.007787442    1.974    0.494
         4 -14.4578    211.7250     24.3250   4.3402793120e+01   2.9264366828e+01     1.444723     1.022452   5.89  0.007456759    1.819    0.450
         5 -12.9067      2.3210     22.4154   1.0717976983e+02   7.3834828327e+01     2.148177    0.1758844 -66.09  0.004793451    9.183    0.891
         6 -13.3776      2.6307      6.4777   9.9792068033e+01   7.7244126303e+01     1.204378    0.8229244 -54.42  0.007591342    1.254    0.203
         7 -12.0802    236.1793      2.1643   3.5791911070e+01   2.6035744306e+01    0.6405545    0.2536514  80.85  0.002801837    2.789    0.642
         8  -9.7019     34.3731    227.9332   1.2106073001e+02   2.4150297348e+01    0.1757928    0.1213974  39.26 0.0005781193    1.305    0.234
         9 -10.9640    139.7992    249.5206   1.0339823143e+02   8.3539657884e+00    0.1856975    0.1847767 -41.59  0.001656573    1.351    0.260
        10 -12.9908     14.1564    189.9932   1.2335622288e+02   3.3194696157e+01    0.4716163    0.3576058 -70.41  0.002643108    1.505    0.336
        11 -13.3534     47.4082    222.1531   1.1827012073e+02   2.3783558187e+01     0.936237    0.5291168  69.61  0.001292705    1.649    0.394
        12 -14.0476     85.7129    229.4398   1.1140898780e+02   1.8087037553e+01     1.704128     1.024626  40.21  0.005803348    1.307    0.235
        13  -9.9915    113.2528    207.6104   1.0383704747e+02   1.8061049812e+01    0.1846506    0.1627421 -75.65 0.0007188918    1.322    0.243
        14 -11.7802    192.4333    193.5265   8.6620587462e+01   8.4854103093e+00    0.5924016    0.3746241 -64.69   0.00257848    4.445    0.775
        15 -14.5991     10.5289    206.3541   1.2475625432e+02   3.0325323064e+01    0.7577245    0.4865172  22.39  0.002477338    1.927    0.481
        16 -14.1095     53.2628    193.5302   1.1510824283e+02   2.8468657666e+01     1.163537    0.8464163  54.19   0.00667804    1.124    0.111
        17  -9.8262    107.9673    203.6957   1.0446174750e+02   1.9472875918e+01    0.1737868    0.1339407  43.77 0.0005012057    1.093    0.085
        18 -11.0334    208.8290    198.1985   8.4562179470e+01   5.4907018978e+00    0.2016045    0.1750032  24.72 0.0008285333    1.272    0.214
        19 -10.4358    112.5572    197.8588   1.0281310517e+02   1.9842300998e+01     0.249286    0.1321148  50.22 0.0007113972    1.813    0.448
        20 -15.9344     63.6644    247.1799   1.1673135269e+02   1.7888938419e+01     8.948276     2.629355  25.97  0.007117738   10.204    0.902
        21 -15.4600      2.4556    200.1340   1.2615925029e+02   3.2204526233e+01     7.035604          nan -75.08   0.01808496   11.612    0.914
        22  -8.8810     97.4713    190.4774   1.0512977795e+02   2.3351999050e+01    0.1219281    0.1087534  45.98 0.0008084367    1.075    0.070
        23  -9.0879     75.8585    190.6066   1.0988356954e+02   2.6267915304e+01     0.172085   0.08998233  47.77   0.00045754    1.640    0.390
        24  -8.6348     94.2735    186.6797   1.0537600766e+02   2.4530567626e+01    0.1259365    0.0856624  66.37 0.0005143487    1.571    0.363
        25  -9.7216     71.6516    186.0859   1.1036180788e+02   2.7710127573e+01    0.1932791    0.1393967  54.29  0.000301618    1.192    0.161
        26  -9.1922    154.3172    185.6643   9.2516353517e+01   1.5557157328e+01     0.121594   0.09678935  69.27 0.0007048302    1.697    0.411
        27 -10.7200    146.7559    183.3858   9.3680883146e+01   1.7138696411e+01    0.2583779     0.198962  64.58  0.001509124    1.631    0.387
        28 -10.0008    197.5557    222.9967   9.0228227862e+01   4.0480969838e+00    0.1649256    0.1201064  24.03 0.0004733044    1.093    0.085
        29 -10.2722     99.4291    180.7825   1.0348760002e+02   2.4936285610e+01    0.2264673    0.1879942  26.52 0.0006650712    1.298    0.230
        30 -12.1692     68.2941    177.3416   1.1022481293e+02   2.9935001254e+01    0.3857163    0.2696841 -35.00  0.002126459    2.145    0.534
        31 -12.1399     72.8959    172.2725   1.0858056295e+02   3.0400150421e+01    0.2876748    0.2419874 -47.86  0.001033228    1.446    0.309
        32 -10.2205     39.5498    177.3633   1.1693356710e+02   3.3324214750e+01    0.2436734    0.1572246  60.23 0.0006251796    1.314    0.239
        33 -11.4116    140.9624    174.2840   9.3417322230e+01   1.9660643422e+01    0.4668739    0.3330852  82.39  0.002358585    2.277    0.561
        34  -9.6592     84.1708    174.5166   1.0618926332e+02   2.8388915178e+01    0.2995249    0.1475595 -45.95  0.001048264    2.653    0.623
        35 -11.0546    172.0731    240.6941   9.6858617951e+01   5.3047555579e+00     0.375737    0.2264212 -62.42  0.002127935    3.630    0.725
        36 -12.5412     81.6205    162.5879   1.0526390092e+02   3.1276862684e+01    0.6453246    0.3498456  54.42 0.0005452043    1.862    0.463
        37 -13.6825     69.6327    158.2450   1.0768662914e+02   3.3892307591e+01    0.5774001    0.4746128 -39.51  0.003437552    1.543    0.352
        38  -8.9478    111.5328    217.5229   1.0528261444e+02   1.6663601123e+01    0.1161499    0.0945183  43.56 0.0001431273    1.009    0.009
        39 -10.0252    159.9730    163.4837   8.7561284284e+01   1.8355477359e+01    0.2371906    0.1902802 -64.45 0.0008188371    1.608    0.378
        40 -13.0946     88.4710    155.5920   1.0257174354e+02   3.1802023878e+01     1.805681    0.9490746 -74.56  0.001955622    2.363    0.577
        41 -11.2588    133.5659    143.9447   8.9554005967e+01   2.6720187014e+01     1.120696    0.2694078 -53.80  0.002765975    6.511    0.846
        42 -10.5884    174.2908    148.5525   8.1755785142e+01   1.8380672626e+01    0.3324211    0.2538833 -58.21  0.001789802    1.668    0.400
        43 -11.3273     38.8350    145.9996   1.1434391265e+02   4.0444872970e+01    0.3825617    0.2914871  36.10 0.0008298609    1.396    0.284
        44  -9.4782     36.9131    140.5045   1.1430186778e+02   4.1953209527e+01    0.1780384    0.1506871  67.84 0.0003643226    1.079    0.073
        45  -8.7033     38.7278    137.7282   1.1349443529e+02   4.2427655802e+01    0.1931546    0.1432983 -68.60 -0.000275831    1.286    0.223
        46 -10.0711     83.9193    143.3048   1.0183207887e+02   3.5242896298e+01    0.2790753    0.1801817  57.06 0.0007971991    1.593    0.372
        47 -11.0628    102.3552    140.4462   9.6518860476e+01   3.2948419379e+01    0.5207649    0.3359824 -25.74  0.002246117    2.516    0.603
        48 -12.4922     89.6334    140.6380   9.9874058108e+01   3.4971368294e+01    0.2634469    0.2457315 -61.14 0.0005646347    1.133    0.117
        49 -10.5884     42.0541    134.6517   1.1219428061e+02   4.2810409890e+01    0.3379453    0.1613604  87.70  0.001422289    2.460    0.593
        50 -11.1437     34.1574    166.2023   1.1735271290e+02   3.6313888163e+01      0.48133    0.2227223  48.15  0.002483997    1.850    0.460
        51 -12.2883     44.5443    129.3922   1.1081326889e+02   4.3814628348e+01    0.4232791    0.3444714  34.15  0.002429496    1.367    0.268
        52 -10.4110    106.0000    130.7435   9.3695694931e+01   3.4488815154e+01    0.3376391    0.2894124  85.90   0.00125365    1.237    0.191
        53 -11.8270     32.0316    130.0671   1.1457636188e+02   4.4977214247e+01    0.4333829     0.190134 -59.10  0.001981274    2.152    0.535
        54 -11.6274    136.0317    127.5503   8.5495248607e+01   2.9591558810e+01    0.6759775    0.2245594 -51.49  0.002161096    3.450    0.710
        55 -10.3225    111.5870    130.6910   9.2231133780e+01   3.3508599241e+01    0.3007761    0.2414579  10.63 0.0007303388    1.605    0.377
        56 -10.0809    160.7231    127.4837   7.9940566107e+01   2.4732663415e+01    0.3068659    0.1688281 -52.58  0.001286246    2.140    0.533
        57 -11.1383     98.7152    126.8874   9.4857615627e+01   3.6628652840e+01    0.2938876    0.2553129 -10.15  0.001019681    1.452    0.311
        58 -11.2676    118.8694    123.5406   8.8817134793e+01   3.3736469301e+01    0.5595424    0.3627861  -9.35  0.002076193    3.214    0.689
        59 -12.3367     25.5360    120.3533   1.1546572132e+02   4.7990270131e+01    0.3892805    0.3047169  47.17  0.002297568    1.312    0.238
        60 -10.0151    107.8846    119.4021   9.0771075173e+01   3.6703930608e+01    0.2138892    0.1923553 -73.62 0.0003206832    1.107    0.097
        61 -12.6066     23.3376    115.8911   1.1565865193e+02   4.9298268762e+01    0.4278278    0.3394357  48.71  0.002634885    1.300    0.231
        62  -9.8859    230.2868    166.3361   7.5432066924e+01   6.3659589474e+00    0.1250933    0.0798278   1.65 0.0002854881    1.629    0.386
        63  -9.7927    168.4235    113.1073   7.4880152298e+01   2.5816382808e+01    0.3137376    0.2353516 -68.99  0.001186801    1.808    0.447
        64 -10.6985    134.5509    104.8022   8.0299223621e+01   3.4596130202e+01    0.5103357    0.1437629 -43.84  0.001517899    3.449    0.710
        65 -11.9806     19.2818    110.2008   1.1633076249e+02   5.1067006371e+01    0.5324414    0.2509189 -54.59  0.002515136    2.086    0.521
        66 -11.3977    118.4915    106.4903   8.4826039568e+01   3.7543223721e+01    0.5730069    0.2303435 -39.16  0.001919381    2.902    0.655
        67 -10.2016    205.4810    110.2369   6.7375362902e+01   1.8700832738e+01    0.2783433    0.2156209  33.72 0.0009968841    1.377    0.274
        68 -11.6301     45.3057    105.7517   1.0702652747e+02   4.9629520874e+01    0.3032418    0.2204842  54.77  0.000842304    1.418    0.295
        69 -11.0612    241.1568    100.5717   5.9853292518e+01   1.3303922182e+01    0.3239079    0.1061036 -40.38  0.001247672    2.840    0.648
        70 -10.3621     33.9083    100.2240   1.1001515799e+02   5.2268636009e+01    0.2111671    0.1691696  78.06 0.0007433703    1.199    0.166
        71 -10.9084     53.2833     91.6463   1.0149208746e+02   5.2206824426e+01    0.5102089    0.2208795 -68.34  0.001968115    2.360    0.576
        72 -10.4651     41.7417     91.9392   1.0573431149e+02   5.3540891944e+01    0.2124064     0.198391  54.59 0.0004795428    1.180    0.153
        73 -14.2197     30.6727    247.4946   1.2256539833e+02   2.1304599789e+01    0.7481086    0.6187764   2.56  0.006048991    1.983    0.496
        74 -10.0143    158.4613     81.0485   6.8169384141e+01   3.3870942669e+01    0.2333053    0.1443452 -35.28 0.0005047743    1.538    0.350
        75  -8.8295    184.3588     77.2934   6.2239489008e+01   2.8486758139e+01    0.1512305    0.1123074  18.12 0.0005987762    1.696    0.411
        76  -9.1200     56.4741     66.4689   9.3636303508e+01   5.7953694981e+01    0.1440708    0.1297715 -61.36 0.0001540207    1.037    0.036
        77  -8.7955     63.6828     63.6874   8.9868834027e+01   5.7494842857e+01    0.1470815    0.1095142 -22.88 0.0007035339    1.644    0.392
        78 -10.5386     13.4929     59.7983   1.1092729971e+02   6.4243529343e+01    0.2313986    0.1993673 -73.42  0.000395911    1.059    0.056
        79 -12.3660    190.8035     43.3271   5.1234814554e+01   3.1953535098e+01    0.6708436    0.5364145  33.51  0.001025015    1.467    0.318
        80  -9.6647    106.9461    210.4413   1.0542771662e+02   1.8458579880e+01    0.1811407   0.09709817  38.26 0.0005917745    1.547    0.354
        81  -9.3696     43.5071    236.4474   1.1978489616e+02   2.1775308342e+01    0.1041363   0.07867388  52.87 3.128775e-05    1.062    0.058
        82  -9.1723     67.5726     51.8690   8.4048505566e+01   5.9470762945e+01    0.1957137    0.1311056 -58.15 0.0004594767    1.578    0.366
        83 -10.1506    147.0662     43.3642   5.8096107366e+01   4.2937911680e+01    0.2754648    0.2079918 -39.46 0.0003935898    1.260    0.206
        84 -16.6117      8.9512    241.5401   1.2613473151e+02   2.4296083199e+01     6.790584     1.364025 -79.27   0.03153287    4.864    0.794
        85 -14.5604     45.3502    204.1148   1.1755850850e+02   2.7302923827e+01     2.786377    0.9796348  54.98  0.008977285    2.534    0.605
        86 -11.5608    144.8301     49.4538   6.0696875334e+01   4.2572662491e+01    0.5737545     0.347702 -71.78  0.001701663    2.530    0.605
        87  -9.2724    189.7008     14.9800   4.2651264801e+01   3.5573782464e+01    0.2003878    0.1644343 -35.53 0.0005339803    1.126    0.112
        88 -10.2887     14.0100     31.9805   1.0296002683e+02   7.0875144286e+01    0.1862892    0.1475293  73.86 0.0006162121    1.615    0.381
        89  -8.5241    115.5011     31.4296   6.0126237300e+01   5.2694247804e+01    0.1462344    0.1433762 -41.76 0.0001713326    1.022    0.022
