#   1 NUMBER                 Running object number                                     
#   2 MAG_AUTO               Kron-like elliptical aperture magnitude                    [mag]
#   3 X_IMAGE                Object position along x                                    [pixel]
#   4 Y_IMAGE                Object position along y                                    [pixel]
#   5 X_WORLD                Barycenter position along world x axis                     [deg]
#   6 Y_WORLD                Barycenter position along world y axis                     [deg]
#   7 A_WORLD                Profile RMS along major axis (world units)                 [deg]
#   8 B_WORLD                Profile RMS along minor axis (world units)                 [deg]
#   9 THETA_WORLD            Position angle (CCW/world-x)                               [deg]
#  10 FWHM_WORLD             FWHM assuming a gaussian core                              [deg]
#  11 ELONGATION             A_IMAGE/B_IMAGE                                           
#  12 ELLIPTICITY            1 - B_IMAGE/A_IMAGE                                       
         1 -14.6888      2.9304     86.6403   1.3655353454e+02   5.7442279600e+01     4.617039    0.9357527 -70.22   0.01317142    6.673    0.850
         2 -14.6090      6.2914    149.1424   1.4385128455e+02   4.3350414705e+01      3.54402     1.332243 -83.23   0.01565888    2.662    0.624
         3 -13.5067    200.3591     28.2518   6.5514405332e+01   3.1807940484e+01     1.398091     1.249521  46.86   0.00711687    1.328    0.247
         4 -13.5386    216.0983     10.2371   5.9571656964e+01   3.0106355463e+01    0.9333632    0.7756303  71.04  0.002763364    1.219    0.179
         5 -12.0626      3.9625      3.4710   1.1265572393e+02   7.2184661170e+01    0.5330235    0.2730195   9.76  0.003563468    1.841    0.457
         6 -10.8787    157.0585    249.7300   1.2325768554e+02   2.4735029486e-01    0.2947429    0.1823713  23.41  0.001479791    1.974    0.493
         7 -12.3167    247.0188    248.7743   1.0575294763e+02  -1.4176417559e+01    0.6990089    0.4880393   2.23   0.00454151    1.274    0.215
         8 -12.4152    238.0460    247.9769   1.0725785045e+02  -1.2780465105e+01    0.8085284    0.4117699  13.37  0.003785324    2.602    0.616
         9 -13.3902     34.3632    245.9236   1.4615043866e+02   1.9778801023e+01       1.7084    0.6118911  41.00  0.008810879    2.476    0.596
        10 -12.6229      4.8051    248.7446   1.5116573393e+02   2.2526531881e+01     1.116501    0.5743866  32.27  0.006909631    2.633    0.620
        11 -11.9009      4.6807    241.4690   1.5082001025e+02   2.3903669961e+01    0.6669359    0.3533225  33.88  0.004242247    2.363    0.577
        12 -10.6850    189.9896    245.9899   1.1614684945e+02  -4.8324920050e+00    0.1619516    0.1341508  29.08 0.0006226216    1.011    0.011
        13 -10.3466     65.5603    249.4049   1.4090281912e+02   1.5054428681e+01    0.2418027    0.1551576  67.75  0.000596056    1.288    0.224
        14 -13.1448      7.1117    228.9404   1.4974094580e+02   2.6086806670e+01     1.542961    0.6900361  64.86  0.009069469    1.860    0.462
        15 -11.6531    124.6195    250.1196   1.2974350806e+02   5.7376227749e+00    0.5291016    0.1488117  41.92  0.002001445    2.874    0.652
        16 -10.6608    183.3099    238.9684   1.1636882264e+02  -2.5806068583e+00    0.1812735    0.1642062  20.74 0.0005926908    1.099    0.090
        17 -10.9990     52.7759    237.5469   1.4224617717e+02   1.9095842069e+01    0.2274352    0.1937837  37.66  0.001026191    1.551    0.355
        18 -11.1842    139.6378    250.0876   1.2677144235e+02   3.1917996695e+00    0.4224858    0.1431101  42.21  0.001725698    2.387    0.581
        19 -13.0555     43.8921    214.0339   1.4191340531e+02   2.5085961799e+01     1.027175    0.6769984 -82.22  0.005173018    1.325    0.245
        20 -13.0621     28.7973    231.5670   1.4613863982e+02   2.3245517053e+01    0.3147595    0.2714133 -83.91 0.0007680996    1.366    0.268
        21 -14.1777     33.6806    225.3125   1.4479690289e+02   2.3948053040e+01    0.8530768    0.6019478  69.62  0.002378266    1.111    0.100
        22 -12.3072    112.4623    231.5052   1.2987493735e+02   1.1269647676e+01    0.6302071    0.2013902  47.45   0.00239401    2.710    0.631
        23 -12.6973     92.4034    227.7014   1.3353726090e+02   1.5326594516e+01     1.229684    0.1986014  46.99  0.003494718    5.161    0.806
        24 -10.3841     77.2322    217.6060   1.3550865267e+02   1.9775203021e+01    0.3844169    0.1386274  55.44  0.001464633    3.030    0.670
        25 -11.6233     58.0942    212.3368   1.3889333316e+02   2.3624688182e+01    0.7791695    0.2368983  57.82  0.002492872    4.786    0.791
        26  -8.7493    152.4845    213.0064   1.1860259730e+02   7.7151411060e+00    0.1864643    0.1436058 -52.38  0.000359768    1.457    0.314
        27 -12.4948      9.6358    206.9592   1.4792650107e+02   3.0324155928e+01    0.6267551    0.4267043  34.42  0.002709544    1.814    0.449
        28 -10.7869     55.4820    205.2030   1.3869834175e+02   2.5531932992e+01    0.2275057     0.165314  49.78 0.0009679666    1.322    0.243
        29 -11.7831     56.8105    198.2193   1.3766372682e+02   2.6914122240e+01    0.2913493    0.2359056 -81.68 0.0004804652    1.129    0.114
        30 -11.8138     38.6514    197.8558   1.4147564286e+02   2.9242885848e+01    0.8514029    0.3122334  67.12  0.002895165    4.617    0.783
        31  -9.7223    192.1439    193.5798   1.0644331837e+02   3.7681592258e+00    0.4776252    0.2389688 -62.71  0.001427563    4.912    0.796
        32 -11.4135      7.4427    192.4783   1.4732443180e+02   3.3612793130e+01    0.3646293    0.1971856  80.69 0.0008004636    1.601    0.375
        33 -12.0522     63.5796    189.7330   1.3517518749e+02   2.7937224338e+01    0.2746102    0.2458014 -75.65 0.0005118052    1.184    0.155
        34 -11.4541    198.7654    247.4855   1.1465714640e+02  -6.5315711414e+00    0.3779207    0.2294678 -28.96  0.002049749    1.966    0.491
        35 -13.2545     60.8739    174.8798   1.3388725261e+02   3.1771277387e+01    0.5396185    0.2785726 -47.13   0.00184076    2.318    0.569
        36  -9.6574     94.1210    171.2926   1.2520891505e+02   2.7645160927e+01    0.2465035    0.2049603  76.29 0.0004920011    1.181    0.153
        37 -11.8546     82.2312    167.9631   1.2762969612e+02   3.0354398852e+01    0.6133096    0.5573723 -44.59  0.003559374    1.268    0.211
        38  -8.9672     93.5181    167.4576   1.2470570018e+02   2.8662041932e+01    0.1470506    0.1323441  82.65 0.0001063202    1.037    0.036
        39 -12.3293      2.1385    130.4630   1.4288385552e+02   4.7849797635e+01     1.688694    0.2611859 -69.76  0.005728006    4.263    0.765
        40 -10.5730     95.5965    152.2523   1.2139459090e+02   3.1974782438e+01    0.3238607    0.2930167 -67.21 0.0007914457    1.062    0.059
        41 -12.0552     84.0348    151.1103   1.2425346576e+02   3.4143726311e+01      0.31127    0.2529811 -46.66 0.0006195851    1.286    0.222
        42  -9.2854     98.7316    148.0600   1.1973466818e+02   3.2446922400e+01    0.2050394    0.1830565 -59.11  0.000267299    1.094    0.086
        43 -12.0707     67.9909    142.9952   1.2711220649e+02   3.8473103702e+01    0.6106108    0.4379166 -88.04  0.002060313    1.548    0.354
        44 -11.0503     64.6767    141.6843   1.2778599162e+02   3.9237899949e+01    0.3360937    0.2424461 -43.76 0.0009493352    1.459    0.314
        45  -9.8868    108.1278    137.3005   1.1491569436e+02   3.3331782738e+01    0.4489015    0.2979251 -20.50  0.001756507    2.406    0.584
        46 -10.5977     95.0515    134.5135   1.1792432420e+02   3.6341737089e+01    0.2618666     0.217024 -48.19 0.0003885012    1.185    0.156
        47 -10.6410     25.2140    128.2127   1.3647083532e+02   4.6701836361e+01    0.2308397    0.1749601  79.33 0.0007866046    1.409    0.290
        48  -9.2048    105.7324    123.9205   1.1250533524e+02   3.6934922901e+01    0.2009579    0.1846919 -57.52 0.0002735035    1.065    0.061
        49  -9.8445     77.6993    121.7623   1.2013719219e+02   4.2167613826e+01    0.2478786    0.2111192  64.34 0.0005931153    1.313    0.238
        50  -9.1959     64.6395    120.3739   1.2371570177e+02   4.4334541272e+01    0.1921687    0.1505666  75.58 0.0005616523    1.544    0.353
        51  -8.5306     68.3589    114.7049   1.2138202645e+02   4.5160432582e+01    0.1404162    0.1066027  73.28 0.0007032088    1.701    0.412
        52  -9.4794     46.7659     99.4412   1.2478078102e+02   5.1270846952e+01    0.2282516    0.1902584  75.62  0.001363817    1.510    0.338
        53 -12.1906    243.6550     91.7696   7.4347231205e+01   1.2059095241e+01    0.5649343    0.3323882 -47.18  0.002721016    1.545    0.353
        54  -9.1747     64.0380     79.9938   1.1410367220e+02   5.3363183941e+01    0.1872887    0.1630543  79.01 0.0004886508    1.591    0.372
        55  -9.8881    158.9941     77.4774   8.5957846988e+01   3.4853839286e+01    0.2373844    0.1460437  53.76 0.0004666408    1.549    0.354
        56 -12.0793      2.8251     49.3317   1.2874111696e+02   6.4889272480e+01    0.3655337    0.2307453 -53.73  0.001642173    1.315    0.239
        57 -10.6598    162.1424    249.1832   1.2216713173e+02  -5.4329749659e-01    0.2049154     0.164444  25.79    0.0010151    1.239    0.193
        58 -11.6150     99.8210    245.6926   1.3408725040e+02   1.0618320897e+01    0.2735078    0.2350072 -82.67  0.001234026    1.266    0.210
        59 -10.8816     74.5306    176.8902   1.3089438683e+02   2.9386080358e+01    0.2491661    0.2193546 -86.78 0.0004072658    1.033    0.032
        60 -11.1986    216.4895    248.5067   1.1139469927e+02  -9.5562507457e+00    0.2750949    0.1042394  38.30  0.001230368    2.233    0.552
