#   1 NUMBER                 Running object number                                     
#   2 MAG_AUTO               Kron-like elliptical aperture magnitude                    [mag]
#   3 X_IMAGE                Object position along x                                    [pixel]
#   4 Y_IMAGE                Object position along y                                    [pixel]
#   5 X_WORLD                Barycenter position along world x axis                     [deg]
#   6 Y_WORLD                Barycenter position along world y axis                     [deg]
#   7 A_WORLD                Profile RMS along major axis (world units)                 [deg]
#   8 B_WORLD                Profile RMS along minor axis (world units)                 [deg]
#   9 THETA_WORLD            Position angle (CCW/world-x)                               [deg]
#  10 FWHM_WORLD             FWHM assuming a gaussian core                              [deg]
#  11 ELONGATION             A_IMAGE/B_IMAGE                                           
#  12 ELLIPTICITY            1 - B_IMAGE/A_IMAGE                                       
         1 -16.5829    226.0091     82.6439   5.9641448177e+01   1.7072471514e+01     3.453413     1.938853  33.34   0.01362498    2.605    0.616
         2 -18.0593    245.9330     60.9480   5.1501831984e+01   1.5816491152e+01     10.25025      5.34174 -21.05   0.02813553    2.384    0.581
         3 -17.1482    224.5331     70.2419   5.6649787837e+01   1.9391252426e+01     3.333938     2.369078 -83.31   0.01591439    1.725    0.420
         4 -15.9833    140.1359     12.1863   5.2532053015e+01   4.8756894801e+01     5.438773     2.109568  63.25   0.02131823    2.316    0.568
         5 -10.1514    204.0093      9.9765   4.3094105810e+01   3.2518343329e+01    0.1994021    0.1506179  43.64 0.0003210419    1.529    0.346
         6 -10.7145    200.5525     11.4967   4.3872450741e+01   3.3236889292e+01    0.3604952    0.2414577  -8.67  0.001451919    1.943    0.485
         7 -11.9451    194.9430     12.8090   4.4859096387e+01   3.4534262746e+01    0.5277007    0.2488276 -64.55  0.002038043    2.754    0.637
         8 -12.1311    199.5715     19.7370   4.6265519443e+01   3.2583924449e+01    0.5768671    0.3688804 -23.58  0.002835791    1.728    0.421
         9 -12.6502    184.5059     10.5095   4.5422974975e+01   3.7467765303e+01    0.5270649    0.3434357  64.67  0.001396103    1.402    0.287
        10 -11.8110    198.3090      6.5885   4.2760988842e+01   3.4312641416e+01    0.4141312    0.2566828 -35.86  0.002118543    1.617    0.382
        11 -12.9293      4.6804      3.9477   9.6527813134e+01   7.3739836352e+01    0.4420093    0.2779783  -8.08  0.003071697    1.499    0.333
        12 -10.5532    214.1713    207.8595   8.9747086129e+01  -9.5526620973e-01    0.1859919    0.1661993  37.07 0.0007786314    1.241    0.194
        13 -10.6160    207.4917    207.2957   9.0876949520e+01   2.7910866262e-01    0.2459525     0.207719 -87.03  0.001107727    1.942    0.485
        14 -11.1445    198.0986    203.7927   9.2022138584e+01   2.4568014457e+00     0.327067    0.2516804 -53.56  0.001886353    1.711    0.416
        15 -11.0121    211.5294    201.3172   8.9060841181e+01   4.4200184732e-01    0.2454323    0.2098642 -75.73  0.001285614    1.847    0.459
        16 -10.3557    202.9929    197.3017   8.9928708780e+01   2.5686087054e+00    0.2246334    0.1927714 -69.94   0.00131961    1.681    0.405
        17 -10.6257    178.0341    198.0541   9.4910141044e+01   7.0343543326e+00    0.2129723    0.1646783  74.19  0.001136115    1.786    0.440
        18 -10.0785    185.4957    213.9469   9.6140420056e+01   3.1483040820e+00    0.1764282    0.1287474 -39.54 0.0007794379    1.587    0.370
        19 -14.4295    236.1044    196.7214   8.3778754899e+01  -3.1332280829e+00     1.603426    0.9606014  63.55  0.006467509    4.145    0.759
        20 -11.0245    147.9908    195.4869   1.0057918544e+02   1.3057730042e+01    0.2170539    0.1212081  43.97 0.0009561426    1.591    0.371
        21 -10.3301    204.0027    211.5178   9.2256376481e+01   2.7598224643e-01      0.22102    0.1786631 -53.51  0.001081969    1.686    0.407
        22 -10.9887    187.0349    193.6722   9.2350786877e+01   6.0873569651e+00    0.3228726    0.2300753 -74.90  0.001535994    2.479    0.597
        23 -13.4951    244.4919    191.9928   8.1426591284e+01  -3.8860951440e+00    0.8881771    0.7476554 -81.61  0.005141877    2.299    0.565
        24 -10.1825    199.4328    191.7444   8.9581424507e+01   4.0908729289e+00    0.2398474    0.1296303 -44.69  0.001121583    2.126    0.530
        25 -12.4185    218.6504    209.1312   8.9158061858e+01  -1.8942151022e+00    0.4551874    0.2176222 -25.67  0.002113209    2.540    0.606
        26 -10.4770    179.5104    191.0156   9.3363668861e+01   7.9507335239e+00    0.1950738    0.1369429 -43.84   0.00102667    1.585    0.369
        27 -11.1617    172.8169    191.3084   9.4766255911e+01   9.1677160167e+00    0.2212124    0.1648928  56.82 0.0009388505    1.431    0.301
        28 -12.4893    242.8479    181.2708   7.9607728904e+01  -2.1329064816e+00     0.554116    0.3215937 -43.18  0.002669082    2.051    0.512
        29 -12.0496    231.3516    186.9549   8.2742186861e+01  -9.5324819488e-01    0.2351615    0.2171612  30.45  0.001034414    1.256    0.204
        30 -11.7743    167.1273    186.8381   9.5127441883e+01   1.1048989870e+01    0.2130584    0.1857022  64.46 0.0007058023    1.239    0.193
        31 -11.2506    140.3959    186.2175   1.0064838722e+02   1.6228727478e+01    0.1872462      0.13209 -67.10 0.0007371835    1.668    0.401
        32 -11.9453    203.3614    184.3146   8.7409738245e+01   4.5492115823e+00    0.3058767    0.2572695 -69.83  0.001116411    1.692    0.409
        33 -11.0285    190.0823    185.0551   9.0145733029e+01   6.9521825951e+00     0.209408    0.1737758  84.57  0.001129079    1.710    0.415
        34 -13.6155      7.6448    246.6133   1.3149894979e+02   2.3504633929e+01    0.8453498    0.2565461  55.92  0.004949225    2.234    0.552
        35 -14.5277    233.3489     50.8663   5.0504295580e+01   2.0168193743e+01    0.7896978    0.4225739 -40.23  0.002637416    1.670    0.401
        36 -10.1518    200.4261    225.2394   9.5181530154e+01  -1.0365717619e+00    0.1481913    0.1201209 -48.52 0.0009449732    1.638    0.389
        37  -9.8228    238.3001    169.6451   7.8026947778e+01   3.5527948866e-01    0.1251566    0.1069016 -62.46 0.0007037238    1.703    0.413
        38 -11.9770    217.1346    168.6121   8.1625484583e+01   4.4671703497e+00     0.238517    0.1856166 -40.79  0.001248108    1.391    0.281
        39 -11.7453    248.7243    185.3506   7.9415327614e+01  -3.6874509587e+00    0.3724827    0.3522193 -24.51  0.001884819    1.378    0.274
        40 -11.0749    147.5190    168.5009   9.5916533911e+01   1.8407877139e+01     0.144422    0.1357732  53.15 0.0001013727    1.008    0.008
        41 -12.4441    159.7383    164.7693   9.2490517149e+01   1.6711654965e+01    0.3275737    0.2458544 -61.17 0.0007904676    1.534    0.348
        42 -11.3616    138.6553    162.8692   9.6828964803e+01   2.1319256896e+01    0.2299256    0.1884356 -30.91  0.001191063    1.444    0.308
        43 -11.9946    153.2155    162.0650   9.3385653521e+01   1.8580289372e+01    0.2248535    0.2052622   0.63  0.001024931    1.240    0.194
        44 -11.7778    227.3911    157.3607   7.7345690134e+01   4.3037119218e+00    0.2519439    0.2021643 -74.42 0.0008949973    1.955    0.489
        45 -12.8499    157.8821    154.8891   9.0861140435e+01   1.9087185740e+01     0.460819    0.2581294 -34.16  0.001875525    2.165    0.538
        46 -11.0655    146.5425    153.5072   9.3140169301e+01   2.1716851280e+01    0.3007395    0.1471838 -47.63  0.001190464    2.109    0.526
        47 -11.6389    162.2957    149.4992   8.8713116575e+01   1.9259478818e+01    0.2860753    0.2074736 -44.74 0.0009426803    1.419    0.295
        48 -11.7849    164.2508    155.4538   8.9569946403e+01   1.7642523123e+01    0.2792221    0.2101754 -43.04 0.0007930479    1.380    0.276
        49 -10.1969    249.9956    147.6991   7.1362757125e+01   1.5327228995e+00    0.1816446     0.161908  -0.49 0.0004544671    1.056    0.053
        50 -12.0737    157.9970    181.2746   9.6028363091e+01   1.3842238707e+01    0.2516085    0.2002266 -87.24 0.0009923712    1.618    0.382
        51 -10.4402    142.9982    148.0255   9.2803269718e+01   2.3611984747e+01    0.1861176    0.1731588 -57.83  0.000725946    1.094    0.086
        52 -10.5829    133.1407    147.3226   9.4987666560e+01   2.5764620613e+01    0.2975377    0.1671432 -38.11   0.00120463    2.127    0.530
        53 -12.1226    145.0499    180.5255   9.8667417620e+01   1.6473587891e+01    0.2644374    0.2028341 -75.69  0.001085481    1.573    0.364
        54 -11.3400    171.3244    144.8874   8.5691026133e+01   1.8251450834e+01    0.2165218    0.1947144 -36.06 0.0008454064    1.135    0.119
        55 -12.5268    163.8338    178.7224   9.4321030922e+01   1.3189008592e+01    0.3287785    0.2468851 -43.97  0.001071416    1.443    0.307
        56 -11.1389    164.3162    143.9875   8.7032281686e+01   1.9951404063e+01     0.218154    0.1980273 -40.16 0.0007429363    1.126    0.112
        57 -10.8220    155.4768    144.0996   8.9053576743e+01   2.1828173287e+01    0.2307418    0.1502845 -44.66 0.0007706153    1.570    0.363
        58 -11.8667    148.2356    142.4328   9.0353902003e+01   2.3718928868e+01    0.2955362    0.2172399 -45.25  0.001404085    1.388    0.280
        59 -11.4848    138.7252    142.6396   9.2647276446e+01   2.5658269387e+01    0.2835853    0.1870668 -38.27  0.001159429    1.679    0.404
        60 -10.8104    159.5678    141.2292   8.7471785279e+01   2.1547057658e+01    0.2145962     0.146633 -32.50 0.0007754459    1.642    0.391
        61  -9.9716    226.3363    179.6758   8.2200644289e+01   1.0141501665e+00    0.1237344     0.109986 -84.75 0.0007051111    1.716    0.417
        62 -10.0086    174.8615    140.1723   8.3837385104e+01   1.8418627947e+01    0.2073934    0.1796121  -3.60 0.0005670027    1.292    0.226
        63 -11.0688    167.1159    139.3581   8.5345473806e+01   2.0285617677e+01    0.2705767    0.2088875 -31.96 0.0008384384    1.379    0.275
        64 -10.9639    131.4942    140.0043   9.3816474237e+01   2.7713953816e+01    0.2364594    0.1477549 -50.07  0.001030388    1.605    0.377
        65 -10.8661    171.5001    135.4453   8.3456737300e+01   2.0109067173e+01    0.3088732    0.1517006 -41.36 0.0009510461    2.058    0.514
        66 -11.4353    155.8417    135.4443   8.6982874816e+01   2.3567567018e+01    0.2617439    0.1843533 -39.66 0.0009636848    1.464    0.317
        67 -12.5900    151.9325    177.3528   9.6608665386e+01   1.5775157346e+01    0.3033348    0.2486975 -43.67  0.001140244    1.330    0.248
        68 -10.3741    206.6053    223.7866   9.3825707862e+01  -1.8675115924e+00    0.1477219    0.1177953 -44.72 0.0008169749    1.630    0.386
        69 -10.5920    164.5124    133.5163   8.4548826135e+01   2.2057180794e+01    0.1526394    0.1506131  23.56 0.0002097461    1.014    0.014
        70  -9.3307    178.2969    131.3269   8.0992575040e+01   1.9408130025e+01    0.1565209    0.1218743   4.08 0.0005204243    1.631    0.387
        71 -12.0280    159.4619    129.8734   8.4818155810e+01   2.3937456324e+01    0.3460935    0.2662222 -50.61  0.001252883    1.331    0.249
        72 -11.9134    146.2491    130.4232   8.8047573994e+01   2.6726601635e+01     0.294108    0.1895524 -35.52  0.001082556    1.717    0.417
        73 -12.1530    136.5705    126.2166   8.9393492037e+01   2.9721313804e+01    0.3845244    0.1481831 -44.22  0.001291548    2.624    0.619
        74 -11.8653    152.8867    129.4072   8.6230615295e+01   2.5493792373e+01    0.3191155     0.204641 -28.83  0.001221303    1.921    0.480
        75 -10.2696    173.4799    128.9531   8.1454912869e+01   2.0970759053e+01    0.2406076    0.1522942 -40.17  0.001029918    1.585    0.369
        76 -10.6240    209.0699    125.7878   7.3448481419e+01   1.3526723907e+01    0.4357405    0.2117979 -43.81  0.001706835    2.079    0.519
        77 -11.1396    166.4989    126.4125   8.2372586443e+01   2.3070105132e+01     0.315977      0.15332 -41.76   0.00093527    2.065    0.516
        78 -11.1821    232.3550    175.3283   8.0241794377e+01   5.7802671961e-01    0.2387027    0.1984944 -76.78  0.001145356    2.010    0.502
        79  -9.7615    182.0000    124.9384   7.8633151104e+01   1.9822949112e+01    0.2511607   0.08745722 -39.79 0.0007893011    2.852    0.649
        80 -12.0445    152.1763    121.0248   8.4323879733e+01   2.7432996708e+01    0.2995001    0.2195207 -32.54  0.001356443    1.473    0.321
        81 -12.6568    146.4154    123.8686   8.6412710390e+01   2.8105471836e+01    0.4381886    0.2621636 -25.26  0.001635249    2.451    0.592
        82  -9.5701    170.3439    122.2892   8.0484747736e+01   2.3030704853e+01    0.1596874    0.1236204  12.25 0.0007024138    1.652    0.395
        83 -12.0412    140.3510    121.9957   8.7425234655e+01   2.9837048148e+01    0.2300345    0.2056841 -51.10   0.00117093    1.109    0.098
        84 -11.3833    157.0211    119.5345   8.2807225438e+01   2.6651280124e+01    0.2643423    0.2034471 -43.50 0.0009087771    1.294    0.227
        85 -10.4221    208.1956    118.2419   7.1752043012e+01   1.5080399668e+01    0.2719805    0.2002122 -24.45  0.001290935    1.401    0.286
        86 -11.4221    211.2059    175.9094   8.4243013794e+01   4.4211986418e+00    0.1983051    0.1925991 -86.11  0.001209147    1.311    0.237
        87 -10.9204    203.6503    116.0990   7.2069074577e+01   1.6507187649e+01    0.2222144    0.2084036  81.95 0.0002897225    1.183    0.154
        88 -14.2042    134.6021    107.9968   8.5252325801e+01   3.4142725382e+01     1.007722    0.4543295 -33.45   0.00328429    2.963    0.663
        89 -12.0351    158.3016    175.6339   9.4917779697e+01   1.4865409679e+01    0.3348147    0.1971133 -55.28 0.0008614075    1.973    0.493
        90 -11.3032    152.5124    114.0077   8.2437027699e+01   2.8840040693e+01    0.2475319    0.1544184 -42.63 0.0009685755    1.592    0.372
        91 -11.9083    146.4979    113.5081   8.3750818830e+01   3.0310801100e+01    0.3324054    0.1539215 -43.46  0.001203965    2.140    0.533
        92  -9.9016    194.0019    101.2955   7.0075456944e+01   2.1497372984e+01    0.1975638    0.1923982 -21.70  0.000397258    1.022    0.021
        93 -12.3228    121.3242     99.5458   8.6433386850e+01   3.8833545334e+01    0.3210175    0.1927391 -42.81  0.001324042    1.628    0.386
        94  -9.4867    176.3068    112.3204   7.6614841445e+01   2.3630606471e+01    0.1598584    0.1248865   7.79 0.0004087247    1.638    0.390
        95 -11.1213    178.2145     93.5262   7.1107877117e+01   2.6795159416e+01    0.2534093     0.208272 -37.49 0.0003429395    1.198    0.165
        96 -10.6757    148.4626     94.4987   7.8042488790e+01   3.3821080929e+01     0.156845    0.1539669 -17.46 0.0001054728    1.031    0.030
        97  -9.5425    168.3005    111.3174   7.8097743722e+01   2.5722060197e+01    0.1591729    0.1258324   6.35 0.0005828429    1.618    0.382
        98  -9.5554    188.3951     86.9653   6.7240858492e+01   2.5476672409e+01    0.2125899    0.1469384 -38.30 9.138125e-05    1.406    0.289
        99 -11.5004    195.2837     81.7590   6.4501943941e+01   2.4676476118e+01    0.4169435    0.2918108  -8.89 0.0003767738    1.903    0.475
       100 -10.9326    196.8060     75.8028   6.2567011834e+01   2.5310947708e+01     0.261515    0.2362024  80.93 0.0005985032    1.149    0.130
       101 -13.1518    157.6695    170.8879   9.4148071621e+01   1.5916945317e+01    0.4480255    0.3441782  12.26  0.002224242    1.678    0.404
       102  -9.6229    185.0015     75.0542   6.4499242806e+01   2.8420840839e+01    0.1743066    0.1619151 -40.92 0.0008986415    1.060    0.057
       103 -11.3518    114.4458     70.0388   7.9384851418e+01   4.6396931604e+01    0.2281708    0.2020688  40.63 0.0003444089    1.157    0.135
       104 -10.3230    164.5135     64.7443   6.5444317049e+01   3.5403833220e+01    0.2131408    0.1526288 -34.12 0.0008611925    1.402    0.287
       105 -10.5079    188.9293     59.0009   5.9119296822e+01   3.0044856276e+01    0.2732649    0.1979011 -51.88 0.0004839383    1.415    0.293
       106 -10.7331    189.0362     55.2259   5.7995345498e+01   3.0597910962e+01    0.2516127    0.2088387 -13.32 0.0006307308    1.364    0.267
       107 -11.3564    192.5587     49.1654   5.5654018586e+01   3.0586676123e+01    0.4538711    0.3469101  34.36    0.0022192    1.532    0.347
       108 -10.7210    194.1426    221.7222   9.5774101719e+01   5.1052983471e-01    0.1904286    0.1771331 -48.04 0.0008942371    1.385    0.278
       109 -10.7563    211.0135    218.4826   9.2152006726e+01  -1.8866301055e+00    0.2071207    0.1797236 -49.32 0.0009273477    1.576    0.366
       110 -11.4142    199.5603     27.9860   4.8580706431e+01   3.1611129823e+01     0.683741    0.3463667 -83.98  0.002535532    2.845    0.648
       111 -10.7345    204.1296    218.6526   9.3434804326e+01  -7.5308489657e-01    0.1900708    0.1756961 -34.08 0.0007592058    1.349    0.259
       112 -10.5416    198.8383    216.3406   9.4027468145e+01   4.7462753497e-01    0.2121872    0.1753865 -75.06  0.001267009    1.929    0.482
       113 -11.5414    199.2088     23.4583   4.7351068743e+01   3.2245856598e+01    0.7709515    0.3323349  81.68   0.00279894    2.896    0.655
       114 -10.2648    224.3593    175.0937   8.1632297102e+01   2.0765369155e+00    0.1868237    0.1200181 -43.48 0.0009355252    1.761    0.432
       115 -12.1126    146.6537    174.8876   9.7303833141e+01   1.7287136307e+01    0.2495695    0.1937031  34.88 0.0008349929    1.302    0.232
       116 -10.4850    220.2861    215.6363   8.9999197543e+01  -3.0447242152e+00    0.1089877    0.1004085  81.47 0.0007021509    1.691    0.409
       117  -9.4487    101.0020    175.9816   1.0768701808e+02   2.5328108998e+01    0.1552147    0.1360822  70.31 0.0009175731    1.020    0.019
       118 -11.5375    213.2492    212.3266   9.0696898799e+01  -1.4208557237e+00    0.3204204    0.2477149  89.90  0.001672792    2.745    0.636
       119 -15.0644    232.0378    202.8219   8.5629011003e+01  -3.2804820085e+00     1.706222     1.128613  58.47  0.008826323    2.399    0.583
       120 -10.4134    134.5237    170.4975   9.9194120692e+01   2.0515661721e+01    0.1426077    0.1333953  59.76  0.000292361    1.023    0.022
       121  -9.9966    204.3857     16.7320   4.4887055868e+01   3.1693095475e+01    0.2103763    0.1785734 -17.62 0.0006587238    1.363    0.266
       122 -11.0991    211.6237    183.2076   8.5620599957e+01   3.1770439875e+00    0.2864617    0.2342077 -68.41  0.001287762    1.840    0.457
       123 -10.5585    193.0715    210.1635   9.4074320866e+01   2.3857816001e+00    0.2121165    0.1990806 -65.29  0.001343509    1.389    0.280
