#   1 NUMBER                 Running object number                                     
#   2 MAG_AUTO               Kron-like elliptical aperture magnitude                    [mag]
#   3 X_IMAGE                Object position along x                                    [pixel]
#   4 Y_IMAGE                Object position along y                                    [pixel]
#   5 X_WORLD                Barycenter position along world x axis                     [deg]
#   6 Y_WORLD                Barycenter position along world y axis                     [deg]
#   7 A_WORLD                Profile RMS along major axis (world units)                 [deg]
#   8 B_WORLD                Profile RMS along minor axis (world units)                 [deg]
#   9 THETA_WORLD            Position angle (CCW/world-x)                               [deg]
#  10 FWHM_WORLD             FWHM assuming a gaussian core                              [deg]
#  11 ELONGATION             A_IMAGE/B_IMAGE                                           
#  12 ELLIPTICITY            1 - B_IMAGE/A_IMAGE                                       
         1 -13.2488    223.0100      2.0404   4.2054397628e+01   2.8211169428e+01     2.294186     0.462395  66.64  0.006959591    4.219    0.763
         2 -13.7517    181.2905     44.1490   5.9431749346e+01   3.4042511924e+01     1.209799     0.856707 -14.59 0.0009742779    1.449    0.310
         3 -13.9935    191.7480     35.4370   5.5138482961e+01   3.2495061245e+01     1.406186     1.034949 -23.81  0.003877361    1.285    0.222
         4 -14.8711    200.3253     24.9578   5.0815778001e+01   3.1530383671e+01     2.259727     1.500773  24.00  0.001515254    1.837    0.456
         5 -10.5102    189.8962     15.0072   4.8820508862e+01   3.5202757650e+01    0.2203132    0.2087546 -31.16 0.0006593187    1.018    0.018
         6 -12.8034     89.1851    232.6693   1.1666684924e+02   1.8807395912e+01     1.319054    0.7599777  60.05  0.001795195    1.691    0.409
         7 -13.0764     96.1315    224.5933   1.1475435211e+02   1.9137543042e+01     1.060026    0.3677932  46.09 0.0008039247    2.256    0.557
         8 -15.0877    125.0457    227.9103   1.0979296711e+02   1.4929730708e+01     2.393948     1.178745  48.90   0.01377565    1.821    0.451
         9 -13.6990     63.9961    192.5740   1.1834024667e+02   2.8341702399e+01     1.170509    0.8970011 -55.60   0.00824526    1.637    0.389
        10 -10.9579     44.3992    198.9161   1.2277413342e+02   2.9376132892e+01    0.4810234    0.3949631  53.03   0.00373941    1.137    0.121
        11  99.0000     58.7931    215.3080   1.2102297391e+02   2.5019188331e+01    0.5302889      0.48473  38.89  0.002240241    1.345    0.256
        12 -13.4465     53.5577    205.9118   1.2141480252e+02   2.7172459924e+01    0.4196736    0.3282875  71.22  0.001631436    1.144    0.126
        13 -12.4385     57.7221    205.0024   1.2053934723e+02   2.6868482274e+01    0.2727775     0.197322  64.96 0.0003403919    1.170    0.145
        14 -11.1129     65.7917    239.5349   1.2125166509e+02   2.0506832596e+01    0.4911876    0.3602849   8.38  0.003196299    2.232    0.552
        15 -10.6123     35.3250    208.3210   1.2506386165e+02   2.8656449842e+01    0.2671966   0.07185115  46.00    0.0013744    2.462    0.594
        16 -10.2075     31.1978    205.4684   1.2570956313e+02   2.9551656058e+01    0.1904638    0.1214641  43.32  0.001385668    1.293    0.226
        17 -15.5912     80.9257    247.8028   1.1916691900e+02   1.7650476742e+01     7.656611     2.189922  28.24   0.02255397    9.386    0.893
        18 -15.9504     72.1268    150.3152   1.1217126164e+02   3.5636893122e+01     5.612028     2.756296  70.88   0.01316393    3.150    0.683
        19 -12.1608    108.1518    203.6199   1.1045038952e+02   2.0798083490e+01    0.2414719    0.1887521  37.08 0.0002221465    1.130    0.115
        20  -9.0952     42.9861    236.8921   1.2504854211e+02   2.3301714081e+01    0.1147165    0.1124967 -35.84 0.0009826735    1.598    0.374
        21 -11.9557     38.9953    212.4220   1.2458004599e+02   2.7594282328e+01    0.2674758    0.1129019  49.68  0.001518655    1.742    0.426
        22 -12.1088     48.9906    233.2784   1.2383451296e+02   2.3233440703e+01    0.2816626    0.1446705  78.15  0.001897928    2.070    0.517
        23 -12.8587     61.4661    249.9446   1.2256292218e+02   1.9499080070e+01    0.2777883    0.1588657  47.94 0.0005226299    1.212    0.175
        24  -9.2759    163.4382    203.9551   9.9905656282e+01   1.2765133008e+01    0.1422663    0.1141693 -35.10 0.0003629602    1.499    0.333
        25 -10.4796    156.1520    200.2000   1.0074049090e+02   1.4369129680e+01     0.330128     0.191388 -54.27  0.001878201    2.403    0.584
        26 -12.2657    112.4157    196.8111   1.0884109687e+02   2.1305979192e+01    0.3818612    0.2637838   4.40  0.002152645    2.336    0.572
        27 -12.1553    193.5164    193.0621   9.2850596059e+01   9.6257617753e+00    0.6619304     0.408726 -46.97  0.003634728    2.316    0.568
        28 -10.3523    141.0324    197.5648   1.0327221129e+02   1.7018126073e+01      0.19447    0.1644399  87.14 0.0007413386    1.585    0.369
        29 -12.4579     29.7470    197.2545   1.2558685051e+02   3.1141529004e+01    0.1996637    0.1376822  50.37 0.0005495107    1.154    0.133
        30 -10.4718     34.9452    197.3224   1.2456131009e+02   3.0623353416e+01    0.1589378    0.1009639  52.39 0.0005079195    1.213    0.175
        31 -19.2598      7.2818    139.6171   1.2755237427e+02   4.4567776097e+01     16.80107     1.935661 -81.73   0.04182041    9.218    0.892
        32 -10.3715     80.7402    194.7594   1.1507796788e+02   2.5908826180e+01    0.3126896     0.168462  45.13  0.001370364    1.506    0.336
        33  -9.5728    152.2376    193.9436   1.0060682992e+02   1.5858801588e+01    0.1316209    0.1021677 -44.40  0.000377581    1.553    0.356
        34  -9.8773     73.5917    189.7668   1.1609834696e+02   2.7693837190e+01     0.199246    0.1268119  43.55  0.001259091    1.308    0.235
        35 -10.9399     43.5006    207.6365   1.2346607796e+02   2.7946517142e+01    0.4977322    0.2977658 -74.02  0.002258941    1.803    0.445
        36 -10.0482    150.9359    182.6658   9.9199297971e+01   1.7756940639e+01    0.1748607    0.1351366  39.20 0.0004942528    1.125    0.111
        37  -9.6573     36.1546    234.0394   1.2609798636e+02   2.4412135083e+01    0.1301604    0.1035758  54.90 0.0004564551    1.167    0.143
        38 -10.9693     95.8386    200.1391   1.1253618782e+02   2.3027462486e+01    0.3229369    0.2158027  31.09  0.001593652    1.456    0.313
        39 -11.0311     99.4931    180.7427   1.0962768361e+02   2.5896725514e+01    0.2239238    0.1866216  45.83 0.0005435755    1.050    0.048
        40 -12.2886     76.2640    177.6221   1.1433897213e+02   2.9611616760e+01     0.332994    0.2481059 -39.13  0.001560464    1.862    0.463
        41 -10.7920    144.0533    178.9986   1.0002262129e+02   1.9432294667e+01    0.1989404    0.1453725   6.89  0.001097254    1.718    0.418
        42 -10.8347     37.3757    176.3490   1.2278219660e+02   3.4314253237e+01    0.3193838    0.1639651  50.42  0.001907994    1.595    0.373
        43 -12.4566     80.0096    172.5113   1.1295510591e+02   3.0103997258e+01    0.3407113    0.2846891 -53.17  0.001317126    1.422    0.297
        44 -11.9022     43.9723    172.4788   1.2104854534e+02   3.4396558735e+01    0.6717804    0.2044764  44.95  0.001645206    2.556    0.609
        45  -9.7667    165.5074    172.3237   9.4646693276e+01   1.6966001370e+01     0.186557    0.1741939 -85.16 0.0006426963    1.431    0.301
        46 -11.4567    194.8690    168.0875   8.8337679436e+01   1.2656001609e+01    0.3002433    0.2655608   1.70 0.0009598376    1.125    0.111
        47 -10.1602     53.3831    229.8269   1.2287831628e+02   2.3300036167e+01     0.359416     0.158425  83.94  0.002072361    2.909    0.656
        48  -9.6217     42.5647    230.7353   1.2483596399e+02   2.4281558830e+01    0.1472196   0.09736463  74.49  0.001044651    1.380    0.275
        49 -10.3829    230.4807    166.9716   8.2043213139e+01   7.0143762230e+00    0.1558096   0.09715755 -46.95 0.0008102476    2.657    0.624
        50  -9.6946     71.9844    230.0245   1.1956323211e+02   2.1217864872e+01    0.1527626   0.08638604  54.90 0.0003805521    1.441    0.306
        51 -10.5807    189.9665    160.7335   8.7867078576e+01   1.4511216614e+01    0.2244706    0.1845111 -33.80 0.0007132726    1.367    0.268
        52 -12.5353     93.9676    155.6845   1.0758638707e+02   3.1480018711e+01    0.6087591    0.4261967 -25.09   0.00316551    2.233    0.552
        53  -9.9345    140.8861    157.4689   9.7159154873e+01   2.3582026513e+01    0.2222662    0.1831291 -76.02 0.0006891501    1.564    0.361
        54 -11.0549    189.1911    155.0422   8.6914926383e+01   1.5465101180e+01    0.3787438     0.336992  47.64  0.002399858    1.332    0.249
        55 -11.4261    133.8123    144.8257   9.6430966895e+01   2.7113006377e+01    0.9507312    0.2670653 -53.61  0.002840721    5.077    0.803
        56  -9.4108     64.0419    223.6744   1.2058792266e+02   2.3092901227e+01    0.1357979   0.09719729  51.62  0.000336091    1.038    0.036
        57 -10.3380    174.6976    148.9400   8.8505235723e+01   1.8992297972e+01    0.2257985    0.2124107  77.34 0.0007141389    1.376    0.273
        58 -11.2002    144.4502    146.6437   9.4392052186e+01   2.4881092617e+01    0.3346256    0.2395908  76.76  0.001620684    2.202    0.546
        59 -11.1552    106.1355    140.7022   1.0225928031e+02   3.2645303720e+01    0.5051163    0.3260343 -25.41  0.002304813    2.492    0.599
        60 -12.4432     93.8960    140.8364   1.0533891202e+02   3.4550785296e+01    0.2720203    0.2556872  -8.67 0.0004385484    1.270    0.213
        61 -10.5868    113.9752    130.7875   9.8471133526e+01   3.3367529069e+01     0.332712    0.2670283   9.40  0.001034155    1.567    0.362
        62 -11.8474    118.5695    126.9502   9.6548504482e+01   3.3344851393e+01    0.7113113    0.3361694 -44.47  0.002973011    2.246    0.555
        63 -11.4065    136.0000    124.0008   9.1661296471e+01   3.0694207584e+01    0.6195019    0.2188956 -51.75  0.002069505    3.465    0.711
        64 -10.2954    160.8513    127.5336   8.6832974457e+01   2.5191305922e+01    0.2862415    0.1873969 -55.85  0.001334841    1.974    0.493
        65 -10.6947    106.0038    130.8476   1.0050076985e+02   3.4716580009e+01    0.3204221    0.2823714 -87.78  0.001104185    1.192    0.161
        66 -10.9933    101.3961    127.0346   1.0096621077e+02   3.6294998476e+01     0.274252    0.2220249 -29.43 0.0009969092    1.491    0.329
        67  -8.9521    152.6835    120.2813   8.6962779499e+01   2.8117152102e+01    0.1372189    0.1150956  84.78 0.0002502156    1.578    0.366
        68 -10.1091    109.5510    119.6278   9.7329329063e+01   3.6482044275e+01    0.2306718    0.2069104  31.47 0.0003202974    1.158    0.137
        69 -10.1782     43.8464    219.9251   1.2406981382e+02   2.5861854777e+01    0.1374691    0.1247621  72.07  0.001091987    1.312    0.238
        70 -10.0979    167.8801    112.7276   8.1852382763e+01   2.6345782730e+01    0.3642952    0.2567188 -72.50  0.001579419    2.435    0.589
        71 -11.0370    119.7959    111.0783   9.2734852344e+01   3.6402059057e+01    0.3581758    0.2156842  46.17  0.001547283    1.662    0.398
        72 -10.1209    205.6680    110.1152   7.4007285114e+01   1.8928418744e+01    0.2554522    0.1927729  33.00 0.0006503082    1.311    0.237
        73  -9.4198     99.5339    108.4720   9.7612819484e+01   4.0660542276e+01    0.1408636    0.1354679 -86.98 9.176788e-05    1.013    0.013
        74 -10.7689     49.1417    216.5963   1.2291035804e+02   2.5853066514e+01    0.3194506    0.2268216  16.19  0.001858502    2.008    0.502
        75 -10.3245     66.5145    104.4866   1.0655986855e+02   4.6717940054e+01    0.1364577    0.1245649 -81.22 2.729597e-05    1.001    0.001
        76 -11.0415     69.9894    209.4630   1.1847088138e+02   2.4706306274e+01    0.3544131    0.1814226  45.47 5.635141e-05    1.506    0.336
        77  -9.2120    130.6495     96.3295   8.6208797545e+01   3.7253561843e+01    0.1537899    0.1199164 -87.77 0.0007048125    1.768    0.434
        78  -9.1645    166.3532     93.6866   7.7215898340e+01   2.9968299243e+01    0.1501709    0.1196108 -75.63 0.0007045454    1.732    0.423
        79 -11.4614     53.0939     90.4090   1.0815443098e+02   5.1810596818e+01    0.3664714    0.2680143 -65.61  0.001477137    1.225    0.183
        80 -11.1692     41.9777     91.7930   1.1222678544e+02   5.2733979095e+01     0.234192    0.2143044 -59.41 0.0004994355    1.137    0.121
        81  -9.4807     66.5477     70.7129   9.8605003860e+01   5.4682085957e+01    0.2261153    0.1615316  59.83 0.0006156384    1.703    0.413
        82 -11.1829    160.9138     62.3057   6.8967958228e+01   3.6500795073e+01    0.3430074    0.2806777 -72.41 0.0007372681    1.499    0.333
        83 -10.1939     75.5712    206.9807   1.1718699337e+02   2.4454731134e+01    0.2400917    0.2034657 -42.44  0.001128753    1.648    0.393
        84 -10.8235    162.9149     55.5333   6.6359354734e+01   3.7060853500e+01    0.2362834    0.2056674 -23.94 0.0007280426    1.107    0.097
        85 -10.7406    171.9934    240.2502   1.0298966786e+02   7.1740492191e+00    0.3403295    0.2256551 -63.71  0.002197101    3.136    0.681
        86  -9.3737     60.8742    231.0914   1.2161767029e+02   2.2299208275e+01    0.1427992   0.09748795  56.25  0.001105921    1.130    0.115
        87  -9.1935     60.2485    235.7584   1.2199829074e+02   2.1666250247e+01    0.1042156   0.07421427 -87.65 0.0003011484    1.560    0.359
        88  -8.5304     62.9383    234.2535   1.2143900550e+02   2.1597107973e+01    0.1874738   0.09868019  38.98 0.0007549313    1.460    0.315
