#   1 NUMBER                 Running object number                                     
#   2 MAG_AUTO               Kron-like elliptical aperture magnitude                    [mag]
#   3 X_IMAGE                Object position along x                                    [pixel]
#   4 Y_IMAGE                Object position along y                                    [pixel]
#   5 X_WORLD                Barycenter position along world x axis                     [deg]
#   6 Y_WORLD                Barycenter position along world y axis                     [deg]
#   7 A_WORLD                Profile RMS along major axis (world units)                 [deg]
#   8 B_WORLD                Profile RMS along minor axis (world units)                 [deg]
#   9 THETA_WORLD            Position angle (CCW/world-x)                               [deg]
#  10 FWHM_WORLD             FWHM assuming a gaussian core                              [deg]
#  11 ELONGATION             A_IMAGE/B_IMAGE                                           
#  12 ELLIPTICITY            1 - B_IMAGE/A_IMAGE                                       
         1 -17.7630     68.7293    143.1252   8.9769610805e+01   3.7478272415e+01     3.946776     2.954569 -51.54   0.02089818    1.329    0.248
         2 -18.5783     67.7660    202.3315   9.7908492724e+01   2.3817523195e+01     6.739951      5.95434 -41.16   0.03665254    1.464    0.317
         3 -18.8917     47.6260     77.9038   8.3045861530e+01   5.5883304114e+01     17.34227     0.776185 -56.90   0.02327291   21.107    0.953
         4 -15.1979    192.7719     33.0135   2.9718101489e+01   3.2577993892e+01    0.9734321    0.8363755 -86.93  0.003698509    1.085    0.078
         5 -11.6229     85.8029    240.1794   9.7852542517e+01   1.3853234760e+01    0.1659105    0.1432349   3.40 0.0007118881    1.636    0.389
         6 -15.3126    186.5960    246.6474   7.8549330961e+01  -2.2962647261e+00      1.30326    0.8597971  35.25  0.008075565    1.270    0.213
         7 -10.8643    134.3335    230.3279   8.6778543421e+01   8.3492800368e+00    0.2978025    0.2032944   9.66  0.001560759    2.010    0.502
         8 -10.7040    137.6283    227.2460   8.5674380436e+01   8.3602406445e+00    0.1707497    0.1394176  16.22 0.0004313139    1.301    0.232
         9 -11.6815    148.7573    228.2593   8.3485086474e+01   6.3972245272e+00    0.2662257    0.2327182 -19.13  0.001713291    1.321    0.243
        10 -11.1610    151.3033    222.0106   8.2046058508e+01   7.0482842157e+00    0.1739101    0.1650506  25.00 0.0005017514    1.133    0.117
        11 -13.2700    184.9916    219.6380   7.4698662713e+01   1.9189734631e+00    0.2996162    0.1918134 -43.78 0.0006174514    1.840    0.456
        12 -12.6299    161.8557    216.6970   7.9005781986e+01   6.2133916395e+00    0.3309111    0.1956064  40.27  0.001693165    1.483    0.326
        13 -10.1951    130.2254    237.2874   8.8520558002e+01   7.7999031129e+00    0.1091899   0.09121113   4.00 0.0003525468    1.442    0.307
        14 -11.8683    207.8708    217.3149   6.9786404304e+01  -1.3650303685e+00    0.2058024    0.1685146 -31.30 0.0008848573    1.391    0.281
        15 -12.2165    133.0622    210.3914   8.4266661806e+01   1.2179319029e+01    0.3604177    0.2109396 -49.58  0.001028004    1.943    0.485
        16 -11.2970    137.4123    203.8689   8.2307115550e+01   1.2694329883e+01    0.2804776    0.1686686 -49.61  0.001377823    1.868    0.465
        17 -12.8597    133.5845    201.1782   8.2748531169e+01   1.3873898578e+01    0.5978474     0.322993 -44.86  0.002704039    2.110    0.526
        18 -11.5571     80.4330    236.0410   9.8542006990e+01   1.5351105973e+01    0.1649357    0.1522658 -17.93  0.001150544    1.529    0.346
        19 -12.5990    174.9590    209.6064   7.5091400071e+01   5.2163432449e+00    0.2345239    0.1962961 -30.06  0.000189642    1.302    0.232
        20 -11.7027    128.4647    203.5534   8.4272300969e+01   1.4275075290e+01    0.3267509    0.1384179 -54.11  0.001040842    2.672    0.626
        21 -12.9619    192.7730    194.8769   6.8775284821e+01   4.6540906342e+00    0.8554544    0.4677294 -62.76   0.00274031    5.512    0.819
        22 -13.0691    189.6647    202.3034   7.0769445954e+01   3.9437421576e+00    0.3648218    0.2281758 -41.34  0.001580496    1.757    0.431
        23 -12.3381    189.1785    197.0403   6.9914424821e+01   4.9105622264e+00    0.4166393    0.2078768 -42.31  0.001192915    2.169    0.539
        24 -11.9342    210.7456    198.6214   6.5886368283e+01   1.0106741818e+00    0.2317091     0.203281  10.82 0.0005236437    1.101    0.092
        25 -11.0637    181.0643    199.0073   7.1961999171e+01   5.9828066736e+00    0.2589844    0.1635362  36.11   0.00131053    1.430    0.301
        26 -11.7992    162.9787    198.4590   7.5742427673e+01   9.2576091267e+00    0.2486929    0.1857986 -23.72  0.000635803    1.524    0.344
        27 -11.7018    104.3064    233.0417   9.3363653404e+01   1.2490467303e+01    0.2348308    0.1662902 -42.40  0.001157051    1.867    0.464
        28 -13.9925    179.4362    218.6537   7.5666567229e+01   2.9794293592e+00    0.3893189    0.3268116  -8.24  0.001202975    1.217    0.178
        29 -11.5998    159.1386    190.1173   7.5113633902e+01   1.1509642713e+01    0.2148472    0.1835054  -0.26  0.000484586    1.238    0.192
        30 -13.8001    172.9307    175.4906   6.9267943090e+01   1.1756391152e+01    0.7110949    0.5541492 -51.18  0.001045156    1.467    0.318
        31 -13.1573    179.2883    168.7096   6.6498973354e+01   1.1838960189e+01    0.6285314     0.523916 -42.11  0.002369737    1.277    0.217
        32 -11.6402     13.0230    173.2838   1.0776113209e+02   3.6309555545e+01    0.2158576    0.1427331 -74.01   0.00134163    1.330    0.248
        33 -11.5154     24.6209    164.9740   1.0433580367e+02   3.7198733977e+01    0.1980349    0.1723571 -77.92 0.0008487834    1.142    0.124
        34 -12.5836    236.1863    163.1895   5.4164520708e+01   2.3770372924e+00    0.1771135     0.160172 -43.41 0.0007732993    1.358    0.263
        35 -14.2935    177.1753    230.5949   7.8010826259e+01   1.4715893326e+00    0.4453406    0.3201851 -33.38  0.001782034    1.581    0.368
        36 -11.1336    166.7654    156.1558   6.6645256277e+01   1.6788018510e+01    0.3560066     0.194683  41.14  0.001289075    1.775    0.437
        37 -13.7828    170.4803    227.9808   7.8965510885e+01   2.9441662034e+00    0.3506772    0.3319914 -75.36  0.002071159    1.433    0.302
        38 -12.9144    151.6271    150.7466   6.9034274449e+01   2.0988147005e+01    0.4335344     0.292196 -73.06  0.001131685    2.340    0.573
        39 -10.4878     31.7781    152.1976   1.0123288014e+02   3.9553547707e+01    0.1529129    0.1341698 -46.14 0.0002476442    1.317    0.241
        40 -12.4455     36.8051    142.1711   9.8674548857e+01   4.1491562445e+01    0.3169427    0.1990862 -78.40   0.00163457    1.462    0.316
        41 -10.6292    224.4107    133.8916   4.9905731997e+01   9.3699980713e+00    0.1965184    0.1114338 -54.86 0.0008024891    2.447    0.591
        42 -11.9930    159.6443    129.3267   6.2145125128e+01   2.3851981583e+01    0.4307703    0.2662792 -21.40  0.001657764    2.263    0.558
        43 -10.6433    167.3331    112.6512   5.6155793153e+01   2.5564549554e+01    0.1623024    0.1257212 -80.49 0.0007048221    1.773    0.436
        44 -11.2156     31.7770    111.1969   9.5718876788e+01   4.9557764466e+01    0.2851152    0.1939969 -35.81  0.001550357    1.598    0.374
        45 -10.5196    218.5216    111.0088   4.5632612221e+01   1.4505086803e+01    0.2168657    0.1099612 -54.43 0.0008101069    2.655    0.623
        46 -11.9321     24.2542    104.7383   9.7151746196e+01   5.1750773869e+01    0.2734634    0.1949461 -45.82 0.0009291251    1.324    0.245
        47 -13.1739    165.6975    227.2363   7.9830548004e+01   3.8323052836e+00    0.3063775    0.2471842  70.26  0.001367871    1.777    0.437
        48 -12.2306     96.6020    103.1428   7.2709913329e+01   4.2727930442e+01    0.2450217      0.20827  51.77 0.0005673101    1.265    0.210
        49 -12.1392     92.3047     99.3574   7.3061910440e+01   4.4375152620e+01    0.2872531    0.2647686  -4.86 0.0008055552    1.118    0.105
        50 -10.4009     27.6537    101.7250   9.5505322707e+01   5.2207972730e+01    0.2089695    0.1108484 -60.84  0.000286551    1.552    0.355
        51 -14.2666    174.4949    222.7538   7.7335364960e+01   3.1280415483e+00    0.4412023    0.3881772 -24.26  0.002855272    1.270    0.212
        52 -10.3883     11.5611     94.5092   9.9864840508e+01   5.5065376111e+01    0.1268747    0.1019028 -62.14 7.412855e-05    1.016    0.016
        53 -12.8426     66.4697     90.7450   7.9471959271e+01   5.0520392414e+01    0.3769803    0.2659079 -42.50  0.001908046    1.324    0.245
        54 -11.2360     92.9653     89.4414   7.0087486233e+01   4.6490684334e+01    0.2261017    0.1470085  39.08  0.001018554    1.573    0.364
        55 -11.3379     85.4421     80.7441   7.0023947369e+01   4.9740491597e+01    0.2103602    0.1335934 -36.10  0.000451118    1.583    0.368
        56 -12.3846    213.9912    243.7004   7.2940643375e+01  -5.8722066170e+00    0.1939937     0.151345 -10.58 0.0007006175    1.259    0.206
        57 -13.3782      5.6959     75.3395   9.8874835732e+01   5.9841037275e+01    0.3694773    0.2234298  17.92   0.00143912    1.974    0.493
        58 -14.3878    160.2288     69.8875   4.5821515210e+01   3.5299912252e+01     1.003995    0.6732892  36.40  0.003852061    1.670    0.401
        59 -15.1474    173.4894     57.9114   3.9689855809e+01   3.3931766590e+01     1.214568     1.020167  18.97   0.00439035    1.417    0.294
        60 -13.6389    179.9839     50.7588   3.6512277729e+01   3.3371403400e+01    0.4940198    0.4548652  78.77 0.0008739421    1.039    0.038
        61 -11.9581     66.5105     73.0778   7.4459527796e+01   5.4466954369e+01    0.2505681    0.1994542  49.12 0.0008664548    1.504    0.335
        62 -12.9981     32.0408     72.9415   8.7916535132e+01   5.8590631933e+01    0.3916173    0.1411267  37.48  0.001578248    3.289    0.696
        63 -10.5967     87.2791     69.6487   6.5889498429e+01   5.1720300539e+01    0.1411533    0.1186814 -80.87 0.0004036489    1.647    0.393
        64 -11.2116    110.5820     70.0797   5.8532822340e+01   4.6965898091e+01    0.2906549    0.2109812  62.16  0.001185659    1.680    0.405
        65 -11.3834     98.5931     64.9282   6.0539276016e+01   5.0450677684e+01    0.2735237    0.2096558  48.85 0.0006272934    1.379    0.275
        66 -13.7698    198.0531    238.0041   7.5055568698e+01  -2.8125666568e+00    0.3908128    0.2068503 -29.14  0.002084112    2.166    0.538
        67 -10.7874    129.8408     62.8181   5.0761320150e+01   4.3913440155e+01    0.2037826    0.1811906  89.25 0.0004030147    1.317    0.241
        68 -10.6088     91.8966     62.5063   6.1911629385e+01   5.2238024698e+01    0.2089443    0.1411466  41.31 0.0004036973    1.479    0.324
        69 -12.9299     13.5848     60.3200   9.2557566339e+01   6.2774717160e+01    0.2415881    0.2033438 -56.08 0.0006734589    1.127    0.112
        70 -11.2696     71.6551     52.9535   6.5753661573e+01   5.7693355430e+01    0.1932514    0.1661101 -25.16 0.0004124013    1.098    0.089
        71 -10.0574    123.6704     52.2785   4.8837396679e+01   4.7119462159e+01    0.1449285    0.1184626 -84.38 0.0002739583    1.599    0.375
        72 -11.1506    158.1253    238.9394   8.3061163455e+01   3.1786816804e+00    0.1832186    0.1514161  30.90 0.0002989199    1.028    0.027
        73 -11.6820     35.9341     36.3276   7.4731688672e+01   6.5747346250e+01     0.174034    0.1419606  -4.18 0.0004245366    1.114    0.103
        74 -11.9686     60.6559     21.2901   5.7108240634e+01   6.4670953254e+01    0.2239113    0.1521697  46.85 0.0008358853    1.673    0.402
        75 -13.1209    202.9009     18.3247   2.4704249248e+01   3.1845060592e+01    0.2916636    0.2230889  82.69  0.001706472    1.192    0.161
        76 -12.3897    189.4682     14.9842   2.5317509331e+01   3.5476295391e+01    0.2158845    0.1663215  77.76 0.0006109526    1.168    0.144
