#   1 NUMBER                 Running object number                                     
#   2 MAG_AUTO               Kron-like elliptical aperture magnitude                    [mag]
#   3 X_IMAGE                Object position along x                                    [pixel]
#   4 Y_IMAGE                Object position along y                                    [pixel]
#   5 X_WORLD                Barycenter position along world x axis                     [deg]
#   6 Y_WORLD                Barycenter position along world y axis                     [deg]
#   7 A_WORLD                Profile RMS along major axis (world units)                 [deg]
#   8 B_WORLD                Profile RMS along minor axis (world units)                 [deg]
#   9 THETA_WORLD            Position angle (CCW/world-x)                               [deg]
#  10 FWHM_WORLD             FWHM assuming a gaussian core                              [deg]
#  11 ELONGATION             A_IMAGE/B_IMAGE                                           
#  12 ELLIPTICITY            1 - B_IMAGE/A_IMAGE                                       
         1 -14.1372    202.7041     19.6443   6.0646096875e+01   3.1583193399e+01     2.426196     1.213417  47.79  0.008634936    2.004    0.501
         2 -13.9595    207.8079     11.9258   5.7750310988e+01   3.1040309842e+01     3.887772     1.768995  20.95  0.001453467    4.230    0.764
         3 -12.9174      3.6226      9.2165   1.2258705446e+02   7.2674039493e+01     1.466305    0.3550335 -57.19  0.006514866    2.612    0.617
         4  -9.4342    163.6602    250.3111   1.1876150304e+02   6.0795125787e+00     0.106159   0.06839176  52.90 0.0007045429    1.693    0.409
         5 -11.7778    248.2255    248.1341   1.0444975420e+02  -5.3817777036e+00      0.44367    0.2501023  -1.73  0.003066942    1.759    0.431
         6 -12.1209    127.0992    244.9675   1.2454739004e+02   1.1806177340e+01    0.3348355    0.1581075  47.16  0.002037604    1.660    0.398
         7 -13.4175    100.9726    249.0383   1.2939228426e+02   1.4690004212e+01    0.8491618    0.8135129  54.12  0.007724727    1.370    0.270
         8 -12.0811     90.6025    246.7771   1.3098206953e+02   1.6290417626e+01    0.3267717    0.2213762  59.48 0.0007198921    1.270    0.213
         9 -12.7480     88.1360    243.1716   1.3114189475e+02   1.7099574964e+01    0.5019949    0.2871476  48.79 0.0003768153    1.281    0.220
        10 -12.5896      5.0281    245.7504   1.4462601671e+02   2.5304584935e+01    0.9196063    0.4149252  62.95  0.006263275    1.560    0.359
        11 -14.5836     35.6103    246.8623   1.3999147428e+02   2.2360369024e+01     10.26973     3.356071  26.39   0.03570141    8.904    0.888
        12 -10.7159    192.0042    249.8353   1.1388019221e+02   2.1348793278e+00    0.3005344   0.09034263  31.65  0.001291512    3.210    0.688
        13 -12.8232     64.5652    219.4701   1.3362274377e+02   2.3509137814e+01    0.8921207     0.263076  40.38  0.002278678    2.450    0.592
        14 -12.7930     14.9046    240.3049   1.4297904539e+02   2.5255978816e+01     1.258456    0.2532068  56.41  0.006604295    3.299    0.697
        15 -10.3044     30.1791    235.7644   1.4040349733e+02   2.4538435896e+01    0.2895398   0.08142841  54.11   0.00164111    2.532    0.605
        16 -15.8820      8.2165    204.6265   1.4288858860e+02   3.1523895995e+01      6.76765     1.533224 -77.70   0.02282915    3.882    0.742
        17 -11.7663     75.7928    229.1370   1.3228459875e+02   2.0669308106e+01    0.2957223    0.1666263  56.45 0.0005251046    1.465    0.317
        18  -9.5479     78.9480    210.8623   1.3029438052e+02   2.3215428848e+01    0.1826838    0.1490602  85.69  0.001072754    1.265    0.210
        19 -10.4456    228.2099    204.8061   1.0112879364e+02   1.5532752805e+00    0.2223578    0.1875712 -22.05 0.0006590673    1.533    0.348
        20 -10.2571    192.9925    195.0165   1.0590809498e+02   8.4122185233e+00       0.5734    0.3236818 -60.82  0.002028613    6.281    0.841
        21 -11.8198     66.5610    193.4005   1.3125361804e+02   2.7747859340e+01    0.3372035    0.2265734 -44.00  0.001471983    2.152    0.535
        22 -11.8069     71.8879    186.0273   1.2950257316e+02   2.8460787274e+01    0.2472835    0.2081092 -51.60 0.0007225315    1.492    0.330
        23  -8.6013    181.4958    192.4552   1.0770209866e+02   1.0691216876e+01    0.1294056     0.103244  28.33 8.746519e-05    1.011    0.011
        24 -11.1677     80.9353    174.3507   1.2636110895e+02   2.9531791160e+01    0.2138107    0.1840508  59.05 0.0003507561    1.015    0.015
        25 -13.3881     68.3257    171.7118   1.2886331887e+02   3.1628119513e+01    0.4154894     0.252978 -44.94  0.001620603    2.204    0.546
        26 -12.3939     87.9081    166.0415   1.2380713979e+02   3.0222510068e+01     1.491337    0.4450342  47.58  0.002625379    3.338    0.700
        27 -13.3365     66.5620    143.1145   1.2600122906e+02   3.7723479699e+01     2.309232     1.043469  83.38  0.003028296    5.498    0.818
        28 -10.2255    230.7102    168.0616   9.4024018655e+01   5.4472028160e+00    0.3118907    0.1382649 -43.09  0.001282082    3.471    0.712
        29  -9.6694    100.0740    149.7118   1.1862803322e+02   3.1758167382e+01    0.2471482    0.2079956  37.30  0.000831054    1.162    0.140
        30  -9.2643    103.0344    145.6615   1.1725058462e+02   3.2136332846e+01    0.3482059    0.1945304 -30.65  0.001419329    3.104    0.678
        31 -12.2271     89.0215    148.9438   1.2122084231e+02   3.3538763253e+01    0.2537614    0.2385022 -13.03 0.0004809957    1.274    0.215
        32 -10.4732     41.0321    148.2121   1.3281506028e+02   3.9401250540e+01    0.2112848    0.1537163 -85.03  0.001099037    1.227    0.185
        33 -12.9016     41.5972    225.6903   1.3804412400e+02   2.4983933143e+01     0.325003    0.2883039  85.38  0.001035668    1.353    0.261
        34 -10.5319     98.4119    132.6578   1.1620074483e+02   3.5588627191e+01    0.2509075    0.2144583 -17.68 0.0008109203    1.419    0.295
        35  -9.7007    110.8842    135.6343   1.1352146631e+02   3.2953192373e+01     0.277403    0.2027244 -22.92  0.001301078    1.827    0.453
        36 -14.8791     48.7474    216.0847   1.3626253714e+02   2.5803051076e+01     1.569887     1.194113  51.84  0.007934564    1.119    0.106
        37 -11.6219     24.3266    235.7401   1.4134307102e+02   2.5092383067e+01    0.3075871    0.2146856 -72.64  0.002268459    1.721    0.419
        38  -9.4858    107.7718    122.9122   1.1186250261e+02   3.6161165180e+01    0.1909044    0.1793833 -18.75 0.0003115271    1.141    0.123
        39 -10.7117    167.9987    112.9824   9.4425254019e+01   2.6297608966e+01    0.3448243    0.2934309 -85.49  0.000802727    1.648    0.393
        40  -9.8167    204.9887    110.7834   8.6083611603e+01   1.8555455753e+01    0.3928292    0.2049649  34.24  0.001612638    2.010    0.502
        41 -11.0566     51.5762    109.6029   1.2535947157e+02   4.6870003622e+01    0.5125478    0.2163421  55.37  0.002028745    3.346    0.701
        42 -10.5764      1.7807     89.1605   1.3782136536e+02   5.5196235867e+01    0.2741409     0.109741 -69.34  0.001216715    1.870    0.465
        43 -10.7732      2.1444     81.0211   1.3691803485e+02   5.7005871214e+01    0.2932899   0.06334288 -76.05  0.001095447    3.604    0.723
        44  -9.2592    156.6908     77.3086   8.7230984941e+01   3.5282696114e+01    0.1519629     0.126535 -75.37 0.0002764968    1.618    0.382
        45 -12.1218    139.2982    248.4644   1.2276554622e+02   9.6927572750e+00     0.355789    0.2516663  52.91  0.002656048    1.349    0.259
        46 -11.0782    112.6406     44.8500   8.8105764187e+01   5.1124369011e+01    0.6362305    0.4026888  74.95  0.002116725    3.283    0.695
        47 -11.2587    126.3569    249.8316   1.2512376018e+02   1.1278834894e+01    0.2847557    0.1363026  30.53  0.001654286    2.039    0.510
        48  -9.9349    208.3144    246.3334   1.1069552721e+02   1.9051132914e-01    0.1132805   0.06441586  17.22 0.0007046163    1.685    0.407
