#   1 NUMBER                 Running object number                                     
#   2 MAG_AUTO               Kron-like elliptical aperture magnitude                    [mag]
#   3 X_IMAGE                Object position along x                                    [pixel]
#   4 Y_IMAGE                Object position along y                                    [pixel]
#   5 X_WORLD                Barycenter position along world x axis                     [deg]
#   6 Y_WORLD                Barycenter position along world y axis                     [deg]
#   7 A_WORLD                Profile RMS along major axis (world units)                 [deg]
#   8 B_WORLD                Profile RMS along minor axis (world units)                 [deg]
#   9 THETA_WORLD            Position angle (CCW/world-x)                               [deg]
#  10 FWHM_WORLD             FWHM assuming a gaussian core                              [deg]
#  11 ELONGATION             A_IMAGE/B_IMAGE                                           
#  12 ELLIPTICITY            1 - B_IMAGE/A_IMAGE                                       
         1  -9.0967     74.0614     19.4774   7.1307697339e+01   6.3908419488e+01    0.3860357      0.19219 -50.10  0.001150099    2.344    0.573
         2  -8.6633    135.1228     11.9769   5.1375997533e+01   5.0251179707e+01     0.225857    0.1944102 -57.33 0.0003203552    1.225    0.184
         3  -7.8117     83.5037     11.0332   6.3629975135e+01   6.3237575549e+01    0.2005168    0.1049874 -50.10 0.0007116377    2.404    0.584
         4  -8.6643     55.5732      9.9388   7.3778212783e+01   6.8909970065e+01    0.2311515    0.1969536 -68.35 0.0007849532    1.500    0.333
         5  -8.4236     90.6244      8.8703   6.0278805638e+01   6.1927193999e+01    0.2102672    0.1183926 -38.32  0.000938936    1.751    0.429
         6  -7.5870    101.5844      8.2533   5.6941870577e+01   5.9395693825e+01    0.1474214    0.1089282 -70.64 0.0005691387    1.739    0.425
         7  -8.6076     33.0812      5.0384   8.2479269967e+01   7.3188580919e+01    0.2738549    0.1622948 -63.91  0.001297459    2.602    0.616
         8  -7.9347     15.6309      2.8009   9.2384260893e+01   7.5568559886e+01    0.1624996   0.09854557 -60.79 0.0004516588    1.596    0.373
         9  -8.3434     62.3712      1.6170   6.5874502616e+01   6.8921208067e+01    0.2008789    0.1629139  66.40  0.001136875    1.545    0.353
        10  -8.3429     79.0875      4.4361   6.1448074189e+01   6.5094532868e+01    0.2635883    0.1708545 -39.85  0.001172717    1.559    0.358
        11  -8.6482    232.5712    247.3260   8.8842446796e+01  -2.9936114168e-01    0.1656109    0.1362298  17.97 0.0009072382    1.353    0.261
        12  -9.0826    242.5647    247.3790   8.7470485405e+01  -1.5787584457e+00    0.2577133    0.1339511 -13.98  0.001862241    2.290    0.563
        13  -8.5936     93.9397    249.4580   1.1014117970e+02   1.7963932012e+01     0.174712    0.1035437  67.06  0.001139165    1.674    0.403
        14  -7.5097     40.3512    248.6642   1.1854829713e+02   2.4218907742e+01    0.1040822   0.04014871  57.50  0.000704589    1.787    0.441
        15  -9.9236    223.9537    244.1027   8.9666760565e+01   1.0634687216e+00    0.2995789    0.1869221 -38.47  0.002303612    2.535    0.605
        16  -9.0812    147.1817    246.1534   1.0144194851e+02   1.1358054353e+01    0.2238198    0.1451238  67.77  0.001607632    2.111    0.526
        17  -9.5800    119.6083    245.2517   1.0573827079e+02   1.5176226833e+01    0.2515977    0.1479377  61.44  0.001288573    1.710    0.415
        18  -8.5866     67.5299    245.2795   1.1410345368e+02   2.1675800706e+01     0.142579    0.0835669 -89.19 0.0008023376    1.957    0.489
        19  -9.0185      9.8678    244.3979   1.2312433461e+02   2.7793692113e+01    0.2557085   0.06334325  75.00  0.001333873    4.179    0.761
        20  -8.5939    139.4520    244.4679   1.0250737772e+02   1.2597037222e+01    0.1379931   0.09410127 -79.74  0.001020484    2.410    0.585
        21  -9.0349    202.1299    242.7589   9.2676653615e+01   4.1106613055e+00    0.2382708    0.1528528 -21.03  0.001340816    2.063    0.515
        22  -8.6708    194.2875    244.0410   9.3989065180e+01   5.0742044394e+00    0.1923266    0.1157486  20.97  0.001080255    1.679    0.405
        23  -8.8702    194.0830    239.6421   9.3520916520e+01   5.4952740757e+00      0.16753    0.1434781  63.26 0.0006188038    1.725    0.420
        24  -9.2584    169.4552    242.9256   9.7648663667e+01   8.6166469638e+00    0.2520413    0.1765713 -10.66  0.001614655    2.176    0.540
        25  -8.3990     88.2596    242.1781   1.1057409287e+02   1.9591516101e+01    0.1592769   0.08296739 -75.12 0.0007982061    2.542    0.607
        26  -9.1834     77.5649    242.8982   1.1235381322e+02   2.0805362466e+01    0.1685081   0.09614241  75.51 0.0009964949    1.872    0.466
        27  -9.0645    183.1211    240.2946   9.5261164361e+01   6.9649011456e+00    0.3273116    0.1901281  61.08    0.0018829    2.874    0.652
        28  -7.9588    183.6859    235.7015   9.4659080345e+01   7.3252357863e+00    0.1778353   0.09209219  29.62 0.0009747379    1.737    0.424
        29  -9.5458    160.2414    240.4967   9.8837640084e+01   1.0150607953e+01    0.2483034    0.1769346  77.08  0.001184582    2.322    0.569
        30  -8.1101    153.4848    242.0042   1.0005355356e+02   1.0933374746e+01    0.1123371    0.1031826 -68.44 0.0005668933    1.583    0.368
        31  -7.5356     49.3301    242.6587   1.1688682157e+02   2.4077000868e+01    0.1048955   0.04401287  58.49 0.0007051424    1.745    0.427
        32  -8.2158    214.4892    241.0663   9.0663321946e+01   2.5684388140e+00    0.1208846   0.09152451 -10.55   0.00103164    1.588    0.370
        33  -9.0528    146.3643    238.9394   1.0088792979e+02   1.2258733329e+01    0.2120218    0.1566252 -75.85  0.001657377    2.110    0.526
        34  -8.6937    240.6187    239.4152   8.6744241184e+01  -7.7689839824e-01    0.1902585   0.08491041 -18.10  0.001248188    2.797    0.642
        35  -8.1685    208.9585    238.8907   9.1212827830e+01   3.5025613168e+00     0.137264     0.105437  51.82 0.0006027506    1.666    0.400
        36  -8.9659    135.6544    238.9626   1.0261416360e+02   1.3741989174e+01    0.1886185    0.1031338  54.64 0.0009711384    1.648    0.393
        37  -8.2481    129.4830    239.0080   1.0361785265e+02   1.4584406683e+01    0.1250521   0.07699565  76.68 0.0008094612    2.514    0.602
        38  -8.0448     41.2636    239.6530   1.1805150808e+02   2.5359704883e+01   0.09912791   0.04510477  60.65 0.0002737418    1.607    0.378
        39  -9.0091    230.9434    237.0760   8.7805796491e+01   6.6821227016e-01    0.1713027    0.1603114 -47.93  0.001537283    2.011    0.503
        40  -8.9572     26.5066    237.3840   1.2033151841e+02   2.7193851540e+01    0.3806529   0.02617133  52.02  0.001755176    3.920    0.745
        41  -8.2185     58.8529    237.3444   1.1509209495e+02   2.3750487864e+01    0.2809735          nan  44.49 0.0009496975    6.176    0.838
        42  -9.7841    214.8598    233.1779   8.9643341953e+01   3.1682534312e+00    0.3647771    0.2821257  82.93  0.002357772    3.540    0.718
        43  -8.9692    203.2702    235.0463   9.1597332582e+01   4.6229527419e+00    0.1883889    0.1655527 -71.37  0.001202882    2.107    0.525
        44  -9.6895    175.6853    233.3228   9.5637999068e+01   8.7019641743e+00    0.3100161    0.2013517 -59.52  0.002142126    2.770    0.639
        45  -7.8978    170.2076    235.9528   9.6790490436e+01   9.2154553758e+00   0.09997559   0.08501723 -37.05 0.0004434107    1.664    0.399
        46  -9.3772    109.1095    234.5975   1.0659024002e+02   1.7882803044e+01    0.3936442    0.1570148  54.01  0.001802195    2.204    0.546
        47  -9.3414     78.8281    234.5259   1.1162861196e+02   2.1776619917e+01    0.2413183    0.1359672  75.43  0.001096186    1.918    0.479
        48  -9.0287    247.8839    234.9563   8.5165547151e+01  -1.4043886037e+00    0.1539042    0.1129383  11.21 0.0007682643    1.222    0.182
        49  -9.4896    246.7669    228.2632   8.4429503050e+01  -7.8158088426e-01    0.3655609    0.1753415 -12.84  0.002212924    2.479    0.597
        50  -8.2402    153.2704    235.6385   9.9452108253e+01   1.1653994951e+01   0.09750199   0.06629474  60.55  0.000699771    1.651    0.394
        51  -8.2976     99.8645    234.7381   1.0813874442e+02   1.9083773593e+01    0.1843101   0.09942405  66.73 0.0009026112    2.032    0.508
        52  -9.3854      7.9980    235.0179   1.2320271850e+02   2.9292435594e+01    0.1113278    0.1003348  70.73 0.0007223618    1.600    0.375
        53  -8.1035    122.9556    234.0299   1.0424641038e+02   1.6080172059e+01    0.1865537    0.1133044  70.88  0.001040287    2.137    0.532
        54  -8.6967    120.6189    228.5448   1.0414652726e+02   1.7091755892e+01    0.3263015    0.1700818  70.93  0.001752264    3.262    0.693
        55  -9.6276     68.2977    232.1176   1.1323969690e+02   2.3383206378e+01    0.3802796    0.1707532  70.74  0.002238252    2.498    0.600
        56  -8.7441    140.0772    230.2183   1.0105736221e+02   1.4148441501e+01    0.2264997    0.1228607  57.83 0.0008376581    1.945    0.486
        57  -8.3948    132.7607    232.9252   1.0252628083e+02   1.4856349154e+01    0.1562425   0.09823053  67.65    0.0010617    1.978    0.495
        58  -9.1053    236.1698    230.8382   8.6260011418e+01   4.4124821937e-01    0.1894021    0.1638388 -25.05 0.0008504909    1.766    0.434
        59  -9.1647    186.6038    230.9774   9.3659517711e+01   7.3676141139e+00    0.2356379    0.1748995  73.29  0.001409372    2.429    0.588
        60  -7.9867    158.1362    232.1848   9.8309989428e+01   1.1340912638e+01    0.1421078   0.09556874  51.16 0.0006381887    1.322    0.244
        61  -8.5513     92.3058    231.8142   1.0918626022e+02   2.0451787003e+01    0.1984316    0.1116489  62.18 0.0009314964    1.602    0.376
        62  -8.6906      1.9277    230.9499   1.2407529923e+02   3.0426322540e+01    0.1987247   0.07077286  58.14  0.001042217    1.732    0.423
        63  -9.9200    149.7281    226.3017   9.9059512248e+01   1.3222946265e+01    0.4333538    0.2705011  85.38  0.002372162    3.752    0.733
        64  -8.6623    162.2515    227.9765   9.7188543230e+01   1.1209972693e+01    0.2419734    0.1251889  56.45  0.001118825    2.272    0.560
        65  -8.9276    127.8545    227.1675   1.0280020241e+02   1.6254099750e+01    0.2185985     0.150857  72.53 0.0009344836    1.759    0.432
        66  -8.1698    229.9422    229.0077   8.6909455409e+01   1.4283390234e+00     0.135627    0.1111596  47.75 0.0008666469    1.681    0.405
        67  -7.5174    223.4705    227.4700   8.7647651996e+01   2.4464606045e+00    0.1036789   0.07255576  29.44 0.0001684261    1.028    0.027
        68  -8.7826    206.0334    226.3231   9.0100225037e+01   5.0125513112e+00    0.1702759    0.1411268 -34.77 0.0009161591    1.737    0.424
        69  -7.9406     49.6698    227.3014   1.1611265214e+02   2.6219984687e+01    0.1751735    0.0720878  59.61  0.001117914    1.889    0.471
        70  -8.2428    200.0184    226.2938   9.1015225471e+01   5.8812378316e+00    0.1444328    0.1046521  35.10 0.0005218567    1.067    0.062
        71  -8.7556     94.3625    224.4034   1.0827691644e+02   2.1201443420e+01    0.3711734    0.1337748  57.79  0.001827809    3.034    0.670
        72  -8.7743    216.5379    223.7209   8.8180690937e+01   3.7413424429e+00    0.1988021    0.1606414  67.21  0.001057511    2.201    0.546
        73  -8.7460    180.4660    224.3653   9.3839710909e+01   8.9268322617e+00    0.1972255    0.1424957  56.69 0.0008603472    1.612    0.379
        74  -9.0074    104.7338    223.7722   1.0643703225e+02   1.9903263189e+01    0.2562007     0.151624  73.48   0.00121604    2.049    0.512
        75  -8.6464     38.3753    224.6334   1.1789773218e+02   2.7841120501e+01    0.1675022   0.06285586  79.41 0.0008418814    3.017    0.669
        76  -8.5979    172.9830    223.3841   9.4924719653e+01   1.0135607982e+01    0.1637433    0.1425763  77.40 0.0006911996    1.637    0.389
        77  -8.0828    113.7129    224.0773   1.0491933983e+02   1.8631863794e+01    0.1544804      0.10735  67.91 0.0005745708    1.479    0.324
        78  -8.4048    194.3394    232.7574   9.2676609325e+01   6.0911965783e+00    0.1647482    0.1316896  52.33 0.0007703463    1.515    0.340
        79  -7.8042     12.6545    224.6599   1.2219374070e+02   3.0392318405e+01     0.073458   0.07121313 -80.51 0.0007047448    1.783    0.439
        80  -8.3581    162.9954    222.6602   9.6469119340e+01   1.1694599425e+01    0.2103634    0.1137568  52.36  0.001312903    1.748    0.428
        81  -8.8071    158.9768    220.4031   9.6875203102e+01   1.2550045604e+01    0.2229554    0.1445233  60.08 0.0008516882    1.783    0.439
        82  -8.5236    140.4777    222.5401   1.0021005327e+02   1.5020988928e+01    0.1453372    0.1019024 -76.83 0.0006077454    2.176    0.540
        83  -8.9194    239.0308    221.6034   8.4609352979e+01   7.6331078369e-01    0.1593374    0.1527943  21.52 0.0007916256    1.708    0.415
        84  -9.3028    225.5829    221.6502   8.6563403541e+01   2.6344347087e+00    0.1963779    0.1653642  28.72  0.001151484    1.320    0.243
        85  -9.2608    192.3713    221.3720   9.1584368645e+01   7.4739087835e+00    0.2131871    0.1799035  67.37  0.001041077    1.747    0.428
        86  -8.2242     27.4802    221.5031   1.1961564892e+02   2.9438202189e+01    0.1433042   0.07468415 -69.35  0.001034092    2.336    0.572
        87  -9.2158    120.3315    219.3519   1.0334027031e+02   1.8334069832e+01    0.3247449    0.1650032  63.88  0.001810135    2.524    0.604
        88  -8.7045     82.7521    220.6049   1.1000722668e+02   2.3248050355e+01    0.2759587    0.1038794  59.00  0.001434397    2.699    0.630
        89  -8.2416     72.9303    220.4432   1.1171397568e+02   2.4505093595e+01    0.2115691   0.08089811  66.12  0.001024578    3.420    0.708
        90  -8.2668    210.0489    219.4601   8.8596490430e+01   5.0587282111e+00     0.144646    0.1196415  18.37 0.0005853643    1.205    0.170
        91  -8.2808    202.6101    220.2734   8.9846183609e+01   6.0718598664e+00    0.1222377   0.09137516  -0.82 0.0004180071    1.507    0.336
        92  -8.8407    249.0882    218.4092   8.2742855204e+01  -3.6490701204e-01    0.2645678    0.1624137  58.18   0.00152223    3.480    0.713
        93  -8.1284    183.3391    219.2989   9.2759533183e+01   9.0290854885e+00    0.1095692    0.0669191  23.99 0.0002527256    1.662    0.398
        94  -8.6607    179.1483    217.6897   9.3235537861e+01   9.8292965879e+00    0.1522673    0.1450857  61.52 0.0008358741    1.421    0.296
        95  -7.5505    151.4820    218.5206   9.7917016837e+01   1.3889945434e+01    0.1105731    0.0811155  41.09 0.0001207468    1.035    0.034
        96  -8.7840    143.1642    216.8878   9.9149433097e+01   1.5329335217e+01     0.245502    0.1611096  78.58   0.00151569    2.470    0.595
        97  -9.4408    132.7221    215.9044   1.0084387191e+02   1.6998771144e+01    0.3466395    0.2078183  76.14  0.001977844    2.789    0.641
        98  -9.0527     51.4739    217.2755   1.1528233232e+02   2.7522824729e+01    0.2274447    0.1160711  71.44  0.001020627    1.790    0.441
        99  -8.8546    169.3660    216.2492   9.4661501429e+01   1.1466328622e+01    0.2098363    0.1654391  69.60 0.0007771794    1.714    0.416
       100  -8.2853    111.6895    217.3573   1.0466064588e+02   1.9825979694e+01    0.1715697   0.09577087  60.18  0.001067171    1.725    0.420
       101  -8.0618     61.6297    217.2684   1.1349539618e+02   2.6347322392e+01    0.1675203   0.07955918  61.70  0.001071054    1.764    0.433
       102  -8.5256    232.6393    215.0824   8.4621387517e+01   2.1831565695e+00    0.1684525    0.1566043  34.60 0.0009305855    1.594    0.373
       103  -8.0225     18.4024    216.2085   1.2097528915e+02   3.1145719846e+01    0.1324354   0.06500483  74.99 0.0008941393    1.672    0.402
       104  -8.3855    185.6675    214.3759   9.1759298495e+01   9.1980118341e+00    0.1446761    0.1358095 -68.11 0.0006268548    1.589    0.371
       105  -8.1896    154.2527    215.1795   9.7067065744e+01   1.3878823059e+01    0.1428438    0.1072342  57.93 0.0004769564    1.372    0.271
       106  -9.0216     93.0214    214.0574   1.0768011617e+02   2.2859867403e+01    0.3095257    0.1309736  58.95  0.001207988    2.381    0.580
       107  -7.7725     41.3695    215.6903   1.1697334192e+02   2.8885977686e+01    0.1127117    0.0472571  58.25 0.0007035441    1.765    0.434
       108  -9.5179    213.9109    212.1544   8.7011767578e+01   5.1666211100e+00    0.2504629    0.2222297  54.38   0.00143811    1.606    0.377
       109  -9.4666     73.1510    212.1154   1.1110024897e+02   2.5730359243e+01    0.5044194    0.1432335  56.79  0.002153147    3.819    0.738
       110  -8.0666    225.0960    212.6305   8.5387965244e+01   3.4782312062e+00    0.1507835    0.1329305  -2.95 0.0007323528    1.406    0.289
       111  -8.9731    161.5085    212.5754   9.5529585629e+01   1.3089738770e+01    0.1913274    0.1553938  58.17  0.000710036    1.340    0.254
       112  -8.0418    106.4742    212.9308   1.0517626540e+02   2.1179616104e+01    0.1314769     0.102291 -84.32 0.0007138454    1.528    0.345
       113  -8.8363    204.2931    210.9253   8.8331982142e+01   6.7262946020e+00    0.1666922    0.1617003  87.69 0.0006434451    1.611    0.379
       114  -9.4027    175.5895    210.1712   9.2868513927e+01   1.1204284961e+01    0.3188942    0.1988677  63.29   0.00151905    2.382    0.580
       115  -9.2866      7.1216    209.9829   1.2272944949e+02   3.3173310189e+01    0.4397317   0.07197316  65.08   0.00173184    5.528    0.819
       116  -7.8680    242.9686    211.7747   8.2655534791e+01   9.9337938723e-01    0.1343631   0.06484274  38.58 0.0003785155    1.581    0.367
       117  -8.0872    192.4016    211.1188   9.0245599627e+01   8.5150723467e+00    0.1233522    0.1043129 -53.89 0.0009361447    1.805    0.446
       118  -8.8351    147.9436    210.5947   9.7615879363e+01   1.5405507603e+01    0.2334252     0.149886  62.70  0.001097979    1.820    0.451
       119  -8.7842    116.1880    210.4328   1.0319957689e+02   2.0153954503e+01    0.2436145     0.145401  67.70  0.001100927    1.943    0.485
       120  -9.1862    236.5320    208.4536   8.3099780017e+01   2.1810233647e+00    0.2246517    0.2134216  -0.29   0.00135791    1.595    0.373
       121  -8.4518     85.5209    209.3590   1.0864851461e+02   2.4560481017e+01    0.2525533    0.1289916  71.06  0.001341313    2.302    0.566
       122  -8.3872    139.2184    208.2270   9.8868243014e+01   1.7040494154e+01    0.2134749    0.1289451  64.36 0.0007784967    2.030    0.507
       123  -8.1508    126.6456    208.5364   1.0113376434e+02   1.8887328046e+01    0.1688959    0.1186599  74.45 0.0008536841    1.712    0.416
       124  -7.7882     46.2881    209.5791   1.1578737431e+02   2.9308180510e+01    0.1138529   0.05095128  63.19 0.0006231859    1.848    0.459
       125  -9.2848    246.3882    207.3873   8.1523227296e+01   8.6351666293e-01    0.2000225    0.1566799  -1.25 0.0007276546    1.305    0.234
       126  -8.0149    156.4177    208.1456   9.5859384316e+01   1.4412662294e+01    0.1263827    0.1057102 -81.21 0.0008441237    1.681    0.405
       127  -9.2699     99.2965    206.1277   1.0584976615e+02   2.3180476363e+01    0.2898256    0.1676939  73.09  0.001267769    2.053    0.513
       128  -8.6839     56.3958    205.4264   1.1370414682e+02   2.8817277287e+01     0.248823    0.1195583  70.06  0.001034928    2.014    0.503
       129  -9.2802    194.8132    203.5912   8.8823569574e+01   8.9377448711e+00    0.2712163    0.2069932 -24.59  0.001407708    1.605    0.377
       130  -9.1335    192.4865    197.4936   8.8334395555e+01   9.9707372994e+00    0.2471166    0.2157505 -54.04 0.0008595572    1.672    0.402
       131  -9.0671    183.9223    204.1572   9.0687845811e+01   1.0584749397e+01    0.2969223    0.1817447  61.89  0.001476929    2.446    0.591
       132  -8.6696    131.2897    204.0666   9.9810129191e+01   1.8809834078e+01    0.2564783      0.15892  74.65  0.001226841    2.384    0.581
       133  -8.1572    109.1837    205.2048   1.0394913360e+02   2.1918122224e+01    0.1540864    0.1034831  62.81 0.0005942908    1.378    0.274
       134  -8.1469     25.0327    205.2206   1.1941049732e+02   3.2251939700e+01    0.1553119   0.07230682  66.22 0.0008112122    1.661    0.398
       135  -9.6585    163.7558    203.0873   9.3957222504e+01   1.3893420031e+01    0.3146508    0.1922751  55.68 0.0009012514    1.701    0.412
       136  -9.5371    250.1245    201.7894   8.0148672934e+01   7.8420416692e-01    0.2943969    0.1425179 -21.62  0.001761251    2.219    0.549
       137  -9.7398    245.8193    193.9857   7.9548792662e+01   2.0539272937e+00    0.3007367    0.2497625  74.16  0.001417208    2.525    0.604
       138  -8.4505    210.9734    202.2664   8.6057027604e+01   6.5620353998e+00    0.1591665    0.1494744  58.01 0.0004961351    1.557    0.358
       139  -7.4129     34.3061    203.6577   1.1766010232e+02   3.1560992705e+01    0.1118167   0.05039375  61.15 0.0003176122    1.687    0.407
       140  -9.2441    242.8848    200.7847   8.1029508343e+01   1.9072431084e+00     0.220829    0.1637598 -19.47   0.00105795    1.550    0.355
       141  -8.1384    222.1329    201.5287   8.4223141152e+01   4.9256617054e+00     0.154061    0.1389777  30.24 0.0007642776    1.376    0.273
       142  -8.9096    140.5511    201.1818   9.7807632049e+01   1.7784461365e+01    0.2597409    0.1689961  68.09  0.001199067    1.947    0.486
       143  -8.4195     80.2164    201.4825   1.0898678533e+02   2.6485491256e+01      0.25616    0.1148453  59.33  0.001426274    2.070    0.517
       144  -8.3319     48.3837    202.1499   1.1498619243e+02   3.0274165223e+01    0.1446112   0.07708106  80.07 0.0009453393    1.806    0.446
       145  -9.1577    237.0821    198.5901   8.1538558268e+01   2.9477086469e+00    0.2224231    0.1485448 -26.70  0.001184086    1.771    0.435
       146  -9.5812    149.5658    198.6584   9.5881079563e+01   1.6709904086e+01      0.35061    0.2229545  72.73    0.0014699    2.510    0.602
       147  -9.0078    123.9213    199.3217   1.0061918609e+02   2.0603038472e+01    0.2721564    0.1635766  65.96  0.001221883    1.941    0.485
       148  -9.3685    112.8610    198.3957   1.0257094611e+02   2.2397305004e+01    0.3681888    0.2123588  70.61   0.00161078    2.213    0.548
       149  -8.3679    176.9743    199.1426   9.1165238177e+01   1.2267654040e+01    0.1672393    0.1316189  52.59 0.0004579192    1.317    0.241
       150  -7.8072    132.6498    199.7001   9.9062263207e+01   1.9213888236e+01    0.1100716   0.08035592  22.79 0.0007037424    1.691    0.409
       151  -8.9683     88.6935    198.2728   1.0711148621e+02   2.5860500462e+01    0.3033808     0.183315  88.10  0.001919203    1.970    0.492
       152  -8.4213    202.3058    197.8713   8.6789173941e+01   8.3663704466e+00    0.1820979    0.1622007  61.36 0.0008945579    1.550    0.355
       153  -9.1851     61.5785    197.0737   1.1217435510e+02   2.9563664079e+01    0.3405499    0.1421843  65.90  0.001740532    2.535    0.606
       154  -8.8476     12.5853    197.4690   1.2138225502e+02   3.4725834324e+01    0.2673185   0.08056842  76.31  0.001347054    3.269    0.694
       155  -8.7936    215.9915    195.6494   8.4285082539e+01   6.4394126675e+00    0.1964208    0.1539778 -45.57 0.0008346586    1.938    0.484
       156  -8.4484     11.7779    206.6246   1.2182082923e+02   3.3290853656e+01    0.1380087   0.05809009  46.98   0.00047655    1.606    0.377
       157  -7.9176     29.3231    197.6432   1.1829718649e+02   3.3075525157e+01    0.1151741   0.04952834  61.06 0.0007045298    1.768    0.434
       158  -8.2404    132.9385    195.9603   9.8566050985e+01   1.9701844698e+01     0.174073    0.1180098  65.76 0.0005210495    1.627    0.386
       159  -7.7466     36.2848    196.6596   1.1694498222e+02   3.2516684705e+01    0.1116651    0.0533227  62.53 0.0002611202    1.635    0.388
       160  -8.8324    224.6361    194.2088   8.2727823222e+01   5.2350097244e+00    0.2149001    0.1549778 -46.33  0.001321907    2.242    0.554
       161  -8.8540    185.3170    194.9490   8.9160978433e+01   1.1415513450e+01    0.2018639     0.159522  48.98 0.0007026497    1.277    0.217
       162  -8.9909    161.1913    194.5566   9.3275098552e+01   1.5385564573e+01    0.2344412    0.1659707  65.40  0.001035649    1.759    0.431
       163  -8.9892     44.1034    193.7770   1.1529977392e+02   3.2155413751e+01    0.3854886    0.1289707  61.41  0.001913457    2.807    0.644
       164  -8.2602    230.9816    194.2720   8.1776158433e+01   4.2541795437e+00    0.1550529     0.114248  28.28 0.0005522548    1.056    0.053
       165  -8.8912     77.1083    193.8610   1.0894281289e+02   2.8130932653e+01    0.2233601    0.1380755  61.91 0.0005784761    1.348    0.258
       166  -8.0201    205.1863    191.9401   8.5434484417e+01   8.5368736175e+00    0.1285228   0.08609262 -28.80 0.0004769928    1.774    0.436
       167  -8.2579    198.8886    191.7397   8.6428946281e+01   9.5765758564e+00    0.1747172    0.1488404 -84.44 0.0007681808    2.000    0.500
       168  -8.0035    178.8671    191.7796   8.9799384936e+01   1.2845906237e+01    0.1528341    0.1204618  53.65 0.0005128183    1.337    0.252
       169  -8.4310    172.4090    192.0265   9.0952641427e+01   1.3876518995e+01    0.1973328    0.1411153  58.43 0.0007825883    1.561    0.359
       170  -9.1822    139.6109    190.8422   9.6696695856e+01   1.9381622234e+01     0.304386    0.2059592  75.84  0.001126213    2.063    0.515
       171  -8.5521     22.9685    192.4668   1.1925906182e+02   3.4590353376e+01    0.1589792   0.03953062  51.46 0.0007170092    2.555    0.609
       172 -10.4548     92.3770    188.8538   1.0550840329e+02   2.6874557201e+01     0.862044    0.1926175  48.97  0.003269487    3.771    0.735
       173  -8.4017    148.6240    189.5002   9.4858011317e+01   1.8113578727e+01    0.1790274    0.1367922 -87.15  0.001095342    1.859    0.462
       174  -8.5936      6.3255    190.0176   1.2230105864e+02   3.6553062466e+01    0.1438076   0.04811263 -61.15 0.0007050874    4.387    0.772
       175  -8.5572    237.2268    188.5168   7.9930429286e+01   3.8280569997e+00    0.1824611    0.1359404  -7.68 0.0005790592    1.345    0.256
       176  -8.9832    216.5839    188.1101   8.3020318021e+01   7.1062329466e+00    0.2124411    0.1854931 -29.74  0.000728959    1.508    0.337
       177  -9.4226    156.1221    187.6502   9.3235233489e+01   1.7137526708e+01     0.266683    0.2068223 -69.79 0.0009663208    1.801    0.445
       178  -8.9131    129.2776    188.6526   9.8357077674e+01   2.1350812150e+01    0.2371466    0.1578735  66.54 0.0008591549    1.673    0.402
       179  -9.7617    120.9443    186.7882   9.9720370597e+01   2.2946198940e+01    0.4123077    0.2371138 -81.27  0.002120971    2.924    0.658
       180  -8.8488     34.2215    188.1649   1.1689072591e+02   3.4193590220e+01    0.2735918    0.1168173  67.39  0.001142339    2.055    0.513
       181  -8.8762    191.6721    187.5135   8.6984422379e+01   1.1240011128e+01    0.2452878    0.1844986  73.62  0.001144797    2.195    0.544
       182  -9.1053     54.7497    187.0178   1.1278417618e+02   3.2096669258e+01    0.3676789    0.1503181  64.43  0.001911979    2.448    0.591
       183  -8.2340    230.0921    187.3564   8.0812691209e+01   5.0410738980e+00    0.1628216     0.115374  34.74  0.001131438    1.170    0.145
       184  -8.8096    164.8927    186.7183   9.1519776281e+01   1.5805228281e+01    0.1878978    0.1735121 -79.19 0.0006786041    1.408    0.290
       185  -9.2789    109.5372    186.1924   1.0186375849e+02   2.4794429948e+01    0.3094281    0.1867785  68.47  0.001320888    1.876    0.467
       186  -8.5886    249.4413    185.6638   7.7686008559e+01   2.2315270103e+00     0.184121    0.1578801  -1.85 0.0007380742    1.331    0.248
       187  -8.4907    202.8329    185.0181   8.4740814578e+01   9.6762813988e+00    0.1638901    0.1425038  46.37 0.0005760523    1.316    0.240
       188  -8.8631    182.9535    184.7451   8.8047366711e+01   1.3027787879e+01    0.1844608    0.1745374 -52.70  0.000673333    1.406    0.289
       189  -8.2341    138.9138    184.3701   9.5979798757e+01   2.0439009324e+01    0.1786569    0.1531175  80.73 0.0002748525    1.342    0.255
       190  -8.9819     66.9209    184.7528   1.1018381949e+02   3.0995677057e+01    0.3305629    0.1216228  54.98  0.001141075    2.370    0.578
       191  -8.5923    224.0910    183.8369   8.1160359414e+01   6.3355141629e+00     0.177289    0.1462608   2.79 0.0004894051    1.201    0.168
       192  -8.6182    210.0838    183.9674   8.3393981947e+01   8.5962519233e+00    0.1788918    0.1549522  -5.33 0.0007308365    1.268    0.211
       193  -9.0062    174.1503    183.2039   8.9352217916e+01   1.4708108738e+01    0.2591394    0.1903861 -55.60 0.0008998794    1.895    0.472
       194  -8.3054      2.2431    183.8714   1.2288950163e+02   3.7970801856e+01    0.1812611   0.08888265  50.48 0.0009704542    1.452    0.311
       195  -9.2207    241.3463    181.8854   7.8233865487e+01   3.8015482386e+00    0.3003544    0.2163234 -55.40  0.001773966    3.016    0.668
       196  -8.2042    196.8530    183.3391   8.5465649600e+01   1.0861858552e+01    0.1498899    0.1345901  28.79 0.0005700122    1.177    0.150
       197  -8.9177     44.4196    182.4847   1.1453505856e+02   3.4089175873e+01    0.2942011    0.1344905  65.93   0.00112506    1.962    0.490
       198  -9.1556    147.6194    180.8129   9.3846983771e+01   1.9520285745e+01    0.2939702    0.1977878  70.68 0.0009862018    1.995    0.499
       199  -8.0557     83.3904    182.2640   1.0664460999e+02   2.9242806819e+01    0.1483485   0.09669542  87.79 0.0004978662    1.651    0.394
       200  -9.6207     25.5933    178.9471   1.1811581252e+02   3.6714212266e+01    0.6031187    0.1755562  72.86  0.002416658    4.536    0.780
       201  -8.9180    205.0054    177.9309   8.3238019990e+01   1.0110099110e+01    0.2542198    0.1606739 -34.15  0.001562019    1.870    0.465
       202  -8.6253    137.5738    179.3593   9.5555401820e+01   2.1412122959e+01     0.246602    0.1662666  73.81   0.00101126    1.972    0.493
       203  -9.4175    191.3888    178.3259   8.5588589239e+01   1.2381059207e+01    0.2180677    0.1978232  63.14 0.0005785485    1.402    0.287
       204  -8.1932    169.1606    178.4906   8.9526262135e+01   1.6181358797e+01    0.1767363     0.151463  61.78 0.0005616746    1.314    0.239
       205  -9.0690     35.9365    176.7291   1.1589282899e+02   3.6055348045e+01    0.4024265    0.1341975  72.45  0.001697126    3.910    0.744
       206  -9.6167    248.4561    176.6396   7.6312346755e+01   3.1797837177e+00    0.3364155    0.2325959 -38.07  0.001810863    2.036    0.509
       207  -8.6109    250.5147    172.8856   7.5368591710e+01   3.2006410265e+00    0.1600746     0.130455  14.74 0.0005011134    1.124    0.110
       208  -8.4857    231.1384    177.0808   7.8952522288e+01   5.8746964173e+00    0.1955584    0.1531233 -22.34 0.0007963027    1.451    0.311
       209  -8.7271    129.1687    177.5305   9.6939170688e+01   2.3080636973e+01    0.2430357    0.1682321  79.03 0.0009499352    1.878    0.468
       210  -8.1517     97.0571    177.8172   1.0340548835e+02   2.8053073545e+01    0.1808008    0.1327269  18.71  0.001078536    2.060    0.514
       211  -8.3763    217.3216    177.0987   8.1105816068e+01   8.1369614131e+00    0.1531117    0.1327983   5.77 0.0005890253    1.183    0.155
       212  -9.0960    183.1593    176.2416   8.6678144662e+01   1.4057865663e+01    0.2056504    0.1948562 -57.63 0.0006434543    1.387    0.279
       213  -8.7671     89.0754    176.6947   1.0491583539e+02   2.9409288514e+01    0.2413257    0.1464083  72.63 0.0009546373    1.765    0.433
       214  -9.0959     58.9903    175.9903   1.1107884854e+02   3.3547195157e+01    0.4045901    0.1368134  58.30  0.001704323    3.015    0.668
       215  -9.5015     55.9685    171.4530   1.1133891684e+02   3.4749047770e+01    0.4007774     0.174872  71.53  0.001954356    2.683    0.627
       216  -8.6755     12.8854    176.7468   1.2056476082e+02   3.8315142838e+01    0.2137259   0.08200582  65.83  0.001089473    2.075    0.518
       217  -9.2879    158.8965    175.1151   9.0894011300e+01   1.8421002165e+01    0.3205829    0.2227266  74.82  0.001290951    2.153    0.536
       218  -9.4430    104.2067    174.4770   1.0155635090e+02   2.7548970969e+01     0.433909    0.2388244  71.45  0.001688607    2.444    0.591
       219 -10.7837     75.5921    169.9533   1.0703270137e+02   3.2500901273e+01    0.9887763    0.4023966 -84.37  0.003904327    4.372    0.771
       220  -8.7342     79.2622    158.5817   1.0500202805e+02   3.4116456222e+01    0.3454259    0.1079893  36.48  0.001390407    3.195    0.687
       221  -8.2461    224.1898    174.5935   7.9599363722e+01   7.2622347655e+00    0.1733868    0.1480104 -17.80 0.0005649842    1.354    0.261
       222  -9.4625    175.9248    172.3304   8.7331848437e+01   1.5832114779e+01    0.2733296    0.1963712 -48.28  0.001201851    1.772    0.436
       223  -8.5042    142.9093    172.6521   9.3567721378e+01   2.1539121578e+01    0.2143434    0.1599089 -83.00 0.0007819129    1.848    0.459
       224  -8.4078    134.7386    171.8700   9.5054778801e+01   2.3049653930e+01    0.2097333    0.1612402  87.24  0.001005934    1.624    0.384
       225  -9.5428    121.4035    170.4358   9.7525945192e+01   2.5502763673e+01    0.3157914    0.2156114 -88.87 0.0009916283    1.952    0.488
       226  -8.9140     44.8101    170.8643   1.1365478256e+02   3.6165598892e+01    0.3091852    0.1463352  74.94  0.001360995    2.121    0.529
       227  -8.9806    230.1131    169.7320   7.7839519427e+01   6.7830222807e+00    0.2815048    0.1446158 -29.85  0.001582218    2.118    0.528
       228  -8.8137    205.7127    169.8784   8.1761895852e+01   1.0915533211e+01    0.2818083    0.1383343 -35.54 0.0009763474    2.349    0.574
       229  -8.0730    244.8538    169.7372   7.5634393895e+01   4.3834427302e+00    0.1573729    0.1315196  65.53  0.001061296    1.951    0.488
       230  -8.3390    237.1681    169.8386   7.6788630624e+01   5.6127276763e+00    0.1611454    0.1421864  23.26 0.0005570559    1.249    0.200
       231  -8.4111    198.6012    169.9347   8.2964831519e+01   1.2149158177e+01    0.1957893    0.1489881 -48.18 0.0007770401    1.787    0.440
       232  -8.9043    149.8210    169.7052   9.1785471380e+01   2.0794170205e+01    0.2148308     0.171432 -72.30 0.0009276744    1.622    0.384
       233  -7.5661     68.3170    170.6745   1.0865013012e+02   3.3337950774e+01    0.1247846   0.06908662  64.76 0.0007044607    1.672    0.402
       234  -8.5903    218.8743    168.3599   7.9355789563e+01   8.8199769239e+00    0.1718704    0.1555524  -2.00 0.0005196052    1.242    0.195
       235  -8.1295    211.4882    168.5108   8.0573642526e+01   1.0072312603e+01    0.1878311    0.1079647 -42.97 0.0008924415    2.324    0.570
       236  -9.1416    166.9594    168.5014   8.8348548731e+01   1.7946371729e+01    0.2693837    0.1867356  66.10 0.0009360907    1.855    0.461
       237  -8.4011     88.7612    168.9301   1.0412468195e+02   3.0833326703e+01    0.2145614     0.142347  78.77 0.0008546341    1.585    0.369
       238  -9.1672    191.8601    166.4472   8.3522544157e+01   1.3773293167e+01    0.2961926    0.1680716 -39.06  0.000886288    2.083    0.520
       239  -8.8028    111.6908    167.3531   9.9106430573e+01   2.7601261494e+01    0.2958418    0.1827943  76.60  0.001257323    2.134    0.531
       240  -8.8564    185.0775    166.6502   8.4748651599e+01   1.4959864985e+01    0.1849582    0.1716257 -57.10 0.0007096694    1.400    0.286
       241  -9.9029     95.0119    162.5706   1.0202640245e+02   3.1059523771e+01    0.7575157    0.4219329  81.66  0.003114165    2.599    0.615
       242  -9.1372     20.5203    166.2870   1.1851611079e+02   3.9546910884e+01      0.30733    0.1004246  58.41    0.0011652    2.450    0.592
       243  -8.4992    233.9128    165.3201   7.6475312455e+01   6.6024267058e+00    0.1772755    0.1480641 -17.96 0.0006242948    1.338    0.253
       244  -9.8738    136.7564    164.4540   9.3553310107e+01   2.3893272429e+01    0.5628372    0.2308352  55.84   0.00226816    2.967    0.663
       245  -8.6701    159.4540    164.4195   8.9094109609e+01   1.9880822095e+01    0.2511748    0.1864855  70.45 0.0008466283    1.697    0.411
       246  -9.5599     33.6322    163.4253   1.1553440292e+02   3.8788908952e+01    0.4972121    0.1279163  53.70  0.002185235    3.155    0.683
       247  -8.3205    239.8462    164.1713   7.5377251705e+01   5.7346306336e+00    0.1614925    0.1486264  13.55 0.0005705244    1.310    0.237
       248  -8.4991    212.9815    163.5669   7.9453849003e+01   1.0377600082e+01    0.1956775    0.1629361 -42.43 0.0005454165    1.585    0.369
       249  -8.4437     56.9852    163.8025   1.1046297464e+02   3.6063409464e+01    0.3202257    0.1661302  22.81  0.001523258    3.284    0.696
       250  -8.5969     60.6797    160.5850   1.0935050618e+02   3.6219825654e+01    0.2952535    0.1246693  62.01  0.001193519    2.491    0.598
       251  -9.0733    246.0340    163.0064   7.4256645403e+01   4.8361011983e+00    0.3625292    0.1483265 -31.35  0.001852903    2.584    0.613
       252  -8.1343    242.2252    160.0344   7.4269938737e+01   5.7522250569e+00    0.2604638     0.146266  20.73 0.0003946552    1.784    0.440
       253  -9.9776    250.1702    157.7416   7.2692500270e+01   4.6689758513e+00    0.3143447    0.1680122 -24.84 0.0008952857    1.864    0.463
       254  -9.0785    246.5579    155.5185   7.2796915039e+01   5.4799943147e+00     0.309187    0.1612266  -4.96  0.001598136    2.266    0.559
       255  -8.6861    204.9726    162.9773   8.0672219468e+01   1.1862876829e+01    0.1687794    0.1504748  86.03 0.0005427068    1.666    0.400
       256  -9.4218      3.5247    162.4465   1.2193970981e+02   4.1767811466e+01    0.3567377    0.1025166  51.22  0.001746218    2.348    0.574
       257  -8.9338    151.6035    160.8493   9.0027247320e+01   2.1836813003e+01     0.296886    0.2152943 -65.80  0.001374379    1.829    0.453
       258  -9.0276    177.4759    160.6732   8.5084595952e+01   1.7144587059e+01    0.2167604    0.1997361  80.99 0.0008158145    1.357    0.263
       259  -8.6630    227.4794    159.1645   7.6341274979e+01   8.3411752605e+00    0.2375112    0.1810586 -49.60 0.0009664806    1.986    0.496
       260  -9.6146    105.8918    158.1088   9.9080097978e+01   3.0171925873e+01    0.4241465    0.2385295  67.19  0.001169846    2.172    0.540
       261  -8.6471    236.8476    158.8437   7.4850008119e+01   6.7730333510e+00    0.1448479    0.1354025   3.02 0.0005694855    1.319    0.242
       262  -9.1143    167.5514    157.4747   8.6373550111e+01   1.9431052879e+01    0.2876684    0.2272732 -88.38  0.001281604    1.840    0.457
       263  -8.5011    196.6629    158.1036   8.1206364788e+01   1.3967042263e+01     0.208932    0.1585167  51.67 0.0008831408    1.359    0.264
       264  -8.4823    188.1974    157.5830   8.2597587254e+01   1.5591758903e+01    0.2124549     0.172138 -30.33 0.0007821315    1.400    0.286
       265  -8.4146    217.9751    156.4719   7.7344597744e+01   1.0309495349e+01    0.2089743    0.1608929 -40.64 0.0007762944    1.651    0.394
       266  -9.4015    157.6505    156.1043   8.8041038452e+01   2.1468537519e+01     0.267372    0.2121622 -74.11  0.001008718    1.683    0.406
       267  -9.3557    119.5777    155.1707   9.5700412988e+01   2.8430442745e+01    0.3850248    0.2490998 -86.80  0.001768829    2.212    0.548
       268  -9.2967     49.8033    155.5546   1.1133090803e+02   3.8526960910e+01    0.3830748    0.1441014  58.86    0.0016422    2.621    0.619
       269  -9.3886     81.6494    154.6807   1.0400401285e+02   3.4522233907e+01    0.4130135    0.2292035  73.17   0.00139446    2.135    0.532
       270  -8.6877    238.3114    150.1703   7.2992072075e+01   7.4233013341e+00    0.2995536    0.1032208  37.22  0.001274598    2.785    0.641
       271  -9.1721    233.4064    147.6766   7.3247629220e+01   8.5484039081e+00    0.2416905    0.2125415 -46.73 0.0008985785    1.593    0.372
       272  -8.4022    242.6350    154.8168   7.3237133264e+01   6.2064045089e+00    0.1946557    0.1632016  -6.45 0.0005937377    1.199    0.166
       273  -7.9442    239.7261    153.3174   7.3383245634e+01   6.8527678736e+00    0.1706462    0.1386156 -11.82 0.0003958972    1.234    0.190
       274  -8.1134    204.8174    155.1517   7.9267316123e+01   1.2844598395e+01    0.1693309    0.1639208  13.62 0.0006277797    1.240    0.193
       275  -8.4639    144.3449    154.9018   9.0486761026e+01   2.4099902359e+01    0.2329828    0.1608976  64.42 0.0007912256    1.617    0.382
       276  -9.5888     67.8000    153.5620   1.0702549066e+02   3.6662502341e+01    0.3957224    0.2052219  72.87  0.001421183    2.213    0.548
       277  -8.1607    232.6411    153.8845   7.4557644193e+01   8.0137892916e+00    0.1557596    0.1041215 -33.41 0.0005412362    1.707    0.414
       278  -9.7477    132.7096    152.9537   9.2564506951e+01   2.6523987125e+01    0.3836331    0.2578301  67.00  0.001184523    1.707    0.414
       279  -9.4341    133.5764    148.2426   9.1594195970e+01   2.7180923237e+01    0.2929566    0.2246351 -39.89  0.001587642    1.571    0.363
       280  -8.5683    128.4378    159.2634   9.4458472220e+01   2.6197304393e+01    0.2872468    0.1908752  86.17  0.001352639    2.212    0.548
       281  -8.2486    151.6007    152.8046   8.8665017324e+01   2.3106404528e+01    0.1652332    0.1236593 -62.26 0.0009414607    1.667    0.400
       282  -7.9865    182.5639    151.7488   8.2541515155e+01   1.7441666320e+01    0.1611464    0.1226353 -51.29 0.0007021624    1.666    0.400
       283  -9.7372     29.3908    150.8904   1.1563169083e+02   4.1677917740e+01      0.38981    0.1525473  64.44  0.001819622    2.416    0.586
       284  -9.1769     20.0986    152.4306   1.1785014766e+02   4.2266703532e+01     0.212638    0.0915837  48.60  0.001010308    1.827    0.453
       285  -8.7996      8.9813    153.0000   1.2037413228e+02   4.3134268590e+01    0.1559132   0.05409082  29.94 0.0008008432    2.931    0.659
       286  -8.9380      2.7052    150.9843   1.2168483005e+02   4.4037922331e+01    0.2760937    0.1054818 -84.75   0.00154337    2.209    0.547
       287  -9.8461    248.8167    149.4406   7.1316070455e+01   5.7039326254e+00    0.3055748     0.180433 -18.94 0.0008651045    1.636    0.389
       288  -8.7633    189.5332    150.3719   8.1023373827e+01   1.6312409668e+01    0.2326442    0.1922164 -77.77 0.0008040022    1.814    0.449
       289  -8.3432    162.7871    150.7241   8.6085473311e+01   2.1337743804e+01     0.223528    0.1677338 -79.28 0.0009949785    2.000    0.500
       290  -7.5991    146.4887    151.4793   8.9466703881e+01   2.4267112908e+01    0.1309002    0.1134182  47.53 0.0008102189    1.005    0.005
       291  -8.6421     98.2009    150.6702   9.9737529367e+01   3.2782305592e+01    0.2595534    0.1712571  80.76 0.0009751527    1.759    0.432
       292  -8.3422    212.9995    149.9697   7.6920693943e+01   1.1974462580e+01    0.1874317    0.1646041  20.51 0.0004917981    1.067    0.063
       293  -9.9203     39.8925    148.0064   1.1296895974e+02   4.1159228183e+01    0.5052258     0.185158  58.83  0.001933701    2.629    0.620
       294  -8.3953    198.8492    149.0638   7.9134339242e+01   1.4725336123e+01    0.1777898    0.1683506  56.40  0.000477928    1.273    0.214
       295 -10.0085     89.2243    146.3863   1.0119074365e+02   3.5007049464e+01    0.5747514     0.298849  85.14  0.002370021    3.310    0.698
       296 -10.3853     54.6998    144.1754   1.0909112486e+02   4.0222608899e+01    0.8314227    0.3682568  77.35  0.003247123    3.101    0.678
       297  -8.7369     57.0200    135.4818   1.0756240914e+02   4.1733857509e+01    0.2552463    0.1925134  15.44  0.001519103    2.000    0.500
       298  -8.5176     78.1307    147.2410   1.0388903324e+02   3.6482789547e+01    0.2341621    0.1354458  79.37 0.0006968649    2.039    0.509
       299  -8.3844    223.4517    147.0552   7.4669311223e+01   1.0404449492e+01    0.1799518    0.1665117  39.04 0.0004587333    1.276    0.216
       300 -10.2681    149.0041    145.0645   8.7810616929e+01   2.4854037494e+01    0.4615499    0.3192739  84.19  0.001807483    2.262    0.558
       301 -10.0007    138.9173    144.5837   8.9825091755e+01   2.6831905429e+01    0.4986587    0.2650338 -63.81  0.001426236    2.856    0.650
       302  -9.1324    140.2543    137.1671   8.8178568763e+01   2.7869525179e+01    0.2596407    0.1831689   7.74  0.001069467    2.390    0.582
       303 -10.3981    106.5671    143.5942   9.6781814850e+01   3.2764283745e+01    0.6958026    0.4650016 -78.19  0.001967843    1.767    0.434
       304  -9.2568     13.2805    146.0147   1.1905193714e+02   4.4154605462e+01    0.3305261    0.1329038  66.77  0.001261414    2.139    0.533
       305  -9.3388    240.4489    145.4814   7.1762733853e+01   7.5439275441e+00    0.2118153    0.1553484 -17.28  0.000704024    1.330    0.248
       306  -9.1556    242.6906    143.3421   7.1011508040e+01   7.3764084187e+00    0.1754708    0.1354431  28.27 0.0007163237    1.132    0.117
       307  -7.9698    206.7462    146.5430   7.7295986030e+01   1.3559618272e+01    0.1677579    0.1152234  54.37 0.0008558256    1.576    0.366
       308  -8.4003    175.4129    146.2326   8.2828507956e+01   1.9600133918e+01    0.1640794    0.1251427 -51.60 0.0005945041    1.608    0.378
       309  -9.8605    125.0907    142.8269   9.2499661971e+01   2.9679583216e+01    0.4905268    0.3193117  89.29  0.001768387    2.343    0.573
       310  -9.6320    246.9628    143.7876   7.0480592583e+01   6.5888718549e+00    0.2093406    0.1555587 -17.80 0.0005605242    1.309    0.236
       311  -7.9297    194.1618    144.1593   7.9000386297e+01   1.6269271822e+01    0.1643956     0.150917  65.63 0.0004587299    1.315    0.239
       312  -8.7539    165.3872    144.0743   8.4341806836e+01   2.1867214545e+01    0.2444197    0.1734301  53.25 0.0006862417    1.346    0.257
       313 -10.7460     69.0796    139.9212   1.0512477476e+02   3.9228919565e+01    0.7708404    0.3271678 -64.57  0.003106348    2.335    0.572
       314  -8.3693    235.5645    142.7715   7.1954730458e+01   8.6976531670e+00    0.1592281    0.1088063 -33.02 0.0009399604    1.624    0.384
       315  -9.0905    243.2762    150.6000   7.2340922026e+01   6.5256107205e+00    0.2229109    0.1561337 -25.87  0.001040033    1.496    0.332
       316  -8.5247    182.0963    141.7545   8.0709432575e+01   1.8952873983e+01    0.2063134    0.1807929 -54.67  0.000618574    1.397    0.284
       317  -8.5282    250.3436    140.9807   6.9442932402e+01   6.2920988479e+00    0.1704661     0.132853  -6.42 0.0006211529    1.157    0.136
       318  -9.2856      2.7028    141.9814   1.2131479720e+02   4.5823531256e+01    0.3074291    0.1266614  67.12  0.001313017    1.958    0.489
       319  -8.1187    164.7363    140.3912   8.3759980751e+01   2.2569663029e+01    0.1919114    0.1130934  39.44 0.0007430448    1.583    0.368
       320  -9.8384     23.4501    138.1629   1.1614230136e+02   4.4844801868e+01    0.4954704    0.1769493  63.84  0.001879496    2.773    0.639
       321  -7.6048    218.5547    138.5469   7.3750419522e+01   1.2314861528e+01    0.1280144    0.1092061  19.44 9.991587e-05    1.002    0.002
       322  -8.3379    207.6532    138.1096   7.5455933077e+01   1.4456718126e+01    0.1860616    0.1570253 -45.07 0.0006550268    1.466    0.318
       323  -8.6249    197.7685    137.4763   7.7023415463e+01   1.6469667972e+01    0.2307784    0.1659889 -50.96 0.0008414483    1.821    0.451
       324  -8.5068    172.1580    138.2451   8.1889548806e+01   2.1436600379e+01    0.2327639    0.1730729  64.48  0.000611544    1.558    0.358
       325  -8.6410    162.6905    136.3997   8.3379029110e+01   2.3608042766e+01    0.2200017    0.1681347 -58.71 0.0006150184    1.602    0.376
       326  -8.8775    248.3842    135.3393   6.8584061690e+01   7.2105971345e+00    0.2420947    0.1629319 -27.60 0.0007030371    1.509    0.337
       327  -8.6077    246.8831    130.3407   6.7767476020e+01   8.0013822668e+00    0.2194715    0.1647528 -23.54 0.0005532531    1.330    0.248
       328  -7.3372    192.2974    136.6722   7.7827139344e+01   1.7660979172e+01    0.1232977    0.1056207 -84.58 0.0004805973    1.634    0.388
       329  -7.9652    187.8193    135.7756   7.8451670958e+01   1.8678882412e+01    0.1680399    0.1561869 -88.49 0.0004701158    1.347    0.258
       330  -8.7590    151.4605    135.8728   8.5562941493e+01   2.5916455025e+01    0.2788838    0.1606034  34.65  0.001137557    1.877    0.467
       331  -9.2275     39.0038    136.0513   1.1212692563e+02   4.3719238269e+01    0.2461965    0.1332411  64.66 0.0008151151    1.673    0.402
       332  -8.8006    179.5140    134.1789   7.9661539859e+01   2.0578937500e+01    0.2317438    0.2025206  81.36 0.0006766733    1.426    0.299
       333 -10.3523     83.4366    132.8287   1.0061934293e+02   3.8614282667e+01    0.5153034    0.2888898 -78.11  0.001336895    2.076    0.518
       334  -8.5901     84.9590    122.9947   9.8673959563e+01   4.0427107845e+01    0.4092239    0.2798528  10.45  0.001887303    2.858    0.650
       335  -8.0693    237.5871    133.8087   6.9833967321e+01   9.3138976076e+00     0.166824    0.1077105 -34.27 0.0009377986    1.690    0.408
       336  -7.7902    231.2061    134.1955   7.0872785965e+01   1.0448887479e+01    0.1527608    0.1477009 -18.35 0.0003803064    1.306    0.234
       337 -10.2130    132.3343    131.3893   8.8805778431e+01   3.0421656502e+01    0.5307585    0.3317189 -68.98  0.001923619    2.194    0.544
       338 -10.6186    131.0238    118.8113   8.6554894062e+01   3.3018025886e+01    0.7722135    0.4609083 -80.24  0.002888262    3.381    0.704
       339  -9.1165    112.8263    133.3069   9.3616597530e+01   3.3661298544e+01    0.3283699    0.2317228  76.25  0.001075088    1.639    0.390
       340 -10.4668     98.1836    130.1831   9.6570577225e+01   3.6801342603e+01    0.6379532    0.3153477 -62.77  0.001740847    2.203    0.546
       341  -8.7487     98.8776    120.7233   9.4722985854e+01   3.8614399185e+01    0.6317341    0.3193264  24.09  0.002059031    4.829    0.793
       342  -9.1834    142.8610    131.5158   8.6522891938e+01   2.8357672145e+01    0.3016424    0.2300807 -86.28 0.0009633915    1.714    0.417
       343  -9.4284    250.5826    129.3038   6.7032337698e+01   7.4480781085e+00    0.5071449    0.1139081 -28.70  0.001835307    3.959    0.747
       344  -9.4591    168.4149    129.4931   8.0826419014e+01   2.3556499162e+01    0.3469129    0.2384223 -52.80  0.001201824    1.755    0.430
       345  -9.7226     72.9007    129.1770   1.0272685965e+02   4.0929740065e+01    0.3779362    0.2252488  89.78  0.001154635    1.912    0.477
       346 -10.1005     12.7038    128.6779   1.1817808515e+02   4.7771158899e+01    0.5646399    0.2201047  79.58  0.002405106    2.443    0.591
       347  -8.5233      1.9943    130.9774   1.2098825600e+02   4.8120109349e+01     0.191089   0.09040256  63.19  0.001140613    1.696    0.410
       348  -8.1302    220.5322    130.4343   7.1747157406e+01   1.2920197970e+01    0.1294227    0.1121516  18.57 0.0001879715    1.010    0.010
       349  -7.9163    204.7465    130.5614   7.4374519339e+01   1.6011425998e+01    0.1735857    0.1228796  57.91  0.000692628    1.584    0.368
       350  -8.0436    192.8527    130.1585   7.6366693693e+01   1.8462147585e+01    0.1855229    0.1800624 -88.79 0.0004988051    1.248    0.199
       351  -9.5917    152.9268    128.2780   8.3725043606e+01   2.6911956180e+01    0.5214093    0.2466634 -45.79   0.00200233    2.334    0.572
       352  -8.5310     26.1489    129.8592   1.1483341324e+02   4.6332234856e+01    0.2337607    0.1442604  15.83  0.001340589    2.460    0.594
       353  -7.9754    211.5664    128.8225   7.2858589930e+01   1.4880157204e+01    0.1744901    0.1185741 -41.10 0.0007992439    1.699    0.411
       354  -7.5914    186.3269    129.6827   7.7450000059e+01   1.9859453662e+01    0.1298678    0.1077653 -88.27 0.0005245323    1.676    0.403
       355 -10.6606     44.9637    123.7149   1.0931076567e+02   4.5691823568e+01    0.9974905    0.3941579  70.73  0.003682301    4.007    0.750
       356 -10.4103     59.9695    125.0667   1.0550409414e+02   4.3569931010e+01    0.6737351    0.3240376  73.75  0.002762331    2.871    0.652
       357  -9.9744    117.7674    124.8604   9.0887896025e+01   3.4404485291e+01    0.5170686    0.3550112 -79.82  0.001394541    1.862    0.463
       358  -9.0504    234.0007    124.5030   6.8403306608e+01   1.1031446417e+01    0.2789243    0.1380468  12.81  0.001052205    3.549    0.718
       359  -7.7690    228.3425    125.6650   6.9508422018e+01   1.1981688965e+01    0.1218272    0.1024525 -65.06 0.0007050469    1.761    0.432
       360  -8.9259    179.1001    124.7496   7.7737829849e+01   2.2087476381e+01     0.246901    0.2180964 -60.70 0.0005699957    1.355    0.262
       361 -10.1342     28.4635    122.5578   1.1359566935e+02   4.7676953584e+01    0.6341415    0.2419587  72.27  0.002643218    3.256    0.693
       362  -8.8359     27.0458    113.8152   1.1314942376e+02   4.9724190060e+01    0.2769757     0.169283 -26.99  0.001382532    3.253    0.693
       363  -7.7129    243.7375    124.3550   6.6952704426e+01   9.2182999687e+00    0.1167255   0.09365367 -45.04 0.0002959246    1.621    0.383
       364  -7.6831    188.6741    124.3100   7.5858006527e+01   2.0158902324e+01    0.1307976        0.109 -85.65 0.0004986417    1.657    0.397
       365  -9.0311    158.6767    121.6862   8.1121528905e+01   2.6848747518e+01     0.278496    0.2323528 -75.54 0.0007374502    1.467    0.318
       366  -9.5114     70.8926    119.7000   1.0183073621e+02   4.3239222006e+01    0.4063391    0.2395872  80.79  0.001271276    2.038    0.509
       367  -7.8607    195.1412    122.1613   7.4219042349e+01   1.9121535587e+01    0.1757228    0.1621511 -76.54 0.0004834655    1.359    0.264
       368  -8.6372    171.9160    121.6537   7.8444289728e+01   2.4075640953e+01    0.2403258    0.2007034 -45.69 0.0004946516    1.322    0.244
       369 -10.1433    141.5524    117.9939   8.3991060367e+01   3.1044180096e+01    0.5733439    0.2889767 -51.39  0.001212438    2.241    0.554
       370  -9.5444      3.0242    117.5446   1.2002889177e+02   5.0872588725e+01    0.4343862    0.1608472  65.41   0.00211816    2.417    0.586
       371  -7.9787    231.4743    117.5089   6.7250067168e+01   1.2333927398e+01    0.1290302    0.1153356   7.16 0.0008094835    1.054    0.051
       372  -8.6393    152.4967    116.3729   8.1242451306e+01   2.9056886262e+01    0.2441101    0.2061774  37.41 0.0006650843    1.166    0.142
       373 -10.0804    109.3395    114.1341   9.0798060524e+01   3.8101601025e+01    0.5585957    0.3363528 -75.87  0.001595115    2.332    0.571
       374  -8.8256    110.9954    107.0000   8.8855996589e+01   3.9246237503e+01     0.321461    0.1798187  38.78  0.001439314    1.912    0.477
       375  -8.0743    219.4814    116.5123   6.8868947003e+01   1.4853355642e+01    0.1343874     0.117687  14.48 2.815803e-05    1.021    0.020
       376  -8.0928    185.6842    115.9632   7.4531552915e+01   2.2024251352e+01     0.187931    0.1736117 -23.57 0.0004751859    1.135    0.119
       377  -8.7686     59.1271    115.2487   1.0435425769e+02   4.5817833588e+01    0.2600119    0.1785992 -24.96  0.001285577    2.730    0.634
       378 -10.7545    248.2643    108.9958   6.2958650935e+01   1.0045182313e+01    0.5300731    0.2468632 -17.93  0.002445987    2.160    0.537
       379  -8.1131    193.0061    115.3008   7.3046414413e+01   2.0553619191e+01    0.1880255     0.170187  42.80  0.000462086    1.089    0.082
       380 -10.0159     79.0722    112.6608   9.8449034362e+01   4.3551379247e+01    0.5442029    0.3178334  85.21  0.001939912    2.345    0.574
       381  -8.8270     78.0557    105.8685   9.7481381926e+01   4.5190603347e+01     0.265233     0.205083 -43.04  0.001024476    1.565    0.361
       382  -7.7740    208.5462    113.7640   7.0012637557e+01   1.7470936484e+01    0.1853773    0.1230834 -40.38 0.0009419948    1.652    0.395
       383  -7.9398    167.4481    114.4657   7.7705209932e+01   2.6188249848e+01    0.1394586    0.1317699  47.77 0.0001835503    1.038    0.036
       384 -10.4782    133.7274    109.7561   8.3927661887e+01   3.4184491942e+01    0.6382884    0.2971479 -50.25  0.002205318    2.329    0.571
       385 -10.0348     92.7699    112.6349   9.4768082330e+01   4.1345381613e+01    0.4725326    0.3127115 -86.45  0.001332674    1.838    0.456
       386  -8.8746     93.6167    104.8419   9.2970016602e+01   4.2859499594e+01    0.4477177    0.2882057  14.63  0.001818819    3.203    0.688
       387  -8.7610    174.7919    111.8884   7.5650835978e+01   2.5010768700e+01    0.2901257    0.1858395 -46.42 0.0007911684    1.741    0.426
       388  -9.8704    121.9613    112.5992   8.7359939179e+01   3.6004525954e+01    0.3468355    0.2629603 -88.60 0.0005618401    1.591    0.371
       389  -9.8330    119.4075    106.4850   8.6623200976e+01   3.7718115208e+01    0.4526189    0.2714044 -47.89  0.001972171    1.737    0.424
       390 -10.6512    109.1983     99.0127   8.7497562896e+01   4.1232093073e+01    0.9849607    0.5088434  67.98   0.00165956    3.526    0.716
       391  -9.1408    107.7307     92.6393   8.6342867070e+01   4.2837202214e+01    0.4916255     0.272792  30.25  0.001952491    2.647    0.622
       392  -8.5523    159.1857    111.7280   7.8761561037e+01   2.8430822893e+01    0.2346281    0.1888678 -53.54 0.0005764765    1.375    0.273
       393 -10.1631     66.1850    109.9694   1.0155651579e+02   4.6032104330e+01    0.5132186    0.2758347 -73.03  0.001850503    1.878    0.468
       394  -9.6570     14.2054    111.3561   1.1654038705e+02   5.1378705399e+01    0.3575264    0.1392475  61.92  0.001401817    2.492    0.599
       395  -7.8415    149.6388    109.8336   8.0355532179e+01   3.0817875885e+01     0.194669    0.1319901 -52.88 0.0004121922    1.643    0.391
       396  -9.0119     43.1938    109.5357   1.0805831435e+02   4.9018249110e+01    0.2761443    0.1258871  28.33  0.001299246    2.660    0.624
       397  -8.2271    189.0846    108.0699   7.2052674502e+01   2.2463913613e+01    0.2142161    0.1730165 -71.76 0.0008454564    1.659    0.397
       398  -8.2679    124.5087    107.4875   8.5600417907e+01   3.6501595099e+01    0.1405879    0.1334797  60.58 0.0008100315    1.048    0.046
       399  -9.7608    139.9570    104.4563   8.1239521079e+01   3.3870761389e+01    0.4632023    0.3085316 -59.42  0.001334068    1.761    0.432
       400 -10.4847     45.5171    102.2993   1.0636690807e+02   5.0384514896e+01    0.7362878    0.3327549  70.64  0.002947843    3.231    0.691
       401  -8.9695     45.0994     93.0090   1.0505088692e+02   5.2550375788e+01    0.3966183    0.2370033   1.71  0.001692632    3.765    0.734
       402 -10.6677     22.6570    102.6238   1.1327989332e+02   5.2616810786e+01    0.7193651    0.3122508  70.80  0.002647113    2.551    0.608
       403  -9.5230    150.5555    103.1307   7.8542159739e+01   3.1813143067e+01    0.4327279    0.2752253 -61.56  0.001139731    2.076    0.518
       404  -8.6445    166.7191    103.9786   7.5347728360e+01   2.8078687364e+01    0.2476691     0.192038 -55.62 0.0006146741    1.478    0.323
       405  -9.4642      6.6988    102.6342   1.1802720694e+02   5.3862745774e+01    0.3702514    0.1563068  76.32  0.001810188    2.225    0.551
       406 -10.1453    128.4130    102.1457   8.3398917553e+01   3.6745180683e+01    0.3602091    0.2732171 -64.97  0.001083759    1.461    0.316
       407  -7.8987    175.5441    102.4285   7.3214958566e+01   2.6349121615e+01    0.1411737    0.1355974  46.47 0.0001609896    1.046    0.044
       408  -8.4877    159.7644    100.9922   7.6037312916e+01   3.0140408728e+01    0.2561316    0.1925716 -58.24 0.0005837896    1.547    0.354
       409  -9.2972     81.9313     99.8279   9.5182563462e+01   4.5904543809e+01    0.3659486    0.2317222 -85.13 0.0008641555    1.956    0.489
       410 -10.2431     63.9158     96.5969   9.9849095817e+01   4.9339544063e+01    0.6543697     0.344131 -81.85   0.00193404    2.398    0.583
       411  -9.0124     65.3416     87.6455   9.7613411360e+01   5.1163485432e+01    0.5678285    0.3147715  17.28  0.002225063    3.658    0.727
       412  -9.4471     94.9865     97.0747   9.0894183639e+01   4.4282084773e+01    0.3336493    0.2161995 -66.13 0.0005984463    1.625    0.385
       413  -7.5507    171.3112     95.6599   7.2324916183e+01   2.8402759029e+01    0.1480405    0.1148916 -74.13 0.0004923454    1.694    0.410
       414  -8.2201    164.7218     93.9441   7.3201132073e+01   3.0205754470e+01    0.2702428    0.1751293 -40.67 0.0006415292    1.589    0.371
       415  -9.3254    139.0202     92.2887   7.8384129050e+01   3.6343208690e+01    0.3842235    0.2745137 -63.35 0.0006757723    1.658    0.397
       416 -10.4953    246.2143     92.2706   5.9367855957e+01   1.2299918917e+01    0.4456538    0.2771127  39.70  0.002366891    1.618    0.382
       417 -10.4357    124.1480     90.3760   8.1484516991e+01   3.9945306005e+01     0.782068    0.5632801 -18.28  0.002995853    2.012    0.503
       418  -9.4018      4.9545     92.0435   1.1773128091e+02   5.6342463114e+01    0.3253524    0.1412536  58.14  0.001144023    2.191    0.544
       419  -8.3360    157.6979     91.5166   7.4020591442e+01   3.2241212713e+01    0.2474158    0.1341297 -37.54 0.0001747284    1.901    0.474
       420  -9.6224     34.8569     90.1532   1.0789220672e+02   5.4312634198e+01    0.4602293    0.2222016  86.24  0.001749071    2.474    0.596
       421  -8.9613     22.6751     90.2529   1.1186683675e+02   5.5424788516e+01    0.2346835    0.1968998 -41.26 0.0008721739    1.509    0.337
       422  -7.9142    150.7786     89.0821   7.4859694997e+01   3.4264463522e+01     0.190875    0.1209438 -40.80 0.0003598953    1.615    0.381
       423 -10.1326     86.4329     85.8324   9.0698811097e+01   4.8223558160e+01    0.6391098    0.3627286 -62.12  0.001840536    1.805    0.446
       424  -8.1401    176.2209     93.2260   7.0734940897e+01   2.7657376076e+01    0.1998308    0.1701054 -69.00 0.0005681396    1.392    0.282
       425  -9.8411     48.5853     84.4742   1.0240988630e+02   5.4102823112e+01    0.4897535    0.2611707  72.37  0.001827188    2.574    0.611
       426  -7.6481    179.3111     85.6618   6.8130657818e+01   2.8118036180e+01    0.1505992    0.1147715 -68.52 0.0006145484    1.689    0.408
       427  -9.8937    104.9402     83.4149   8.4719173097e+01   4.5304527167e+01    0.4879659    0.3257124 -79.02  0.001038086    2.067    0.516
       428  -8.9546    105.0525     77.4431   8.3033644724e+01   4.6521066161e+01    0.3089104    0.2288949  17.86  0.001280111    1.968    0.492
       429  -8.3053    157.9053     84.1042   7.1953051648e+01   3.3466181432e+01    0.2235944    0.1979004 -72.23  0.000451204    1.250    0.200
       430  -7.7884    188.5078     93.5143   6.8528721879e+01   2.4765467046e+01    0.1409394    0.1388463  22.53 1.133946e-05    1.058    0.055
       431  -8.8543    140.8643     82.7258   7.5339609391e+01   3.7696737862e+01    0.2850135    0.2095323 -51.50 0.0006398468    1.424    0.298
       432  -9.7088     24.5774     80.5730   1.0993167187e+02   5.7490556551e+01    0.4894854    0.2306404  79.41  0.001759185    2.571    0.611
       433  -8.3065     35.7450     82.3907   1.0636696571e+02   5.6014506067e+01    0.1527608    0.1246445  13.19 0.0009509021    1.638    0.390
       434  -9.4265      9.6229     80.8588   1.1514188267e+02   5.8572904687e+01    0.3117465    0.1447455  59.42  0.001183485    2.199    0.545
       435  -8.3954    150.1633     80.7112   7.2661832266e+01   3.5887446904e+01    0.2583912    0.2002265 -52.44 0.0006781321    1.368    0.269
       436  -9.0055    119.4937     80.4464   7.9961649466e+01   4.2902709857e+01    0.3639047    0.2560453 -84.52  0.001510502    1.997    0.499
       437  -8.9792     74.5466     80.3967   9.3029658017e+01   5.1402652823e+01    0.3259781    0.2085697 -79.60  0.001329101    1.877    0.467
       438  -8.2993    166.8552     79.6563   6.8862364488e+01   3.2065183409e+01     0.238637    0.2007692 -19.68 0.0003268188    1.258    0.205
       439  -9.9901     63.4950     73.8818   9.5063348467e+01   5.4551397741e+01    0.6686254    0.2949935 -70.67  0.002256008    3.027    0.670
       440  -9.2842    128.2376     75.4897   7.6281747939e+01   4.1934334395e+01    0.3862477    0.2410661 -59.26 0.0006703188    1.922    0.480
       441  -7.7293    157.2717     76.6428   6.9953863673e+01   3.4887065321e+01    0.1544275    0.1153871 -66.53 0.0006999373    1.644    0.392
       442  -8.7507    140.3076     75.4028   7.3342375452e+01   3.9161721824e+01     0.248279    0.1758961 -60.44 0.0006614829    1.643    0.392
       443  -9.7792     82.4645     72.7402   8.8495719153e+01   5.1773874401e+01    0.4950104    0.2942125 -71.26  0.001126828    2.131    0.531
       444  -8.5274     83.3278     65.3539   8.6068631273e+01   5.3217611963e+01    0.2649612    0.1585449 -20.90 0.0009286865    3.730    0.732
       445  -9.8509    114.1971     72.5615   7.9063106088e+01   4.5605782673e+01    0.4315615     0.319537  65.54 0.0009276142    1.479    0.324
       446  -7.9544    151.4635     73.4872   7.0260557051e+01   3.6833047475e+01    0.1490075    0.1469234  83.62 0.0001606084    1.014    0.014
       447  -9.4566    105.8011     71.5814   8.1103738808e+01   4.7571107114e+01    0.3445364    0.2224335 -61.68 0.0007470432    1.752    0.429
       448  -8.3074     42.4584     72.7175   1.0219481714e+02   5.7534323805e+01    0.2426574    0.1149403 -71.49 0.0006988749    2.006    0.502
       449  -7.9476    175.5106     72.5303   6.5140062496e+01   3.1074802932e+01     0.148971    0.1443513  21.54 8.320285e-05    1.024    0.024
       450  -9.3740     95.0600     71.0138   8.4086446095e+01   4.9831603859e+01    0.3941924    0.2407881 -66.68  0.001081888    2.024    0.506
       451  -9.5529     51.5028     69.6640   9.8245838350e+01   5.7150112149e+01    0.4492037    0.2339606 -78.57  0.001412362    2.392    0.582
       452  -8.9694     30.3929     69.7249   1.0604311910e+02   5.9481649806e+01    0.3934612     0.212348 -21.01  0.001602508    4.098    0.756
       453  -8.8616     16.7784     70.1196   1.1121513176e+02   6.0541956358e+01    0.2397671    0.1379661 -89.84 0.0008539155    1.596    0.373
       454  -8.7689    147.0539     68.1651   6.9603372988e+01   3.8823541702e+01    0.3178419    0.2066863 -41.91 0.0005451752    1.541    0.351
       455  -8.4570    138.5277     66.2476   7.0942088177e+01   4.1228621928e+01    0.3472373    0.2202576 -59.68  0.001043627    1.966    0.491
       456  -8.8062    121.7230     66.2504   7.5095723522e+01   4.5167276245e+01    0.3232775    0.2163536 -58.16 0.0007482866    1.685    0.406
       457  -8.2490    208.8219     65.9194   5.7737990400e+01   2.3810272336e+01    0.2327707    0.1876266  12.29   0.00120975    1.330    0.248
       458  -7.4472    163.6687     65.6935   6.5358548266e+01   3.5104665020e+01    0.1585825    0.1161466  23.65 0.0007038972    1.662    0.398
       459  -9.0227    110.2099     63.8331   7.7430606463e+01   4.8189326907e+01    0.3240236    0.2391094 -66.73 0.0008046975    1.565    0.361
       460  -8.7788     64.2965     63.6944   9.2084850327e+01   5.6723694015e+01    0.4419191    0.2731039 -17.43  0.001693238    3.682    0.728
       461  -8.7380     37.3184     64.4305   1.0233530201e+02   6.0014935649e+01    0.2640235    0.1675795  71.06 0.0006925127    1.867    0.464
       462  -7.4147    187.4865     63.4909   6.0367009521e+01   2.9417274091e+01    0.1493617    0.1426801 -53.10 6.046709e-05    1.084    0.077
       463  -8.3309    163.5245     73.2979   6.7683755616e+01   3.3915198002e+01    0.2721026    0.1398239 -39.91  0.001086251    1.942    0.485
       464  -7.9215    158.1367     62.0589   6.5329935495e+01   3.7082044287e+01    0.2079365    0.1752446 -62.22 0.0003785162    1.291    0.226
       465  -9.3109     97.4370     60.7192   8.0145325005e+01   5.1488349905e+01    0.2787498    0.2543441  71.81 0.0009754116    1.132    0.116
       466  -9.7475     73.3237     59.1736   8.7538317603e+01   5.6282873730e+01    0.5609011    0.2281251 -55.53   0.00128593    2.428    0.588
       467  -7.6889    164.3169     59.7149   6.3363345226e+01   3.5878777643e+01    0.1544393    0.1177138 -69.98  0.000280783    1.586    0.369
       468  -8.1944    130.9138     57.9580   7.0044085949e+01   4.4534304976e+01    0.2406861    0.1803826 -71.24 0.0005771759    1.644    0.392
       469  -9.8158     23.3789     56.3823   1.0620027507e+02   6.3204981468e+01    0.4386946    0.2304187  78.88  0.001994189    2.520    0.603
       470  -9.4085      7.5355     57.1857   1.1294454327e+02   6.4155216898e+01    0.3145634     0.166789  75.14  0.001088966    2.010    0.502
       471  -9.2071    140.1299     56.5255   6.7389061978e+01   4.2522417424e+01    0.3257639    0.2190291 -57.96 0.0006207657    1.746    0.427
       472  -9.2000    119.1193     55.4710   7.2184385290e+01   4.7776107034e+01    0.5169399    0.2320783 -49.09  0.001511478    2.454    0.592
       473  -9.4344     54.2592     55.4893   9.3448047576e+01   5.9998949437e+01    0.3552872    0.2152496 -73.57  0.001052479    1.883    0.469
       474  -8.8689     44.1355     55.3180   9.7405204256e+01   6.1337314920e+01    0.2941397    0.1648683 -66.84 0.0009302209    1.657    0.396
       475  -8.5439    105.9025     53.2783   7.5072554498e+01   5.1167941644e+01     0.264045    0.1970897 -65.94 0.0006399606    1.557    0.358
       476  -9.3565     92.3545     50.6253   7.8242701248e+01   5.4535363994e+01    0.3831675    0.2382702 -57.96  0.001052696    1.796    0.443
       477  -8.2942    144.9859     49.2215   6.3808171418e+01   4.2492932541e+01    0.2291757    0.1540721 -50.91 0.0004284802    1.603    0.376
       478  -8.0965    129.8974     49.1582   6.7221989878e+01   4.6305290005e+01    0.2367667    0.2020656 -70.08 0.0004482144    1.287    0.223
       479  -8.6883    120.9361     47.6744   6.8918142654e+01   4.8738911871e+01    0.2542931    0.2113804 -35.39 0.0005440334    1.191    0.160
       480  -8.3121    112.2949     47.0637   7.0995758138e+01   5.0879561065e+01    0.2129859    0.1825201 -46.96 0.0004569427    1.146    0.128
       481  -8.8659     81.9524     46.2258   8.0074577669e+01   5.7445453044e+01    0.3209477    0.1877886 -55.82 0.0007867311    1.816    0.449
       482  -8.4667     45.0915     44.8594   9.3905357114e+01   6.3564084353e+01    0.1965188    0.1619404 -87.54 0.0004832511    1.318    0.241
       483  -9.1072     16.5553     44.8126   1.0671159118e+02   6.6408011676e+01    0.2237203    0.1630503  75.79 0.0006784678    1.474    0.322
       484  -8.5834    132.8896     43.6455   6.4503832226e+01   4.6467703759e+01    0.2926418    0.2124672 -45.57 0.0008125358    1.393    0.282
       485  -9.0101     58.2252     42.4719   8.7588590619e+01   6.2265484397e+01    0.3782454    0.2158224 -68.55  0.001153512    2.301    0.565
       486  -8.6953     92.9821     42.5386   7.4992345450e+01   5.5963203683e+01    0.2779827    0.2040583 -22.40 0.0009166449    1.577    0.366
       487  -9.3419     69.7228     41.5012   8.2704448263e+01   6.0608631084e+01    0.4493822    0.2629329 -61.23  0.001772197    1.998    0.500
       488  -9.6465      5.2773     42.1021   1.1145493925e+02   6.7750489974e+01    0.3324054    0.1782978  85.43  0.001592493    1.936    0.484
       489  -9.2152    105.9365     40.7562   7.0360423625e+01   5.3457171750e+01    0.4441903    0.1974525 -34.18  0.001638093    2.286    0.562
       490  -8.6107     95.6006     38.0934   7.2384398530e+01   5.6223913386e+01    0.3062246    0.1579168 -47.76 0.0007704818    1.992    0.498
       491  -8.2960     80.8206     37.0960   7.6877998007e+01   5.9440914486e+01     0.217953    0.1868466 -67.26 0.0006472237    1.275    0.216
       492  -9.3212     26.1763     35.4929   9.9630089221e+01   6.7715731256e+01     0.304589    0.1874378 -76.04 0.0008774985    1.673    0.402
       493  -7.8634    133.5309     36.0443   6.1487448463e+01   4.7488873836e+01    0.2301492    0.1485354 -31.23 0.0005144988    1.533    0.347
       494  -8.1956    125.9951     35.5604   6.3035985753e+01   4.9486964592e+01    0.2305267    0.1952388 -33.57 0.0001356921    1.165    0.141
       495  -8.4943    111.8755     34.6408   6.6239932544e+01   5.3107398411e+01    0.2919794    0.1783332 -50.85 0.0006536077    1.811    0.448
       496  -8.9752     48.4345     33.3146   8.8301311042e+01   6.5606087227e+01    0.2746684    0.2101369 -69.44 0.0007259561    1.412    0.292
       497  -8.8143    118.9804     32.5633   6.3543666311e+01   5.1707062180e+01    0.3664868    0.1747094 -40.58  0.001097368    2.057    0.514
       498  -8.6687     60.8176     32.6543   8.2671971808e+01   6.3876434557e+01    0.2596677    0.1788464 -53.92 0.0005727518    1.396    0.284
       499  -7.7287    139.3909     32.1654   5.8728942132e+01   4.6526326325e+01    0.2243906    0.1325579 -40.57  0.000937855    1.682    0.406
       500  -8.3307     71.9968     31.1880   7.7592372283e+01   6.2223250163e+01     0.205821    0.1817468 -71.30  0.000651114    1.272    0.214
       501  -8.9544     12.9254     30.3766   1.0491908305e+02   6.9937603276e+01    0.2709869    0.1494514 -84.00  0.001406991    1.983    0.496
       502  -8.1092    101.7526     29.7578   6.7006233211e+01   5.6279382550e+01    0.2019157    0.1701893 -71.60 0.0008726562    1.377    0.274
       503  -7.8452     42.2951     30.6259   9.0071951515e+01   6.6986322454e+01    0.1297579   0.09737321 -85.94 0.0007025672    1.739    0.425
       504  -8.9408     81.4210     27.4659   7.2474694584e+01   6.1076271423e+01    0.3186077    0.2153778 -53.41 0.0008526266    1.622    0.383
       505  -9.2321      3.3806     27.3392   1.0933024096e+02   7.1194846044e+01    0.2934512    0.1708113  87.07  0.001251528    1.846    0.458
       506  -8.3531     36.8574     41.1046   9.6338769758e+01   6.5371919818e+01    0.1929638    0.1589278 -81.35 0.0004984139    1.246    0.197
       507  -8.7902     91.8169     26.3032   6.8479165205e+01   5.9078569646e+01     0.317322    0.1819426 -47.68 0.0008976145    1.846    0.458
       508  -8.4644    104.1024     22.8547   6.3266120785e+01   5.6805018930e+01    0.2177974    0.1980631 -69.50  0.000490431    1.210    0.174
       509  -8.9159     63.6473     21.2351   7.6279137543e+01   6.5556078732e+01    0.2921884    0.2025208 -59.82 0.0009638966    1.752    0.429
       510  -8.8381     48.4276     21.8187   8.3321402665e+01   6.7920457243e+01    0.2247652    0.1906735 -70.28 0.0006476647    1.367    0.269
       511  -8.1016    120.6317     20.8266   5.8184607244e+01   5.2994401798e+01    0.2218442    0.1273093 -38.86 0.0006800819    1.721    0.419
       512  -9.8894    248.7956    243.9452   8.6195763214e+01  -2.1338176890e+00    0.3805547    0.1594091 -30.94  0.002397862    3.165    0.684
       513  -8.0493     19.4280     21.3039   9.8375264397e+01   7.1425011365e+01    0.1690524    0.1036538 -70.04 0.0009410796    1.589    0.371
       514  -8.1417     87.7976     17.8613   6.5745071941e+01   6.1295709428e+01    0.1953618    0.1572541 -49.76 0.0005348488    1.322    0.244
       515  -8.0733     38.5585     18.0316   8.6420517824e+01   7.0028006649e+01    0.2012496    0.1102221 -50.38  0.001024139    1.594    0.373
       516  -7.7910    112.8452     16.8443   5.8249055054e+01   5.5506639305e+01    0.1997559    0.1695395 -62.64 0.0003836118    1.310    0.237
       517  -8.2950     29.9619     16.1634   9.0195068475e+01   7.1445921698e+01    0.1834908    0.1563184 -71.16 0.0006012399    1.309    0.236
       518  -7.9642      7.5723     15.7853   1.0350339447e+02   7.3502942815e+01    0.1623851   0.09784244 -77.02 0.0006430371    1.643    0.391
       519  -8.0739     97.1455     15.1236   6.1564728705e+01   5.9565177372e+01    0.2020502    0.1608083 -46.91 0.0004935224    1.321    0.243
       520  -7.9060    168.1564     14.1543   4.7015279233e+01   4.0876282356e+01    0.2051666    0.1684108 -58.73  0.000294466    1.254    0.203
       521  -8.2597     17.1999     14.2261   9.6873240707e+01   7.3115838620e+01    0.1571685      0.13023 -78.92 0.0005809608    1.333    0.250
       522  -8.6179    218.5360    247.9100   9.0890331552e+01   1.4882501012e+00    0.1696705   0.09259866 -31.50  0.001099924    2.497    0.600
       523  -9.3664    211.3105    246.7231   9.1790576623e+01   2.5406867760e+00    0.2061045     0.183154 -35.73  0.001885477    1.817    0.450
       524  -9.0546    175.4527    247.5150   9.7204390195e+01   7.3426587005e+00    0.2350909    0.1742135  69.97  0.001094116    2.132    0.531
       525  -7.7610     47.6939     10.3423   7.7724716690e+01   7.0142206246e+01    0.1259332   0.09970473 -68.35 0.0005699077    1.687    0.407
       526  -8.9106    177.9494    242.5176   9.6296192453e+01   7.4743500392e+00    0.2522604    0.1233215  29.45  0.001195588    1.950    0.487
       527  -8.6179    156.3335    248.4792   1.0023452063e+02   9.8650394962e+00    0.2013491    0.1154822  56.75 0.0008529353    1.892    0.472
       528  -8.8799    132.3425    247.9427   1.0393755446e+02   1.3170395256e+01     0.197604    0.1188624  61.92 0.0006669439    1.819    0.450
       529  -8.4159    112.9761    248.5113   1.0705053838e+02   1.5660108159e+01    0.1643571    0.1117497  69.66 0.0007727467    1.603    0.376
       530  -9.3633    103.7772    246.7757   1.0838872606e+02   1.7054074126e+01    0.3173125    0.1717865  89.52   0.00202334    3.008    0.668
