#   1 NUMBER                 Running object number                                     
#   2 MAG_AUTO               Kron-like elliptical aperture magnitude                    [mag]
#   3 X_IMAGE                Object position along x                                    [pixel]
#   4 Y_IMAGE                Object position along y                                    [pixel]
#   5 X_WORLD                Barycenter position along world x axis                     [deg]
#   6 Y_WORLD                Barycenter position along world y axis                     [deg]
#   7 A_WORLD                Profile RMS along major axis (world units)                 [deg]
#   8 B_WORLD                Profile RMS along minor axis (world units)                 [deg]
#   9 THETA_WORLD            Position angle (CCW/world-x)                               [deg]
#  10 FWHM_WORLD             FWHM assuming a gaussian core                              [deg]
#  11 ELONGATION             A_IMAGE/B_IMAGE                                           
#  12 ELLIPTICITY            1 - B_IMAGE/A_IMAGE                                       
         1 -12.7470    199.6174     33.3815   6.1366290919e+01   3.1141577935e+01    0.8677146     0.754775  40.76  0.005171434    1.428    0.300
         2 -13.4126    215.7326     15.4339   5.5380341152e+01   2.9432062536e+01     1.051206    0.8739955  33.70  0.006528457    1.708    0.414
         3 -12.2379      2.2731     14.3581   1.1487841130e+02   7.3277388234e+01    0.9339991    0.2104789 -51.41  0.003877541    3.727    0.732
         4 -12.5285      4.4836      4.2210   1.0863895370e+02   7.4689551631e+01    0.6459026    0.5284509   3.02  0.005065502    1.295    0.228
         5 -12.0806    104.0932    238.5129   1.2657482755e+02   1.1437486660e+01    0.8841946    0.5956514   2.22  0.004145893    3.016    0.668
         6 -11.7182    199.4384    246.3579   1.0833018230e+02  -4.8801790476e+00    0.4341785     0.280091  46.30  0.002115705    1.765    0.433
         7 -11.3832    184.7247    249.6372   1.1164930017e+02  -3.1283051611e+00    0.5192569    0.1973822  41.28  0.002360687    2.292    0.564
         8 -10.8334    169.3289    248.8842   1.1455828533e+02  -6.4583249625e-01     0.292181    0.2113994 -18.59 0.0005766061    1.695    0.410
         9 -10.6019    162.7892    249.9983   1.1600972149e+02   2.0722172664e-01     0.327712    0.2028622  35.26  0.001381617    1.302    0.232
        10 -11.2530    149.9607    248.1970   1.1833482716e+02   2.5098073616e+00     0.365988    0.2883401 -70.81  0.002286733    1.751    0.429
        11 -10.4643    143.2494    249.3760   1.1984068843e+02   3.3812357229e+00    0.2829989    0.1961772  58.48  0.001031606    1.615    0.381
        12 -11.4215    100.6062    247.9467   1.2830426737e+02   1.0240959297e+01    0.7478767    0.3233262  39.59   0.00364667    1.864    0.463
        13 -12.8645    135.2264    235.7306   1.1970980559e+02   6.9833805457e+00      1.23887    0.8353578 -79.32  0.006153448    2.222    0.550
        14 -10.8520    136.1296    225.3444   1.1808793295e+02   8.7154991676e+00    0.4339265    0.2355761 -47.59  0.001300728    2.156    0.536
        15 -11.9672    133.2090    248.7278   1.2178881871e+02   5.0715039849e+00     1.082592    0.3294856  32.95  0.003837994    3.560    0.719
        16 -10.8867    122.0718    246.4611   1.2378092914e+02   7.2072405817e+00    0.5212279     0.326751 -73.60  0.001996053    2.203    0.546
        17 -11.8812    125.2408    242.0466   1.2259903932e+02   7.4781338077e+00    0.5691493    0.4643016  76.99 0.0009815883    1.408    0.290
        18 -10.7478    114.9705    250.2930   1.2565921678e+02   7.6454594212e+00    0.5926784     0.318068  31.02  0.002074767    1.847    0.459
        19 -11.3232    109.4187    247.0316   1.2642283496e+02   9.0682022466e+00    0.4938549    0.4099575  72.79  0.003091343    1.250    0.200
        20  -9.8014     90.7477    250.3938   1.3052093453e+02   1.1257854097e+01    0.2667091    0.1999723  36.30  0.001306503    1.302    0.232
        21 -11.0072     86.7157    248.2254   1.3111773754e+02   1.2235920074e+01    0.3822318    0.2758014  22.08 0.0003741721    1.796    0.443
        22 -10.1205     81.4333    247.2286   1.3207735132e+02   1.3176154705e+01    0.2835732    0.1980878  87.37  0.001426399    1.528    0.345
        23 -11.2184     60.1483    246.0375   1.3616492150e+02   1.6313650166e+01    0.4238234    0.2993751  56.84  0.001921451    1.092    0.084
        24  -9.6342     49.7585    250.0728   1.3844546580e+02   1.6888312827e+01    0.2902923    0.1320042  43.95 0.0009640687    1.706    0.414
        25 -11.7054      4.7151    186.3629   1.4337714535e+02   3.5027021649e+01    0.8289065    0.4846341 -75.80  0.003597802    1.466    0.318
        26 -12.4808     43.8018    208.1937   1.3645201553e+02   2.6135588924e+01     1.781327    0.7478559  74.46   0.00713603    3.206    0.688
        27 -12.9752     39.7808    243.9008   1.3991827544e+02   1.9278188801e+01     1.149653    0.8962674  89.46  0.008286522    1.260    0.207
        28 -12.8812     28.3134    246.9199   1.4222797467e+02   2.0035400526e+01     1.244549    0.5290027  35.58  0.006806303    2.216    0.549
        29 -13.0707      4.9592    245.0309   1.4629899714e+02   2.2861815583e+01     1.043255    0.4677191  64.25  0.006364142    1.705    0.413
        30 -12.0468     13.6682    239.2774   1.4449589162e+02   2.3079310866e+01    0.5655543    0.3257961  70.69  0.003733868    1.348    0.258
        31 -11.6164     19.7017    237.0267   1.4327521034e+02   2.2884002761e+01    0.4640128    0.2606716  60.24  0.001010371    1.362    0.266
        32 -12.3232     28.8555    226.4921   1.4091027333e+02   2.3992578986e+01    0.3402737    0.2589859 -83.55 0.0007378074    1.287    0.223
        33 -13.6696     35.3336    218.4750   1.3905860419e+02   2.4923048505e+01     1.026894    0.8371735 -77.34  0.007067916    1.314    0.239
        34 -10.8611    113.2620    231.1138   1.2377025091e+02   1.1390516350e+01    0.3433165    0.2542559 -54.14  0.001896688    1.596    0.373
        35 -11.0081     98.2219    223.3780   1.2608151450e+02   1.5285315301e+01    0.3701258    0.2626153  34.72  0.001555293    1.375    0.273
        36  -9.5863     94.1435    219.1651   1.2647623076e+02   1.6778252028e+01    0.2580505    0.1802924  63.26  0.001085129    1.374    0.272
        37 -11.4104    109.0814    231.6289   1.2472510481e+02   1.1957700221e+01    0.4101706    0.2958623 -79.73  0.002359179    1.647    0.393
        38 -11.4597    105.6257    227.4316   1.2496029477e+02   1.3316082308e+01    0.4363954    0.3362252  57.86  0.001744266    1.164    0.141
        39 -10.6340     89.9528    238.0760   1.2946371125e+02   1.3659540221e+01    0.2746651    0.2419927  71.71 0.0009654642    1.138    0.121
        40 -10.0351     73.7503    243.3875   1.3326528335e+02   1.4976384498e+01    0.2705924    0.2506005 -86.81  0.001534238    1.307    0.235
        41 -10.8103    164.7606    242.0281   1.1449768401e+02   1.1326919816e+00     0.209792     0.165622  31.81 0.0006238015    1.037    0.036
        42 -11.0424     97.0125    239.1006   1.2810973273e+02   1.2408342386e+01    0.3556897    0.2484165  67.87  0.001438853    1.437    0.304
        43 -10.1805     84.3238    240.6380   1.3087561645e+02   1.3996732374e+01    0.4043457    0.2330527  63.14  0.002158574    1.716    0.417
        44  -9.5828     54.3304    240.8564   1.3690439572e+02   1.8061651063e+01    0.2170104    0.1476336  42.59 0.0005531366    1.332    0.249
        45 -11.1056    116.7457    238.4042   1.2392196080e+02   9.4791565898e+00     0.425951    0.2910744 -26.67  0.001856771    2.392    0.582
        46 -10.8522    128.9371    234.7583   1.2090459230e+02   8.1827008828e+00    0.3552721    0.2355374  61.47  0.001904678    1.696    0.410
        47 -11.1108    122.5324    233.5871   1.2210768897e+02   9.4357379477e+00    0.4091126    0.3043607  43.21  0.001559591    1.119    0.107
        48  -8.8565     66.7685    239.7035   1.3434422016e+02   1.6642187709e+01    0.1971735    0.1501012  74.89   0.00060314    1.180    0.153
        49  -9.4556     66.9052    244.0065   1.3467842390e+02   1.5797914503e+01    0.2525588    0.1541104  30.82 0.0009989957    1.810    0.447
        50  -9.4019    172.8654    235.8757   1.1195172282e+02   8.0260599281e-01    0.1629352     0.142022  50.00 0.0004065908    1.305    0.234
        51  -9.3667     54.9543    235.6483   1.3637864909e+02   1.9001823260e+01    0.2272702    0.1317639  65.33  0.001225574    1.534    0.348
        52 -10.8007     98.3327    231.2018   1.2696472302e+02   1.3718892750e+01    0.2280973    0.2203328  15.64  0.001107805    1.307    0.235
        53  -9.7584    169.7135    232.9745   1.1215195463e+02   1.7813668829e+00    0.1726812    0.1555885  14.69 0.0003859399    1.105    0.095
        54 -10.2137    156.6911    232.2278   1.1472679454e+02   4.0526003125e+00    0.2159105    0.2008082   2.98  0.000601752    1.169    0.145
        55 -11.1691    249.0270    233.1736   9.7185741268e+01  -1.0091555170e+01    0.2590914     0.185557 -16.73  0.001766531    1.239    0.193
        56 -10.0673     79.3640    225.8942   1.3043835831e+02   1.7618068188e+01    0.3947318    0.2653557 -82.74  0.001311446    1.587    0.370
        57  -9.1236     77.3308    220.7959   1.3034661009e+02   1.8962075213e+01      0.20112    0.1473985  62.59 0.0004769513    1.191    0.161
        58 -10.6005    117.0760    224.6760   1.2212926199e+02   1.2009046184e+01    0.3030408    0.2810093  38.29 0.0009542272    1.140    0.123
        59  -9.3239     92.8555    226.0720   1.2755851054e+02   1.5572395525e+01    0.2010799    0.1705126  56.89 0.0007210879    1.027    0.027
        60  -9.1554     64.9946    224.4374   1.3335244146e+02   1.9939328153e+01    0.2058175    0.1670428 -46.57  0.001102998    1.684    0.406
        61 -11.1702     84.7445    230.9894   1.2982164560e+02   1.5807957867e+01     0.648606    0.3114324 -77.25  0.002979279    2.686    0.628
        62 -11.7821     15.9853    218.5072   1.4296209946e+02   2.7009697926e+01     0.822894    0.3260101  37.91  0.004122598    2.230    0.552
        63  -8.7780    164.3974    224.1977   1.1189438436e+02   4.1345867397e+00    0.1590573     0.131115 -61.87 0.0003683067    1.562    0.360
        64  -9.0619     87.8812    224.1120   1.2841486722e+02   1.6722069615e+01    0.2128126    0.1526149  63.51  0.001226208    1.281    0.219
        65 -10.0914     71.1024    219.5939   1.3157516717e+02   2.0102354336e+01    0.4835089    0.2899957  77.57  0.002518911    1.813    0.448
        66 -10.4610    245.7029    220.5095   9.5579573217e+01  -8.0169002791e+00    0.3129368   0.09253174 -31.38  0.001233191    3.568    0.720
        67 -10.5964    142.2012    219.7590   1.1595640314e+02   8.7238954816e+00    0.3518635    0.3018158 -80.96  0.001935791    1.425    0.298
        68  -9.4700    109.9799    218.2483   1.2284813565e+02   1.4442250210e+01    0.2794089    0.1649413  83.13  0.001195348    2.731    0.634
        69 -11.0736     91.9197    241.2241   1.2938044850e+02   1.2771878080e+01    0.3275411    0.2828707  52.36  0.001528049    1.110    0.099
        70  -8.5167     89.3081    218.6652   1.2748611417e+02   1.7625280082e+01    0.1408955   0.08780115  65.73 0.0005519469    1.674    0.403
        71  -8.6351     80.6277    216.8045   1.2919415974e+02   1.9316750254e+01    0.1716001    0.1147235 -88.61 9.087316e-05    1.613    0.380
        72  -9.2073     88.1397    212.8084   1.2705778533e+02   1.9034631438e+01    0.2553946    0.1707821 -88.39 0.0009384434    1.682    0.406
        73 -10.0848     63.0246    209.6497   1.3234684457e+02   2.3350718889e+01    0.5043203    0.3113036 -50.35  0.002646965    2.040    0.510
        74 -11.0207     55.3854    208.0778   1.3389240718e+02   2.4709768067e+01    0.7468076    0.3845569  82.64  0.002125912    2.263    0.558
        75  -8.7827    130.9746    211.3025   1.1716569356e+02   1.2296389865e+01    0.1918606    0.1573347  42.07 0.0002522718    1.075    0.070
        76  -9.9657    156.1845    208.1839   1.1106113950e+02   8.4518639914e+00    0.2163663    0.2078111  41.00  0.000295969    1.105    0.095
        77  -8.4948    134.3408    208.3159   1.1594916063e+02   1.2304400937e+01     0.139689    0.1084693   2.27 0.0007048267    1.707    0.414
        78  -9.1379    125.8477    207.2422   1.1771230353e+02   1.4006906064e+01    0.2229269    0.1849496 -82.42 0.0005815984    1.384    0.277
        79  -9.6752    112.4774    208.4610   1.2094971223e+02   1.6040905255e+01    0.2077291    0.1752398 -88.14 4.427248e-05    1.278    0.217
        80  -8.6526     74.4706    208.4780   1.2964730373e+02   2.2003336952e+01    0.1363107    0.1109518  65.42 0.0001178359    1.054    0.051
        81  -9.0337     69.9249    207.9908   1.3062310186e+02   2.2758788451e+01    0.1934011    0.1590908  68.54  0.001181046    1.038    0.037
        82  -8.9224     32.9754    207.0041   1.3869627524e+02   2.7655960202e+01    0.1685733     0.136978 -53.26 0.0005082599    1.595    0.373
        83  -9.4473     91.2339    205.0340   1.2538686399e+02   2.0230519232e+01    0.3671505    0.1879561  32.42  0.001142027    2.033    0.508
        84 -10.0127    250.3295    200.7890   9.1229063782e+01  -5.9504522104e+00     0.293846    0.1272913 -20.79  0.001205981    3.090    0.676
        85  -9.9972     84.1020    201.5732   1.2660835345e+02   2.2095952551e+01     0.265156    0.2177852 -50.90  0.001180601    1.439    0.305
        86  -9.2569     43.3070    199.9369   1.3583483220e+02   2.8028323725e+01    0.2997078    0.1621483 -53.97  0.001384845    2.172    0.539
        87 -11.4919    102.6814    195.9356   1.2144159899e+02   2.0382853020e+01    0.3898733    0.2643739  33.51 0.0003969991    1.490    0.329
        88 -11.6098     56.8448    194.3134   1.3216368131e+02   2.7612700288e+01    0.4833164    0.3316003 -45.23  0.001087098    1.905    0.475
        89 -10.2757     27.4359    195.2797   1.3899339799e+02   3.0863713752e+01    0.4701361    0.2503966  84.82  0.001140548    1.772    0.436
        90  -9.7166     20.8412    193.9061   1.4034920648e+02   3.1849128671e+01    0.4166381    0.2007768 -84.75    0.0020026    1.864    0.464
        91  -9.9614    249.7236    194.3210   9.0121951860e+01  -4.9337385888e+00    0.2470392    0.1810006  11.03  0.001527029    1.290    0.225
        92  -9.5813    112.6706    193.4518   1.1867390330e+02   1.9232443528e+01    0.3835057    0.1790112 -60.43  0.001378311    2.393    0.582
        93  -8.5991     72.5350    192.9523   1.2827754864e+02   2.5765921800e+01    0.1670167    0.1078922 -41.68 0.0003249645    2.113    0.527
        94  -9.1977    191.3016    191.4636   1.0052706048e+02   5.1851799279e+00    0.2360915    0.1872372 -33.99 0.0006785165    1.295    0.228
        95  -8.8885     38.6127    192.2118   1.3620124556e+02   3.0332546872e+01    0.2557165    0.1151477 -54.03  0.001162161    2.550    0.608
        96  -9.0934     41.2746    188.7557   1.3525727512e+02   3.0821869236e+01    0.2279689    0.1433292  43.97 0.0009590473    1.501    0.334
        97  -9.4648     15.2943    191.5519   1.4140147684e+02   3.2916459530e+01    0.2326673    0.1480976  82.73 0.0007329502    1.309    0.236
        98  -8.7769     32.1038    190.1300   1.3751321474e+02   3.1535840620e+01    0.3679318   0.07470482  39.69   0.00136659    3.573    0.720
        99 -10.1189    250.3363    187.7142   8.8763170793e+01  -4.0543540035e+00    0.2795584    0.1387261 -28.07  0.001380894    1.894    0.472
       100  -8.6298     77.0298    188.5006   1.2662166309e+02   2.6136667445e+01    0.1934497    0.1273439  40.98 -0.0002387485    1.442    0.307
       101  -9.7287     83.5259    186.6714   1.2477671293e+02   2.5577150758e+01    0.2301472    0.2025219  79.52 0.0002956246    1.051    0.049
       102 -10.0832     72.1226    186.5135   1.2756747005e+02   2.7320217517e+01    0.3822635     0.280971 -22.93  0.001602762    2.177    0.541
       103 -11.2973     63.7283    186.3789   1.2960958136e+02   2.8533584254e+01    0.2655783    0.2371587 -55.99 0.0006447312    1.305    0.234
       104  -9.1808     29.5595    184.3339   1.3759761726e+02   3.3145392273e+01    0.2868037    0.1701355 -38.63  0.001235187    2.673    0.626
       105  -8.9631     24.0918    184.0938   1.3885052903e+02   3.3761435762e+01    0.1800474    0.1544842 -69.26 0.0007269806    1.284    0.221
       106  -8.6602     36.3886    182.7707   1.3583851245e+02   3.2772880395e+01    0.1810296    0.1031322 -64.59 0.0009451596    1.663    0.399
       107  -8.2499    127.6036    182.5672   1.1324870260e+02   1.8953713413e+01    0.1463891    0.1353569  59.69 0.0001190638    1.043    0.041
       108 -12.9924     10.0926    209.4599   1.4361988163e+02   2.9491922183e+01     1.352359     1.208228  67.46   0.01027638    1.279    0.218
       109  -8.9007     85.9849    180.0698   1.2321404640e+02   2.6741895915e+01    0.1695661    0.1527617  73.54 0.0009657213    1.008    0.008
       110  -8.8444     27.2505    179.9833   1.3775810448e+02   3.4398385168e+01    0.1786959    0.1370606 -88.50  0.000254615    1.101    0.092
       111  -8.6464     47.2600    179.6466   1.3287750355e+02   3.2250729385e+01    0.1652696    0.1255879  25.06 0.0005248178    1.594    0.373
       112 -12.5813      5.9576    226.3738   1.4529646361e+02   2.6390687226e+01      1.27221    0.7624305  61.70  0.008537537    1.269    0.212
       113  -8.6793     12.5001    178.0882   1.4106261427e+02   3.6239292259e+01    0.1850664    0.1005543 -79.12 0.0006541864    1.545    0.353
       114 -10.0583     64.9304    166.9805   1.2676754529e+02   3.3024840056e+01    0.2217217    0.2026128  36.53 0.0003374498    1.227    0.185
       115 -11.4034     65.1499    175.4653   1.2787291118e+02   3.0933739668e+01    0.3358212      0.26045  40.95 3.976581e-05    1.305    0.234
       116 -11.5957     60.3749    172.6647   1.2873039241e+02   3.2259708522e+01    0.3902742    0.2613939 -46.31 0.0008064797    1.766    0.434
       117  -9.0489    103.1125    176.0963   1.1823284908e+02   2.4842087866e+01    0.2010227      0.19702 -12.41  0.001148582    1.177    0.150
       118 -10.6466     74.5631    174.4829   1.2531864947e+02   2.9822819343e+01    0.3141271    0.2450027  61.66  0.001319456    1.217    0.178
       119 -10.6259     19.4859    174.3282   1.3912040812e+02   3.6481249653e+01    0.3788503    0.2036945  75.83  0.001960872    1.802    0.445
       120 -10.7969     14.0696    167.3261   1.3984269749e+02   3.8614293849e+01    0.3885301    0.2487131  40.30  0.001538215    1.613    0.380
       121 -10.8364      7.6741    166.2278   1.4130597220e+02   3.9402609061e+01     0.348187    0.2679758 -28.26  0.002209271    1.857    0.461
       122 -10.8524    240.7941    150.3824   8.2840170741e+01   3.3923231254e+00    0.2711055    0.2151021 -23.78  0.001552841    1.140    0.123
       123 -11.6031    248.2858    172.3345   8.6099512733e+01  -1.3998511974e+00    0.5019636    0.3632227 -20.81  0.002959951    1.235    0.190
       124 -11.7595    245.1625    162.5906   8.4651157478e+01   6.4907261182e-01    0.6277874    0.2257069 -37.26  0.002552939    2.480    0.597
       125 -10.3900    249.4411    161.6969   8.3772807666e+01   8.7108469164e-02    0.3096606    0.2288654 -33.86  0.001580903    1.207    0.171
       126 -11.0040    245.9186    156.7597   8.3332314495e+01   1.4632201494e+00    0.8644799     0.429109  62.19  0.003027522    4.919    0.797
       127  -9.9367     12.3608    172.9911   1.4070804063e+02   3.7433452133e+01    0.3255077    0.1389762 -62.59   0.00160142    2.123    0.529
       128  -9.9190     46.0719    172.5388   1.3237527433e+02   3.4095220292e+01    0.2347354    0.1740176 -79.57 0.0003161913    1.214    0.176
       129 -10.7214      2.0353    171.8074   1.4303842292e+02   3.8549990937e+01    0.3668996    0.1693354  61.89   0.00189632    2.052    0.513
       130 -11.1496      1.7604    167.0286   1.4277594407e+02   3.9673518991e+01    0.4810023    0.1413289 -77.02  0.002029263    2.739    0.635
       131  -9.6356     27.5856    171.6782   1.3691436029e+02   3.6324661668e+01    0.2929628     0.172527 -52.73  0.001098902    1.873    0.466
       132  -8.2199     52.6343    170.7468   1.3048215397e+02   3.3727349237e+01    0.1257694    0.1042395 -28.11 0.0006961015    1.627    0.385
       133 -11.3097     82.5972    166.0971   1.2193716031e+02   3.0631958554e+01    0.5960056    0.4760906  26.50  0.003138272    1.426    0.299
       134 -11.1497     43.8310    161.9757   1.3170101197e+02   3.6926616869e+01    0.5352845    0.2851681 -88.28  0.002425313    2.053    0.513
       135  -8.8888     61.0163    164.6971   1.2748617320e+02   3.4117878789e+01    0.1900358    0.1623323  54.83 0.0003206376    1.149    0.130
       136  -9.4516     31.3234    163.3620   1.3513351338e+02   3.7944235310e+01    0.2783948     0.170469  66.30 0.0007600148    1.629    0.386
       137  -8.9626     37.1475    162.6689   1.3354344509e+02   3.7501799876e+01    0.2461849   0.09613606  39.28 0.0007424593    2.439    0.590
       138 -12.8461      5.8299    144.5679   1.3997057433e+02   4.4673779477e+01    0.7712283     0.580192 -62.72  0.004983977    1.259    0.206
       139 -11.5075      9.5365    156.6955   1.4007324356e+02   4.1505225895e+01    0.9315627    0.3306661  70.37  0.002566443    4.207    0.762
       140 -11.3878     11.6158    151.9329   1.3911597981e+02   4.2479904342e+01    0.5725091    0.1934034 -87.55   0.00210205    3.469    0.712
       141  -8.2239    119.3155    158.7061   1.1084533598e+02   2.5979631559e+01    0.1565059    0.1174603  73.45 0.0004475214    1.600    0.375
       142  -9.1450     81.4901    156.4954   1.2064165830e+02   3.3162901298e+01    0.2552477    0.1430737  35.36  0.000840336    1.830    0.454
       143  -8.8675     84.5254    155.4468   1.1962044621e+02   3.2939465520e+01    0.2100827     0.133823 -50.62 0.0005668175    1.609    0.378
       144  -8.5375    228.3762    155.2722   8.5981564607e+01   4.7917912878e+00    0.1887745    0.1197618 -43.83 0.0004607391    1.556    0.357
       145  -9.9698     32.3046    154.3031   1.3386583361e+02   4.0053362601e+01     0.301272    0.1844351 -40.16   0.00134547    2.091    0.522
       146 -10.2298     26.1241    154.8175   1.3557946925e+02   4.0530492260e+01    0.2896391    0.1196241  39.91  0.001129644    2.374    0.579
       147 -10.7192    249.5907    150.8900   8.1534257331e+01   1.7925448261e+00      0.41784    0.2507495 -36.10   0.00219484    1.453    0.312
       148 -10.1173    249.6887    117.9115   7.4546160968e+01   7.1573919021e+00    0.3826106    0.2457066 -15.93  0.001550976    2.033    0.508
       149 -11.7198    247.7579    112.7935   7.3712534725e+01   8.3558025521e+00    0.5159458    0.4544981  -6.43  0.003168685    1.283    0.221
       150 -11.7369    247.7304    142.4477   8.0064065712e+01   3.4851630867e+00    0.5868871    0.5049346  22.73   0.00363713    1.271    0.213
       151 -12.5602    248.2814    133.9584   7.8185038257e+01   4.7811238018e+00     1.253079    0.5262215 -31.88  0.005186643    2.341    0.573
       152 -10.0333     95.9053    150.4787   1.1554216861e+02   3.2258116125e+01    0.2928419    0.2558971 -73.57 0.0008028155    1.131    0.116
       153 -10.8162     21.7356    149.1394   1.3614527810e+02   4.2314042614e+01    0.3096479    0.2171902  49.20 0.0009677788    1.464    0.317
       154 -11.7155     68.4159    144.2927   1.2223326098e+02   3.8166786878e+01    0.6986551    0.4737009  77.33  0.002766193    1.765    0.433
       155  -9.2907     41.1039    147.4953   1.3058008184e+02   4.0809772880e+01     0.184655    0.1335613  32.12 0.0006746672    1.532    0.347
       156  -9.7412    235.9845    145.9692   8.2698127079e+01   4.9941265653e+00    0.2117434    0.1567438   0.04 0.0005228919    1.615    0.381
       157  -8.8494     83.0794    149.6731   1.1898929706e+02   3.4600421272e+01    0.1994382    0.1839436  43.84 0.0004388745    1.130    0.115
       158  -9.4420    133.1151    140.5004   1.0331276700e+02   2.7461372320e+01    0.3499689    0.2281994 -54.29  0.001000645    1.599    0.374
       159 -10.4194     38.7545    141.6381   1.3044712828e+02   4.2519291616e+01     0.311424    0.2166549  61.90 -0.0001541599    1.509    0.337
       160 -10.9169     16.4211    139.6685   1.3658141263e+02   4.5066703963e+01    0.2590546    0.2002909  82.03  0.001608183    1.188    0.158
       161 -10.9144     12.9786    137.0374   1.3726508448e+02   4.5971521233e+01    0.2133178     0.171664  64.50 0.0003650956    1.259    0.206
       162  -9.3145    108.3011    136.2363   1.0908746660e+02   3.3464295959e+01    0.3357034    0.2270586 -21.13  0.001343452    2.261    0.558
       163 -11.0257     59.3896    136.2612   1.2349978191e+02   4.1420390084e+01    0.3798893    0.2593036  38.90 0.0003458771    1.532    0.347
       164 -11.8133      2.2077    122.9166   1.3887555502e+02   5.0091404922e+01    0.6547425    0.1350523 -74.11   0.00223411    3.840    0.740
       165 -10.1846     47.7815    135.9316   1.2693309616e+02   4.2942195673e+01    0.2740749    0.2176809 -58.69 0.0009545732    1.179    0.152
       166  -9.6293     44.5083    129.9386   1.2695893678e+02   4.4813169106e+01     0.208067    0.1236973 -68.51 0.0005383237    1.522    0.343
       167 -12.3946     12.4836    127.7912   1.3637262454e+02   4.8252146401e+01    0.5019687    0.3621096  12.78  0.003042527    1.760    0.432
       168  -9.3980     33.8022    128.2038   1.2998160575e+02   4.6361751769e+01    0.2403746    0.1200507  65.81 0.0009629538    2.889    0.654
       169  -8.7680    209.8253    125.8111   8.2738564989e+01   1.3733899692e+01    0.1999613    0.1665922 -59.84 0.0005665966    1.293    0.227
       170 -11.0396    243.7122    121.1132   7.6105338372e+01   7.7472392708e+00    0.4401693    0.1826406 -44.95   0.00181798    2.237    0.553
       171 -11.9340     16.6525    117.4173   1.3378298333e+02   5.0471761366e+01     0.488103    0.2752479 -28.16  0.002423569    2.345    0.574
       172  -8.5520     59.3028    128.2867   1.2208353007e+02   4.3428726004e+01    0.1404972    0.1051219 -32.82 0.0002255677    1.561    0.359
       173 -10.0660    231.9711    116.3270   7.6828851589e+01   1.0843607983e+01    0.1883758    0.1821421 -33.46 0.0006249574    1.077    0.072
       174 -12.3205      9.1866    112.6378   1.3552019254e+02   5.2133380689e+01     0.426982     0.261595 -79.81  0.001772093    1.439    0.305
       175  -9.7462    167.7354    112.9972   8.8048768700e+01   2.5711011980e+01    0.3311616    0.2638964 -72.65 0.0009060061    1.484    0.326
       176  -8.8716    203.4633    111.4968   8.0483363906e+01   1.7764001291e+01    0.1474854    0.1407089 -32.62 0.0001080181    1.053    0.050
       177  -9.5607     35.0471    107.0469   1.2602892101e+02   5.1446040536e+01    0.1967937    0.1755427 -60.14 0.0003666765    1.024    0.024
       178 -12.5481    247.7533    100.3696   7.1008390468e+01   1.0374919904e+01    0.8007717    0.6102206 -23.15  0.004541602    1.423    0.297
       179 -10.1268     20.6986     93.7746   1.2863288823e+02   5.5848076058e+01    0.2202733     0.161057 -46.57 0.0002666536    1.220    0.180
       180 -10.8775     13.6933    103.2194   1.3270008236e+02   5.4098279421e+01     0.233394    0.1382971 -72.50   0.00083266    1.455    0.312
       181 -10.7588      2.4198     89.2027   1.3451959942e+02   5.8037205755e+01    0.3083788    0.1040269 -73.42  0.001294686    2.637    0.621
       182  -8.2490     71.6854    100.2286   1.1182939675e+02   4.8515874091e+01    0.1366632     0.110329  65.29 0.0001892945    1.493    0.330
       183  -9.7811    174.7053    250.4190   1.1371573737e+02  -1.7074811714e+00     0.245131   0.09739566  40.49  0.001127728    2.095    0.523
       184 -11.9231    178.3315    243.9049   1.1205925926e+02  -1.3049650756e+00    0.4893747    0.3070223  46.82  0.002521428    1.638    0.390
       185 -10.8034     17.2828     25.8241   1.1104685774e+02   7.0216051180e+01    0.2324563    0.1494249  34.26  0.001090934    1.927    0.481
       186 -11.0907    159.2002    244.2032   1.1592823189e+02   1.6770388067e+00    0.3517845    0.2117468  61.84  0.001455367    2.623    0.619
