#   1 NUMBER                 Running object number                                     
#   2 MAG_AUTO               Kron-like elliptical aperture magnitude                    [mag]
#   3 X_IMAGE                Object position along x                                    [pixel]
#   4 Y_IMAGE                Object position along y                                    [pixel]
#   5 X_WORLD                Barycenter position along world x axis                     [deg]
#   6 Y_WORLD                Barycenter position along world y axis                     [deg]
#   7 A_WORLD                Profile RMS along major axis (world units)                 [deg]
#   8 B_WORLD                Profile RMS along minor axis (world units)                 [deg]
#   9 THETA_WORLD            Position angle (CCW/world-x)                               [deg]
#  10 FWHM_WORLD             FWHM assuming a gaussian core                              [deg]
#  11 ELONGATION             A_IMAGE/B_IMAGE                                           
#  12 ELLIPTICITY            1 - B_IMAGE/A_IMAGE                                       
         1 -12.0201    105.5751     48.7492   4.2708998024e+01   5.2037503698e+01    0.8182666    0.3624061 -48.82 0.0009322003    2.475    0.596
         2 -11.6243     16.5937     20.8804   7.1949170144e+01   7.5221360504e+01    0.4274741    0.3484923   8.72  0.002250277    1.245    0.197
         3 -12.1308    125.2179     17.4428   2.5964305178e+01   5.1377907065e+01    0.3890005     0.259479 -13.36 0.0003318893    1.778    0.438
         4 -11.8319    205.0071     19.4553   1.8507127800e+01   3.1622542015e+01    0.4033304    0.1613243  57.58   0.00178609    2.973    0.664
         5 -10.7656     25.6834     12.8159   5.9188701338e+01   7.5540804313e+01    0.3282342    0.3259584  55.08  0.001867907    1.214    0.176
         6 -10.1248     23.0438      8.7729   5.8215689330e+01   7.6663279363e+01     0.198577    0.1583839   4.23  0.000571091    1.280    0.219
         7 -10.9599    240.1552     15.0890   1.5470212450e+01   2.5032841136e+01    0.2039933    0.1744441 -14.15 0.0005118689    1.442    0.307
         8 -10.5554     34.6744      4.4517   4.6278361424e+01   7.5221585893e+01    0.2956317    0.2095053 -46.00  0.001196469    1.640    0.390
         9 -11.4428     35.7567     12.1866   5.1613827857e+01   7.3883813307e+01    0.4251857    0.3152931  71.77  0.002187002    1.980    0.495
        10  -9.6398     35.5652      8.4844   4.8945639037e+01   7.4481890463e+01    0.2214199       0.1262  47.61 0.0006903423    1.724    0.420
        11 -10.4647    207.5877     12.6964   1.6595108890e+01   3.1779556999e+01    0.2236229     0.150502 -34.81 0.0005327922    1.283    0.221
        12 -12.1305    203.3158     11.8451   1.6626151049e+01   3.2787792330e+01    0.2411408     0.206272 -59.14 0.0002351162    1.085    0.078
        13 -10.3205    153.3523     12.6542   2.0724931859e+01   4.4555868772e+01    0.2381325    0.1924123 -77.19 0.0002049708    1.132    0.116
        14 -10.0547    185.3647     12.1638   1.7879356298e+01   3.6794326209e+01    0.1946259   0.09445179 -39.21 0.0004937578    1.683    0.406
        15 -12.1924    125.9440     10.5598   2.3124521176e+01   5.1906582476e+01    0.5845333     0.301727 -39.40 -2.719205e-06    1.827    0.453
        16 -10.2444     90.6888     11.0127   2.9468291106e+01   6.1199501693e+01    0.2877503    0.1927813  29.19  0.001312813    1.790    0.441
        17  -9.9786     64.5283     11.3206   3.7103982616e+01   6.7752059845e+01    0.3266316      0.14384 -21.89 0.0009780208    2.620    0.618
        18 -12.5559     55.3409      9.8802   3.9743602038e+01   7.0082561644e+01    0.4568298    0.2796477  38.71  0.002207482    1.671    0.402
        19 -11.2862     42.7129      9.7353   4.5701212241e+01   7.2866018505e+01    0.3692871     0.287804  55.47  0.002074805    1.336    0.251
        20 -10.1852     11.5213     11.4890   7.0748453901e+01   7.7739341525e+01    0.2356457    0.1859892 -76.54 0.0009671953    1.709    0.415
        21 -10.2218      8.1015      8.9541   7.2512622006e+01   7.8618981221e+01    0.2469922    0.1775369  59.09 0.0004742636    2.076    0.518
        22 -10.2711    164.6402     10.6483   1.9030112278e+01   4.1924579620e+01    0.2829958    0.1363699 -56.01 0.0007158379    1.944    0.486
        23 -10.3468     97.0157     10.3561   2.7792034117e+01   5.9607996826e+01    0.2792713    0.1766641 -45.56  0.001333758    1.625    0.385
        24  -9.7348    176.7859      9.7751   1.7803245711e+01   3.9056919951e+01    0.1891339    0.1255399 -56.03 0.0003557864    1.299    0.230
        25 -10.4209      3.4484      8.6282   7.7443692970e+01   7.9123482168e+01    0.3616427    0.1997063 -59.61  0.001876886    1.772    0.436
        26 -10.8945     29.7145      8.1068   5.2570286806e+01   7.5635455768e+01    0.3389598    0.2899324   4.02 0.0009230374    1.132    0.116
        27  -9.3459     16.4861      8.4505   6.3714313496e+01   7.7697953149e+01    0.1299169    0.1134177 -10.57 0.0001513321    1.040    0.038
        28  -9.6554    101.0154      7.0558   2.5447982736e+01   5.8872668741e+01     0.216096    0.1526898  38.84  0.000445704    1.561    0.359
        29 -10.6054    104.5885      4.2107   2.3511658787e+01   5.8181280701e+01     0.248257    0.1949168 -84.57 0.0003631319    1.236    0.191
        30 -10.1381    247.1461      5.9041   1.3151765556e+01   2.4665558253e+01    0.1722052     0.107321 -49.99 0.0003104801    1.180    0.153
        31 -11.6029    194.3706      4.6272   1.5216414513e+01   3.5478853932e+01    0.2996128    0.2154822  62.05 0.0001669411    1.629    0.386
        32 -11.1193    151.5627      5.9604   1.8626963842e+01   4.5665269858e+01    0.2591971    0.2071952 -67.03   0.00033138    1.109    0.098
        33 -10.4181    148.4988      2.4914   1.7703555641e+01   4.6762464664e+01    0.2377281    0.2055766 -62.28 0.0005837913    1.033    0.032
        34 -10.1892    111.7625      6.0632   2.3244914054e+01   5.6105403365e+01    0.2387404    0.1903464  76.94 0.0007673481    1.167    0.143
        35  -9.2555     89.2473      6.3395   2.7380660118e+01   6.2041818799e+01    0.1400714    0.1010726  30.94 0.0006149633    1.564    0.361
        36 -11.1189    216.7867      5.4110   1.4286109906e+01   3.0573561784e+01    0.1490329    0.1064829  70.92 0.0003166732    1.628    0.386
        37 -12.8013     20.1613      2.2499   5.5098285290e+01   7.8188877578e+01    0.3100001    0.2501297  23.91 0.0008064042    1.180    0.152
        38 -11.0752     47.1625      3.9606   3.9150813834e+01   7.2638850580e+01    0.5971327    0.2081566  55.29  0.002326653    2.594    0.614
        39  -9.7380    161.2550      2.9575   1.6845590917e+01   4.3496975100e+01    0.1624804    0.1066319 -30.91 0.0002254359    1.463    0.316
        40 -11.1449    138.2324      2.0323   1.8462259681e+01   4.9457177892e+01    0.2367105    0.1958073  86.20 0.0002038075    1.126    0.112
        41  -9.8447     84.4107      2.0733   2.6132246161e+01   6.3687938107e+01    0.3295743    0.1835719  14.35 0.0009752603    2.499    0.600
        42 -10.0892     13.7484      2.9487   6.1781968151e+01   7.9053600531e+01    0.2376301     0.173917  35.06 0.0008893718    1.407    0.289
        43  -9.4239    121.0012      9.2286   2.3260902508e+01   5.3348715005e+01    0.2068872    0.1361672  76.05 0.0003215024    1.430    0.301
        44  -9.3697    245.4105      1.4212   1.2239048123e+01   2.5406383841e+01    0.1127107   0.08331162 -46.39 0.0001387908    1.041    0.039
        45  -9.4400    238.3344      1.3546   1.2466437644e+01   2.6719943951e+01    0.1024997   0.08559842  21.32 0.0007044112    1.793    0.442
        46 -10.3266    224.1667      3.6203   1.3530361424e+01   2.9248886308e+01    0.1412139    0.1038822  74.41 0.0001691181    1.588    0.370
        47 -10.5879     29.9821      1.3550   4.6680268472e+01   7.6552640314e+01    0.2081631    0.1178123  50.54 0.0004150906    1.761    0.432
        48  -9.9455     65.1370    125.1405   7.8859879954e+01   4.2361016243e+01    0.2096898     0.199436 -43.74 0.0002472681    1.150    0.131
        49  -9.3473    109.6767    250.7208   8.3442038763e+01   1.0090663533e+01    0.1084962   0.07494973   4.76 0.0002365617    1.587    0.370
        50 -12.8707     19.8268    248.3622   1.0175556999e+02   1.9843310563e+01     1.017464    0.2924221  21.62  0.004248879    3.764    0.734
        51 -12.9523      5.0481    241.8721   1.0460929655e+02   2.2261297880e+01    0.7216971    0.3799547  81.48  0.004179683    1.910    0.476
        52  -9.7924     19.5723    123.0748   9.4895968783e+01   4.8268907170e+01    0.3062394    0.1029626  54.07   0.00102561    3.235    0.691
        53 -10.1523     26.9336    121.8322   9.2042245508e+01   4.7947530379e+01    0.2182787    0.1867791 -52.72 0.0006654286    1.258    0.205
        54 -11.8404     11.0071    120.8307   9.7861685525e+01   4.9545294181e+01    0.8147168    0.3762538 -12.38  0.001340062    3.704    0.730
        55 -13.0941     23.3458    113.3683   9.2403464173e+01   5.0600482332e+01    0.3309399    0.3078867  83.07 0.0004950239    1.048    0.046
        56  -9.7605     82.6570    118.0917   7.1572791509e+01   4.1358378272e+01    0.2145012    0.1926968 -59.76 0.0005023497    1.108    0.097
        57 -11.4371     69.2344    115.0969   7.5467728615e+01   4.4364260387e+01     0.420379    0.3299734  89.88 0.0003442146    1.373    0.272
        58 -11.2961      2.8507    112.2012   1.0031474099e+02   5.2415858550e+01    0.3347039    0.1891122 -84.70 0.0004595956    1.562    0.360
        59 -10.8283     14.5617    111.5048   9.5655622619e+01   5.1835908108e+01    0.2497046    0.1827269  64.96  0.001310565    1.298    0.229
        60 -11.1028     13.7123    107.5342   9.5590027529e+01   5.2992211896e+01    0.3656566    0.1371115 -61.23  0.001414931    2.356    0.576
        61 -10.5647     49.0199    107.0212   8.1305820246e+01   4.9490081684e+01    0.1827957    0.1715125  87.05  0.000414633    1.010    0.010
        62  -9.4421      1.2626    104.1097   1.0038078945e+02   5.4709359184e+01    0.2359505   0.04487464 -60.73 0.0006982528    4.076    0.755
        63  -9.6489    127.0977    113.1609   5.7399874569e+01   3.3980128721e+01    0.2183772    0.1962621 -13.81 0.0005063351    1.225    0.183
        64 -10.9857    247.7401    101.9133   3.3951011299e+01   1.3268792846e+01    0.2244671    0.1261546 -41.48  0.000770663    1.500    0.333
        65  -9.6171    112.5677    102.4240   5.8496000792e+01   3.9373360411e+01    0.1529336    0.1489476 -72.35 7.656665e-05    1.002    0.002
        66 -10.8930     17.9868     98.5340   9.2740654540e+01   5.5154415389e+01    0.4988307    0.2083348  40.74    0.0016778    2.345    0.574
        67 -11.7700     17.8061     94.3646   9.2256620407e+01   5.6322864384e+01    0.9333535    0.3512311  74.85   0.00271112    4.480    0.777
        68 -10.8013     20.9098     92.5455   9.0596285230e+01   5.6570847173e+01    0.2981808    0.2138461 -64.31 0.0003682093    1.278    0.217
        69  -9.8634    217.8708     98.4868   3.6755781224e+01   1.8633702314e+01    0.1615053    0.1297097  51.84 0.0006225585    1.504    0.335
        70 -10.4648     43.9421     94.0112   8.0713431289e+01   5.3690838935e+01    0.2430239    0.1712871 -35.52 0.0005777333    1.654    0.395
        71  -9.5824     10.6254     94.1893   9.5444761800e+01   5.6891285175e+01    0.2028568    0.1137018 -67.07 0.0004731646    1.577    0.366
        72  -9.8494    142.1867     92.5921   4.8250266985e+01   3.5005725260e+01    0.2362119    0.1767888 -34.40 0.0003803555    1.338    0.253
        73 -10.7886    125.3106     93.0628   5.2434203533e+01   3.8666995547e+01    0.2535058    0.2196082  57.58 0.0002608073    1.193    0.162
        74 -11.5232     57.7601     91.8401   7.4438839202e+01   5.2300446615e+01    0.3311072    0.2772484 -43.21 0.0005276414    1.249    0.200
        75 -11.4857    113.0374     91.8408   5.5378152461e+01   4.1635194754e+01    0.4431858    0.2546916  53.64 0.0008108413    1.866    0.464
        76 -10.9820    105.7343     91.7593   5.7470110613e+01   4.3235492590e+01    0.2874134    0.2595724  89.27  0.000343142    1.163    0.140
        77  -9.7973     91.9970     92.5300   6.2001289205e+01   4.5925661021e+01    0.2330399    0.1552103  42.83 -3.604549e-06    1.529    0.346
        78 -10.7265     66.6817     91.6533   7.0842238639e+01   5.0893909017e+01    0.2626056    0.2410123  88.07 0.0002707353    1.088    0.081
        79 -12.6237    160.1123     89.1508   4.3563699398e+01   3.1677979374e+01    0.5029879    0.3141299  36.76 0.0007362941    1.979    0.495
        80 -10.1665      7.7456     90.6411   9.6346048185e+01   5.8050642960e+01    0.3307942    0.1342995 -72.87  0.001332147    2.101    0.524
        81  -9.1756      1.3041     91.7061   9.9382916507e+01   5.8104550072e+01    0.1437004   0.09032637  58.82 0.0003753446    1.577    0.366
        82  -8.9976     31.2358     87.2900   8.4946248545e+01   5.7027632647e+01    0.1437587    0.1021327 -44.74  0.000227175    1.458    0.314
        83 -13.7263     65.5976     81.8536   6.8505056787e+01   5.3576862509e+01    0.5116541    0.4590426  74.53 0.0008023584    1.161    0.139
        84  -9.9954     17.5489     84.9355   9.0971008939e+01   5.8946369833e+01    0.2190076    0.1288446 -73.37 0.0004292259    1.531    0.347
        85  -9.3359     54.9462     84.7691   7.3765063036e+01   5.4592021631e+01     0.187138    0.1289721  31.70 0.0005271689    1.533    0.348
        86 -10.4713      6.5381     83.8860   9.6135952120e+01   5.9978852186e+01    0.3690119     0.161671  28.89  0.001569558    2.315    0.568
        87 -10.9076     47.9039     79.3409   7.5387853888e+01   5.7067613614e+01    0.3379069    0.2789024 -87.63 0.0008952611    1.282    0.220
        88 -10.5263      9.2648     80.1465   9.4313849866e+01   6.0844052839e+01    0.2793664    0.1446148  48.63 0.0008598603    2.057    0.514
        89  -9.6617     88.0369     76.8843   5.8504200059e+01   5.0402924336e+01    0.4523552     0.251361 -39.54 0.0008810685    1.941    0.485
        90 -10.0883    176.9745     76.9921   3.7275359370e+01   3.0049987505e+01    0.2945283     0.211296  69.63   0.00132939    1.602    0.376
        91 -10.1438    180.4949     76.4279   3.6573607430e+01   2.9373703417e+01    0.2242921    0.1699174 -46.25 8.626235e-05    1.189    0.159
        92  -9.7866     74.9211     76.7018   6.3217825337e+01   5.3113708557e+01     0.207216    0.1886835  62.31 0.0001923886    1.123    0.110
        93 -10.0567     11.5021     76.8817   9.2699670268e+01   6.1594321191e+01    0.2052816    0.1270392 -75.88 0.0003167447    1.453    0.312
        94 -11.7341      5.9003     74.9078   9.5313540720e+01   6.2469514115e+01    0.5837572    0.2106232 -52.20  0.002259946    2.494    0.599
        95 -10.6589     53.4469     75.5562   7.1795334219e+01   5.7206215860e+01    0.3992783    0.2615004  33.24 0.0005432731    1.601    0.376
        96 -10.4548     15.9659     74.9815   9.0070507664e+01   6.1794135757e+01    0.2383463    0.1545228  59.64  0.001137369    1.695    0.410
        97 -10.2763    140.6774     72.5589   4.2645918253e+01   3.9151999792e+01    0.3837057    0.2410886  35.53  0.001076967    2.076    0.518
        98  -9.8887    118.0107     71.3434   4.7596086074e+01   4.4789955958e+01    0.3372159    0.2069389  16.61  0.001064927    3.828    0.739
        99  -9.8544    105.8892     72.0140   5.1175003162e+01   4.7498778060e+01    0.2304559    0.1989676  84.71 0.0007080641    1.253    0.202
       100  -9.3370     91.3610     70.1414   5.5077237586e+01   5.1187578773e+01    0.2117497    0.1409444 -58.15 0.0003680942    1.620    0.383
       101 -12.8316     80.8559     67.1149   5.7688418335e+01   5.4125683751e+01    0.4613269    0.3911657  18.92 0.0005332026    1.392    0.282
       102 -11.8706    211.9579     67.3741   3.0095766619e+01   2.4196353744e+01    0.2348746    0.1902328 -42.66 0.0003068422    1.026    0.025
       103  -9.5061    174.0009     68.2771   3.5324603430e+01   3.2105086639e+01    0.1648462    0.1274211  65.39 0.0008649798    1.411    0.291
       104  -9.0408    131.6480     68.7116   4.3404690660e+01   4.2021046395e+01    0.1534374    0.1212835  20.23 0.0006743516    1.669    0.401
       105  -9.1941    110.7320     67.7109   4.8317766432e+01   4.7237317475e+01    0.1470237    0.1245171   5.24 0.0001986636    1.503    0.335
       106 -11.0892      5.9118     62.7660   9.3460088521e+01   6.5746797338e+01    0.3982331    0.2867741  58.71  0.001463651    1.503    0.335
       107 -11.9063     11.6768     59.7130   8.9458306518e+01   6.6205847171e+01    0.3300337    0.2834265  68.80 0.0002757981    1.239    0.193
       108 -11.8746     17.1860     64.5663   8.7309385161e+01   6.4503151661e+01    0.3865682    0.3316279 -62.92 0.0006601221    1.057    0.054
       109 -13.6337     20.9983     58.4949   8.3600840233e+01   6.5768139229e+01    0.4577816    0.3160399 -50.04 0.0008571419    1.342    0.255
       110 -10.0518     63.9631     65.3787   6.3795559519e+01   5.7893497414e+01    0.2951856     0.184633 -39.61  0.000846052    1.709    0.415
       111  -8.9475    166.2780     64.6560   3.5499789055e+01   3.4448469783e+01    0.1534266    0.1006813 -59.53 0.0003823162    1.629    0.386
       112 -11.3830    128.3426     63.5414   4.2445622054e+01   4.3767544802e+01     0.270292    0.2535766 -63.78 0.0001844591    1.011    0.011
       113 -11.2665     51.4321     62.8752   6.8601094742e+01   6.0693784890e+01    0.5020603    0.2888516 -73.01  0.001323899    2.431    0.589
       114  -9.7823    119.9320     62.5868   4.4122383047e+01   4.6000897802e+01    0.2013444    0.1859378  70.16  0.001052792    1.089    0.082
       115 -10.8979     98.1445     60.8670   4.9530610041e+01   5.1573800096e+01    0.2535093    0.2384081  58.52 0.0003413094    1.074    0.069
       116 -10.2562     45.7453     68.7801   7.3314929300e+01   6.0109912708e+01    0.3114636    0.2101218 -70.79  0.001421884    1.583    0.368
       117  -9.4672     90.2970     58.9935   5.1334346209e+01   5.3772020247e+01    0.2055626     0.194182 -54.38  0.000284753    1.043    0.042
       118 -11.6695     58.3434     58.9203   6.3898103016e+01   6.0436480842e+01    0.3238119    0.2312314  44.99 0.0005238518    1.445    0.308
       119  -9.8748     38.7090     59.5835   7.3920159845e+01   6.3431532050e+01    0.2705132    0.1477052  24.29  0.001077833    2.076    0.518
       120  -9.3848    130.7213     57.2762   3.9781966197e+01   4.4281016031e+01     0.151377    0.1123531 -69.27 0.0002552934    1.499    0.333
       121  -9.8772     71.3871     56.6636   5.7374446012e+01   5.8400138965e+01    0.2354681    0.1817054  85.42 0.0006269208    1.696    0.411
       122  -9.8034    229.4228     56.3408   2.5699044278e+01   2.2313560320e+01    0.1681468   0.09277514 -39.62 0.0004593111    1.398    0.285
       123 -12.7809    114.7909     53.5569   4.2154967956e+01   4.8900451789e+01    0.3367616    0.3077012 -61.91 0.0004297913    1.062    0.058
       124 -10.7426     98.1020     53.0924   4.6557211424e+01   5.3084719498e+01    0.5130991    0.3254982 -43.08  0.002257361    1.556    0.357
       125 -11.4791     85.6287     54.2902   5.1066956663e+01   5.5784926430e+01    0.7425613      0.31424  51.24  0.002591269    2.402    0.584
       126  -9.7089     34.0561     55.3946   7.5052727724e+01   6.5097498855e+01    0.2162439    0.1416081  25.41  0.001022456    1.641    0.391
       127  -9.7501      7.3898     55.2243   9.1143637484e+01   6.7662522990e+01    0.1917412    0.1215716 -86.94 0.0004736571    1.603    0.376
       128 -10.1841    225.2322     52.8821   2.5254650246e+01   2.3540152924e+01    0.1983062    0.1361465 -48.25 0.0004622596    1.215    0.177
       129  -9.2430    182.3139     53.3256   2.9934253038e+01   3.2460195080e+01    0.1340778    0.1080268  16.76 0.0004907968    1.665    0.400
       130  -9.5395    230.2138    247.3894   6.1612206904e+01  -2.3663710666e+00    0.1200528   0.07355259  23.92 0.0003761466    1.491    0.329
       131 -10.2940     66.0010     53.0000   5.8125735060e+01   6.0289343463e+01     0.462665    0.1912185  39.57  0.001635228    2.600    0.615
       132 -11.9646     62.0158     49.8196   5.8529475897e+01   6.1765304771e+01    0.3037095    0.2505817 -57.27 0.0003214784    1.249    0.199
       133  -9.7413    148.9472     51.6840   3.4382368914e+01   4.0652626871e+01    0.1977373    0.1824501 -82.43 0.0006244936    1.064    0.060
       134 -10.3563    138.1100     50.2193   3.5856516351e+01   4.3589044309e+01    0.2439994    0.2089441 -40.29 0.0005213717    1.140    0.123
       135  -9.6412     78.2252     50.1856   5.2033599120e+01   5.8271113616e+01    0.2077157    0.1778599 -87.48 0.0005548496    1.333    0.250
       136 -10.4112     14.2527     48.8330   8.5135489835e+01   6.8843025253e+01    0.2185478     0.183023  38.01 0.0003070787    1.307    0.235
       137 -10.0856     53.4209     47.8590   6.1728153683e+01   6.3824156456e+01    0.2974197    0.2407391 -35.14  0.001533467    1.257    0.204
       138 -10.6678    157.4972     47.6167   3.1687505358e+01   3.9153655463e+01    0.4589694    0.2767834 -86.71  0.001980793    2.106    0.525
       139  -9.7910    129.5006     45.9685   3.6049754796e+01   4.6438575491e+01     0.210783    0.1458454 -33.51 0.0009809071    1.445    0.308
       140  -9.6159     79.1918     45.4392   4.9621973700e+01   5.8971177731e+01     0.194898    0.1452969  65.21 0.0009138664    1.473    0.321
       141 -10.4999     16.8519     43.6491   8.1771047980e+01   6.9923069953e+01    0.3709033     0.223517  60.26  0.001018408    2.268    0.559
       142  -9.6669      1.9013     45.1357   9.2667491545e+01   7.0568780954e+01    0.1961877    0.1767562  58.41  0.001209243    1.230    0.187
       143 -10.7816    117.1987     42.2640   3.7289068174e+01   5.0166670751e+01    0.4763862    0.1951622 -42.87   0.00132531    2.369    0.578
       144 -10.1796     89.1756     43.3669   4.5297595878e+01   5.7003471532e+01    0.2189901    0.1426193  66.52 0.0009493767    1.709    0.415
       145 -11.0145     38.2332     41.6694   6.7187392273e+01   6.7756215429e+01    0.3774037    0.2666754  61.09  0.001453631    1.867    0.465
       146 -11.7952    183.1133     39.8524   2.6012271739e+01   3.4106241950e+01    0.4688267    0.2809893 -76.50  0.002240456    1.920    0.479
       147 -11.5209    141.5645     40.9122   3.2026316256e+01   4.4114532393e+01    0.2587896    0.2144006  81.84 0.0003172303    1.204    0.169
       148 -10.0345    110.4179     40.6801   3.8245771205e+01   5.2151809982e+01    0.2702257    0.1972731 -59.70 0.0007577955    1.461    0.315
       149 -10.5940     67.9942     40.4620   5.1698685316e+01   6.2407535497e+01    0.2941882     0.202445 -55.70  0.000891357    1.631    0.387
       150  -9.8656     58.0499     40.7447   5.6232870550e+01   6.4427901358e+01     0.205452    0.1949128  20.70 0.0005741618    1.068    0.063
       151 -10.4102     91.1500     39.8525   4.3139293648e+01   5.7127893252e+01    0.2032546      0.17765  22.03 0.0003353181    1.304    0.233
       152 -11.4196     81.9643     38.5492   4.5523485053e+01   5.9568399042e+01    0.3320438    0.2997805  62.17  0.001334676    1.102    0.093
       153 -10.2288    191.8724     38.1474   2.4616759187e+01   3.2332532076e+01    0.1954154    0.1513017 -56.27 0.0002647032    1.133    0.118
       154 -12.0784    121.6963     37.0607   3.4307068288e+01   4.9790599362e+01    0.4520001    0.2797721 -40.85  0.002049283    1.558    0.358
       155 -10.5530     26.3154     43.0873   7.5211462924e+01   6.9061080815e+01    0.4398275    0.2508841   8.32  0.001891937    2.340    0.573
       156 -10.6753     66.2814     46.4331   5.5173060944e+01   6.1602885324e+01    0.4178876    0.3225185 -30.52 0.0009138039    1.388    0.280
       157 -10.9589     51.5532     38.7678   5.8461424119e+01   6.6087777128e+01    0.2584489     0.239031  41.38 0.0004950068    1.104    0.094
       158 -10.0756     14.8223     35.7829   8.0398298046e+01   7.2024038579e+01    0.2574542    0.1772503  34.16  0.001366252    1.568    0.362
       159 -10.1293      2.9890     35.7677   8.9549363523e+01   7.2881089998e+01    0.1750525    0.1604163 -38.56   0.00110376    1.067    0.062
       160 -10.5677     45.2899     33.3513   5.9048021035e+01   6.8334216094e+01    0.4282194    0.1699663 -49.99  0.001575498    2.687    0.628
       161  -9.7575     49.6307     33.6981   5.6883240823e+01   6.7459097144e+01    0.1936654    0.1323486 -51.89  0.000513061    1.557    0.358
       162 -10.0912     27.9273     33.7785   7.0058480967e+01   7.1002277389e+01    0.2337212    0.1622899 -37.62 0.0006269116    1.412    0.292
       163 -11.9451    212.9725     31.9685   2.1142020378e+01   2.8530549520e+01    0.2367248    0.1884072 -47.10  0.000306252    1.012    0.012
       164 -12.1866    144.4642     31.1067   2.8158963220e+01   4.4706929728e+01    0.3672481    0.2474657 -47.80 0.0003492321    1.386    0.279
       165  -9.4890    127.7792     32.6466   3.1443819955e+01   4.8828049604e+01    0.1940015    0.1346296  81.69 0.0003827127    1.497    0.332
       166 -12.5948     11.0512     29.9217   8.1023818596e+01   7.3745932710e+01    0.3250955    0.2604943  39.81 0.0009988737    1.407    0.289
       167  -9.5080     89.3378     31.2868   3.9781677542e+01   5.8944169435e+01    0.1520728    0.1117583  29.40 0.0007017761    1.633    0.388
       168 -11.0723    135.7250     29.1316   2.8785468268e+01   4.7220285110e+01    0.2358889     0.209595  82.41  0.000297473    1.095    0.087
       169 -10.0068     39.0961     30.1566   6.0935554091e+01   7.0059510079e+01    0.2115349    0.1771878  -3.62 0.0003889511    1.290    0.225
       170  -9.7502    162.7580     27.8570   2.4691047899e+01   4.0490599044e+01    0.2022721    0.1444629 -64.03  0.001051542    1.328    0.247
       171  -9.3738     69.5527     28.5512   4.5097395972e+01   6.4142506453e+01    0.1417854    0.1396994  55.28 4.704267e-05    1.020    0.019
       172 -11.1088     90.9712     26.4222   3.7011405202e+01   5.9240382426e+01    0.3102118     0.203927 -38.29  0.001459767    1.531    0.347
       173  -9.8365     80.9440     26.9133   4.0235613950e+01   6.1676301622e+01    0.2312373    0.1698295 -64.98 0.0007126378    1.627    0.385
       174  -9.3893    131.5785     26.1160   2.8324646302e+01   4.8683064149e+01    0.2249507    0.1780366 -64.64 0.0005090907    1.226    0.184
       175  -9.9113    129.9886     22.5377   2.7215931176e+01   4.9534716237e+01    0.2723145    0.1930059  47.12     0.001343    1.560    0.359
       176  -9.5035    216.9045     25.5257   1.9247889892e+01   2.8455237352e+01    0.1567909    0.1168317  89.27 5.246296e-05    1.438    0.304
       177 -10.4447     99.7903     22.5700   3.2970136326e+01   5.7482502694e+01    0.4431445    0.2069833  80.08  0.001552067    2.938    0.660
       178  -9.8425     59.5565     24.5662   4.7032427488e+01   6.7037598910e+01    0.3051229    0.1373585 -36.73  0.001221084    2.238    0.553
       179 -10.0394     51.9800     23.6965   5.0075435471e+01   6.8800768939e+01    0.3226962    0.2567478 -72.00  0.001669009    1.667    0.400
       180 -11.0688     47.9545     23.4050   5.1969576373e+01   6.9670218870e+01    0.2394112    0.2269971 -40.35 0.0002999926    1.109    0.098
       181  -9.2472     25.7846     25.0001   6.6988416744e+01   7.3179570663e+01    0.1709851    0.1045839 -49.38 0.0008371808    1.572    0.364
       182 -10.8397     33.3052     23.9816   6.1088837781e+01   7.2239963837e+01    0.2911111     0.194801  35.18 0.0002134667    1.513    0.339
       183 -10.6864     32.7726     20.3422   5.9191519632e+01   7.3017124243e+01    0.2764912    0.2162078  -0.36 0.0007825023    1.428    0.300
       184 -10.3078     14.4606     15.9350   7.0870433003e+01   7.6501123396e+01    0.2497815    0.2063449 -44.52 0.0009158364    1.155    0.134
       185 -10.5119     21.7947     22.0632   6.8350912856e+01   7.4329392350e+01    0.2576523    0.1748233 -17.80 0.0009386566    1.722    0.419
       186 -10.2082    131.3603    247.0761   7.8786651194e+01   8.1408090459e+00    0.1496365    0.1246942  18.05 0.0006443179    1.102    0.093
       187 -11.2584      2.7074     20.8898   8.4655933890e+01   7.6468513563e+01    0.3687102    0.2550315  61.64  0.001316261    1.916    0.478
       188 -10.6023    210.6077     21.7352   1.8718083058e+01   3.0180928405e+01    0.2173759    0.1221045 -65.10 0.0004382924    1.709    0.415
       189  -9.6568     84.1282     21.8155   3.6675681269e+01   6.1599419242e+01    0.2019993    0.1657627  31.17 0.0005061228    1.328    0.247
       190 -10.0953    116.0569    246.8276   8.1793614456e+01   9.9377532713e+00    0.1687268    0.1270579  39.71 0.0006040552    1.248    0.199
       191  -9.6476    113.8652     20.8454   2.9276818219e+01   5.3993797372e+01    0.2118239     0.159683 -59.68 0.0005696132    1.343    0.256
       192  -9.9202    106.5040     21.3559   3.0947055042e+01   5.5874935316e+01    0.2363359    0.1506116  47.42 0.0005808641    1.642    0.391
       193  -9.4162    232.6730     20.6882   1.7127926477e+01   2.5859611251e+01    0.1057407   0.09021678  16.34 0.0003772477    1.664    0.399
       194 -11.0562      1.4717    233.4965   1.0518168834e+02   2.4079192475e+01    0.2394492    0.1794264 -87.80  0.001216929    1.496    0.331
       195  -9.5687     74.4590     20.5218   3.9010054639e+01   6.4169982420e+01    0.1954748    0.1390218  75.05 0.0001136373    1.572    0.364
       196 -10.6848     70.7424     18.6652   3.9249906458e+01   6.5322391990e+01    0.2432063     0.230322 -57.93 0.0002853853    1.113    0.102
       197  -9.0013      7.6834     20.7422   7.9860509775e+01   7.6138533162e+01    0.1327714   0.08663767 -28.00 0.0003836466    1.537    0.349
       198  -9.9445    225.3358     18.3006   1.6971168165e+01   2.7540652220e+01    0.1074419   0.09182858  24.02 0.0007035088    1.659    0.397
       199  -9.8504     37.6934     18.3328   5.4670426793e+01   7.2510550550e+01    0.1316164     0.110338 -81.95 0.0004868861    1.665    0.400
       200 -10.9342     24.9209     17.8002   6.3241879572e+01   7.4740263931e+01    0.2331605     0.203337  -5.02  0.001410727    1.106    0.096
       201 -12.2459     10.0038    245.5012   1.0367874943e+02   2.1201255264e+01    0.4641463    0.2122464 -65.54  0.002680657    2.805    0.644
       202 -10.5401     52.3243    244.5314   9.4834237481e+01   1.7368984981e+01    0.2106202    0.1661376  16.90  0.001497792    1.364    0.267
       203  -9.8460    147.4911    243.4944   7.5270907121e+01   6.7816034954e+00    0.1129137   0.08616473  17.72  0.000810602    1.004    0.004
       204 -10.3007    163.5045     19.8588   2.2062502688e+01   4.1233939628e+01    0.2207896    0.1802592  89.04 0.0002903005    1.188    0.158
       205 -10.3096    159.8340     15.7640   2.1111733458e+01   4.2594646096e+01    0.2084553    0.1857574 -15.50 0.0004373904    1.295    0.228
       206  -8.9382    194.3709    242.7213   6.6719400956e+01   1.6810893631e+00   0.09478544   0.07299872  34.91 0.0007010197    1.691    0.409
       207 -10.1565    208.5152    123.4549   4.3646089208e+01   1.6486822875e+01     0.217155    0.1835202 -27.85 0.0005087978    1.035    0.033
       208  -9.0913    202.6586    241.6931   6.5198922612e+01   9.3382519646e-01    0.1101685   0.06223306   0.93 0.0007042629    1.686    0.407
       209  -9.6479     31.5065     14.5325   5.6144770540e+01   7.4269277563e+01      0.13306    0.1232072  -0.40 3.722727e-05    1.011    0.011
       210 -11.3044      2.3547    248.1987   1.0527866324e+02   2.1371154081e+01    0.3485224    0.2114339  47.33  0.001753722    1.145    0.127
       211 -11.0193     26.6332    237.2028   9.9944649053e+01   2.1196685130e+01    0.1328106     0.100109 -74.57 0.0003618032    1.613    0.380
       212  -9.4998     59.0334    236.0032   9.2877907743e+01   1.8149416635e+01    0.1414242    0.1070006  39.20 0.0003562281    1.021    0.020
       213 -10.3383     54.0592    235.5496   9.3931648327e+01   1.8760097108e+01    0.1845559   0.08878995  32.33  0.001020973    1.588    0.370
       214 -10.8201     31.4665    232.9185   9.8722239323e+01   2.1523803044e+01     0.352912    0.1034366  33.47  0.001232683    2.280    0.561
       215  -9.2571    239.2727    234.3296   5.8476425759e+01  -1.8912686634e+00    0.1024491   0.05589618  -4.69 0.0006985167    1.588    0.370
       216  -9.9405    245.9669    230.4943   5.6962363315e+01  -2.1259770248e+00      0.18746   0.07975028  27.95 0.0004609793    2.167    0.538
       217  -9.9576    140.1987    227.5628   7.4797215111e+01   9.9396236913e+00    0.1894991    0.1463936  85.73   0.00115674    2.368    0.578
       218 -10.3254      1.4292    227.0234   1.0506089080e+02   2.5300587347e+01    0.1507342   0.09686462  83.26 0.0003638185    1.540    0.350
       219  -9.8800    223.5630    226.1782   5.9685312701e+01   5.2202074588e-01    0.1452635   0.07738886 -19.37 0.0006160443    1.677    0.404
       220 -11.8901      3.2327    221.0142   1.0453547945e+02   2.6317389944e+01    0.4762149    0.1496791  62.83  0.002009582    2.680    0.627
       221 -10.6278      7.6349    220.9251   1.0355448000e+02   2.5970933333e+01    0.2225115   0.09980384 -85.30  0.001207114    2.330    0.571
       222  -9.5139    197.6907    222.6692   6.3398984446e+01   3.7333509267e+00    0.1152531    0.0687167  -2.40 0.0007041323    1.667    0.400
       223  -9.5613    230.9879     10.5104   1.4849405521e+01   2.7233403800e+01    0.1529579    0.1075896 -86.80 0.0003439798    1.497    0.332
       224 -10.0815     19.1213    221.0629   1.0097867175e+02   2.4941661645e+01    0.3444558    0.1036211  54.82  0.001270674    2.696    0.629
       225  -9.5624     85.9273     10.4612   3.0294512123e+01   6.2494031764e+01     0.206375    0.1303543  63.98 0.0002834793    1.472    0.321
       226  -9.5147    210.2242    215.9639   6.0310262000e+01   3.1491042383e+00    0.1336575   0.07779253 -30.84 0.0007207863    1.628    0.386
       227  -9.5106     85.7824    215.1103   8.5164897304e+01   1.8881503923e+01    0.1521796    0.1333826  -0.09 0.0003377144    1.296    0.228
       228  -9.8389    111.3373    214.6863   7.9336702555e+01   1.5713022682e+01    0.1267359   0.08420263  52.96 0.0003520558    1.693    0.409
       229  -9.9537    229.9857    209.1704   5.6146093205e+01   1.7882105751e+00    0.1398832    0.1045241 -32.76  0.001036881    1.601    0.375
       230 -10.3943     39.2671    207.1948   9.5571932912e+01   2.5798240109e+01    0.1932483    0.1502775  29.48 0.0004309238    1.231    0.187
       231 -11.2312      4.8998    206.1369   1.0377724226e+02   2.9198217770e+01    0.4323882    0.1380827  50.40  0.001135273    2.238    0.553
       232  -9.4648     21.9644    180.2268   9.8395795817e+01   3.3467556985e+01     0.172151   0.09585115  28.52  0.000878432    1.662    0.398
       233  -9.0194     37.5701    172.4122   9.3536194422e+01   3.3776073556e+01    0.1334397     0.116108  57.68 8.589514e-05    1.021    0.021
       234  -9.3287    229.4924    165.5292   4.8862061969e+01   7.3123369655e+00    0.1176961   0.09068428 -13.17  7.48618e-05    1.016    0.015
       235  -9.7480     29.3442    155.0818   9.4521288163e+01   3.8909139013e+01    0.1913882    0.1574433  78.61 0.0004486973    1.105    0.095
       236 -10.8267     28.8819    139.6092   9.3261400096e+01   4.2973637047e+01    0.3844415    0.1758492 -70.68 0.0006490139    2.036    0.509
       237  -9.9992      1.9234    140.1842   1.0223279456e+02   4.5006734909e+01     0.206905    0.1490968  61.37  0.000319091    1.202    0.168
       238  -9.4251    235.7513    138.0114   4.2750703360e+01   1.0181079568e+01     0.163289   0.08231688 -32.48 0.0008882122    1.592    0.372
       239 -10.5108     24.2718    137.9886   9.4655322127e+01   4.3841271706e+01    0.2021574    0.1360211 -81.78 0.0004484254    1.388    0.280
       240 -11.1299     21.5391    135.7738   9.5382997060e+01   4.4676728566e+01    0.3157156    0.1908884  57.80 0.0003213989    1.555    0.357
       241  -9.1330     16.6724    137.7007   9.7191608661e+01   4.4579386841e+01    0.1369025   0.09933074 -43.29  0.000330288    1.638    0.389
       242  -9.9776     95.8672    134.0116   7.0845380036e+01   3.5124307077e+01    0.2700516    0.2014241 -52.09 0.0009919092    1.359    0.264
       243 -10.9846     28.7130    134.7575   9.2828588975e+01   4.4281001019e+01    0.2379026    0.2006663  69.34 0.0002340303    1.070    0.065
       244  -9.4490     52.9591    129.9878   8.3849688475e+01   4.2783424669e+01    0.1796206    0.1647774  83.38 0.0004983788    1.021    0.021
       245 -10.2392     27.7300    129.0933   9.2570891563e+01   4.5898891748e+01    0.2893076    0.1659577  54.09 0.0007525019    1.692    0.409
       246  -9.8585     10.1900    129.0025   9.8777446450e+01   4.7398085398e+01     0.234992    0.1258613 -52.78  0.001068007    2.014    0.504
       247 -10.6638    247.4147    127.2012   3.9121038586e+01   9.9914575551e+00    0.1710444   0.08502212 -38.97 0.0006675524    1.699    0.411
