#   1 NUMBER                 Running object number                                     
#   2 MAG_AUTO               Kron-like elliptical aperture magnitude                    [mag]
#   3 X_IMAGE                Object position along x                                    [pixel]
#   4 Y_IMAGE                Object position along y                                    [pixel]
#   5 X_WORLD                Barycenter position along world x axis                     [deg]
#   6 Y_WORLD                Barycenter position along world y axis                     [deg]
#   7 A_WORLD                Profile RMS along major axis (world units)                 [deg]
#   8 B_WORLD                Profile RMS along minor axis (world units)                 [deg]
#   9 THETA_WORLD            Position angle (CCW/world-x)                               [deg]
#  10 FWHM_WORLD             FWHM assuming a gaussian core                              [deg]
#  11 ELONGATION             A_IMAGE/B_IMAGE                                           
#  12 ELLIPTICITY            1 - B_IMAGE/A_IMAGE                                       
         1  -8.5458    190.6472      6.8082   1.8308741430e+01   3.5908326873e+01     0.251633    0.1815012  42.84 0.0003460568    1.468    0.319
         2  -7.3250    222.5197    248.4729   6.8323828485e+01  -6.5137807359e+00    0.1149844    0.0864347  28.40 0.0001238547    1.017    0.017
         3  -9.3271    151.0472    248.3049   8.0441453113e+01   4.8630068628e+00    0.1982034    0.1824793  26.71 0.0002252645    1.283    0.221
         4  -8.7203    152.0276    243.8265   7.9738307888e+01   5.3302661706e+00    0.2147048    0.1687784  71.52 0.0004005018    1.437    0.304
         5  -7.9009    162.0564    245.2782   7.8181045327e+01   3.5105399952e+00    0.1667381     0.117993  44.80 0.0003729429    1.100    0.091
         6  -7.9826    180.5214    242.1071   7.4569066806e+01   9.2601154138e-01    0.1413695    0.1189155 -42.38 0.0005568662    1.523    0.343
         7  -7.5843     70.9539    238.9863   9.3062664738e+01   1.8156609702e+01    0.1711297   0.09738892  70.61 0.0006138142    1.600    0.375
         8 -10.0997    119.0794    235.0940   8.4486240746e+01   1.1871942671e+01    0.2187852    0.1860627  73.36 0.0004728139    1.154    0.134
         9  -8.5746     70.5265    225.9791   9.2059943510e+01   2.0427410671e+01     0.193079    0.1324292  53.37 0.0003707037    1.223    0.182
        10  -8.9075    142.9696    222.6004   7.8677357372e+01   1.0004970752e+01    0.1843084    0.1742489 -83.08 0.0003540946    1.230    0.187
        11  -8.1998    247.4491    220.9393   5.9799377672e+01  -7.3326486910e+00     0.198345     0.148165  43.34  0.000581879    1.504    0.335
        12  -7.8290    128.5950    217.8170   8.0721696535e+01   1.3177449671e+01    0.1529765    0.1132465 -79.25 0.0004115595    1.591    0.372
        13  -9.4769      2.9396    205.1757   1.0198162078e+02   3.1703545022e+01    0.1922285    0.1428695  85.13 0.0003938131    1.133    0.117
        14  -7.9048     70.1967    202.3633   8.9924032269e+01   2.4791120092e+01    0.1764855    0.1437011 -76.15 0.0006393255    1.266    0.210
        15  -6.8356    166.0053    201.9810   7.1312616599e+01   9.3196217770e+00    0.1509692    0.1308462  42.69            0    1.003    0.003
        16  -6.8223    248.0293    201.7673   5.6316691723e+01  -5.1685367615e+00    0.1513817   0.08995607  38.14 0.0003851229    1.520    0.342
        17  -7.7682     76.0423    199.5131   8.8521146186e+01   2.4543373750e+01    0.1774765    0.1376037 -83.52 0.0003743625    1.207    0.171
        18  -7.4953     50.8051    200.6148   9.3361071240e+01   2.7586268130e+01     0.151131   0.08454541  54.00 0.0002435654    1.543    0.352
        19  -8.8319      6.7009    189.7480   1.0046661383e+02   3.4261355252e+01    0.1723917    0.1306272  81.40  0.000403932    1.080    0.074
        20  -7.4496    104.0559    187.9923   8.1574941543e+01   2.2621396124e+01     0.168048    0.1547759  -1.81 0.0003949376    1.507    0.337
        21  -6.8020    101.2503    176.2871   8.0507566119e+01   2.5410668487e+01    0.1130723    0.1020502 -28.41            0    1.473    0.321
        22  -7.2953     33.3527    174.1450   9.4317639153e+01   3.4811385868e+01    0.1626122   0.08613113 -87.24 0.0003656621    1.730    0.422
        23  -9.6704    153.7678    170.6407   6.8379304195e+01   1.7161003324e+01    0.2640868    0.2313101 -40.23  0.000404857    1.251    0.201
        24  -7.8601    159.4528    168.0099   6.6690555150e+01   1.6546637962e+01    0.2654087     0.183957  31.34 0.0004680518    1.542    0.351
        25  -8.7353     96.9885    162.3775   7.9329701006e+01   2.8982425316e+01    0.2135552    0.1769927 -60.30 0.0003325617    1.231    0.187
        26  -6.9459    152.2616    159.6763   6.6611773156e+01   1.9562287135e+01    0.1385019    0.1106739  88.40 0.0002260956    1.557    0.358
        27  -7.3887     61.0347    149.2286   8.5537604497e+01   3.6950610202e+01    0.1465232    0.1020573  40.06 0.0002423005    1.561    0.359
        28  -7.0572     91.6770    145.3610   7.7743861186e+01   3.3489148149e+01    0.1441007   0.09837123  79.76 0.0007042461    1.779    0.438
        29  -8.3247    238.3634    142.0634   4.5884158069e+01   4.9192209792e+00    0.2368341    0.1951762  46.75 0.0003649053    1.304    0.233
        30  -7.9340    105.1478    137.8402   7.3126438856e+01   3.2930796556e+01    0.2036867    0.1777848  88.78 0.0003603548    1.152    0.132
        31  -7.1046    250.5768    130.5112   4.1278276584e+01   4.2663046884e+00    0.1367597    0.1224523 -15.03 0.0001965641    1.032    0.031
        32  -8.9961    163.9371    125.0657   5.6493607307e+01   2.3943903380e+01    0.3634489    0.2898141 -22.00  0.001220625    1.412    0.292
        33  -8.5686     49.3420    125.1668   8.4805244622e+01   4.3659706515e+01    0.1994476    0.1810262  88.37 0.0004500088    1.107    0.097
        34  -7.0811     73.6890    120.7063   7.7743165153e+01   4.1622432010e+01    0.1290509   0.09969239 -30.58  0.000225096    1.591    0.371
        35  -8.6793     84.7689    118.9184   7.4485231875e+01   4.0412044134e+01    0.3113157    0.1995413  23.32  0.001492014    2.098    0.523
        36  -6.9669    141.3776    110.8028   5.8185360679e+01   3.1719092783e+01    0.1475549    0.1126249  69.30 0.0006760372    1.576    0.365
        37  -7.9049     80.8849    110.4230   7.3737372608e+01   4.2882128834e+01    0.1820365    0.1332712  40.94 0.0003237589    1.482    0.325
        38 -10.1277     69.4106    109.3173   7.6636821339e+01   4.4747126906e+01    0.2346309    0.2242873 -72.78  0.000330808    1.081    0.075
        39  -6.9651    145.2791    105.2992   5.5836538213e+01   3.1991881538e+01    0.1488484    0.1202219   1.77 0.0001839557    1.540    0.351
        40  -6.9583     36.0247     95.7941   8.3411026184e+01   5.1526708214e+01    0.1377237   0.09959815  28.38  0.000336774    1.676    0.403
        41  -7.4697    119.8229     93.7792   5.9136415179e+01   3.9679329231e+01    0.1930605    0.1697624 -77.12 0.0003406787    1.299    0.230
        42  -6.9636    145.2309     69.9782   4.5830265810e+01   3.8715793007e+01    0.1848178    0.1246411 -35.93 -0.000430966    1.483    0.325
        43  -7.9720    106.3683     69.0501   5.5617395353e+01   4.7203688703e+01    0.1935082    0.1757264 -27.10  0.001091982    1.042    0.040
        44  -8.2625    138.0228     67.3397   4.6743102643e+01   4.0838588647e+01    0.2343177    0.2058522 -27.58 0.0004115289    1.132    0.117
        45  -8.3527    211.6597     64.1372   3.1187385036e+01   2.3334233059e+01    0.2538976    0.2038813  53.37 0.0003682856    1.258    0.205
        46  -7.4705    224.2043     60.7412   2.8401607813e+01   2.0785578784e+01    0.1871619    0.1613925  28.73 0.0003512382    1.311    0.237
        47  -8.5135    107.9575     56.8302   5.1232970461e+01   4.9110859072e+01    0.2230142    0.1906997 -28.69 0.0002714252    1.121    0.108
        48  -7.2146    249.9550     53.7477   2.3288923078e+01   1.5771102730e+01    0.1666081     0.115208  64.66 0.0008712569    1.524    0.344
        49  -6.8678    114.2557     50.3453   4.7301979909e+01   4.8920426528e+01    0.1445254    0.1065829   2.09 0.0004177782    1.589    0.371
        50  -7.5102    197.9826     44.7398   2.8009766251e+01   2.9555394569e+01    0.2004387    0.1525211  -3.09  0.000736058    1.614    0.381
        51  -7.4441    176.2036     45.4830   3.1870144787e+01   3.4987127057e+01    0.1952412    0.1425802  77.59  0.000920116    1.534    0.348
        52  -6.7772    104.3872     41.4412   4.6907373938e+01   5.2350136005e+01    0.1363684    0.1254093  -7.23  0.000126728    1.047    0.045
        53  -8.1923    155.0792     30.4094   3.1075870007e+01   4.2318562477e+01    0.2157033    0.1914062   7.66 0.0003810446    1.183    0.155
