#   1 NUMBER                 Running object number                                     
#   2 MAG_AUTO               Kron-like elliptical aperture magnitude                    [mag]
#   3 X_IMAGE                Object position along x                                    [pixel]
#   4 Y_IMAGE                Object position along y                                    [pixel]
#   5 X_WORLD                Barycenter position along world x axis                     [deg]
#   6 Y_WORLD                Barycenter position along world y axis                     [deg]
#   7 A_WORLD                Profile RMS along major axis (world units)                 [deg]
#   8 B_WORLD                Profile RMS along minor axis (world units)                 [deg]
#   9 THETA_WORLD            Position angle (CCW/world-x)                               [deg]
#  10 FWHM_WORLD             FWHM assuming a gaussian core                              [deg]
#  11 ELONGATION             A_IMAGE/B_IMAGE                                           
#  12 ELLIPTICITY            1 - B_IMAGE/A_IMAGE                                       
         1 -13.5896    217.7924    124.7921   7.0844575050e+01   1.1874522194e+01     3.390271     2.193136  -0.03   0.01399085    2.345    0.574
         2 -10.4152     50.8710     27.2710   8.4545616278e+01   6.4974511999e+01    0.5135756    0.1793974 -39.37  0.001901823    2.558    0.609
         3 -10.2442    223.6667     20.9007   4.3438590408e+01   2.6539243546e+01    0.4889033    0.2629172 -70.97  0.001562204    2.151    0.535
         4 -10.1825     87.2661     17.6292   6.6998568978e+01   6.0146109191e+01    0.3195969    0.2271417 -47.53  0.001085516    1.846    0.458
         5  -9.7844    155.3707     16.3475   5.0940238528e+01   4.4363641579e+01    0.3142715    0.2268263  15.08 0.0009227901    1.679    0.404
         6 -10.1531     16.4876      4.0131   8.9889392506e+01   7.2486701525e+01    0.2945086     0.193014 -35.04  0.001621369    1.310    0.237
         7 -10.1732     10.1460     15.4474   9.8617885187e+01   7.1192723604e+01    0.3207014    0.1842932 -42.90  0.001247509    1.352    0.261
         8  -9.1820      8.0000     12.0763   9.8320646831e+01   7.1913981378e+01    0.2981192    0.1127472 -49.57  0.001551685    2.198    0.545
         9 -10.6308     18.5924     10.5687   9.2001817681e+01   7.1298496684e+01    0.2982215    0.2277179  46.00  0.001033156    2.216    0.549
        10 -10.9978     11.4462      7.2490   9.4243639933e+01   7.2434243225e+01    0.3697359    0.3061013 -33.45  0.001595747    1.314    0.239
        11 -10.4523      6.9955      3.5183   9.4926329138e+01   7.3363789098e+01    0.2101378    0.1765775  -2.54 0.0008476291    1.320    0.243
        12 -10.6014    182.0296     13.6135   4.6194055612e+01   3.7790132788e+01      0.49299    0.3674158  67.38  0.001579209    1.235    0.191
        13  -9.4797    187.3798      9.0416   4.4207370277e+01   3.6889931689e+01    0.3377835    0.2550823 -13.05  0.001841803    1.574    0.364
        14 -10.2694     57.1910     13.8576   7.5808833193e+01   6.6001848349e+01    0.3679263    0.2444408  34.85  0.002106734    1.491    0.329
        15  -9.7823     34.5575     14.5318   8.5969680136e+01   6.9022535673e+01     0.250012    0.1443123 -23.58 0.0009478902    1.544    0.352
        16 -10.1695    121.8199     12.1666   5.5765503246e+01   5.3121422434e+01    0.5250518    0.2412154  41.94  0.002234882    2.100    0.524
        17  -9.8001    209.8628      9.6838   4.1951119042e+01   3.1166262382e+01    0.2998093    0.2250542 -44.70  0.001173952    1.292    0.226
        18  -9.8114     24.6139      9.2334   8.8254379744e+01   7.0914109328e+01    0.3904805    0.2056874 -13.12  0.002082316    2.190    0.543
        19  -9.5572     93.3318     10.7863   6.2204315949e+01   5.9671155870e+01    0.2232666    0.1788144 -40.62  0.001305345    1.499    0.333
        20 -10.7352     41.8363      9.8753   8.0331532413e+01   6.8770237705e+01    0.3474639    0.2522971  37.06 0.0009274845    1.615    0.381
        21  -8.9131     37.7842      4.7784   7.9555129672e+01   6.9981587492e+01    0.1411391    0.1249043 -11.37 0.0003423076    1.335    0.251
        22  -9.0464     72.9452      8.7421   6.7548649533e+01   6.3921493732e+01    0.2281528    0.1557372  -5.06  0.001306387    1.411    0.291
        23  -8.8238    227.2324      7.9940   3.9920211214e+01   2.7138446622e+01    0.1764165    0.1538409 -62.54 0.0003902446    1.065    0.061
        24  -9.3942    215.3283      7.8731   4.0958076867e+01   3.0014928619e+01    0.3131592    0.1691366 -60.50   0.00141386    1.891    0.471
        25  -8.4112    102.6514      8.6800   5.8818777911e+01   5.7872870285e+01    0.1472395   0.08681639  28.89  0.000704871    1.737    0.424
        26  -9.3298     78.6999      7.0109   6.4845001657e+01   6.3018974767e+01     0.312423    0.1926131   4.15  0.001639764    1.747    0.428
        27  -8.8347    158.7302      6.7888   4.7276466857e+01   4.4451747729e+01    0.1898457    0.1505011 -66.34 0.0006512895    1.371    0.271
        28  -8.8848    174.9258      4.8612   4.4488712043e+01   4.0481796480e+01    0.1948861    0.1698844  49.02 0.0004873897    1.180    0.152
        29  -9.3431    127.9179      5.0820   5.1826369942e+01   5.2319838749e+01    0.3991607    0.1579818  45.77   0.00162454    2.294    0.564
        30  -8.2902     89.7598      3.9749   6.0164785894e+01   6.1092538373e+01    0.1633453    0.1036701 -16.00 0.0008773549    1.593    0.372
        31  -9.2000     54.3874      2.7979   7.1373360864e+01   6.7786308938e+01    0.2895985    0.1522263 -42.72 0.0009003172    2.694    0.629
        32  -9.1914     30.8062      3.3266   8.2116027989e+01   7.1050559562e+01    0.1882586    0.1321046 -30.14 0.0005078636    1.344    0.256
        33  -9.5404     23.0825      3.6083   8.6173734465e+01   7.1887297417e+01    0.3238058    0.1522552  30.45  0.001293514    2.254    0.556
        34  -8.5151     42.0189      2.2280   7.6271924819e+01   6.9721146842e+01    0.1585636    0.1207832  -3.67 0.0003317235    1.034    0.033
        35  -9.0386    144.0873     14.5444   5.2265496462e+01   4.7415992979e+01    0.2044764    0.1834012  -9.88 0.0005043246    1.200    0.167
        36  -8.6129     64.8315      1.0000   6.6539494714e+01   6.6205771715e+01    0.1944124   0.06414858  50.07 0.0006462286    2.948    0.661
        37  -9.6671     58.0007    116.9392   1.0817212976e+02   4.5125798553e+01    0.3840713    0.1602367 -54.02   0.00129471    2.068    0.516
        38 -10.1351    101.7488    248.5342   1.1560428657e+02   1.1125576288e+01    0.3138131     0.220515  60.51   0.00194487    1.173    0.147
        39 -10.0115     11.2521    115.3644   1.2117762623e+02   4.9931367074e+01    0.2559038    0.1704446 -39.93 0.0009800396    1.753    0.429
        40 -10.0170     40.2631    114.4397   1.1285867369e+02   4.7707033955e+01    0.2880761    0.1202826  32.53  0.001304971    2.680    0.627
        41  -8.6492      2.0060    114.5599   1.2359260695e+02   5.0707692036e+01    0.1392464    0.1190084  18.64 0.0008753793    1.572    0.364
        42 -10.3380     14.4713    110.0886   1.1961660044e+02   5.0930328696e+01    0.4049149    0.1955927  74.82  0.001768131    2.851    0.649
        43 -10.6955     19.2422    109.4287   1.1816238006e+02   5.0736170758e+01    0.4121839    0.1687424  20.87  0.001942567    3.213    0.689
        44  -9.4019     49.9835    112.1682   1.0962382436e+02   4.7210732923e+01    0.2217119    0.1718782  63.67 0.0004072769    1.441    0.306
        45  -8.5462     62.5233    111.5169   1.0579418442e+02   4.5850067192e+01    0.1386158    0.1211839 -61.74 9.172722e-05    1.025    0.025
        46  -9.4293     27.8869    109.5245   1.1566860478e+02   5.0019955635e+01    0.2115883    0.1555979 -88.38  0.001284033    1.307    0.235
        47  -8.2034    127.6708    109.7615   8.6883421658e+01   3.5082258309e+01    0.1492119    0.1216788   9.15 0.0002583155    1.531    0.347
        48  -9.1556     34.9013    108.0612   1.1336506714e+02   4.9738893638e+01    0.2595713    0.1417242 -62.12  0.001352428    1.480    0.324
        49  -9.9127      6.9066    108.2399   1.2152309810e+02   5.1858435771e+01    0.2206415     0.132008 -67.23 0.0002861979    1.276    0.216
        50  -9.6938     71.9185    107.8463   1.0221944881e+02   4.5447813085e+01    0.2343234    0.1810078 -54.42 0.0003559287    1.163    0.140
        51  -8.6745    118.7872    107.5742   8.8681572105e+01   3.7397389781e+01    0.2014478    0.1470053  55.94 0.0004329383    1.504    0.335
        52  -8.1903    135.3120    106.7408   8.4097485557e+01   3.4108564394e+01    0.1518924    0.1235492  86.42 0.0002848876    1.531    0.347
        53 -10.4280     80.0664    103.7259   9.8824600309e+01   4.5210525288e+01    0.3552445    0.2866502 -30.18  0.001899304    1.365    0.267
        54  -9.7211     16.3036    104.8291   1.1836622335e+02   5.2022013179e+01    0.1866166    0.1775352 -33.49 0.0006953021    1.298    0.230
        55  -9.8332      8.5985    103.8339   1.2048242997e+02   5.2766404328e+01     0.215693    0.1618097 -73.74 0.0005557493    1.035    0.033
        56  -9.1604      7.8317    100.1030   1.2021237269e+02   5.3670864324e+01    0.1706962    0.1451846  77.86 0.0002968064    1.260    0.207
        57  -9.4531    109.7029    102.9728   8.9977648994e+01   4.0224578405e+01    0.2522815    0.2156818  41.73 0.0004481314    1.225    0.184
        58  -8.5396     94.6383    101.6966   9.3980861137e+01   4.3286333622e+01     0.151158    0.1151352 -13.67 0.0007037618    1.728    0.421
        59  -9.8883     53.0636     99.4743   1.0617144378e+02   4.9864797343e+01    0.3998088    0.1734022 -60.21  0.001717716    1.993    0.498
        60  -8.8738     42.5743    101.1619   1.0978802866e+02   5.0616316891e+01    0.1917839   0.09965106 -53.58 0.0004064478    1.615    0.381
        61  -8.7431     17.2558     98.7364   1.1717879015e+02   5.3367282444e+01    0.2384586   0.08947029 -66.50  0.001100793    2.026    0.507
        62  -8.6748     16.0486     95.5096   1.1704851399e+02   5.4196896993e+01    0.1479101    0.1243916  11.34 0.0008536322    1.531    0.347
        63  -8.7995    101.6622     98.3010   9.1029456840e+01   4.2795614711e+01    0.1505437    0.1183954  85.45 0.0003877776    1.664    0.399
        64  -9.7062     69.1789     96.3874   1.0040268723e+02   4.8520719378e+01    0.2588845    0.2092476 -71.79 0.0005021841    1.272    0.214
        65  -8.7218     97.8057     96.1972   9.1592817184e+01   4.3972870804e+01    0.2085186    0.1706575 -22.33 0.0006861132    1.368    0.269
        66  -9.3007     79.5285     95.1377   9.6857779789e+01   4.7282543651e+01    0.2700595    0.2221126 -89.83  0.001434558    1.461    0.316
        67  -9.0810    132.4236     93.7411   8.1225046732e+01   3.7512573946e+01     0.266499    0.1911822  23.60  0.000860982    1.741    0.426
        68  -9.5164      2.9338     91.6387   1.2053757366e+02   5.5880570526e+01    0.4322241    0.1357671 -46.46  0.001914547    2.967    0.663
        69  -8.2761    153.4904     93.4060   7.5887826632e+01   3.2745739399e+01    0.1543956    0.1535372  75.52 -7.542453e-05    1.025    0.024
        70 -10.5621     51.8762     91.4738   1.0478506876e+02   5.1869047479e+01    0.3508244    0.2367578 -53.66 0.0009544314    1.258    0.205
        71  -8.6710      9.2222     93.3989   1.1884425982e+02   5.5122258122e+01    0.1419042    0.1066316  45.42 0.0005368561    1.615    0.381
        72  -8.8135    125.2876     92.3803   8.2725007780e+01   3.9355481779e+01    0.1609552    0.1219587  -8.01 0.0002743693    1.735    0.424
        73  -8.8534     82.7678     91.8843   9.4997516637e+01   4.7512363566e+01    0.2179876    0.1833763 -26.22 0.0008591625    1.256    0.204
        74 -10.0372     43.3095     91.6430   1.0761706989e+02   5.2766208247e+01    0.2675101    0.2043772   8.42   0.00155393    1.646    0.393
        75  -9.5360     31.7579     91.2103   1.1129356330e+02   5.3967744232e+01    0.2298563    0.1807248   7.72  0.001363735    1.602    0.376
        76 -10.7118    124.6137     85.9424   8.1008580957e+01   4.0845331750e+01    0.5796528    0.3946314  11.11 0.0004031751    2.271    0.560
        77  -9.4340    119.4488     85.4802   8.2285882925e+01   4.2047702338e+01    0.2983303    0.2375876 -30.03 0.0008251115    1.282    0.220
        78  -9.5315    110.2809     88.9364   8.5901300066e+01   4.3201020439e+01    0.3885475    0.2525405  -5.33  0.001449519    2.815    0.645
        79  -8.8721     62.4108     89.7997   1.0095156308e+02   5.0957386345e+01    0.1928983    0.1116108 -46.18 0.0003271383    1.554    0.357
        80  -9.9112     56.5782     89.6249   1.0281438870e+02   5.1736618668e+01    0.3057041     0.163963 -64.33  0.001398382    1.864    0.464
        81  -9.8641    131.5257     87.4529   7.9617674845e+01   3.9013706736e+01    0.2838654    0.2551138 -20.05  0.000687265    1.149    0.130
        82 -10.3291    135.2392     82.7229   7.7228953327e+01   3.9128182667e+01    0.3897602    0.2624598 -22.87            0    1.770    0.435
        83  -9.8837    139.3399     83.1778   7.6324384752e+01   3.8094331869e+01    0.2777941    0.2175953  45.43 0.0004935628    1.292    0.226
        84 -10.0078    143.1380     81.6974   7.4929912547e+01   3.7497039286e+01    0.3521993    0.2470582 -25.89 0.0009164062    1.571    0.363
        85  -8.7134     85.6194     87.3162   9.2855259854e+01   4.8070851081e+01    0.1478548    0.1140108  82.80 0.0004697942    1.815    0.449
        86  -9.7827     26.6592     85.2526   1.1180726217e+02   5.5766434150e+01    0.3171198    0.1554969 -50.63  0.001205061    1.671    0.401
        87 -10.7085     46.6713     84.3046   1.0484446718e+02   5.4098375088e+01    0.3297562    0.2906624   3.51  0.001372482    1.319    0.242
        88 -10.5711     51.0300     81.4945   1.0267439716e+02   5.4248131535e+01    0.2402584    0.1689817 -52.94  0.001335648    1.208    0.172
        89 -10.2218     76.0359     83.4095   9.4819516368e+01   5.0466628860e+01    0.3775185    0.3159602  73.48  0.001730269    1.512    0.339
        90  -9.6679     80.5450     82.1609   9.3004341287e+01   5.0036032225e+01    0.4247631    0.2464198 -53.28  0.001176947    1.652    0.395
        91 -11.7154    104.9491     79.1702   8.4524751440e+01   4.6318110222e+01    0.5248412    0.4733232 -30.11  0.000878573    1.061    0.058
        92  -9.2078    109.8305     71.6074   8.0687266877e+01   4.6866553069e+01    0.3102781    0.2080971 -27.37  0.001003835    1.607    0.378
        93 -11.2147      6.2432     80.0777   1.1771733515e+02   5.8310595895e+01    0.3495875    0.2293489  82.15  0.002111299    1.766    0.434
        94  -9.1498     37.9428     80.6759   1.0698213970e+02   5.5814593278e+01    0.3043468    0.1379143  36.89 0.0009508476    2.573    0.611
        95  -9.6619     21.7166     80.8953   1.1261913143e+02   5.7138433448e+01    0.2005532    0.1862315 -65.77 0.0006933894    1.165    0.142
        96  -9.8781     21.2747     75.2065   1.1161330002e+02   5.8450409540e+01    0.3351562    0.1816447 -71.49  0.001537063    1.757    0.431
        97 -10.2233     99.3111     76.3491   8.5344707886e+01   4.7990167850e+01    0.2540371    0.2045837 -16.75 0.0007317479    1.353    0.261
        98 -10.2820     97.9806     73.5030   8.4853296172e+01   4.8826335948e+01    0.2731346    0.2157027  10.61  0.001341202    1.477    0.323
        99 -10.6424     97.0440     69.6057   8.3884373729e+01   4.9790031903e+01    0.3183534    0.2420177 -47.59 0.0005097288    1.311    0.237
       100  -9.5075     28.2367     78.2160   1.0980674747e+02   5.7235270591e+01    0.1996635    0.1599192 -50.89 0.0003174017    1.055    0.053
       101  -8.6370     15.3593     79.2500   1.1447948574e+02   5.7951470925e+01    0.1214506   0.07428946 -39.05 0.0003381358    1.608    0.378
       102 -10.1908     75.1143     71.0381   9.1473638283e+01   5.3281246925e+01    0.2165315    0.1924622 -32.33  0.001258967    1.014    0.014
       103 -10.7658     77.1954     75.3624   9.2098921332e+01   5.2039639579e+01     0.535986       0.2562  33.39  0.001865728    2.372    0.578
       104 -10.1349     83.4061     73.3769   8.9443394638e+01   5.1451641774e+01    0.3920268    0.2909371  34.34  0.002043128    1.451    0.311
       105 -10.0485     53.2584     75.4995   1.0033694309e+02   5.5324069152e+01    0.4337544    0.1971278 -29.65   0.00154547    3.678    0.728
       106 -10.0526     63.9927     70.7854   9.5225934769e+01   5.4966184327e+01    0.4140206    0.2322023  36.15  0.001787354    1.987    0.497
       107  -9.5257    157.4638     74.3720   6.9327782492e+01   3.5414766857e+01    0.2927401    0.1557274 -31.04 0.0009678026    1.999    0.500
       108 -10.4762    152.2808     73.9174   7.0364331346e+01   3.6768957446e+01     0.331361    0.2882073  37.82  0.001613184    1.174    0.149
       109  -7.9616     14.3634     72.6723   1.1355028598e+02   5.9485755457e+01    0.1183559    0.0848489  74.48 0.0007039377    1.799    0.444
       110 -11.3869    142.5365     69.2049   7.1184495409e+01   3.9984414702e+01    0.5040844    0.4083576  73.62  0.002007403    1.435    0.303
       111  -8.2526     38.6829     71.6689   1.0453094122e+02   5.7754453173e+01    0.1369499   0.08244248 -34.29 0.0007047078    1.686    0.407
       112  -9.5631    197.0662     68.4847   5.9829522045e+01   2.6494497343e+01    0.2414044    0.2005432 -38.88  0.001226582    1.169    0.144
       113 -10.8872    160.9389     67.2071   6.6364925048e+01   3.5816155058e+01    0.5828441     0.292574  65.83  0.002083966    2.518    0.603
       114 -10.8453    151.6254     66.9942   6.8352008536e+01   3.8167098236e+01    0.3982413    0.2870714 -63.41  0.001703747    1.730    0.422
       115  -9.5517     57.6086     71.1459   9.7581711708e+01   5.5736212087e+01    0.2671033    0.2137426 -28.85  0.001025879    1.209    0.173
       116  -9.0791    126.6512     65.6288   7.4037679565e+01   4.4351046185e+01    0.2732091    0.1821482 -23.99 0.0008544322    1.663    0.399
       117  -9.5900     88.3694     65.6714   8.5340554401e+01   5.2166676994e+01    0.2368942    0.1687929  14.31 0.0005212169    1.722    0.419
       118 -10.3094    110.0342     62.5147   7.7595985119e+01   4.8561114889e+01    0.5735487    0.4127589 -48.49  0.002776485    1.477    0.323
       119  -9.4683    111.9964     56.0099   7.4771116955e+01   4.9315137526e+01    0.2531446    0.2096224 -13.41 0.0003244074    1.236    0.191
       120 -10.5247     44.0648     63.4371   1.0029138878e+02   5.8980503140e+01    0.4367071    0.3240214  51.22   0.00252195    1.801    0.445
       121  -9.5398    132.2750     63.0662   7.1728947439e+01   4.3514222061e+01    0.3958187     0.254463  70.30  0.001471897    2.136    0.532
       122 -10.0561     32.7409     63.2990   1.0454491759e+02   6.0132434229e+01    0.3245484    0.2646491  83.93  0.001893283    1.641    0.391
       123  -9.2837    172.6605     62.3185   6.2474329592e+01   3.3673978841e+01    0.3088838    0.2434484  -1.21   0.00145974    1.554    0.356
       124  -9.2303     75.0556     62.9216   8.8885016076e+01   5.4956983230e+01    0.2085269    0.1834863 -17.94 0.0004064679    1.074    0.069
       125 -10.4055     66.6813     62.5293   9.1695345200e+01   5.6307678374e+01    0.3585852    0.1578643 -46.63  0.000949687    2.024    0.506
       126  -9.8889     69.5207     56.7602   8.8743079782e+01   5.7034898645e+01    0.4551997     0.247179 -39.29  0.002151063    1.671    0.402
       127 -10.8124      3.2221     61.4928   1.1539250794e+02   6.2553978992e+01    0.4923504    0.1540662 -47.01  0.002332822    2.393    0.582
       128  -8.9848    120.8329     60.9165   7.4013139101e+01   4.6512289645e+01    0.2377899    0.1961527   6.22 0.0009699673    1.341    0.254
       129 -10.1640     50.1135     60.0874   9.7001206757e+01   5.8995750311e+01    0.2072912    0.1700951 -35.63 0.0003126138    1.038    0.037
       130 -10.8016    159.4564     57.1524   6.3527608151e+01   3.7862740882e+01    0.5193154    0.3752034  -8.42  0.001730656    1.723    0.419
       131 -10.1659    162.1834     53.2368   6.1728549253e+01   3.7789083553e+01     0.435938    0.2562126 -18.98   0.00176566    2.095    0.523
       132  -8.9614     88.2004     60.3749   8.3597534267e+01   5.3229597693e+01    0.1922206    0.1347405  50.81 0.0004182665    1.671    0.401
       133  -9.8900     80.9373     59.9205   8.5857307290e+01   5.4585641653e+01    0.2585895    0.1896429  33.67  0.001362928    1.444    0.307
       134  -8.6899    183.9029     59.3962   5.9510765058e+01   3.1275767803e+01       0.2042    0.1961061  39.45 0.0004886695    1.088    0.081
       135 -11.0526    200.6733     56.0417   5.5756463949e+01   2.7537148999e+01    0.5422349    0.3422475  22.06  0.002172207    2.546    0.607
       136 -10.8387    204.3914     52.3483   5.4164659986e+01   2.7152336922e+01     0.489468    0.3934338 -63.28  0.001842762    1.263    0.208
       137  -9.6747    207.3019     49.6597   5.3001503901e+01   2.6814618544e+01    0.2780902    0.1810383 -60.45 0.0008128558    1.683    0.406
       138  -9.3797    150.7162     57.8515   6.5628397081e+01   3.9942005024e+01    0.2585905    0.2003509  42.71 0.0004404822    1.297    0.229
       139 -10.3566    144.9898     53.3939   6.5446130274e+01   4.2082100653e+01    0.3549496    0.2082512 -40.21 0.0004203752    1.730    0.422
       140  -9.9844     96.1922     55.9612   7.9484219894e+01   5.2558221712e+01    0.3555726    0.2499242 -14.22 0.0009720803    1.640    0.390
       141  -9.6196     34.4614     57.8629   1.0236067326e+02   6.1125099275e+01    0.1974532     0.178119 -73.78  0.001321393    1.325    0.245
       142  -9.6050     78.7208     56.0950   8.5279751420e+01   5.5692795847e+01     0.384941     0.226872 -13.91  0.001575466    2.610    0.617
       143  -9.0985     60.8114     57.3966   9.2129626865e+01   5.8171189635e+01    0.2465185    0.1546311 -22.45  0.001207903    1.829    0.453
       144  -9.3433     58.6138     53.7753   9.1719769478e+01   5.9186827809e+01    0.3338553     0.172526  31.04  0.001591633    2.154    0.536
       145  -8.7297    104.9531     56.4843   7.6991865722e+01   5.0712960868e+01    0.2079302    0.1421049  42.87 0.0003402454    1.486    0.327
       146 -10.2950    135.5072     53.1814   6.7594968779e+01   4.4424919939e+01    0.5103774    0.2123922 -42.68  0.001830651    2.537    0.606
       147  -9.6759     86.5053     54.9591   8.2247265437e+01   5.4553241580e+01    0.2676726    0.1969247  43.65 0.0005304543    1.471    0.320
       148 -10.0563    174.0234     52.7438   5.9301496425e+01   3.4835173906e+01    0.4033219    0.1972847 -33.35  0.001588038    2.034    0.508
       149  -9.5749    176.4871     48.4845   5.7558263883e+01   3.4837858465e+01    0.2300528    0.1329148  50.10 0.0008838295    1.720    0.419
       150  -9.7048    179.0832     52.9706   5.8455974195e+01   3.3501525426e+01    0.2215315    0.2184883  58.43 0.0004542295    1.040    0.038
       151  -8.6247     29.4386     52.5809   1.0281287496e+02   6.2676164559e+01    0.1230888    0.1002932 -42.47 0.0001103394    1.033    0.032
       152  -9.0031     18.6695     51.3081   1.0685451625e+02   6.3792641898e+01    0.2077227    0.1440968 -60.75 0.0009398391    1.309    0.236
       153  -9.4713     21.3267     49.3267   1.0519422788e+02   6.4004990637e+01    0.2617545    0.1470443   4.94  0.001440944    2.252    0.556
       154  -9.1682     14.8298     51.9414   1.0860229036e+02   6.3922936602e+01    0.1776136    0.1217145 -40.78 0.0003640639    1.201    0.167
       155 -10.2258    233.9550     50.8820   4.9823306860e+01   2.0194976839e+01    0.2364916     0.207115 -60.31 0.0002855487    1.043    0.042
       156  -8.9548    126.1649     51.0455   6.9182466385e+01   4.6978408546e+01    0.2390986    0.1976019  10.68  0.001219102    1.310    0.236
       157  -9.2271    115.8268     50.9015   7.1879148888e+01   4.9349188945e+01     0.243208    0.2188203  69.31 0.0006834238    1.286    0.222
       158 -11.6606     59.1172     47.9114   8.9452508908e+01   6.0242199699e+01    0.4342293    0.3016072  14.08 0.0005180247    1.617    0.382
       159  -9.1442    212.2447     50.4504   5.2519820963e+01   2.5473312277e+01    0.2794097    0.1312793  58.54 0.0009191228    2.107    0.525
       160  -9.6837     49.3883     49.7066   9.3870420860e+01   6.1167361309e+01    0.2349526     0.178815  -8.91 0.0005952441    1.362    0.266
       161  -8.8936     96.9759     49.0136   7.6708464594e+01   5.3628723702e+01    0.2118659    0.1591107   7.56            0    1.506    0.336
       162  -9.9843     48.0517     36.9839   8.9722808919e+01   6.3703088634e+01    0.2228658    0.1927219 -79.77 0.0009536839    1.839    0.456
       163  -8.8624     43.4745     49.5055   9.6154844305e+01   6.1897319569e+01    0.1816808    0.1119867 -55.32 6.307425e-05    1.632    0.387
       164  -9.3783     41.8946     45.0347   9.5258004379e+01   6.2942939277e+01    0.2298865     0.183373 -45.50 0.0008897926    1.195    0.163
       165 -10.4997     45.1818     40.8849   9.2400561647e+01   6.3347238398e+01    0.3158295    0.2282674 -47.95  0.001164478    1.364    0.267
       166 -11.4684    167.5514     43.8154   5.7718350413e+01   3.7814600581e+01    0.4645809    0.3959265 -56.47  0.001200263    1.227    0.185
       167 -10.0767     84.8263     46.9999   7.9873259143e+01   5.6281036732e+01    0.3085853    0.2011223  37.10 0.0009102221    1.575    0.365
       168  -8.8593     10.0175     47.8000   1.0950987755e+02   6.5077439896e+01    0.2143158   0.07689347  26.34 0.0006280668    3.251    0.692
       169  -8.5442    186.5090     46.5317   5.5278412891e+01   3.2541327710e+01    0.1491407    0.1392247 -75.99 0.0008092613    1.050    0.048
       170 -10.8257    142.6948     43.8299   6.2729465404e+01   4.4114881337e+01     0.605963    0.3916263  16.04  0.002192189    2.176    0.541
       171  -9.1232     20.8278     44.8470   1.0407271018e+02   6.4948878546e+01    0.2853155   0.04932155 -52.54  0.001025082    3.534    0.717
       172  -9.0178    122.3280     48.7105   6.9349160441e+01   4.8240063726e+01    0.1443803     0.118072 -76.31 0.0003180186    1.618    0.382
       173  -9.0409    160.5551     44.2718   5.9181385977e+01   3.9545423307e+01    0.1897079    0.1477032 -13.41 0.0004761716    1.445    0.308
       174  -9.5944    108.1862     44.0129   7.1494921619e+01   5.2131460520e+01     0.315172    0.2033347  47.87  0.001139238    1.547    0.354
       175  -9.8599    205.5089     42.0325   5.1160373697e+01   2.8334230200e+01    0.3823132    0.1676225  59.64  0.001334809    2.192    0.544
       176  -8.4491     74.4842     43.5002   8.2104854686e+01   5.8687000492e+01    0.1364062    0.1202377 -14.22 0.0004468162    1.020    0.020
       177  -8.9279     67.2064     46.5043   8.5891401568e+01   5.9319453716e+01    0.1820006    0.1298552  32.08 0.0009975377    1.486    0.327
       178  -9.9920     55.8426     42.0215   8.8527960034e+01   6.1778266733e+01    0.3123182    0.1974308  21.60  0.001273736    1.751    0.429
       179 -10.4444     31.6470     40.8081   9.8092846457e+01   6.4812427481e+01    0.3696216    0.1636516 -43.59  0.001853664    1.805    0.446
       180  -8.4285     92.5626     41.3974   7.5197328081e+01   5.5757881724e+01    0.1393786    0.1244794   3.36  7.31649e-05    1.027    0.026
       181  -9.8557    149.4185     39.6437   5.9874211797e+01   4.3031754560e+01    0.4786099    0.2245133 -42.19  0.001868846    2.264    0.558
       182 -10.6383    127.3387     37.0908   6.3888656872e+01   4.8812071612e+01    0.3741011    0.3154064 -31.29  0.001800182    1.221    0.181
       183  -9.2160    227.6691     39.2915   4.7649039109e+01   2.3268391533e+01    0.2968872    0.1648907  85.74   0.00130305    2.164    0.538
       184  -9.6939     35.3459     46.4560   9.8452418612e+01   6.3355984494e+01    0.3505471     0.187371 -38.53  0.001253893    1.591    0.372
       185  -9.5467    157.5119     37.8631   5.7680426648e+01   4.1219719293e+01    0.2305682    0.2039916 -76.43  0.001234442    1.222    0.181
       186 -10.0178     81.9330     36.8872   7.6893177318e+01   5.8482240359e+01    0.3114445    0.2052472 -12.09   0.00155116    1.689    0.408
       187  -9.6570    190.2646     35.8569   5.1576155552e+01   3.3039750318e+01    0.3435386    0.2383814  49.43  0.001216052    1.487    0.327
       188  -8.4654    194.1845     32.1317   4.9945972754e+01   3.2515579962e+01    0.1955588    0.1544778 -61.25  0.000357564    1.272    0.214
       189  -9.2665    101.8303     37.1848   7.0721687528e+01   5.4529525304e+01    0.1971662    0.1552494  12.41  0.000427304    1.305    0.234
       190  -9.8930     62.0995     36.4937   8.3915097332e+01   6.1846921912e+01     0.347378     0.199748  23.87  0.001155844    1.973    0.493
       191  -8.5913     38.3922     37.2538   9.3899471795e+01   6.4788990884e+01    0.1276332   0.08155579 -14.79 0.0005389763    1.685    0.407
       192  -8.6514    118.0528     41.4729   6.7840452717e+01   5.0337842633e+01    0.2152839    0.1378682  49.24 0.0006077986    1.520    0.342
       193  -9.2261    215.5939     35.2392   4.8028521723e+01   2.6730737581e+01    0.3006263     0.138727  54.52  0.001006301    2.215    0.549
       194  -8.4631     93.9895     35.7702   7.2529234448e+01   5.6348855909e+01    0.1707504    0.1112614  44.60 0.0003598018    1.530    0.346
       195  -9.1141    221.1333     48.1783   5.0729620333e+01   2.3622246152e+01    0.1996253    0.1541189 -64.41 0.0004218865    1.290    0.225
       196  -9.3028     33.7864     34.8923   9.5011316186e+01   6.5707578092e+01    0.1908372    0.1762555   7.10   0.00135419    1.300    0.231
       197  -9.6057    185.3378     33.6965   5.1671990454e+01   3.4588825014e+01    0.2523603    0.1388378 -65.45  0.000791344    2.473    0.596
       198 -10.7558    180.7326     28.8296   5.0908605977e+01   3.6390916517e+01    0.3620616    0.2618596  37.23  0.001798212    1.568    0.362
       199  -9.0943    149.9450     34.1055   5.7896555124e+01   4.3647509346e+01    0.2195968    0.2067247  28.18 0.0004950996    1.069    0.064
       200  -8.5328     75.2544     38.3735   7.9809629414e+01   5.9421264924e+01     0.163161    0.1264093  47.14 0.0003102339    1.516    0.340
       201 -10.6217     78.8475     31.2806   7.5639417431e+01   5.9904138281e+01    0.3561407    0.2385072 -19.66 0.0004729348    1.462    0.316
       202 -10.3644     81.2900     27.1405   7.3055819425e+01   6.0058275332e+01    0.5348899    0.3024851  43.03  0.002431803    1.749    0.428
       203 -10.8408    236.9200     32.0297   4.4845140901e+01   2.2036260084e+01    0.4103218    0.3394398 -83.55  0.001356847    1.154    0.134
       204  -9.4425     11.5977     32.9531   1.0442345398e+02   6.7927008365e+01    0.1648046    0.1348059 -17.30 4.462047e-05    1.219    0.180
       205  -9.1937    203.6643     31.9673   4.8636440860e+01   3.0127222766e+01    0.1945959    0.1770309 -60.01 0.0004740623    1.055    0.052
       206  -8.4558    120.4438     32.4354   6.3849390491e+01   5.1072217376e+01    0.1427681    0.1314145  24.75 8.301044e-05    1.011    0.011
       207  -9.1716    113.7045     32.3262   6.5530278348e+01   5.2631899860e+01    0.2105156    0.2022643 -38.07 0.0004031156    1.168    0.144
       208  -9.1097    111.2328     30.0353   6.5293415819e+01   5.3495885872e+01    0.2424389     0.206753 -38.20 0.0006437908    1.281    0.220
       209  -9.5122     20.4769     30.8566   9.9546012168e+01   6.7669693316e+01    0.2835642    0.1483709 -14.90  0.001469797    2.364    0.577
       210 -10.5241     17.1811     27.1855   9.9744899971e+01   6.8602978391e+01    0.2626353    0.1866415 -24.80 0.0005280073    1.193    0.162
       211  -9.6047    142.6839     32.4392   5.8793973843e+01   4.5691641210e+01    0.2913531    0.2360845  29.49  0.001527166    1.279    0.218
       212  -8.3215    131.6670     31.7308   6.0926912918e+01   4.8497269953e+01    0.1505457    0.1024764  30.49 0.0001978004    1.589    0.370
       213  -8.7329     58.4511     31.5340   8.3291249490e+01   6.3210309763e+01    0.1289915    0.1095475 -14.89 0.0001881606    1.042    0.040
       214  -8.6913    125.8005     30.1200   6.1686617443e+01   5.0116125832e+01    0.1974754    0.1547716  23.29 0.0003707017    1.321    0.243
       215  -9.4136    105.0261     29.2599   6.6672997609e+01   5.4967805589e+01    0.2534508     0.182387   9.08   0.00113959    1.532    0.347
       216  -9.5656     52.9988     20.4694   8.0626166925e+01   6.5717846115e+01    0.2996269    0.1819067   7.18  0.001002518    1.950    0.487
       217 -11.5638     69.0956    218.3251   1.1879027539e+02   2.1080068888e+01    0.4677598    0.3144613  82.17  0.001421211    1.373    0.271
       218  -9.4612     47.2440     28.4148   8.6560131322e+01   6.5272658071e+01    0.2250556    0.1971332 -14.40 0.0008212923    1.138    0.121
       219  -8.4082     42.6396     29.7151   8.9080288145e+01   6.5632714338e+01    0.1293547   0.08261131 -11.28 0.0002418775    1.680    0.405
       220  -9.2929    215.6954     27.9312   4.6096567491e+01   2.7632791593e+01    0.2113251    0.1765881   0.28  0.001173219    1.518    0.341
       221  -9.4719    121.0334     26.0254   6.1273948235e+01   5.1760213449e+01    0.2553037    0.1939686  35.40 0.0009525422    1.262    0.207
       222  -9.1220    197.1858     26.1102   4.7840890508e+01   3.2495291150e+01    0.2112751    0.1830669  47.17 0.0006273662    1.250    0.200
       223  -9.6175    152.0171     25.1042   5.4457539080e+01   4.4242032123e+01    0.3054747    0.2346608  66.70  0.001213755    1.257    0.205
       224 -10.2792     30.1145     23.9816   9.2314775484e+01   6.8001927736e+01    0.4047218    0.2383342 -42.58  0.002398087    1.470    0.320
       225  -9.2257    229.2199     24.8052   4.3853213188e+01   2.4743719040e+01    0.3329463     0.150555 -55.11  0.001266156    2.310    0.567
       226  -9.9000    131.3300    205.6685   1.0491974755e+02   1.3920199710e+01    0.2996171    0.1591994  35.11   0.00141517    1.903    0.474
       227 -11.2087    163.8481     22.3659   5.1521739886e+01   4.1523995238e+01    0.4912992    0.2577793  50.48 0.0009737279    1.812    0.448
       228  -8.4664     98.5316     24.4191   6.6541720145e+01   5.6991283372e+01    0.1373822    0.1213888  18.13 9.882079e-05    1.014    0.013
       229  -9.5184    178.8699     22.6552   4.9321969942e+01   3.7608504487e+01    0.3893167    0.1730971 -56.14  0.001389071    3.075    0.675
       230  -8.4745    169.7273     23.2987   5.0885632412e+01   3.9898346893e+01    0.1425766    0.1039666 -64.35 0.0002282279    1.528    0.346
       231  -9.2094    119.3814     19.7809   5.9261938926e+01   5.2886728308e+01    0.2406043     0.149377  15.49  0.001094688    1.996    0.499
       232  -9.5146      7.0644     23.1297   1.0321077241e+02   7.0047014862e+01    0.2158096    0.1521358   1.53 0.0008617374    1.523    0.343
       233  -9.6211      1.8463     22.3487   1.0556371519e+02   7.0492692402e+01    0.2201154    0.1185006 -46.17  0.001329086    1.341    0.254
       234  -9.0108    141.6802     21.9800   5.5326382284e+01   4.7216102001e+01    0.2648288     0.168224  39.48 0.0008093701    1.595    0.373
       235  -9.5097    132.2376     21.2603   5.6975830499e+01   4.9635567653e+01    0.3175211    0.2347862 -57.98  0.001611146    1.669    0.401
       236  -9.0187     92.2792     22.6999   6.7661822571e+01   5.8507720344e+01    0.2007698    0.1320968  50.29 0.0002503057    1.539    0.350
       237  -9.0812    124.0329    205.9640   1.0645956743e+02   1.5103843866e+01    0.1825634    0.1554875  55.82  0.001132152    1.014    0.014
       238  -9.4454    199.6587     21.2332   4.6173916509e+01   3.2443813020e+01    0.5007977    0.1632933  75.26  0.001218677    3.719    0.731
       239 -10.2393    111.1837     19.4408   6.1107963712e+01   5.4818508349e+01    0.2956338    0.2583191  55.35 0.0008429205    1.183    0.155
       240  -8.9137     74.6607     21.3646   7.2796473042e+01   6.2065175719e+01    0.1244949    0.1041601 -62.72 0.0007031367    1.837    0.456
       241 -10.0744    149.5319     18.0754   5.2517350723e+01   4.5667897519e+01    0.3506563    0.2729457 -34.27  0.001417625    1.365    0.268
       242  -9.6889     28.9465     18.3144   9.0396292947e+01   6.9057168120e+01    0.1994595    0.1629644 -18.97 0.0007127771    1.099    0.090
       243  -9.4992     24.6090     16.7978   9.1826631500e+01   6.9739817946e+01    0.2219933    0.1742311 -42.29  0.001535075    1.387    0.279
       244  -9.7966     20.1880     15.6999   9.3544327185e+01   7.0333820514e+01     0.255212    0.1640981  -5.34 0.0007357601    1.547    0.353
       245  -9.5270    102.4688     17.8365   6.2711713218e+01   5.6942468291e+01    0.3393577    0.2405398  71.23  0.001743027    1.815    0.449
       246  -9.3558    102.7296     13.8677   6.0984397673e+01   5.7324611209e+01    0.2268441    0.1651059  38.30 0.0006423057    1.241    0.194
       247  -9.8166     38.7073     17.7360   8.5559077657e+01   6.8040529976e+01    0.2023453    0.1563455  -2.55  0.001347444    1.136    0.119
       248  -9.3473      1.3898    185.6052   1.2923571626e+02   3.5125182306e+01    0.2580443   0.07904422 -76.68  0.001034567    2.551    0.608
       249  -9.2394     12.5009    175.4932   1.2642184307e+02   3.6295124460e+01    0.1164675   0.08595926  83.22 6.939084e-05    1.016    0.016
       250 -10.6347      6.3080    168.9722   1.2723335774e+02   3.8223339439e+01    0.2023592    0.1676151  33.56  0.001515673    1.585    0.369
       251 -10.1840      2.8288    167.3595   1.2783981868e+02   3.8849710683e+01    0.1874249    0.1668476  79.26  0.001031079    1.284    0.221
       252 -10.9244     19.0879    159.5894   1.2377184024e+02   3.9190633851e+01    0.2341884    0.1707436 -86.53  0.001346878    1.072    0.067
       253 -11.2924      7.3120    158.1012   1.2623481536e+02   4.0512329837e+01    0.3453955      0.16598 -86.76  0.001000328    1.711    0.416
       254 -10.4762     11.8036    152.7961   1.2481515458e+02   4.1331199491e+01    0.4129972          nan -65.50  0.001220869    5.934    0.831
       255 -10.5517    238.3918     22.9600   4.2518988975e+01   2.2818726574e+01    0.3223355    0.2688752  75.38 0.0008820943    1.225    0.184
       256 -11.3595      2.9309    153.4740   1.2684140182e+02   4.1868634638e+01    0.5183927    0.1928191 -61.90  0.001978649    2.315    0.568
       257 -10.1314     20.5125    154.4765   1.2299033391e+02   4.0212061870e+01    0.1715739    0.1210432   6.11   0.00103055    2.294    0.564
       258  -9.0192     16.2579    142.9887   1.2288819512e+02   4.3187086582e+01    0.1629352   0.08339106 -75.92 0.0008876573    1.552    0.356
       259 -10.7845      6.1648    140.6805   1.2507047420e+02   4.4489505006e+01    0.4712647    0.2327734 -34.74  0.001968284    3.639    0.725
       260 -12.8576    229.2615    136.6089   7.1579144501e+01   7.4562080721e+00     1.356164     0.662692  44.20  0.005783912    2.130    0.531
       261 -12.9488     76.6471    219.1933   1.1743608454e+02   1.9882474996e+01     1.891249    0.5708461  50.37   0.00290425    2.873    0.652
       262  -9.2601     28.9271    138.0172   1.1924196637e+02   4.3230330589e+01    0.1884679    0.1537932 -84.58 0.0005752157    1.023    0.023
       263  -8.9189     21.3502    141.9753   1.2155821911e+02   4.2991014588e+01    0.1703431    0.1249168 -79.82 0.0003826259    1.082    0.076
       264  -9.2656     32.7681    128.6930   1.1707072813e+02   4.5058947822e+01    0.3209846    0.1122113 -56.72  0.001389213    2.385    0.581
       265 -10.4259     12.8192    125.6497   1.2194318468e+02   4.7441853683e+01     0.446356    0.1182813 -68.83  0.001774023    2.705    0.630
       266  -8.2895      4.6619     10.2539   9.9349767194e+01   7.2446031481e+01   0.08670202   0.08523834   0.89 0.0002201012    1.572    0.364
       267  -8.5065     37.5825    126.7392   1.1550809297e+02   4.5053694196e+01    0.1786193    0.1065872 -79.94 0.0009343491    1.545    0.353
       268  -9.5936     52.5909    125.9634   1.1128593835e+02   4.3615573125e+01    0.2640443    0.1818536  50.04 0.0009871469    1.570    0.363
       269  -9.7782     29.2859    125.2872   1.1754449918e+02   4.6183427490e+01    0.3104151    0.2166954 -13.87  0.001753332    2.207    0.547
       270 -10.1283     93.2675    122.6985   9.9351423752e+01   3.8618267719e+01    0.2455457    0.1594102 -57.80 0.0001871976    1.457    0.313
       271 -10.3950     90.0439    122.2413   1.0014501646e+02   3.9259747821e+01    0.3024391    0.2339078  53.39 0.0002405301    1.373    0.272
       272  -8.3099     76.0081    123.0036   1.0422086633e+02   4.1250441987e+01    0.1676681    0.1463447 -67.56            0    1.034    0.032
       273  -9.0136      1.9783    123.0589   1.2446769584e+02   4.8771159152e+01    0.1442808    0.1087566 -80.83 0.0007427197    1.004    0.004
       274  -9.2181     30.8209    115.8124   1.1577941186e+02   4.8280935370e+01     0.192866    0.1325153  59.91            0    1.626    0.385
       275 -10.6376     20.9614    119.0113   1.1897511265e+02   4.8363440708e+01    0.3022265    0.1731453 -52.99  0.001699672    1.621    0.383
       276 -10.3455     23.9376    116.2320   1.1777853228e+02   4.8773882637e+01    0.4128679     0.202473  30.63  0.001260152    2.379    0.580
       277 -10.3238     69.7466    118.4398   1.0508472426e+02   4.3231269196e+01     0.342418    0.2513295 -86.03 0.0009509153    1.499    0.333
       278  -8.5575     76.4383    119.5403   1.0339908781e+02   4.2014441016e+01    0.1416283    0.1270567 -69.18 0.0001012015    1.009    0.009
       279  -8.7578     45.5076    119.5501   1.1220500562e+02   4.5943345923e+01    0.1321796    0.1115519 -68.54 -1.707792e-05    1.035    0.034
       280 -13.4955    234.8835    128.4426   6.8723533165e+01   7.6798465731e+00     1.400975     1.152633 -15.04  0.007408045    1.169    0.144
       281  -8.7251     97.6962    118.2230   9.7123503349e+01   3.8916126301e+01    0.2187786    0.1235089  27.66 0.0008782485    2.322    0.569
