#   1 NUMBER                 Running object number                                     
#   2 MAG_AUTO               Kron-like elliptical aperture magnitude                    [mag]
#   3 X_IMAGE                Object position along x                                    [pixel]
#   4 Y_IMAGE                Object position along y                                    [pixel]
#   5 X_WORLD                Barycenter position along world x axis                     [deg]
#   6 Y_WORLD                Barycenter position along world y axis                     [deg]
#   7 A_WORLD                Profile RMS along major axis (world units)                 [deg]
#   8 B_WORLD                Profile RMS along minor axis (world units)                 [deg]
#   9 THETA_WORLD            Position angle (CCW/world-x)                               [deg]
#  10 FWHM_WORLD             FWHM assuming a gaussian core                              [deg]
#  11 ELONGATION             A_IMAGE/B_IMAGE                                           
#  12 ELLIPTICITY            1 - B_IMAGE/A_IMAGE                                       
         1 -14.6471     69.0317    145.4353   1.0044910845e+02   3.6661122358e+01     4.848335     2.686256  75.13  0.005158605    3.475    0.712
         2 -14.4411    205.6615     39.0419   4.0917859259e+01   2.9477011107e+01     1.978687     1.444015  31.72  0.008107363    1.892    0.471
         3 -14.0095    221.0889     24.5710   3.5898803223e+01   2.7859096953e+01    0.9039772    0.8673986  33.62  0.002783763    1.350    0.259
         4 -12.4593    247.4878      3.5096   2.9466898321e+01   2.4768835893e+01    0.4890367    0.3714437  56.76  0.002956139    1.669    0.401
         5 -12.2418    241.9976      3.1784   2.9757320555e+01   2.5881462732e+01    0.3835586    0.2514952 -87.11  0.001998079    1.357    0.263
         6 -10.3209     51.1278      3.8503   6.2209064433e+01   6.7253695034e+01    0.2173308     0.173862  36.43 0.0007839045    1.299    0.230
         7  -9.8037     46.2941      1.6104   6.3016430686e+01   6.8267678468e+01    0.2055317    0.1701888  47.83 0.0007845982    1.589    0.371
         8  -9.9231      2.3739      2.7750   8.6005520072e+01   7.3551880225e+01    0.1626098   0.07615124 -32.27 0.0009583036    1.704    0.413
         9  -9.6841     99.5743    180.8187   9.8366704315e+01   2.3577587237e+01    0.2237554    0.1933581  23.96 0.0007097112    1.238    0.192
        10 -11.2187    140.4621    249.6502   9.9222406540e+01   3.4608458774e+00    0.3922639    0.1642935  38.76   0.00185776    1.994    0.499
        11  -9.8971    117.9167    250.5683   1.0386699490e+02   6.5719723228e+00    0.1842692    0.1026218  36.30 0.0004013291    1.518    0.341
        12 -13.9756      4.2850    184.6047   1.2153009642e+02   3.3888330603e+01     1.644775    0.5412723 -78.49  0.000643683    2.583    0.613
        13 -15.4041      6.1917    142.5518   1.1753438849e+02   4.3629861514e+01     5.141464     1.770314 -82.54   0.01620591    3.025    0.669
        14 -13.5385     36.0398    201.7287   1.1598910817e+02   2.7090444845e+01    0.6627839      0.47216 -55.20  0.001367038    1.555    0.357
        15 -15.5153     46.2534    191.5165   1.1271516167e+02   2.8286416722e+01     3.886675     2.098189  81.66   0.01678476    2.191    0.544
        16 -12.2213     63.2305    175.4309   1.0668480621e+02   3.0043083406e+01     0.446406     0.315094 -39.98  0.001685639    1.671    0.402
        17 -12.0455     68.1889    170.3498   1.0470424557e+02   3.0627566100e+01    0.3442722    0.2805841 -27.05  0.000866678    1.508    0.337
        18 -11.0458     76.9900    137.5610   9.6676396963e+01   3.7507699100e+01    0.3996616    0.2623434  55.46  0.001830899    1.831    0.454
        19 -12.6582     85.0110    154.5211   9.7632486000e+01   3.2128498010e+01    0.9385476    0.5316339 -40.58  0.002172251    1.984    0.496
        20 -12.3054     77.6880    161.0136   1.0074631587e+02   3.1605124398e+01    0.5282809    0.4348582   0.53 0.0005216936    1.511    0.338
        21 -13.5241     64.9793    156.9650   1.0351408589e+02   3.4330745096e+01    0.5458584    0.3745025 -48.72  0.001315617    1.448    0.309
        22 -15.9883      7.4649    246.5480   1.2446216938e+02   2.0752420513e+01     3.896908     2.327074  14.49   0.02308846    2.992    0.666
        23 -10.8994    133.6073    143.9626   8.2427117954e+01   2.6221674989e+01     1.103336    0.2813735 -53.90  0.002497226    6.012    0.834
        24 -14.3375     57.3420    239.6988   1.1484705990e+02   1.6697876530e+01     1.054724    0.7989749 -82.87  0.004599452    1.314    0.239
        25 -14.4771     18.5130    218.3544   1.2087368834e+02   2.5275641037e+01    0.9430522    0.9226963 -63.55  0.007385722    1.400    0.286
        26 -10.8996     32.6459    144.1043   1.1052197003e+02   4.1142765183e+01    0.4353308    0.2910577  76.80  0.002294747    1.667    0.400
        27 -16.0486     33.9732    249.4162   1.1994925975e+02   1.7527148949e+01     11.15496     3.554269  23.54   0.02562207   14.715    0.932
        28 -10.8605    100.0995    139.7321   9.0503013279e+01   3.3334927804e+01    0.6289389     0.366049 -24.33  0.002297764    2.788    0.641
        29 -12.4317     86.9389    139.6576   9.4222581788e+01   3.5493555694e+01    0.3155245    0.2585402 -44.02 0.0003882968    1.187    0.158
        30 -10.1204    198.3710    139.9383   6.6733585127e+01   1.4147218889e+01    0.3182236    0.2252251 -61.13  0.001150889    1.848    0.459
        31 -15.4213      9.5055    207.3387   1.2194944151e+02   2.8439965794e+01     2.708045     1.142283 -53.46   0.01053996    2.891    0.654
        32 -10.3718    106.2388    131.0070   8.6820368072e+01   3.4366690045e+01    0.3765876    0.2850439 -55.48  0.001806008    1.313    0.238
        33 -10.2016    109.5070    130.4970   8.5780599035e+01   3.3899564354e+01     0.342272    0.2792925   4.40  0.001039893    1.434    0.303
        34 -10.3664    135.0849    128.3327   7.8344572551e+01   2.9479157913e+01    0.4229718    0.2966707 -45.53  0.001919315    1.389    0.280
        35  -9.4595    160.9955    127.7770   7.1842693385e+01   2.4246544416e+01    0.2344393    0.1755924 -62.95  0.001059497    1.624    0.384
        36 -10.8606     97.1484    126.1185   8.8296154287e+01   3.7124903666e+01    0.3256551    0.2588269 -17.17   0.00130017    1.454    0.312
        37  -9.4363    116.2260    124.5683   8.2477437761e+01   3.4041271014e+01    0.2081966    0.1499824  23.51 0.0006162909    1.583    0.368
        38 -10.8402     43.6040    122.3315   1.0386889530e+02   4.5475655693e+01    0.2651058    0.2143117 -46.47 0.0005507084    1.152    0.132
        39  -8.7723    163.6768    121.3269   6.9616217645e+01   2.5026963282e+01    0.1559447    0.1246236 -80.69 0.0007048743    1.691    0.409
        40 -10.7154    230.5486    167.2044   6.6647832130e+01   3.3854928132e+00    0.2733638    0.1171492 -42.09  0.001151522    2.195    0.544
        41  -9.6959    106.8632    119.0508   8.3759969196e+01   3.7076054770e+01    0.2164997    0.2057282 -25.80 0.0003094147    1.018    0.017
        42 -11.1319     23.5138    118.7058   1.0952642958e+02   4.8208993426e+01    0.3464919    0.1680721 -51.84  0.001666448    1.735    0.424
        43  -8.6717    168.6384    113.3165   6.6465878879e+01   2.5589841230e+01    0.1575598    0.1231943 -82.03 0.0007042164    1.762    0.433
        44 -11.6194    246.2403    110.9161   5.2081349858e+01   1.0231799953e+01    0.2625908    0.1747447 -23.63  0.001381658    1.577    0.366
        45  -8.2345    130.6566    159.3301   8.6522249437e+01   2.3256859407e+01    0.1562465    0.1211501  77.93 9.785155e-05    1.750    0.429
        46 -10.1106    205.4735    110.1377   5.8367840104e+01   1.8305130043e+01    0.2968546      0.21077  39.02 0.0009095176    1.576    0.366
        47  -8.9092    134.5045    105.5150   7.2567131917e+01   3.4595193771e+01     0.155366    0.1494249 -18.31 0.0001984603    1.000    0.000
        48  -9.0612    119.4932    103.5201   7.6064323486e+01   3.8138328596e+01    0.1549147    0.1475119 -17.94 -2.108951e-05    1.006    0.006
        49 -10.1927    146.5840    171.8422   8.5180274605e+01   1.7535224663e+01    0.2738745    0.2249632 -83.32   0.00102341    1.609    0.379
        50  -9.4293    120.8140     97.8415   7.4106249197e+01   3.9083250623e+01    0.2078068    0.1873338 -77.06 0.0005479245    1.312    0.238
        51 -11.2388    247.4546     95.7017   4.8622155845e+01   1.2468238550e+01    0.3192177    0.1990278  15.94  0.001337575    3.443    0.710
        52  -9.6939     31.6197     95.7266   1.0265759754e+02   5.3093459800e+01    0.3580568    0.1344461  41.80  0.001373573    3.536    0.717
        53 -10.3371     52.7126     90.8897   9.4013316847e+01   5.2024615160e+01    0.2368073    0.1501992 -40.03 0.0006393925    1.431    0.301
        54  -9.5634     18.0140     90.0031   1.0635139934e+02   5.5510606167e+01     0.154723     0.129026 -48.53 0.0003698186    1.039    0.037
        55 -10.0515    174.7001    148.7908   7.3719781911e+01   1.7055009455e+01    0.2802121    0.2561058  72.06 0.0008393711    1.326    0.246
        56 -10.1745    234.4937     86.0052   4.8201761038e+01   1.6492089640e+01    0.2084248    0.1171956 -38.44 -0.0001800707    1.553    0.356
        57  -9.5653     73.0767     83.8019   8.4876690113e+01   5.0808199047e+01     0.203792    0.1926153  68.19 0.0006490285    1.314    0.239
        58  -9.4254    160.4427     82.5115   5.9959428556e+01   3.3318115476e+01     0.147946     0.144399 -16.47 7.428011e-05    1.024    0.023
        59 -11.1522    243.3050     77.9683   4.5292233551e+01   1.6015166291e+01    0.1890705    0.1514278 -43.39 0.0005330557    1.080    0.074
        60  -9.4506     90.2863     65.2988   7.3198932453e+01   5.1580116338e+01    0.2924558    0.1791377  62.06   0.00117528    2.763    0.638
        61  -9.5817     48.5471     62.6467   8.7458531906e+01   5.8634084180e+01    0.1854336    0.1553185  46.81 0.0004844356    1.574    0.365
        62 -10.5711     13.5344     60.0080   1.0128089216e+02   6.2500646041e+01    0.2476854    0.1913538 -53.35  0.000467138    1.188    0.158
        63 -12.6928    196.9609     45.0185   4.3502970686e+01   3.0664505665e+01    0.6804854    0.5542532  31.04  0.001116531    1.539    0.350
        64 -10.4011    207.7753    193.7847   7.6270497486e+01   2.5187551830e+00    0.1703677    0.1689813  -7.27  0.001075799    1.354    0.262
        65  -8.6630     76.2649    184.6624   1.0471664655e+02   2.6117282012e+01    0.1399174   0.09888732  74.77 0.0003512449    1.590    0.371
        66 -10.6464    137.9279     36.0554   5.0704189008e+01   4.5752691458e+01    0.3636277      0.24981 -77.36  0.001724382    2.073    0.518
        67 -12.4040    215.4032     30.1695   3.7731312854e+01   2.8425032193e+01    0.3847387    0.3014068  40.74  0.001129357    1.637    0.389
        68  -9.8255    189.6822     15.0123   3.6851720555e+01   3.5906275651e+01    0.1723574      0.15444 -60.00 0.0005772701    1.120    0.107
        69  -9.6854    136.9063     42.9546   5.3125292468e+01   4.5095372077e+01    0.2060643    0.1962401  83.47 0.0004547087    1.116    0.104
        70  -9.9011     90.0536    213.2552   1.0526149344e+02   1.7774069723e+01    0.3743667    0.2085179  69.45  0.001098529    2.583    0.613
        71 -10.3806    107.8758    203.9603   9.9952168740e+01   1.7105223088e+01     0.203834    0.1888649  63.97 0.0004659868    1.061    0.057
        72 -11.2908    193.0822    194.9630   7.9447389817e+01   4.7180318152e+00    0.9407002    0.4914223 -62.29   0.00272183    6.319    0.842
        73  -9.5765     80.0008    183.0122   1.0356333088e+02   2.5983039215e+01    0.2368271    0.1582658  71.71  0.001121694    1.788    0.441
