#   1 NUMBER                 Running object number                                     
#   2 MAG_AUTO               Kron-like elliptical aperture magnitude                    [mag]
#   3 X_IMAGE                Object position along x                                    [pixel]
#   4 Y_IMAGE                Object position along y                                    [pixel]
#   5 X_WORLD                Barycenter position along world x axis                     [deg]
#   6 Y_WORLD                Barycenter position along world y axis                     [deg]
#   7 A_WORLD                Profile RMS along major axis (world units)                 [deg]
#   8 B_WORLD                Profile RMS along minor axis (world units)                 [deg]
#   9 THETA_WORLD            Position angle (CCW/world-x)                               [deg]
#  10 FWHM_WORLD             FWHM assuming a gaussian core                              [deg]
#  11 ELONGATION             A_IMAGE/B_IMAGE                                           
#  12 ELLIPTICITY            1 - B_IMAGE/A_IMAGE                                       
         1 -15.3313     83.6839     64.8976   9.6054857170e+01   5.2815103705e+01     2.233475     1.301698  16.43  0.008573311    3.375    0.704
         2 -15.1855     70.5243     55.9829   9.7424747120e+01   5.6785898320e+01     1.347855     1.058643 -43.99  0.005508489    1.094    0.086
         3 -14.2580      8.3740     21.6101   1.1091070566e+02   7.0577901679e+01     1.566931    0.6477767 -44.82  0.008434013    1.833    0.454
         4 -11.4061     64.6785     18.0226   8.3950251915e+01   6.4795066817e+01    0.4053603    0.2614048  21.05  0.001964125    1.846    0.458
         5 -12.0397     79.4661      3.6499   7.1322036788e+01   6.4085168584e+01    0.6946413    0.4874738  87.59  0.003353747    2.668    0.625
         6 -12.0108     75.6009     13.4617   7.7726968296e+01   6.3566082286e+01    0.3348406     0.296277 -12.79 0.0009600937    1.074    0.069
         7 -12.0326     88.8957      2.0712   6.7687307547e+01   6.2332363203e+01    0.3529058    0.2722741  48.08  0.002016054    1.344    0.256
         8 -11.8628     83.7786      2.0262   6.9138815090e+01   6.3400816067e+01    0.5201625    0.3600533 -69.50  0.002483469    2.596    0.615
         9 -11.8107     82.3877     13.7209   7.5613584565e+01   6.2240700273e+01    0.3399099    0.2482586  31.20 0.0008670199    1.402    0.287
        10 -12.4743     87.0457     11.5120   7.3055192567e+01   6.1606165821e+01    0.5558094    0.4009855  78.04  0.001978388    2.172    0.540
        11 -11.9650    124.0640     10.2386   6.3049237526e+01   5.3398371318e+01     0.326173    0.2574746  25.26 0.0006094737    1.253    0.202
        12 -11.6892    192.6897      5.3032   5.0680454002e+01   3.5870987371e+01    0.2839433    0.2033998 -23.42  0.000746378    1.379    0.275
        13 -10.0928    149.9812      8.7421   5.7620964184e+01   4.6944728266e+01    0.1922812    0.1243503  64.76 0.0008133834    1.537    0.350
        14 -11.5313    137.7720      5.4429   5.8360103317e+01   5.0441000601e+01    0.3894043    0.2606433  62.88  0.001117387    1.483    0.326
        15 -10.9083    111.7952      3.0966   6.2469277622e+01   5.7092150032e+01    0.2795115    0.1821627   9.10  0.001335989    1.634    0.388
        16 -10.8397    104.0952      3.8272   6.4605909520e+01   5.8807852697e+01    0.2977511    0.1644248  12.66  0.001260317    2.233    0.552
        17 -11.7222     95.5186      3.5108   6.6621242265e+01   6.0756685633e+01    0.3041344    0.2189917  21.20  0.001302829    1.364    0.267
        18 -10.7473     33.4543      4.0232   8.9958896000e+01   7.1478077435e+01    0.2123449    0.1500255   1.86 0.0006594188    1.506    0.336
        19 -11.5465     73.2011      1.4433   7.2135099821e+01   6.5555760943e+01    0.2297679    0.1412286  50.64 0.0004464327    1.772    0.436
        20 -11.6970    245.9109    145.5821   8.1704020503e+01   4.6177419324e+00    0.2675241    0.1583417 -41.12  0.001348858    1.990    0.498
        21 -11.5919    122.2231    127.6606   1.0178866780e+02   3.2346523679e+01    0.3341024    0.3090487  71.84  0.001330049    1.050    0.048
        22 -11.0100    120.1150    103.8877   9.6874010132e+01   3.7780573226e+01    0.2300096    0.1987692 -80.50    0.0012337    1.221    0.181
        23 -11.9442     32.6721    102.4411   1.2021277006e+02   5.0761447578e+01    0.2906865    0.1170518 -63.21  0.001405561    1.928    0.481
        24 -11.7796    141.1457     97.6981   9.0159844494e+01   3.4734384799e+01    0.3538717    0.2281214 -30.84  0.001357428    1.727    0.421
        25 -11.0190    114.0051     97.0936   9.6695110548e+01   4.0416617720e+01    0.3372746    0.2033115 -56.25 0.0008508497    1.666    0.400
        26 -11.0352    187.6914     93.8589   7.9184521625e+01   2.4774572011e+01     0.315366    0.2360547 -66.53  0.001440671    1.745    0.427
        27 -13.6694     36.0979     87.5985   1.1678633778e+02   5.3859623655e+01    0.9025321    0.5230533  63.41  0.004728463    2.158    0.537
        28 -13.8551     41.1372     82.6626   1.1428347573e+02   5.4500744569e+01    0.5947851    0.3932865 -68.22  0.003179306    1.244    0.196
        29 -11.6185     68.2713     90.4119   1.0771608208e+02   4.9471661883e+01    0.3064452    0.1315252 -48.59  0.001293745    2.167    0.539
        30 -12.3239      5.3944     84.3652   1.2559443411e+02   5.6982676931e+01    0.4707349    0.1754348 -57.90  0.002414048    2.105    0.525
        31 -10.8973    127.8920     81.7649   8.8851268960e+01   4.0810385782e+01     0.305766    0.1955913 -66.01   0.00124452    2.156    0.536
        32 -12.1602    138.1455     79.7239   8.5707264445e+01   3.8967508254e+01    0.2440826    0.2020233  78.35  0.001197004    1.439    0.305
        33 -11.3055    187.6085    197.8189   1.0136311587e+02   8.2363800122e+00    0.1534263    0.1147044 -51.91 0.0009589174    1.750    0.429
        34 -14.3386     74.8818     74.1599   1.0158729013e+02   5.2197164250e+01     1.162028    0.6197159  53.54  0.005117101    2.469    0.595
        35 -14.4255     47.7761     67.9036   1.0873724000e+02   5.7163005330e+01    0.8140563    0.6141354  61.81  0.004808362    1.642    0.391
        36 -11.7048    203.1137    172.3067   9.4279955458e+01   8.9813422738e+00    0.2920574    0.1677067 -24.20  0.001471879    2.042    0.510
        37 -12.4631     61.6755     66.9685   1.0380550505e+02   5.5665501820e+01    0.3144313    0.2894169  -4.81 0.0007081511    1.287    0.223
        38 -13.9378     96.0050     71.6951   9.4458204347e+01   4.9230357622e+01    0.7767516    0.5720677  32.99   0.00167038    1.583    0.368
        39 -10.1737    250.0622     74.3477   6.3959106019e+01   1.3231746513e+01    0.1839405    0.1712598 -13.24 0.0006634545    1.069    0.065
        40 -11.9462    144.5095     73.9580   8.2411657431e+01   3.8616519533e+01    0.2879676    0.2332431  51.68 0.0004701156    1.293    0.227
        41  -9.9254    182.6080     72.1459   7.3852604628e+01   2.9667097333e+01    0.2045406    0.1458935 -17.61 0.0003680269    1.496    0.332
        42 -13.1200    118.1838     69.4079   8.7518387397e+01   4.5352843236e+01    0.4650109     0.306603 -46.87  0.002141942    1.447    0.309
        43 -10.4702    146.4149     67.1905   7.9798693993e+01   3.9416489959e+01    0.2214513    0.1386571 -45.18 0.0004006439    1.590    0.371
        44 -11.0904    130.0000     66.9759   8.3663644353e+01   4.3257161516e+01    0.2640436    0.0834978 -38.39 0.0008083734    2.984    0.665
        45 -12.3259    103.7914     64.8336   8.9995913828e+01   4.9188864629e+01    0.3640696    0.3076025  85.22  0.001900428    1.472    0.321
        46 -10.6828    169.8665     62.8587   7.3397710979e+01   3.4395772646e+01    0.2394399    0.2339897 -27.15 0.0004616138    1.028    0.027
        47 -11.4333    165.9717     62.9532   7.4204938010e+01   3.5359767550e+01    0.2749282    0.2310699  55.92  0.000326311    1.242    0.195
        48 -11.0652    214.7368     61.2050   6.5201685545e+01   2.3313042688e+01    0.3398364    0.2474203 -22.57  0.001636181    1.311    0.237
        49 -12.4549    124.8891     57.8759   8.1858612489e+01   4.6105156769e+01    0.4520306     0.315228  47.31 0.0009970762    1.516    0.340
        50 -13.9004     36.6347     55.4453   1.0937507137e+02   6.1119842606e+01     1.377815    0.7594154 -75.44  0.006616874    2.241    0.554
        51 -13.5762     51.5700     46.1239   1.0084671713e+02   6.1461791656e+01     1.154438    0.5769607 -67.14  0.004524549    3.240    0.691
        52 -12.6031     53.4573     34.7053   9.5841202585e+01   6.3516435157e+01    0.6614999    0.4491957  11.20  0.002564089    1.940    0.485
        53 -13.3721     42.0388     47.7115   1.0502036563e+02   6.2241067221e+01    0.4588101    0.3375107  33.30 0.0009887144    1.667    0.400
        54 -13.7980     42.0697     42.4939   1.0327524296e+02   6.3339289736e+01    0.8299588    0.4762488   5.15  0.002871391    3.012    0.668
        55 -12.0299     58.0798     56.8774   1.0201910278e+02   5.8348457428e+01    0.2492045    0.1693459 -53.61  0.001037951    1.250    0.200
        56 -10.3983    174.8557     56.4716   7.0370348187e+01   3.4152225187e+01    0.2219788    0.1564602  60.29 0.0006801269    1.494    0.331
        57 -10.7775    210.2578     54.5898   6.3910085642e+01   2.5366263982e+01    0.2818009    0.1965145  32.15  0.001285315    1.654    0.395
        58 -11.5244    133.2575     53.8201   7.8332411554e+01   4.4911571025e+01    0.3333722    0.2698701  49.63 0.0006454982    1.296    0.228
        59 -11.4039    145.4294     50.8635   7.4452545766e+01   4.2484235936e+01     0.316898     0.278391 -21.64 0.0008027108    1.102    0.093
        60 -13.5571     93.8305     55.4670   8.9725118971e+01   5.2961578832e+01    0.8256823    0.4086594 -46.67  0.002257032    1.879    0.468
        61 -12.4835      3.6443     47.0812   1.2006539634e+02   6.5443638778e+01    0.4790783    0.3182735  80.76  0.002511227    1.778    0.437
        62 -14.4108     59.9467     70.9464   1.0547694783e+02   5.5005159871e+01    0.7479184    0.5715415  24.25  0.003470757    1.643    0.391
        63 -11.1766    157.1994     43.7622   6.9449419775e+01   4.0640992270e+01    0.2736402    0.2413517  37.26 0.0006284018    1.162    0.139
        64 -10.0597    122.3094     44.3095   7.7544069331e+01   4.9075532757e+01    0.1537631    0.1148167  11.11  0.000375118    1.620    0.383
        65 -10.3469    181.8099     43.5927   6.4902907113e+01   3.4260979629e+01    0.2095819    0.1521211  79.82 0.0004952503    1.612    0.380
        66 -11.6246    217.3002     38.7959   5.8230550380e+01   2.5685291933e+01    0.4314368    0.2533951  50.11   0.00101538    1.804    0.446
        67 -10.4564    185.6584    167.2963   9.6492607173e+01   1.2958026462e+01    0.1263784    0.1026942  77.31 0.0006909131    1.662    0.398
        68 -11.4548     82.8088     33.2083   8.4536207292e+01   5.9136002391e+01    0.3084895    0.2617444 -10.29 0.0009854588    1.143    0.125
        69 -12.0289     79.2760     30.3729   8.4488591290e+01   6.0261081987e+01    0.4279276    0.3316725 -24.00  0.001628017    1.161    0.139
        70 -10.6086    176.6972     33.3015   6.2274172292e+01   3.7006207171e+01     0.244541    0.2071219  56.79 0.0006173115    1.202    0.168
        71 -10.7627    241.9806     23.1672   5.1069714732e+01   2.1427585675e+01    0.3481337    0.2133266 -64.79  0.001272856    1.840    0.456
        72 -12.0845     83.6437     23.0059   7.9692094159e+01   6.0650154358e+01     0.344446    0.3107216  -1.02 0.0008375284    1.072    0.067
        73 -10.3299    140.8634     21.3272   6.4251503372e+01   4.7908140994e+01    0.2185192    0.1244195  50.61 0.0004457673    1.716    0.417
        74 -11.4012    214.9966    162.2381   9.0267889808e+01   8.1754458351e+00    0.1784626    0.1007506  44.10   0.00089131    1.650    0.394
        75 -11.4570    199.0027    154.9756   9.1640867366e+01   1.2278128277e+01    0.3768144    0.1527167 -47.29  0.001417084    3.332    0.700
        76 -11.5051    233.1113    153.8727   8.5511958043e+01   5.9193693816e+00    0.1891919    0.1811454   4.02  0.001018372    1.245    0.197
        77 -12.0252     19.1212    153.7905   1.2887221025e+02   4.0717949366e+01     0.171584    0.1634676 -41.86   0.00138549    1.618    0.382
        78 -10.7974     29.6596    153.6815   1.2667075857e+02   3.9749026569e+01    0.1048985   0.07884407 -53.78 0.0007049391    1.712    0.416
        79 -10.6995    138.8192    152.1996   1.0291713043e+02   2.4373058443e+01    0.1812261    0.1624343  13.90 0.0007575909    1.333    0.250
        80 -12.1439     58.4059    144.8531   1.1948898371e+02   3.8461054424e+01    0.4893306    0.2926169  70.82  0.002729289    1.689    0.408
        81 -13.4835     49.6454    141.9198   1.2112196680e+02   4.0131538970e+01    0.7002399    0.4637762  42.84  0.004341555    1.606    0.377
        82 -10.1303     90.3141    145.3502   1.1234062264e+02   3.3982338394e+01    0.1233989    0.1011631 -31.38 0.0007046564    1.726    0.421
        83 -12.1497    213.7201    142.5173   8.6376118809e+01   1.1231037532e+01    0.8534523    0.3390893  55.29  0.003122325    3.226    0.690
        84 -12.1646     75.7856    141.4639   1.1506937123e+02   3.6923898873e+01    0.3085428    0.1884228 -80.38  0.001639166    1.649    0.394
        85 -12.6156     39.5041     33.4171   1.0102327259e+02   6.5478976944e+01    0.5076798    0.3813553  29.82   0.00259062    1.623    0.384
        86 -12.0025     34.1875    135.9619   1.2400311110e+02   4.3080954037e+01    0.2581095    0.1540369  38.24   0.00156885    1.864    0.464
        87 -11.3904     82.4996    134.0076   1.1235023052e+02   3.7588529579e+01    0.2044486    0.1177159 -63.03 0.0007506052    1.606    0.377
        88 -10.7152     21.5155    133.5082   1.2667881123e+02   4.4801884226e+01     0.117364   0.08752616  88.49 0.0008103978    1.013    0.013
        89 -13.6462    202.2320    126.3215   8.4755075579e+01   1.6092369858e+01    0.9895073    0.6595242   2.72  0.004475875    2.010    0.502
