#   1 NUMBER                 Running object number                                     
#   2 MAG_AUTO               Kron-like elliptical aperture magnitude                    [mag]
#   3 X_IMAGE                Object position along x                                    [pixel]
#   4 Y_IMAGE                Object position along y                                    [pixel]
#   5 X_WORLD                Barycenter position along world x axis                     [deg]
#   6 Y_WORLD                Barycenter position along world y axis                     [deg]
#   7 A_WORLD                Profile RMS along major axis (world units)                 [deg]
#   8 B_WORLD                Profile RMS along minor axis (world units)                 [deg]
#   9 THETA_WORLD            Position angle (CCW/world-x)                               [deg]
#  10 FWHM_WORLD             FWHM assuming a gaussian core                              [deg]
#  11 ELONGATION             A_IMAGE/B_IMAGE                                           
#  12 ELLIPTICITY            1 - B_IMAGE/A_IMAGE                                       
         1 -14.8779    128.6108    104.1421   6.7837077492e+01   3.6035703711e+01      15.3139     7.055262  42.44    0.0431754    2.269    0.559
         2 -14.2205    197.0037     33.9055   3.4544597922e+01   3.1372019494e+01     5.122671     2.834367  20.05   0.01758642    3.637    0.725
         3 -15.4292    228.9888     92.3857   4.5585402477e+01   1.6049828209e+01     4.931096     1.311995 -47.78   0.01177191    7.270    0.862
         4 -15.4222    245.9210     31.3844   2.9090224952e+01   2.0566245455e+01     1.817114     0.934869 -44.56  0.009436083    1.628    0.386
         5 -16.9068    246.5564     69.4898   3.7970301383e+01   1.5687686573e+01     8.265742     2.620835 -25.82   0.02864707    3.558    0.719
         6 -15.0808    221.3790     23.8308   2.9338084897e+01   2.6796434734e+01      3.01815     1.460484  -8.17   0.01143399    3.657    0.727
         7 -14.7504    200.4490     54.9916   3.9948757536e+01   2.7788136671e+01     5.050415     1.374487 -29.34   0.01587795    3.634    0.725
         8 -10.9016    179.9521     24.1616   3.3787061281e+01   3.6730296099e+01    0.7498564    0.4133381  78.28  0.003178154    1.919    0.479
         9 -10.1990    153.7868     15.5236   3.4514887330e+01   4.4298650837e+01    0.5260956    0.2747163  29.21  0.002078974    2.815    0.645
        10 -11.9583    134.9946     15.9400   3.7594937443e+01   4.9022318096e+01    0.6992235     0.362502 -10.22  0.002910045    2.474    0.596
        11 -15.0879    235.1852     37.9682   3.1594963565e+01   2.2077800814e+01     1.535542    0.9455103  23.38  0.006459825    2.778    0.640
        12 -10.7655    112.1886      3.0340   3.6642867820e+01   5.5903226158e+01    0.5931841    0.2125158  66.88  0.002283671    2.672    0.626
        13 -10.1193    115.9418     12.5262   3.9810206637e+01   5.4098005112e+01    0.3149062     0.242344  64.30  0.001057336    1.260    0.206
        14 -11.6105    120.3384      9.0380   3.7564056448e+01   5.3365565907e+01    0.4671727    0.4212825  61.67  0.001482323    1.057    0.054
        15  -9.1552    246.7042      9.3069   2.3938468869e+01   2.2796766594e+01    0.1918446    0.1554317 -72.92 0.0002707598    1.144    0.126
        16  -9.0159    194.0090      6.4273   2.7152345867e+01   3.5094008393e+01    0.2445038    0.1875748   2.01   0.00136824    1.642    0.391
        17  -8.9406    130.3252      7.3029   3.5157354542e+01   5.1044816084e+01    0.1451767   0.09393059  37.33 0.0004034019    1.640    0.390
        18 -10.1272     93.4328      5.9275   4.1923593769e+01   6.0064260130e+01    0.3014868    0.2228716   9.39  0.001100254    1.431    0.301
        19  -9.5538    243.5338      3.2899   2.2760436089e+01   2.4064450353e+01     0.210908    0.1660751  46.34 0.0006492956    1.637    0.389
        20 -10.2892    248.6832      1.4166   2.2044390968e+01   2.3168198327e+01     0.271486    0.1276317  74.09 0.0009647136    2.186    0.543
        21  -9.7884    182.1681      3.7710   2.7485629853e+01   3.8260047699e+01    0.2863079    0.2350488 -86.70  0.001465469    1.136    0.119
        22  -7.9845    205.6527      3.2863   2.5325526571e+01   3.2588164626e+01    0.1404807    0.0821531 -61.57 0.0007021074    1.653    0.395
        23  -8.8461    158.9698      2.6844   2.9585989709e+01   4.4197791412e+01    0.2324984    0.1753779  28.90 0.0009421465    1.541    0.351
        24  -8.5942    171.7833      2.0443   2.7991265495e+01   4.1013149216e+01    0.2305588    0.1190482 -51.19  0.001051532    1.978    0.494
        25  -9.4099    139.6813      1.8181   3.1728401403e+01   4.9167697423e+01     0.208209    0.1657614  20.16 0.0008947782    1.409    0.290
        26 -11.3485    204.9402    152.8119   6.3163644565e+01   1.1414239145e+01    0.4956012     0.424783  65.30  0.001598361    1.507    0.336
        27 -10.7273    133.7720    144.9063   7.6097655820e+01   2.6524132862e+01      1.11037    0.2976694 -54.47  0.002851819    5.769    0.827
        28 -10.9719    173.5506    152.1967   6.8990823006e+01   1.7447089715e+01    0.5105283    0.3938314  -0.17  0.002083805    1.547    0.354
        29  -8.5019    115.9949    149.2805   8.1170774241e+01   2.8892852115e+01    0.1841009    0.1701354  56.10 0.0002140019    1.040    0.039
        30 -14.0910    249.7672     43.3136   3.1541389700e+01   1.8363872996e+01    0.5242324    0.3780632 -17.37  0.001966022    1.511    0.338
        31 -10.6700    147.0785    143.5332   7.2783048811e+01   2.4228885998e+01    0.3591458    0.2081665  42.44  0.001623127    1.689    0.408
        32 -10.4298    145.1934    147.7786   7.4089797313e+01   2.3758668019e+01    0.4283603    0.2918794 -84.44  0.001829599    2.509    0.601
        33 -10.3352    145.0020    139.3073   7.2343991844e+01   2.5474927862e+01    0.3256373    0.2462183 -45.59 0.0009827624    1.347    0.258
        34 -10.1152    142.0052    136.0411   7.2312878251e+01   2.6724159963e+01    0.3366335    0.2440653  37.36    0.0010514    1.405    0.288
        35 -11.6589     67.3940    143.8582   9.2558807730e+01   3.7882006199e+01     2.032716     1.013659 -62.30  0.007077563    1.891    0.471
        36 -11.8958     40.9666    140.7000   9.9161196103e+01   4.1909578304e+01    0.3830708    0.3686782 -67.30 0.0008939414    1.225    0.184
        37 -13.6613     49.2126    137.8665   9.6552669128e+01   4.1623152151e+01     2.095461     1.418075 -13.47  0.009909237    2.607    0.616
        38 -11.1133    201.7593    140.3817   6.1084888209e+01   1.4005554745e+01    0.8305211    0.3502138 -25.76  0.002950374    3.290    0.696
        39 -10.2724    192.2938    143.9567   6.3597555573e+01   1.5245343190e+01    0.3205283    0.2218303  42.39 0.0004236397    1.444    0.308
        40 -12.0071    191.6206    136.6624   6.2122000650e+01   1.6609846979e+01    0.8217169    0.4995464 -48.56  0.002087064    1.833    0.454
        41  -9.7321    159.4646    143.5145   7.0077144683e+01   2.1792005216e+01    0.2716227    0.2089328  43.06 0.0005935513    1.274    0.215
        42 -10.2701    158.5366    140.4768   6.9618155639e+01   2.2553389998e+01    0.3510559    0.1791592 -51.74  0.001433274    2.239    0.553
        43 -11.7802    210.6401    136.3827   5.8648742371e+01   1.2940678556e+01    0.6720489    0.5392147  20.83  0.002529318    1.284    0.221
        44  -9.0719    205.4894    136.5054   5.9570497996e+01   1.3912687909e+01      0.21078    0.1862081 -16.06 -7.249108e-06    1.056    0.053
        45 -12.3154     26.7192    138.7374   1.0275277430e+02   4.3836245171e+01    0.5583805    0.3280349  53.60   0.00310162    1.676    0.403
        46 -10.2451    167.0288    133.8819   6.6354212092e+01   2.2078464674e+01    0.3217392    0.2289243  27.24  0.001297528    1.595    0.373
        47 -11.4414    160.1017    129.0867   6.6718485273e+01   2.4409864341e+01    0.5227128    0.4132657 -16.51   0.00213129    1.463    0.316
        48 -10.2832    205.0055    236.3213   7.7678386106e+01  -1.6001241432e-01    0.1712554    0.1448332  -3.28 0.0001960795    1.218    0.179
        49  -9.9361    171.3013    130.6438   6.4732586730e+01   2.1799295297e+01    0.4463808    0.1574985 -48.51  0.001451366    3.400    0.706
        50 -10.2718    168.4927    125.4876   6.4107161746e+01   2.3336939815e+01    0.4372349    0.2348047  56.47  0.001614107    2.180    0.541
        51 -10.6040    172.2411    123.4643   6.2858826554e+01   2.2921306776e+01    0.6022847    0.2269312 -43.67   0.00215449    2.663    0.624
        52  -9.3140    172.0587    235.9029   8.3298694239e+01   4.5927756968e+00     0.160765    0.1331999  45.36 0.0003099716    1.274    0.215
        53  -8.8572     94.1600    123.8778   8.1670829655e+01   3.8344755671e+01    0.2175729    0.1872022  87.06 0.0004314989    1.211    0.174
        54 -10.1551    166.5898    116.9508   6.2443595666e+01   2.5331812736e+01    0.5473313    0.3772028  23.26  0.002476402    1.865    0.464
        55 -10.3796    174.7954    114.9664   6.0283218124e+01   2.3924890978e+01    0.5772532    0.3249192 -57.02  0.002288092    2.417    0.586
        56  -9.9570    173.9490    231.2714   8.2339898847e+01   4.9297384399e+00    0.1746077    0.1540417   3.67 0.0003971885    1.186    0.157
        57 -12.2720     56.7736    136.6808   9.4314031401e+01   4.0965764646e+01    0.7523782    0.3871491 -57.59  0.001749098    1.821    0.451
        58  -9.6412    233.9563    186.7421   6.4825804050e+01   1.7064437726e+00    0.2253632    0.1598871  34.21 0.0007498071    1.373    0.271
        59  -9.9375    141.5217    220.1954   8.6847383695e+01   1.1426880233e+01    0.2089878    0.1776762  37.82 0.0004763638    1.022    0.022
        60 -10.1468     84.1796     98.9171   7.8767954967e+01   4.5743587844e+01    0.2185254     0.205012  38.74 0.0002817672    1.139    0.122
        61  -8.8784    236.2777    183.6924   6.3898499223e+01   1.7442977926e+00     0.167539    0.1249894  -1.52 0.0005126775    1.197    0.165
        62 -10.7910    153.3928     83.1456   5.6203413190e+01   3.4567711449e+01    0.4631747     0.307438  64.64  0.001136179    1.716    0.417
        63 -10.1786    151.0905     71.3325   5.3184676217e+01   3.7195136123e+01    0.3129345    0.2405669 -55.31 0.0002329162    1.384    0.277
        64  -9.0363    172.0237    187.0607   7.5902741352e+01   1.1778375790e+01    0.3428884     0.204265  66.70  0.001383712    3.537    0.717
        65 -10.0507    153.0272     76.2579   5.4259093997e+01   3.5878616509e+01    0.3082695    0.2592759 -34.86 0.0006357713    1.174    0.148
        66  -8.3414     28.1934    183.8029   1.0647194949e+02   3.3685908279e+01    0.1371431    0.1228243 -82.88 0.0002661841    1.265    0.210
        67 -11.2555    200.2000    174.8705   6.8392051428e+01   8.8404126322e+00    0.5869753    0.3665696  14.19  0.002920893    2.012    0.503
        68 -11.1859    140.3448     64.8623   5.3492994457e+01   4.0875832344e+01    0.6040791    0.3334391 -56.26  0.002330499    2.368    0.578
        69 -11.3201    133.5487     80.6202   5.9970176170e+01   3.9626642301e+01    0.4855963    0.3527819 -44.16   0.00232072    1.355    0.262
        70 -11.5920    135.2240     62.6849   5.3947232075e+01   4.2467342823e+01    0.6364374    0.4411083 -30.36  0.002589191    1.479    0.324
        71 -10.7579    132.3687     70.6022   5.7160930237e+01   4.1749944728e+01    0.4902249    0.2634957 -33.53  0.001966189    1.920    0.479
        72 -10.1919    140.9330     78.1692   5.7493637457e+01   3.8382849082e+01    0.3503619    0.2985725 -84.25  0.001331304    1.354    0.262
        73 -11.5112    135.9472     75.0530   5.7702214849e+01   4.0111269631e+01    0.6417692    0.3718381 -42.77  0.001414464    1.697    0.411
        74  -9.7843    164.9404     76.9529   5.2045470647e+01   3.2920383481e+01    0.3303289    0.2159542 -29.75  0.000586203    1.570    0.363
        75 -10.1239    126.3103     70.9050   5.8735698678e+01   4.3089313510e+01    0.4055579    0.2454592 -45.61  0.001336213    1.659    0.397
        76 -10.2511    158.0439     69.1841   5.1109050317e+01   3.5884219571e+01    0.4422897    0.2786135  27.65  0.001476552    2.236    0.553
        77  -9.9876    179.7492    173.0141   7.1873636044e+01   1.2726809129e+01    0.1850537     0.172103  -6.07 0.0006461187    1.076    0.071
        78 -10.3786    193.9411    170.2020   6.8648655665e+01   1.0655759404e+01    0.2312077    0.1703639 -50.72  0.001278981    1.658    0.397
        79 -13.2494    171.1351     88.4022   5.4070688535e+01   2.9490327526e+01     1.473047     1.011207  -0.54   0.00289162    2.188    0.543
        80 -10.8961    144.1582     59.1574   5.0830663593e+01   4.0904848723e+01    0.4457414    0.3197949 -47.78  0.001100914    1.426    0.299
        81  -8.4037     72.5822     58.4939   7.0528268861e+01   5.6423317082e+01    0.1390927    0.1277076 -33.75 8.341046e-05    1.015    0.015
        82  -9.7391    132.8492     51.3291   5.0689427885e+01   4.4897463730e+01    0.2367384     0.191526  84.74  0.001188124    1.435    0.303
        83 -10.1600    144.3059     49.8469   4.7746617302e+01   4.2327086551e+01    0.2581415    0.2018984  73.97 0.0007375178    1.378    0.274
        84 -10.5603    215.0225    169.3002   6.4707256807e+01   7.1312217797e+00    0.3971872    0.2826992  52.43  0.001141517    1.716    0.417
        85  -8.0763     93.2977    214.2965   9.5619949413e+01   1.9580001851e+01     0.105966   0.09292833   2.11 0.0003452216    1.570    0.363
        86  -8.9692    238.6964    212.3249   6.8484100547e+01  -2.0679954894e+00   0.09265181   0.09126433   7.40 0.0003659549    1.641    0.391
        87  -9.7833    125.6313     45.1254   5.0159265112e+01   4.7591948074e+01    0.2348887    0.1751244 -45.60 0.0009608433    1.385    0.278
        88 -10.6192    118.3263     43.0969   5.1155004994e+01   4.9634562033e+01    0.2880155    0.2492755  -7.51 0.0004168576    1.226    0.184
        89 -14.6238    234.5768     64.1592   3.8045699847e+01   1.8864197150e+01     1.371508    0.8639665 -43.52  0.004001323    1.413    0.292
        90 -10.4698    159.4444     39.6635   4.1601578987e+01   3.9991994751e+01    0.2758688    0.2525011  36.06 0.0008635627    1.162    0.139
        91 -11.5658    125.7548     33.3821   4.5848987667e+01   4.9238635580e+01    0.5504918     0.352136 -70.71  0.002356314    2.298    0.565
        92 -10.9656    120.1012     33.6757   4.7213912261e+01   5.0567853749e+01    0.3081068    0.2216327  73.65   0.00122715    1.578    0.366
        93 -10.0173    109.6651     39.1223   5.1829203374e+01   5.2246780456e+01    0.3028703     0.177908  -1.63  0.001140186    2.924    0.658
        94  -9.1114     91.9623     39.2069   5.6805254662e+01   5.6142895467e+01    0.2284408    0.1909518 -26.15 0.0003488784    1.169    0.144
        95  -9.5387    149.4603     39.4709   4.3287791814e+01   4.2531447581e+01     0.142257    0.1402702  72.22 0.0001321833    1.018    0.017
        96 -10.4881    171.8035     34.4839   3.8029247984e+01   3.7546851194e+01    0.4722693    0.2867007 -65.03  0.002089679    1.991    0.498
        97 -10.7192    166.9943     33.2229   3.8346916153e+01   3.8917916432e+01    0.5256751     0.169149 -30.99  0.001846644    2.879    0.653
        98 -10.8611    123.0574     37.6981   4.8046593537e+01   4.9298558752e+01    0.3137464    0.2316949 -45.27  0.001050654    1.415    0.293
        99  -9.3942    233.5614    211.7667   6.9208466660e+01  -1.2920848898e+00    0.2056946    0.1397578  13.20 0.0006700393    1.289    0.224
       100  -9.2716    227.4567    206.7035   6.9357370504e+01   1.7843333257e-01     0.214792    0.1622878  55.58  0.001043268    2.051    0.512
       101  -8.6224    164.5318    205.9961   8.0425875881e+01   1.0021257615e+01    0.1572007    0.1229296 -40.87 0.0003563389    1.461    0.316
       102 -10.6242    124.0081    205.9996   8.8419349961e+01   1.6484465699e+01    0.1755725     0.150761  47.12            0    1.007    0.007
       103  -8.2273    162.6767     13.2211   3.2556707959e+01   4.2269091749e+01    0.1725752    0.1288144  -8.64 0.0002154793    1.549    0.354
       104 -11.6065    180.2708    181.5887   7.3347774340e+01   1.1240439828e+01     1.164236    0.7189184  76.02  0.003673267    6.371    0.843
       105 -11.0733    194.4899    197.9799   7.3557651763e+01   6.3791421905e+00    0.4045528    0.3175888 -69.57  0.002188326    2.160    0.537
       106 -10.9923    191.5142    192.0115   7.3079378781e+01   7.7325438833e+00    0.4808316    0.3053697 -61.22  0.002321442    2.880    0.653
       107  -9.4674     25.4634    199.4948   1.0812585233e+02   3.0766442038e+01    0.1894212    0.1621318  87.81  0.001433861    1.220    0.180
       108 -10.5032    240.7000    198.1002   6.5765888833e+01  -6.9028369080e-01    0.2561375    0.2224632 -62.19  0.001726836    2.077    0.519
       109 -10.8644    244.6057    193.7476   6.4393908169e+01  -7.2817801630e-01    0.3047833     0.219314  41.31   0.00140583    1.597    0.374
       110  -9.6747    184.5611    241.9786   8.1924907838e+01   2.0303965851e+00    0.2096864    0.1807363  89.42  0.001304545    1.966    0.491
       111 -10.5599    185.7966    168.0844   6.9771844995e+01   1.2451550176e+01    0.2887045    0.1990006 -37.74  0.001563793    1.498    0.332
       112 -12.4029    191.9581    154.5223   6.5893139999e+01   1.3549146054e+01    0.8418477    0.6371835 -69.65   0.00269039    2.024    0.506
       113 -10.4677    183.0877    161.3859   6.8977332796e+01   1.4057637607e+01    0.4019969    0.2780113  76.57  0.001591819    2.721    0.632
       114  -9.1898    159.5194    158.9955   7.3252894856e+01   1.8889593487e+01    0.2007316    0.1364034 -43.31 0.0005348789    1.536    0.349
       115 -13.3606     11.1364    149.7910   1.0781220557e+02   4.2688822496e+01     0.895382    0.7152299 -85.39  0.003704547    1.092    0.084
       116  -8.9287    218.3839    154.8181   6.1245428564e+01   8.6826885743e+00    0.2093569    0.1721163  47.34 0.0006502412    1.382    0.276
