#   1 NUMBER                 Running object number                                     
#   2 MAG_AUTO               Kron-like elliptical aperture magnitude                    [mag]
#   3 X_IMAGE                Object position along x                                    [pixel]
#   4 Y_IMAGE                Object position along y                                    [pixel]
#   5 X_WORLD                Barycenter position along world x axis                     [deg]
#   6 Y_WORLD                Barycenter position along world y axis                     [deg]
#   7 A_WORLD                Profile RMS along major axis (world units)                 [deg]
#   8 B_WORLD                Profile RMS along minor axis (world units)                 [deg]
#   9 THETA_WORLD            Position angle (CCW/world-x)                               [deg]
#  10 FWHM_WORLD             FWHM assuming a gaussian core                              [deg]
#  11 ELONGATION             A_IMAGE/B_IMAGE                                           
#  12 ELLIPTICITY            1 - B_IMAGE/A_IMAGE                                       
         1 -15.3461      5.1649    139.3235   1.3411085687e+02   4.4915236126e+01     8.918156     1.568113 -74.57   0.02861371    5.767    0.827
         2 -13.4464    201.5616     30.3819   6.1269513108e+01   3.0939274624e+01       1.2066     1.159625 -36.43  0.005418039    1.138    0.122
         3 -13.5494    219.1996     11.9681   5.4251614759e+01   2.8650175540e+01    0.9898134    0.8557572  44.36  0.002676899    1.316    0.240
         4 -12.9638      2.9638      4.3928   1.0766551869e+02   7.0771167375e+01    0.9062065     0.346848 -52.23  0.004831865    2.905    0.656
         5 -10.5330     81.7103    249.1918   1.3005691785e+02   1.5158283001e+01    0.1744638    0.1115304  78.54 0.0007833114    1.403    0.287
         6 -13.1659    241.6087    247.6145   1.0279570795e+02  -1.0555725488e+01     1.137121    0.5498466  52.91  0.005543962    2.884    0.653
         7 -12.7470     10.0595    207.0266   1.3843440156e+02   3.1141759800e+01    0.6245529    0.3827227  44.26  0.002729465    1.749    0.428
         8 -13.1087     41.7409    211.7450   1.3355459891e+02   2.6928712099e+01     0.956906     0.660308 -75.72  0.005772249    1.358    0.264
         9 -12.9191     25.8098    229.0486   1.3733096626e+02   2.5575356074e+01    0.2573106    0.1923651  85.44   0.00074626    1.173    0.148
        10 -14.0952     30.8023    222.9779   1.3616338056e+02   2.6108053834e+01    0.7340176    0.4720447  73.27   0.00249436    1.156    0.135
        11 -12.1548    162.2262    249.2561   1.1661834667e+02   2.4522442768e+00    0.5698804    0.1433323  46.66  0.002222966    3.117    0.679
        12 -11.6716     99.4432    248.0601   1.2709187902e+02   1.2767378975e+01    0.2866775    0.2149197  28.53  0.001880492    2.036    0.509
        13 -13.2146     34.4123    246.5313   1.3710633438e+02   2.1632543667e+01     1.044977    0.9026433  67.54  0.009172724    1.501    0.334
        14 -12.2642    126.3947    250.3695   1.2284972439e+02   8.2200343128e+00    0.4514285    0.2989222  66.98  0.002804156    1.415    0.293
        15 -10.7778     62.6350    245.6355   1.3277820312e+02   1.8329086520e+01    0.2357562    0.1395469  73.76  0.001101446    1.403    0.287
        16 -14.1674      8.6855    240.8327   1.4049402898e+02   2.5333261380e+01     1.880774     1.046227 -85.70   0.01462029    1.433    0.302
        17  -9.7833    129.3249    232.3170   1.2029403863e+02   1.0592506923e+01    0.1113121   0.09266545  21.97 0.0003689534    1.671    0.402
        18 -12.3588    110.6344    231.2620   1.2347962276e+02   1.3817395474e+01    0.4771716    0.1736001  45.38  0.002238762    2.275    0.560
        19 -11.8120     86.7402    225.9453   1.2709908700e+02   1.8394219497e+01    0.5570122    0.1218744  52.63  0.001892513    4.725    0.788
        20 -12.1048     59.0101    213.5329   1.3074577982e+02   2.4482133019e+01    0.7075449    0.2470924  58.75  0.003205295    2.989    0.665
        21  -8.7854    152.6125    213.1574   1.1343676829e+02   9.7247351311e+00    0.1491089    0.1251513 -37.39 0.0003509626    1.496    0.331
        22 -11.7680     54.5896    196.5421   1.2995390036e+02   2.8306151110e+01     0.326113    0.2066321 -58.18 0.0006048718    1.768    0.434
        23 -12.6663    138.1661    248.6581   1.2066985267e+02   6.5642503438e+00    0.5589612    0.3331071  44.97  0.003413551    1.365    0.268
        24 -10.8748     72.9769    175.4251   1.2401362032e+02   3.0193522387e+01    0.2199801    0.1861923  87.02 0.0003322216    1.033    0.032
        25 -13.1535     59.0877    173.3363   1.2659935747e+02   3.2459723333e+01    0.4584988    0.2476506 -49.19  0.001782929    2.289    0.563
        26 -10.4795     90.1861    167.6864   1.1931452262e+02   2.9318364507e+01    0.3894205    0.2251798  76.20  0.001026597    2.309    0.567
        27 -11.7745     80.6826    167.0204   1.2126246163e+02   3.0877943929e+01    0.4872199     0.437481 -52.20  0.002806855    1.341    0.255
        28 -10.1571     94.5117    151.2990   1.1573592701e+02   3.2169383725e+01    0.2765774    0.2365799 -57.65 0.0008303233    1.194    0.163
        29 -12.0802     82.9725    150.1237   1.1818901747e+02   3.4190669573e+01    0.2781008    0.2252793 -54.60 0.0006086432    1.272    0.214
        30  -9.1956     97.9554    147.2829   1.1423850569e+02   3.2491123679e+01    0.1806638     0.166726  66.18 0.0003162786    1.098    0.089
        31 -11.7339     68.3933    143.1912   1.2045418662e+02   3.7740623134e+01     0.505374    0.3441891 -89.26    0.0018428    1.562    0.360
        32 -10.8794     64.6804    141.6870   1.2108608628e+02   3.8551450238e+01    0.3143604    0.1974757 -56.16 0.0009108317    1.472    0.321
        33  -9.6868    107.5702    136.6826   1.0995691274e+02   3.3188861913e+01    0.3398261    0.2384562 -19.04  0.001249355    2.363    0.577
        34 -11.9384     61.7033    188.0422   1.2774386900e+02   2.9102295053e+01    0.2306289    0.1947659 -82.47 0.0004388207    1.177    0.150
        35 -10.4494     94.3934    133.7675   1.1258056745e+02   3.6030131002e+01    0.2241358    0.2108314 -48.99 0.0003928722    1.153    0.133
        36  -9.1272    105.4355    123.3184   1.0770374180e+02   3.6478372190e+01    0.1730476    0.1312938 -63.31 0.0003813323    1.310    0.237
        37  -9.4762    159.9795     77.9868   8.2561485330e+01   3.4235356452e+01    0.1856207    0.1782864  44.02 0.0004962086    1.019    0.019
        38 -11.4246      5.5122    185.0138   1.3776253507e+02   3.5714469478e+01    0.4701189    0.1806094  67.98  0.002413971    2.734    0.634
        39 -11.4365    197.9495    247.6596   1.1023413898e+02  -3.4117458261e+00    0.3066115    0.2052825 -22.33  0.001886264    2.017    0.504
        40 -10.5950     88.4201    249.2204   1.2898648728e+02   1.4199145247e+01    0.1635792    0.1189166  73.82  0.000909851    1.131    0.116
