#   1 NUMBER                 Running object number                                     
#   2 MAG_AUTO               Kron-like elliptical aperture magnitude                    [mag]
#   3 X_IMAGE                Object position along x                                    [pixel]
#   4 Y_IMAGE                Object position along y                                    [pixel]
#   5 X_WORLD                Barycenter position along world x axis                     [deg]
#   6 Y_WORLD                Barycenter position along world y axis                     [deg]
#   7 A_WORLD                Profile RMS along major axis (world units)                 [deg]
#   8 B_WORLD                Profile RMS along minor axis (world units)                 [deg]
#   9 THETA_WORLD            Position angle (CCW/world-x)                               [deg]
#  10 FWHM_WORLD             FWHM assuming a gaussian core                              [deg]
#  11 ELONGATION             A_IMAGE/B_IMAGE                                           
#  12 ELLIPTICITY            1 - B_IMAGE/A_IMAGE                                       
         1 -15.1231    210.7645     12.2037   3.9534297999e+01   3.1026360538e+01      3.73692     2.120768  27.46   0.01595169    3.233    0.691
         2 -14.0971    174.1417     54.8739   5.6388274196e+01   3.4631367892e+01     1.801838     1.208067  25.66  0.005297527    2.011    0.503
         3 -12.1800    244.8708      2.2282   3.4427653422e+01   2.4342545537e+01    0.8613718     0.232616  78.33  0.003210861    3.986    0.749
         4  -9.4740    167.6469    229.7350   9.8007048359e+01   3.2401996294e+00    0.1464613    0.1214366 -57.46 0.0004569881    1.540    0.351
         5 -13.8561    247.8424    245.0792   8.5716980972e+01  -1.0808032317e+01     1.297579    0.6513149 -29.57  0.007757636    2.033    0.508
         6  -9.8962     71.4254    200.9194   1.1409313657e+02   2.3754680037e+01    0.2944153     0.186301  83.13  0.001602597    1.660    0.398
         7 -10.3089     43.5853    209.7844   1.2062990087e+02   2.5394104742e+01    0.4263491    0.1664449  65.58  0.001830095    3.076    0.675
         8 -12.5213    204.1161    200.1004   8.5872996689e+01   1.8334544365e+00    0.6940895    0.2421909  31.37  0.002392025    3.560    0.719
         9  -9.7024    186.6688    186.3024   8.6757101035e+01   7.2658439039e+00    0.2084308    0.1417773 -44.99 0.0006256878    1.604    0.376
        10 -10.5149     44.0089    205.6746   1.2020984895e+02   2.6195400515e+01    0.1963955    0.1376693 -80.92  0.001264287    1.290    0.225
        11 -11.6742     57.5296    201.4877   1.1707440064e+02   2.5447666435e+01    0.2689527    0.2064866 -37.56  0.001076183    1.942    0.485
        12 -12.0115    193.6578    196.2857   8.7228607510e+01   4.2774993252e+00     1.286954    0.6304685 -57.51  0.004504305    4.332    0.769
        13 -12.5824     60.5427    194.2877   1.1571070802e+02   2.6612082402e+01     0.355673    0.3413466 -11.48  0.001773686    1.445    0.308
        14 -10.8162     44.6769    195.3500   1.1917849291e+02   2.8307769183e+01    0.1792727    0.1259427  63.13 0.0004166459    1.238    0.192
        15 -11.0062     82.0917    194.8808   1.1108813701e+02   2.3554304155e+01    0.2228967     0.191099  69.67 0.0004042982    1.018    0.018
        16  -9.6862     25.8954    195.6266   1.2304823237e+02   3.0277283038e+01    0.1428389   0.08577496  55.78 0.0007576545    1.461    0.316
        17 -13.0892    149.9082    188.6646   9.5043978021e+01   1.3599132513e+01    0.7852806    0.4804142 -74.66  0.002690612    2.965    0.663
        18 -12.5932    143.7468    177.9836   9.4493302812e+01   1.6894262234e+01    0.5183687    0.3214276 -54.31  0.001371131    1.751    0.429
        19 -12.0016    139.5360    171.5441   9.4256893802e+01   1.9033584496e+01    0.4669091    0.3581307  54.33  0.001389139    1.336    0.252
        20 -11.0580      8.2685    192.8507   1.2634472427e+02   3.2526123002e+01    0.2793085    0.1038532  31.91  0.001441753    2.875    0.652
        21 -10.2460    184.3970    211.7961   9.1838928403e+01   3.3199339458e+00    0.1762823    0.1202736 -25.97 0.0006668434    1.651    0.394
        22 -11.7758     95.4841    188.8022   1.0730148690e+02   2.2869052141e+01    0.4339986    0.3260531  75.06  0.001458849    1.372    0.271
        23 -11.6382    210.7645    188.6409   8.2404845504e+01   2.5314157493e+00    0.2373983    0.1955101 -27.82  0.001390767    1.223    0.183
        24 -17.9787     40.1372    235.2585   1.2311862354e+02   2.0802478902e+01     8.552436     7.750579  78.88   0.06849784    1.343    0.255
        25 -12.3914     98.9457    181.6908   1.0547931188e+02   2.3887987675e+01    0.6502301    0.3428629 -55.81  0.001548803    1.920    0.479
        26 -12.5539    242.2234    178.4979   7.4595066853e+01  -1.2252083387e+00     0.315145    0.2500278  24.58  0.001883979    1.237    0.192
        27 -11.2394    149.4541    177.2589   9.3065073029e+01   1.5976404899e+01     0.251279    0.2329983  68.01 0.0003578649    1.148    0.129
        28 -11.1624    187.8510    176.2643   8.4529716796e+01   8.8604185211e+00    0.3456523    0.3440958 -13.05  0.001458572    1.172    0.147
        29 -10.4475    185.4801    169.7131   8.3681664210e+01   1.0531900912e+01    0.3670347    0.2543696 -64.51  0.001626509    2.146    0.534
        30 -13.2755    235.3889    173.7761   7.4836223417e+01   6.4537517471e-01    0.7266155    0.3294898  36.32  0.003217774    2.272    0.560
        31 -10.2105    193.9908    171.4861   8.2285323478e+01   8.5645444729e+00    0.2444753    0.2054465 -55.13   0.00073722    1.433    0.302
        32 -12.0941    230.9266    168.1279   7.4462846850e+01   2.3201492819e+00    0.5162635    0.2370427 -49.16  0.001982887    3.124    0.680
        33 -10.3949    187.7813    162.6617   8.1709047674e+01   1.1413284699e+01    0.3275828    0.2287765 -51.58  0.001031167    1.637    0.389
        34 -10.2778     59.6743    163.5017   1.1228406674e+02   3.3713520998e+01    0.3393765    0.1848167  68.49  0.001005851    2.257    0.557
        35  -9.6547      1.3674    161.9575   1.2573926843e+02   3.9806105555e+01    0.1629018   0.08664962 -80.18 0.0009517264    1.461    0.315
        36 -19.0655     17.0951    100.9679   1.1506716478e+02   5.2937591840e+01     15.53612    0.9418278 -68.19   0.02937865   12.045    0.917
        37 -11.8438     91.3329    157.1873   1.0340357370e+02   3.0722360916e+01     0.256975    0.2532044 -78.07 0.0003878998    1.119    0.106
        38 -11.2574    187.5671    151.9360   7.9399072786e+01   1.3512995935e+01    0.3211164    0.2870451 -52.31  0.001101015    1.235    0.190
        39 -11.7865    133.9312    145.5957   9.0324506473e+01   2.5818192396e+01     1.320289    0.3397004 -54.67  0.003094783    5.855    0.829
        40 -12.4792     97.1499    150.7644   1.0076440263e+02   3.1306836725e+01     0.594409    0.4831379 -23.13  0.003077165    1.568    0.362
        41 -11.6460     67.2851    204.1797   1.1531055111e+02   2.3621919944e+01    0.3456113    0.2097985 -49.76 0.0009594822    2.071    0.517
        42 -10.6485    174.5079    149.0987   8.1572632732e+01   1.6768430685e+01    0.2993085     0.272272 -80.48 0.0009500541    1.308    0.235
        43  -9.2983    139.3150    150.7185   9.0108886248e+01   2.3610882827e+01    0.1503116    0.1192995  78.26 0.0002645576    1.575    0.365
        44 -10.7870    143.9396    145.9209   8.7937964010e+01   2.3745846127e+01     0.393283    0.2094493 -59.94    0.0014591    2.429    0.588
        45 -11.2563    107.4771    145.4351   9.7045329396e+01   3.0808705727e+01    0.4786945    0.2777594 -83.62  0.001664127    3.258    0.693
        46 -11.9512    108.3812    137.2866   9.5113685407e+01   3.2573065712e+01    0.6404002    0.4401587 -55.34  0.003018483    1.415    0.293
        47 -11.8780    105.7272    130.9984   9.4460026626e+01   3.4538741774e+01    0.5044588     0.379512 -37.07  0.002443653    1.429    0.300
        48 -12.6714     96.6382    136.8907   9.8194775643e+01   3.4706200137e+01    0.3489509    0.2859555 -70.83  0.001822472    1.218    0.179
        49 -11.2793    135.9470    128.7808   8.5948740278e+01   2.9201500622e+01    0.5636445    0.1989444 -49.20  0.001794692    2.880    0.653
        50 -10.3767    160.6369    127.9843   7.9722004173e+01   2.4109841968e+01    0.3838114    0.2388382 -49.11  0.001414457    1.653    0.395
        51 -10.9964    115.2732    128.5757   9.1320380898e+01   3.3350802188e+01    0.3106595    0.2679743   1.37 0.0006253715    1.378    0.274
        52 -11.3714    102.9641    124.1768   9.3681022961e+01   3.6650699360e+01    0.3153522    0.2560411 -19.58 0.0008383238    1.482    0.325
        53 -10.9490    120.5512    122.7945   8.8522519174e+01   3.3673444177e+01    0.4244517    0.2763053 -17.63  0.001631413    2.477    0.596
        54 -10.3417    110.5029    117.9980   9.0100138147e+01   3.6721867659e+01    0.2657599    0.2206557  41.90  0.001337757    1.253    0.202
        55 -10.8442    231.2142    113.8432   6.2199705895e+01   1.1427746521e+01    0.2925664     0.256381 -37.47  0.000770687    1.063    0.059
        56 -10.9110    134.5742    105.8270   8.0388350946e+01   3.4575993451e+01    0.5098166    0.1502421 -45.43   0.00147696    3.345    0.701
        57 -10.2697    167.4872    112.3227   7.4136358927e+01   2.5832582825e+01    0.3426132    0.2477057 -74.28  0.001363926    1.989    0.497
        58  -9.3277    146.4802    113.3942   7.9394950424e+01   3.0338365247e+01    0.1537488    0.1527086  82.25 0.0001084521    1.043    0.042
        59 -12.0641    118.5513    110.6100   8.5983780927e+01   3.6856448349e+01    0.6034889    0.4194677  63.45   0.00218763    1.843    0.457
        60 -10.5754    205.4192    110.2203   6.5804758326e+01   1.7607341438e+01     0.307973    0.2501187  46.30 0.0008947957    1.300    0.231
        61 -10.3582    131.1145     96.8503   7.8786370452e+01   3.7250624901e+01    0.2336611    0.2151893 -87.08 0.0002870347    1.226    0.184
        62 -11.3062     75.6311    247.5858   1.1768480701e+02   1.4168275988e+01    0.3475466    0.1215273 -58.76  0.001695441    3.255    0.693
        63  -9.5487    154.0456     82.4644   6.8841626465e+01   3.4876710498e+01    0.2291406    0.1534034  50.21 0.0006699134    1.507    0.336
        64  -9.3820    184.4928     77.4407   6.0999244038e+01   2.8391930287e+01    0.1501682    0.1466433   3.97 9.497519e-05    1.070    0.065
        65 -11.4613     71.9017    243.9669   1.1806181730e+02   1.5297364960e+01    0.2298779    0.1423429 -84.66  0.001453193    1.699    0.411
        66 -14.0591    189.3018     41.1159   4.9885249099e+01   3.2803454595e+01     0.900205    0.7489966  56.70  0.003091575    1.206    0.171
        67 -13.3174    194.1461     34.9502   4.7470384424e+01   3.2409059178e+01    0.5597535    0.4149568  45.26  0.001862188    1.481    0.325
        68  -9.7412     89.2965    242.0119   1.1469045092e+02   1.3279996514e+01    0.1509412     0.122304  83.89 0.0007116926    1.230    0.187
