#   1 NUMBER                 Running object number                                     
#   2 MAG_AUTO               Kron-like elliptical aperture magnitude                    [mag]
#   3 X_IMAGE                Object position along x                                    [pixel]
#   4 Y_IMAGE                Object position along y                                    [pixel]
#   5 X_WORLD                Barycenter position along world x axis                     [deg]
#   6 Y_WORLD                Barycenter position along world y axis                     [deg]
#   7 A_WORLD                Profile RMS along major axis (world units)                 [deg]
#   8 B_WORLD                Profile RMS along minor axis (world units)                 [deg]
#   9 THETA_WORLD            Position angle (CCW/world-x)                               [deg]
#  10 FWHM_WORLD             FWHM assuming a gaussian core                              [deg]
#  11 ELONGATION             A_IMAGE/B_IMAGE                                           
#  12 ELLIPTICITY            1 - B_IMAGE/A_IMAGE                                       
         1 -14.3236    195.4889     81.5442   1.3549228706e+01   2.5942415321e+01     2.040083     1.405677  -2.50  0.008702209    2.166    0.538
         2 -13.4914    190.2919     44.1041   4.4103507074e+00   3.2535919267e+01     1.536118     1.173078  -9.48  0.005225667    1.647    0.393
         3 -12.2763    232.0140     35.0588   3.5828827881e+02   2.5008381811e+01    0.8952284    0.2968943 -57.56  0.002793474    3.662    0.727
         4 -12.7767    224.9299     23.9699   3.5622262294e+02   2.7660842086e+01     1.121831    0.4301839  53.83  0.004995659    3.487    0.713
         5 -10.5052    210.8239     21.7451   3.5668246955e+02   3.0791256808e+01     1.103118    0.5147288  55.33  0.005369278    2.609    0.617
         6 -13.1358    203.1110     40.0868   1.9842641378e+00   3.0255376807e+01     1.650641     0.502868 -47.78  0.004050409    2.967    0.663
         7 -12.8797    221.2215     38.2824   3.5989129785e+02   2.6732539349e+01    0.8078746    0.7047898 -56.25  0.003133823    1.093    0.085
         8 -13.1877    179.4998     37.5251   3.8405664437e+00   3.5848335648e+01     1.475446    0.8720883  29.80  0.005864613    2.922    0.658
         9 -13.4404    218.7133     54.8679   4.1004258206e+00   2.5120091744e+01     1.200456    0.7418277 -42.64  0.006745893    1.318    0.241
        10 -13.2096     65.2201     15.3800   1.8782566367e+01   6.6483274836e+01     1.132688    0.9521111  51.30  0.006629168    1.152    0.132
        11 -11.5691     75.7627      7.4039   1.0921438181e+01   6.4972552468e+01    0.7164518     0.575168  52.16  0.002795201    1.145    0.126
        12 -14.5008     35.8793     56.9911   5.2279740070e+01   6.3839435215e+01     2.474014     1.974698  -4.47   0.01345593    1.387    0.279
        13 -12.7710     87.4538     60.9026   3.1427166411e+01   5.4006048686e+01     1.233371    0.5275389 -31.64 0.0006880445    3.399    0.706
        14 -13.5637     61.8501     42.4332   3.3811470761e+01   6.2840931992e+01     1.062884    0.8048024 -54.42  0.002450489    1.458    0.314
        15 -12.5707     50.0895     30.8304   3.3769314931e+01   6.7177654912e+01     1.377122     1.011083  27.95  0.007357175    1.400    0.286
        16 -11.9917     57.2706     25.3944   2.7529949138e+01   6.6725904615e+01     2.219991     1.426254  85.13  0.008171575    3.977    0.749
        17 -12.7549     79.9261     22.3514   1.7368167592e+01   6.2235499188e+01     1.140312    0.5133094  47.26  0.003087765    2.132    0.531
        18 -13.5197      6.1419     37.0239   6.3679397507e+01   7.1367087069e+01     1.177437     0.565439 -80.36  0.002505363    2.698    0.629
        19 -13.5484     13.6444     35.1514   5.7820054273e+01   7.1244492713e+01     1.188262    0.5469094 -67.09  0.004597133    2.360    0.576
        20 -12.3251     65.0796      4.6063   1.2643684050e+01   6.7744620628e+01     0.588711    0.4229909  -2.74  0.001009895    1.547    0.354
        21 -11.8338     35.3640     21.0299   3.6528101064e+01   7.1424731281e+01     2.628997    0.8352625  36.09  0.009546951    3.352    0.702
        22 -14.1205      3.9850     55.1895   6.9675872158e+01   6.7076232424e+01     2.591904     1.072964 -80.99  0.009914769    2.605    0.616
        23 -13.8196     54.8352     58.3188   4.3448503066e+01   6.0781951783e+01     2.184637     1.425548 -87.40  0.006589864    2.951    0.661
        24 -11.3323    158.9141     27.0883   3.2411391001e+00   4.2058272023e+01    0.5144175    0.2653773 -15.88    0.0016079    2.576    0.612
        25 -10.4165    151.3117     24.0941   3.2685471440e+00   4.4286316735e+01    0.6503316    0.4313559 -83.43  0.002947728    1.593    0.372
        26 -12.0646    150.4052     41.6360   9.1329753498e+00   4.2260002430e+01    0.9094043    0.5646164  30.70  0.003916539    2.398    0.583
        27 -13.1587     25.8125     40.1313   5.1814589497e+01   6.8915205517e+01      2.16427    0.8843403 -45.71   0.00801309    2.222    0.550
        28 -10.6493    101.7588     20.6622   1.0660331134e+01   5.7170474943e+01    0.4423951    0.2471193 -24.25   0.00200253    1.942    0.485
        29 -12.0008    244.1679     22.5810   3.5471018903e+02   2.4143794698e+01    0.5682912    0.4049246  79.99  0.003800425    1.598    0.374
        30  -9.2992    228.6448     15.6220   3.5405385092e+02   2.7832273747e+01     0.554132    0.2585302 -86.89  0.002854739    2.425    0.588
        31  99.0000    228.2408      9.6186   3.5270237572e+02   2.8532196299e+01     1.026159    0.4369011  87.88  0.005180762    2.595    0.615
        32 -11.4418    220.6240     12.0990   3.5370117163e+02   2.9798937007e+01    0.3573697    0.2678957  78.06  0.001244985    1.457    0.314
        33 -10.5451    220.9828      7.4826   3.5259392145e+02   3.0194521425e+01    0.2046744    0.1387168 -46.31 0.0003430141    1.163    0.140
        34 -12.5472    249.5905     11.2020   3.5199829643e+02   2.4357223238e+01    0.3881103    0.2008756 -39.27  0.001771158    1.419    0.295
        35 -13.3780    243.5341      7.8388   3.5156073279e+02   2.5798513435e+01    0.8127847    0.3660896 -72.40  0.004082659    2.279    0.561
        36 -12.2591    135.3811     23.1723   5.2550854426e+00   4.8388323586e+01    0.5641385    0.4253232 -40.39  0.001664003    1.302    0.232
        37 -11.7080    123.6983     23.8193   7.4646208775e+00   5.1269598215e+01    0.4245952    0.3027917 -17.67   0.00120038    1.596    0.373
        38 -10.8778    112.9323     22.2846   8.9255117402e+00   5.4175620017e+01    0.3803548    0.3349801  19.81  0.002021708    1.284    0.221
        39 -11.0131    202.9520     18.2428   3.5638374000e+02   3.2854404638e+01    0.4263065    0.3473659  12.00  0.002066807    1.719    0.418
        40  -9.8704    111.6951      3.7454   1.4693898222e+00   5.6394714283e+01    0.2982615    0.1806251 -88.22 0.0009547579    1.773    0.436
        41 -11.5693    114.1978     12.4370   4.6587234291e+00   5.4942719316e+01    0.4368157    0.3460291 -10.59  0.002417462    1.442    0.306
        42 -12.4300    116.1708      8.2893   2.6334502010e+00   5.4846115538e+01    0.8672101    0.3011647 -33.34  0.002616325    2.685    0.628
        43 -10.1058    156.1284     12.2978   3.5885677307e+02   4.4376177578e+01      0.27866    0.2008675  -8.00  0.001148946    1.725    0.420
        44 -10.7895    156.7926      7.8433   3.5736329287e+02   4.4650153378e+01    0.2094825    0.1996193  39.50 0.0005736116    1.245    0.197
        45  -9.5625    187.1918     14.2376   3.5654701405e+02   3.6786388027e+01    0.2665668    0.1534343  -7.22  0.001242439    2.570    0.611
        46 -10.8295    150.3086     13.3159   3.5983500520e+02   4.5714259339e+01    0.2830761    0.2205559 -49.92 0.0005792931    1.206    0.171
        47  -9.1246    146.7469     11.3770   3.5959964729e+02   4.6798322710e+01    0.2371245    0.1381767 -42.30  0.001172827    1.616    0.381
        48  -9.8527    143.7554     10.3353   3.5959622041e+02   4.7650677942e+01    0.2002113    0.1558837  85.35 0.0002300172    1.202    0.168
        49 -10.4148     38.0715     12.3916   2.9611584926e+01   7.2362771230e+01    0.2067444    0.1624237  -7.72 0.0002968683    1.280    0.219
        50 -13.8702    172.8054      6.1892   3.5542927302e+02   4.0939651332e+01    0.4507948    0.3171364 -18.76  0.002028539    1.604    0.377
        51 -10.6585    108.9654     10.5192   4.7959696738e+00   5.6462833594e+01    0.3690182    0.2141502  -9.27  0.001303079    2.168    0.539
        52 -10.3297     92.9670     11.5102   8.5454648287e+00   6.0376426810e+01    0.2566989     0.172421 -42.20 0.0006646989    1.577    0.366
        53 -10.1736     88.7607     11.9775   9.7825122107e+00   6.1362777802e+01    0.1941919    0.1698582  20.16 0.0004076018    1.215    0.177
        54  -9.9105    124.8113     11.0810   2.3954248417e+00   5.2376222070e+01    0.3734878    0.3482718 -82.13  0.002285147    1.023    0.023
        55 -10.2703    101.0095      7.7870   5.1077587715e+00   5.8736723862e+01    0.5167575    0.1879835 -40.02   0.00199739    2.803    0.643
        56 -10.9886     26.8331      9.5299   3.4786474184e+01   7.4682821675e+01    0.3645463      0.20873  22.50  0.001671093    1.998    0.499
        57  -9.7095      9.4397     10.1256   4.8978521134e+01   7.6845007237e+01    0.1692245    0.1076925 -44.05 0.0003956478    1.425    0.298
        58 -11.8108    194.0290      7.9170   3.5433427135e+02   3.5886407690e+01    0.2630277    0.2394149 -57.52 0.0009733459    1.136    0.120
        59 -10.3241     44.7525      8.2164   2.3270579845e+01   7.1686926225e+01    0.3081048    0.1828767 -24.84  0.001574789    1.748    0.428
        60 -10.8355     48.0898      6.4767   2.0511854614e+01   7.1233525031e+01    0.3024265    0.2438732 -25.99 0.0009141535    1.279    0.218
        61 -11.5899     46.0906      2.6876   1.8883840176e+01   7.2082599445e+01    0.2354083    0.1883999   7.52 0.0001782704    1.245    0.197
        62 -11.5827     87.5036      1.8635   5.0879040066e+00   6.2638349539e+01    0.5047967    0.2697588  40.59 0.0007454474    1.953    0.488
        63 -10.6885      3.4484      6.0814   5.2044741794e+01   7.8177454229e+01    0.4008816    0.2108472 -17.32  0.001975489    2.270    0.559
        64  -9.6732    210.0041      6.1915   3.5289375648e+02   3.2590613200e+01    0.2555231    0.1739707  56.39  0.001545004    1.814    0.449
        65  -9.8793    217.6999      2.3684   3.5155909321e+02   3.1362749817e+01    0.2137923    0.1467765 -77.32 0.0007897884    1.340    0.254
        66 -10.7218    214.2582      1.5493   3.5153717515e+02   3.2149749363e+01    0.2440435     0.163493  60.70 0.0008936934    1.798    0.444
        67  -9.6110    188.8415      4.8836   3.5387567360e+02   3.7346833977e+01    0.1750363    0.1148851 -56.15 0.0004194442    1.299    0.230
        68  -9.2173    184.6091      2.9837   3.5364419262e+02   3.8489991194e+01    0.3162665    0.1227251  63.87  0.001069764    2.582    0.613
        69 -10.0180    133.7436      5.0670   3.5893519909e+02   5.0669913488e+01    0.1710561    0.1556649 -45.67 0.0001826639    1.132    0.116
        70  -8.9463    107.2938      5.6375   3.0018203674e+00   5.7346399612e+01    0.1447614   0.09361445 -58.88 0.0002268748    1.706    0.414
        71  -9.7236    122.6089      3.7283   3.5986334885e+02   5.3617065040e+01      0.16057      0.12099 -41.31 0.0001878312    1.341    0.254
        72  -9.9480     54.9881      3.7947   1.5805379357e+01   7.0080218997e+01    0.2188151    0.1921281  71.12 0.0004410765    1.281    0.219
        73 -10.6782     58.2937      2.3232   1.3613629903e+01   6.9504122784e+01    0.2938434    0.2326224  46.61 0.0009408467    1.147    0.128
        74 -10.4439    154.7739      2.4233   3.5581854772e+02   4.5644552964e+01    0.2104122    0.1751777 -26.69 0.0008204547    1.298    0.230
        75 -10.0413    126.8507      1.8493   3.5858764793e+02   5.2697681585e+01    0.1911175    0.1676445  66.80  0.000316915    1.116    0.104
        76 -10.2756    230.6241      1.3434   3.5071572737e+02   2.8881314208e+01    0.2376846   0.09844969  88.00  0.001010788    2.567    0.611
        77 -11.5565    126.5957    115.9036   3.6395955081e+01   3.3876082580e+01    0.3743646    0.2472132  42.01 0.0006650462    1.558    0.358
        78 -13.7335    117.9971     62.8613   2.3034421543e+01   4.6722884003e+01     1.331748     1.008445 -69.73  0.003708225    1.560    0.359
        79 -13.8263     39.8478     77.7483   5.6467104338e+01   5.8226048076e+01     1.135375    0.7767555 -51.54  0.002416738    1.349    0.259
        80 -10.4020    163.0354    115.2495   2.7757116519e+01   2.6663026930e+01    0.1968984    0.1928891 -25.88 0.0004434467    1.058    0.055
        81  -9.2356    210.9707    112.0000   1.8512085151e+01   1.8125835379e+01    0.1943078   0.07682937  50.83 0.0008062904    2.969    0.663
        82 -10.4122     71.9808    109.7470   5.1493663833e+01   4.5419263114e+01    0.2054484    0.1964959  53.09   0.00018386    1.070    0.065
        83 -11.2425    196.1401    107.7412   1.9848203880e+01   2.1537976412e+01    0.3870171     0.235129 -53.50  0.001851993    1.850    0.459
        84 -11.3562     63.6875    108.3223   5.4114728455e+01   4.7062861270e+01    0.2722205    0.1819262 -74.61 0.0006460554    1.619    0.382
        85 -12.1969    160.8036    104.7657   2.5590640604e+01   2.9124081022e+01     0.473805    0.2480675 -42.52  0.000276839    1.781    0.439
        86 -13.3577     97.8593     75.1588   3.2980122441e+01   4.8822806557e+01     1.332789    0.8902205 -69.86  0.002890721    2.060    0.515
        87 -12.7132    104.8860     65.8463   2.7675067377e+01   4.9185320011e+01    0.6907493    0.4089714  39.58  0.002902006    1.867    0.464
        88 -13.0813     51.6465     44.6562   3.9494946177e+01   6.4248132568e+01    0.9294739    0.4905719  19.68  0.003450789    3.082    0.676
        89 -13.7139      7.4920     67.0214   7.0017369425e+01   6.3880830070e+01     1.117185    0.7920078 -47.85   0.00491618    1.288    0.224
        90 -12.3691     16.7201     63.3545   6.4343522904e+01   6.4205199189e+01    0.5026728    0.3345999  48.59  0.001769154    1.746    0.427
        91 -10.0254     86.3139    107.3133   4.6056002004e+01   4.3612209127e+01    0.1558685    0.1208577 -19.23 0.0007033065    1.638    0.389
        92 -10.1252     15.6560    106.4891   7.2172803606e+01   5.2888307109e+01    0.2490747    0.1342506 -55.10  0.001149725    1.727    0.421
        93 -13.4610     79.2956     50.1507   3.0136777324e+01   5.7847547441e+01    0.9334141    0.7245651  32.69  0.002039678    1.367    0.268
        94 -12.9017     81.4339     40.9241   2.5482518331e+01   5.9054234703e+01    0.6806777    0.5793143  54.99  0.002758067    1.189    0.159
        95 -12.6050     75.3416     41.9799   2.8143972021e+01   6.0192322746e+01    0.3986443    0.3125444  58.61  0.001074622    1.371    0.271
        96 -10.3640    158.7778     95.5666   2.3594036538e+01   3.1292069615e+01    0.3571662    0.1490959  54.56  0.001304433    2.707    0.631
        97 -10.8054    210.1268    104.7001   1.6978064418e+01   1.9436243756e+01    0.4066108    0.3113805 -79.67  0.002260585    1.835    0.455
        98 -11.9730     45.0665     92.9908   5.7883432686e+01   5.3631095730e+01    0.4067704     0.218431  16.05  0.001641575    2.384    0.580
        99  -9.5179      9.2983     93.2703   7.3134941921e+01   5.6860921729e+01    0.1376345   0.09112739 -44.74            0    1.523    0.344
       100 -11.9659    213.3291     90.0498   1.3125364565e+01   2.1121986454e+01    0.4084448    0.2385549 -52.85  0.001158203    1.801    0.445
       101 -11.3311    172.7890     91.0185   1.9692466965e+01   2.9116037754e+01     0.326794    0.2954566 -88.72  0.001610105    1.223    0.182
       102 -12.3120    174.6642     86.2317   1.8093727005e+01   2.9547091397e+01    0.9592903    0.3228622  44.12  0.003132235    3.844    0.740
       103 -12.7740    179.4750     79.9100   1.5598227915e+01   2.9576125912e+01    0.8154873    0.5433794  26.30   0.00373809    2.217    0.549
       104 -12.5205    218.3505     83.6658   1.0980867144e+01   2.1138807829e+01    0.4707551     0.310828  -0.57   0.00172698    2.407    0.585
       105 -11.2138    214.6783     82.7099   1.1218956455e+01   2.1972649664e+01    0.1971264    0.1723435 -31.05 0.0004127847    1.095    0.087
       106 -12.6785    222.9767     86.9156   1.1159443030e+01   1.9808395481e+01     0.516174    0.3600764 -42.95  0.003035295    1.211    0.174
       107 -11.2503    206.9619     89.2678   1.3810660246e+01   2.2452680770e+01    0.2542611    0.1703249 -34.41  0.000693763    1.293    0.227
       108 -12.0575    208.0551     84.2430   1.2453061546e+01   2.3015028882e+01     0.462965    0.1935146 -34.43  0.001319155    2.064    0.516
       109 -11.9244    235.9737     86.0929   9.4490064534e+00   1.7627052020e+01    0.6120928    0.3707553 -89.65  0.003033963    2.933    0.659
       110 -10.3547    236.5052     79.7473   7.9888985622e+00   1.8418530519e+01    0.2832707    0.1788451 -74.14  0.001512117    2.285    0.562
       111 -11.2390    231.3591     79.2108   8.4292394221e+00   1.9401284169e+01    0.2799154     0.185195  68.36  0.001098525    1.912    0.477
       112 -11.5755    148.0511     84.3275   2.2718732866e+01   3.5762921388e+01    0.4418772    0.3628115  65.57  0.001242191    1.315    0.240
       113 -11.5989    147.1541     78.9869   2.1357583797e+01   3.6955762430e+01     0.446441    0.3037653 -46.19 0.0009715462    1.404    0.288
       114  -9.7664    199.7356    106.0341   1.8869666127e+01   2.1143205411e+01    0.1973021    0.1542355 -34.06  0.000394433    1.117    0.104
       115 -12.0857    249.0214     83.0728   7.4108583252e+00   1.5854496611e+01     0.251295    0.1989285 -54.69            0    1.273    0.214
       116 -10.3597    242.6581     80.6461   7.5387017230e+00   1.7238963804e+01      0.30723    0.1733637  51.67  0.001565254    2.221    0.550
       117 -11.8953    144.7266    102.5587   2.8504262227e+01   3.2942093147e+01    0.4210679    0.3332833   3.52  0.002028143    1.641    0.391
       118 -10.6545     83.0464     79.4383   3.9338326200e+01   5.0896974816e+01    0.4743656    0.2288057  39.66  0.001816662    2.155    0.536
       119 -10.9810     86.5597     75.4412   3.6816578628e+01   5.1105378592e+01    0.5339227    0.2550612 -46.89  0.001257417    2.043    0.510
       120 -11.7055     82.6376     72.4710   3.7208981823e+01   5.2547296857e+01     0.505367    0.3537101  32.43  0.001835488    1.570    0.363
       121 -10.0520    155.5175     76.8616   1.9036448886e+01   3.5427168672e+01     0.280405    0.1965452  80.38  0.001049612    1.816    0.449
       122 -11.6248    249.9064     74.0422   5.4038075058e+00   1.6906022442e+01    0.3059997    0.2126392 -33.84  0.001978011    1.148    0.129
       123 -10.4819    249.6065     68.7458   4.3003093965e+00   1.7645827092e+01    0.3217501    0.1514945 -26.74  0.001623738    2.017    0.504
       124  -9.9342    244.0489     72.4352   5.6156106791e+00   1.8104998368e+01    0.2470551    0.1613667  33.74 0.0008180737    2.296    0.564
       125 -11.0821    240.0089     72.7525   6.0812254000e+00   1.8760395095e+01    0.2646293    0.1388819 -39.54  0.001444471    1.474    0.322
       126 -10.5627    239.0515     68.1266   5.1525271992e+00   1.9546203431e+01    0.3339063    0.2415083 -73.85   0.00103794    1.620    0.383
       127  -9.1836    153.7272     72.3022   1.8052540767e+01   3.6635350193e+01    0.1483356    0.1087293 -65.57 0.0003060999    1.535    0.348
       128 -12.3242    141.6534     96.1594   2.7479040288e+01   3.4886617555e+01     0.659955    0.3383014  50.99  0.001139203    2.066    0.516
       129 -10.8619    126.9023     58.9944   1.9536786712e+01   4.5293019309e+01     0.515358     0.297865  32.30  0.001987389    2.546    0.607
       130 -12.2084    173.5947     56.8486   1.0150658376e+01   3.4528184273e+01    0.3164631    0.2767385  86.43 0.0004433779    1.181    0.153
       131 -11.3648    160.9594     50.6063   1.0250325947e+01   3.8415313821e+01    0.5185623    0.3580383 -18.31  0.002143217    1.726    0.421
       132 -11.2697    162.9406     56.6938   1.1763812251e+01   3.7030699475e+01    0.3622255    0.3575799  89.92  0.001483326    1.110    0.099
       133 -10.6172    157.2783     54.4796   1.2035255970e+01   3.8711679379e+01    0.5456716    0.2133624  63.14  0.001762819    2.722    0.633
       134 -11.7593    246.2055     53.7087   1.3468411322e+00   2.0140214486e+01    0.4586498    0.2189043 -54.56  0.001395301    2.033    0.508
       135 -12.0347    245.1972     49.9829   6.1558418562e-01   2.0778776749e+01    0.2012608     0.165513 -45.44  0.000359227    1.073    0.068
       136 -11.6121    123.3855     53.6135   1.8500376694e+01   4.7056598787e+01    0.3769065    0.2558378  66.84 0.0006017449    1.570    0.363
       137 -10.7255    130.9990     51.7948   1.6165843760e+01   4.5501802843e+01    0.2511802    0.1681099 -82.19  0.001083603    2.004    0.501
       138 -10.3470    207.5729     52.7064   4.7301608724e+00   2.7665760095e+01    0.2534907    0.2071346 -82.63 0.0009873778    1.289    0.224
       139 -11.6965    248.3250     43.4856   3.5896861057e+02   2.1012236149e+01    0.6941515    0.1885069 -41.33  0.002063442    2.473    0.596
       140 -11.2592    162.0543     20.8926   9.1856736447e-01   4.2008443140e+01    0.4306726    0.2802563  67.85  0.001031312    1.518    0.341
       141 -12.0292    137.6192     81.7076   2.4270011403e+01   3.8620636406e+01    0.7726548    0.6450167 -84.01  0.002511236    1.372    0.271
       142 -12.8036    121.7118     87.6492   2.9983512013e+01   4.0995609521e+01     0.690927    0.5467074  -4.65  0.003232165    1.675    0.403
       143 -10.3243    143.1913     46.0164   1.1808203798e+01   4.3401943865e+01     0.439237    0.2298904  46.08  0.001824836    2.176    0.540
       144 -11.2877    163.4432     30.2409   3.6478330892e+00   4.0572924958e+01     1.063262    0.2817188 -44.77  0.003534999    3.439    0.709
       145 -11.5265    154.7295     42.9570   8.8631033817e+00   4.1018062453e+01    0.5142905    0.3116774  34.43  0.002220368    2.361    0.576
       146 -11.4452    132.1776     86.9974   2.7126711910e+01   3.8809349943e+01    0.5148013    0.2540707  56.19  0.001954008    2.291    0.564
       147 -10.6307    146.4629     39.5589   9.1015815134e+00   4.3519452950e+01    0.2494215    0.2315914  -3.98 0.0005323048    1.242    0.195
       148 -12.2596    161.6759     40.0179   6.9003766226e+00   3.9738802622e+01    0.4927085     0.413942  60.95 0.0007577862    1.258    0.205
       149 -11.7793    161.4153     35.7081   5.6055381626e+00   4.0372722894e+01    0.2892048      0.26118  77.07 0.0006811282    1.131    0.116
       150 -10.5223    132.9845     46.3058   1.3861157572e+01   4.5873456066e+01    0.3822513    0.2117365 -53.62 0.0008825494    2.011    0.503
       151 -11.5286    133.3282     40.5038   1.1771097645e+01   4.6646363967e+01    0.5027114    0.3592503 -68.55  0.002448848    1.564    0.361
       152  -9.1538    241.2668     47.6502   4.1368446626e-01   2.1769405906e+01    0.1285115   0.06819317 -51.40 0.0004711163    1.619    0.382
       153 -11.6574     99.4662     54.7225   2.5252581283e+01   5.2532052765e+01      1.21033    0.7360013  28.17  0.003853913    2.364    0.577
       154 -11.3021    125.9996     45.4992   1.5036379134e+01   4.7720317964e+01    0.3213758    0.2893071  24.48 0.0005700233    1.264    0.209
       155  -9.7527     99.4830     46.5133   2.2073062083e+01   5.3976331318e+01    0.2103558    0.1366669 -47.12 0.0008318742    1.592    0.372
       156 -11.8489     96.1081     42.0113   2.1243963034e+01   5.5518347429e+01    0.5741273    0.2844542  54.58  0.001238636    1.987    0.497
       157  -9.8302    104.7661     42.6016   1.9051758558e+01   5.3363109874e+01    0.2654445     0.146187  70.05  0.001045278    2.283    0.562
       158  -9.8434    120.6394     43.5621   1.5516735748e+01   4.9339664653e+01    0.3886546     0.202456 -52.50  0.001502036    2.222    0.550
       159 -14.2370    128.1430     95.9325   3.0702684674e+01   3.7861657460e+01     1.521723    0.8939238  35.23  0.004733731    2.023    0.506
       160 -11.9245    105.8750     87.0486   3.4263607590e+01   4.4544017750e+01    0.8851653    0.4668531  41.53  0.003507264    1.988    0.497
       161  -9.8972    112.1654     38.6854   1.5639243200e+01   5.2164726596e+01    0.2123558    0.1219271  50.99 0.0004111232    1.718    0.418
       162 -11.6209     91.0902     34.2126   1.9427435451e+01   5.7928083160e+01    0.6087204    0.3113708  45.90  0.002562245    1.962    0.490
       163  -9.3049    211.2810     34.2982   3.5976492063e+02   2.9243640183e+01    0.1119108   0.09759726  13.76 0.0001568281    1.542    0.351
       164 -11.1694    131.8948     33.2146   9.4512999850e+00   4.8012956658e+01    0.3503056     0.219295 -38.18 0.0004402514    1.555    0.357
       165 -10.4055    121.7220     33.0844   1.1369022728e+01   5.0584520653e+01    0.2227347    0.1946658  68.76 0.0005896172    1.112    0.101
       166 -10.2418    111.8881     32.6958   1.3345465162e+01   5.3094170571e+01    0.3244123    0.2002068  41.74  0.001468371    1.790    0.441
       167  -9.9442    237.8800     31.0000   3.5695598351e+02   2.4369253506e+01    0.2388726    0.1262062  86.32  0.001320182    2.231    0.552
       168 -10.3692     80.4550     30.5163   2.1115405802e+01   6.0952505700e+01    0.2105128    0.1827205  62.52 0.0001171862    1.183    0.155
       169 -10.9162     85.1894     28.8640   1.8820080319e+01   6.0103885633e+01    0.5571391    0.2324926  55.09  0.001975284    2.282    0.562
       170 -11.4208    103.8364     29.1929   1.3818232246e+01   5.5567837928e+01    0.3551358    0.3078989  78.46  0.001814546    1.167    0.143
       171 -11.7278     97.5324     22.1455   1.2325037571e+01   5.8036011522e+01    0.2719401    0.2607292 -28.61 0.0007058487    1.092    0.084
       172 -12.5413    126.9975     90.3839   2.9410373073e+01   3.9266909532e+01    0.6564467      0.37806  33.71  0.002327739    2.207    0.547
       173  -9.3682    120.2254     28.3869   9.8767690772e+00   5.1580784754e+01    0.1933637    0.1316574  82.08 0.0003788096    1.591    0.372
       174  -9.9143    114.5747     28.2398   1.0979853170e+01   5.3020562038e+01    0.1675429    0.1388136  -4.50 0.0002039993    1.411    0.292
       175 -10.6894    234.8586     24.1120   3.5560746580e+02   2.5714024875e+01    0.3151241    0.2777912  -2.42  0.002236011    1.515    0.340
       176 -11.8270    125.2862     82.0147   2.7357116142e+01   4.1353137822e+01     0.771863    0.4186162  28.45  0.002617149    3.220    0.689
       177 -11.2003    128.1409     76.1285   2.4824468713e+01   4.1862000733e+01    0.3681821    0.3186212  54.68   0.00097115    1.188    0.158
       178 -11.7484    168.9334     98.6852   2.2410036320e+01   2.8558183829e+01    0.6544814    0.4430062  -2.99   0.00280702    2.359    0.576
       179 -11.5637     82.9955    101.9519   4.5805479381e+01   4.5525880109e+01    0.3776673    0.3118544  -2.33            0    1.504    0.335
       180 -11.2173     83.0142     98.0854   4.4783294569e+01   4.6472420847e+01    0.5325983    0.3071023  28.09  0.001509717    2.071    0.517
       181 -10.0893     87.7841     97.6099   4.3043288455e+01   4.5713236698e+01    0.2995701     0.246309  43.84 0.0007707562    1.247    0.198
       182 -11.1898    216.0222     99.6732   1.4988049364e+01   1.9152391174e+01    0.3128755    0.1682573 -32.51 0.0007060734    1.614    0.380
       183  -9.7716    130.5143     19.4526   4.6692767757e+00   5.0045839191e+01     0.230757     0.131856  72.55 0.0005503618    1.702    0.413
       184 -12.0422    153.3235    100.0697   2.5935986356e+01   3.1602557089e+01    0.7702976    0.3997732 -59.52  0.002752704    2.873    0.652
       185  -9.9484    139.3607     17.8105   2.7621669232e+00   4.7987145420e+01    0.2263788    0.1560575  38.30 0.0006007318    1.745    0.427
       186 -11.7543    176.1744     24.1462   3.6040848338e-01   3.8255500372e+01    0.3423282    0.1985327 -37.82 0.0007022512    1.542    0.352
       187  -9.7941    180.3261     20.7987   3.5898519067e+02   3.7661887226e+01    0.2737704    0.1533755  81.92  0.001060925    1.833    0.455
       188 -10.5810    225.8806     99.3996   1.3612314281e+01   1.7449166059e+01    0.2161265    0.1420576 -40.41 0.0004591694    1.270    0.213
       189 -10.2662    119.3420     22.0077   7.5654599629e+00   5.2588068128e+01    0.2019873    0.1841832  41.07 0.0003768271    1.172    0.147
       190  -9.9625    128.7178     23.9611   6.6342532104e+00   4.9981231095e+01    0.1986378    0.1762709 -39.03 0.0005981197    1.150    0.130
       191 -12.8792    199.8204     96.6321   1.6620975502e+01   2.2663897969e+01    0.3849649    0.3382385 -51.33  0.002339453    1.129    0.114
       192 -10.5989    188.5583     23.3864   3.5893913008e+02   3.5477913005e+01    0.6796775    0.1920029  80.59  0.002074635    5.260    0.810
       193 -13.2715    242.4404     61.1707   3.3005294970e+00   1.9857821153e+01       1.4465    0.7321632  67.95 5.698812e-05    2.466    0.594
       194  -9.0849    170.3703     19.2701   3.5952379780e+02   4.0180562563e+01    0.1312829   0.09634862  43.57 0.0003790177    1.670    0.401
       195  -9.9740     14.5115     19.0677   4.9915874901e+01   7.4589083712e+01    0.1848298    0.1171781 -52.34 0.0007657754    1.533    0.348
       196 -10.0875    194.6414     18.1989   3.5701655281e+02   3.4684663322e+01    0.2060718    0.1468011 -66.17  0.001212282    1.264    0.209
       197 -11.0677    144.5160     53.9006   1.4140786967e+01   4.1873576187e+01    0.6315168    0.4101645  48.34  0.001940036    1.655    0.396
       198 -10.7984    180.9977    244.0580   4.7618893618e+01   2.2140084064e+00    0.1763909    0.1326515  10.51  0.001114122    1.014    0.014
       199  -9.6890    218.5183    239.9134   4.0608982647e+01  -1.3437442293e+00    0.1455961   0.08809112 -27.42 0.0006652089    1.545    0.353
       200 -10.6024    159.9996     14.0413   3.5900006521e+02   4.3247484742e+01    0.2137208    0.1769481  84.28            0    1.152    0.132
       201  -9.4189    154.4395     16.0261   2.4628293395e-01   4.4407634641e+01     0.214288    0.1634136  41.39  0.001173283    1.562    0.360
       202 -10.3118     15.9407    238.6261   8.0748466027e+01   2.1625623903e+01     0.165982    0.1428787 -88.96 0.0006668192    1.338    0.253
       203 -12.1688    162.2084     83.6422   1.9665239745e+01   3.2720895126e+01    0.7448787    0.4111479  44.37  0.002821299    2.046    0.511
       204  -9.1578     93.7081     16.6589   1.0777402248e+01   5.9631756938e+01    0.1444413    0.1008923  29.12 0.0003227063    1.651    0.394
       205 -12.7102    168.5627     78.7704   1.7147135613e+01   3.2157620022e+01      1.70773    0.6178188 -52.70  0.001724922    4.230    0.764
       206 -14.1850     76.3086     58.7961   3.4654672160e+01   5.6743897821e+01    0.8421785    0.4586028  45.10  0.002367341    1.871    0.465
       207 -12.9880    180.2749     70.5412   1.2951802126e+01   3.0916561014e+01     2.284117    0.7461928  64.88  0.007313578    4.236    0.764
       208 -13.1854    184.6881     61.4836   9.8431923524e+00   3.1333672596e+01    0.8577474    0.7615366 -63.38 -0.0001739073    1.076    0.070
       209 -12.1868    195.2227     56.6987   7.1807152982e+00   2.9727001909e+01    0.6282974    0.4146364  33.81  0.001977446    2.187    0.543
       210  -9.9645     14.7425     13.7960   4.6722985594e+01   7.5582640364e+01    0.2122039    0.1462282  49.94 0.0009279327    2.043    0.511
       211 -12.6976    160.9693     64.5993   1.4440766046e+01   3.6245676875e+01      1.69882    0.7094766  64.79  0.006253928    2.842    0.648
       212 -11.7635    137.8316     59.9748   1.7446935463e+01   4.2498338156e+01     0.685807       0.5037 -57.29  0.001851038    1.415    0.293
       213  -9.7898    101.0906    176.0774   5.5103612454e+01   2.4729403740e+01    0.1859833    0.1731399   0.11  0.001100038    1.140    0.123
       214  -9.8601    236.7229    145.9968   2.1869710245e+01   8.8761960099e+00     0.168725     0.126231 -24.74 0.0003214818    1.060    0.057
       215 -12.2487    137.6433     70.9921   2.0997525231e+01   4.0615887238e+01    0.8797591     0.485068  61.59  0.002919292    2.020    0.505
       216 -12.2958    146.4175     65.0165   1.7288017559e+01   3.9596659245e+01     1.021138    0.6516058 -36.98  0.004729152    1.508    0.337
       217 -10.4204    221.9275    122.8503   1.9273206339e+01   1.4564571816e+01    0.3752088    0.2181939 -36.97  0.002025351    1.436    0.304
       218 -14.0129    206.1855     68.6841   8.8851587691e+00   2.5709658984e+01     1.067426    0.6596462  67.97  0.003401405    1.899    0.473
       219 -14.2010    218.4728     69.0853   7.5275198708e+00   2.3219873753e+01     1.342638    0.8786194  68.85  0.003037839    1.826    0.452
       220 -10.1005    228.7477    118.8427   1.7457092903e+01   1.4066114757e+01    0.2523901    0.1354632  43.37  0.001023637    2.226    0.551
       221 -12.3297    172.6422     44.2991   6.6603604828e+00   3.6547342208e+01     0.531635    0.3844178  63.15 0.0005160792    1.450    0.310
       222 -10.3902    203.9485    116.4740   2.0605939144e+01   1.8652840735e+01    0.3006096    0.2223722 -86.25  0.001231801    2.220    0.549
       223 -13.4194    206.9047     60.2291   6.6905233716e+00   2.6770187720e+01     1.220276    0.5185509  52.11  0.004968263    2.764    0.638
       224 -10.8978    171.9592    116.5141   2.6268951842e+01   2.4658618641e+01    0.2610112     0.193149 -40.03  0.001348858    1.246    0.198
       225 -12.1773    238.1310     51.1617   1.4520690350e+00   2.1904145178e+01    0.4162563    0.2176409 -49.74  0.002114837    1.623    0.384
       226 -13.0083    230.0715     47.3814   1.2777155391e+00   2.3881617838e+01    0.6345705    0.5361248  24.99  0.002949428    1.637    0.389
       227 -13.3021    102.6912     96.1206   3.7872192374e+01   4.3164373739e+01    0.9497502    0.4828534  38.19  0.001563787    2.114    0.527
       228 -11.7534     95.3888     90.0349   3.8405422585e+01   4.6029844123e+01    0.5671905    0.4431925  65.89  0.001351315    1.482    0.325
       229 -12.2266    114.7325     86.5277   3.1547487032e+01   4.2757429376e+01    0.4903556     0.410841 -20.31 0.0008939742    1.363    0.266
       230 -12.3662    114.8266     80.7804   2.9759006895e+01   4.3942557463e+01    0.6008153    0.5169046 -66.13  0.002656895    1.223    0.182
       231 -11.2874     11.5667     98.3486   7.2817279591e+01   5.5358156489e+01    0.2599064    0.2296821 -84.18 0.0005556933    1.026    0.026
       232 -11.0227    250.3479     97.5039   1.0305826337e+01   1.3689023883e+01    0.2744457    0.1317031 -39.79 0.0007163228    1.624    0.384
       233 -10.5181    250.5089     93.5383   9.4614911721e+00   1.4203611406e+01    0.2260624     0.133332 -44.71 0.0008207633    1.452    0.311
       234 -10.5810     16.9134     96.8896   7.0397740593e+01   5.5379101603e+01    0.2063682    0.1709162 -49.73 0.0002860711    1.199    0.166
       235  -9.8006    165.7043     96.2447   2.2395741063e+01   2.9685201606e+01    0.1950974    0.1675472  -0.98  0.001034552    1.353    0.261
       236 -15.4207     61.0014     84.5684   4.9241151366e+01   5.3547663217e+01     2.867645     1.887426  34.83  0.006776478    1.584    0.369
       237 -10.0863    173.4091    112.3041   2.4970141418e+01   2.5150619882e+01    0.3470062     0.191596  31.07  0.001329399    2.497    0.599
