#   1 NUMBER                 Running object number                                     
#   2 MAG_AUTO               Kron-like elliptical aperture magnitude                    [mag]
#   3 X_IMAGE                Object position along x                                    [pixel]
#   4 Y_IMAGE                Object position along y                                    [pixel]
#   5 X_WORLD                Barycenter position along world x axis                     [deg]
#   6 Y_WORLD                Barycenter position along world y axis                     [deg]
#   7 A_WORLD                Profile RMS along major axis (world units)                 [deg]
#   8 B_WORLD                Profile RMS along minor axis (world units)                 [deg]
#   9 THETA_WORLD            Position angle (CCW/world-x)                               [deg]
#  10 FWHM_WORLD             FWHM assuming a gaussian core                              [deg]
#  11 ELONGATION             A_IMAGE/B_IMAGE                                           
#  12 ELLIPTICITY            1 - B_IMAGE/A_IMAGE                                       
         1 -18.9148    236.2937     67.1247   2.9114336243e+01   1.9591771120e+01     8.691694     6.617503 -26.66   0.05694691    1.169    0.145
         2 -12.8906    212.7538     31.2801   2.2840606066e+01   2.8422536448e+01     0.585803    0.3494775 -17.84  0.002401553    1.883    0.469
         3 -12.6964    109.4609     38.7643   4.0956644974e+01   5.2691312782e+01    0.3568229    0.2520574  60.03    0.0016917    1.356    0.263
         4 -13.3991    152.7533     26.4470   2.7965813733e+01   4.3105934123e+01    0.6172805    0.3018254  81.56  0.002481974    2.343    0.573
         5 -11.9829    155.0000     14.9650   2.3878571122e+01   4.3803074597e+01    0.3091356      0.14377 -19.91  0.001274562    2.458    0.593
         6 -10.5568     71.1901      7.2140   3.7344929700e+01   6.6600122577e+01    0.1842613    0.1636982 -74.13 0.0005588264    1.295    0.228
         7 -10.1803    204.6110      4.3280   1.6618651492e+01   3.2935187744e+01    0.1435493   0.06849618 -57.20 0.0001057299    1.878    0.468
         8 -12.1780    105.8905      2.5546   2.6166701477e+01   5.8046617613e+01    0.3063553    0.1872869 -29.40  0.001476725    1.733    0.423
         9 -12.1851    144.2650    146.6963   6.2892798895e+01   2.4278098999e+01    0.3750755    0.2754805 -83.61  0.001716925    2.403    0.584
        10 -13.8340     67.6549    144.3152   8.3869997247e+01   3.7401567848e+01     1.838059     1.299326 -66.18  0.007286237    1.488    0.328
        11 -13.6156     43.0942    142.3112   9.1546632124e+01   4.0918387243e+01    0.5127375    0.4533704  20.06  0.001063165    1.197    0.165
        12 -14.9839     51.1554    139.8188   8.8589817842e+01   4.0627805598e+01     1.759302     1.114666 -10.61  0.007671379    2.360    0.576
        13 -13.6328    200.2860    164.3013   5.4810032698e+01   1.2086153644e+01    0.6140153    0.4654668 -78.04  0.003021163    3.383    0.704
        14 -14.5580     58.5960    137.8445   8.5861956537e+01   4.0202001355e+01      1.65227    0.7705563 -52.70  0.002155164    2.254    0.556
        15 -14.5976    169.5117     87.3401   4.3359262907e+01   3.0115597385e+01    0.9971899    0.7705361  -2.63  0.002047263    1.589    0.371
        16 -12.2937    142.5663    134.0868   6.0658913519e+01   2.7038140618e+01    0.5591366    0.2408653 -58.41  0.001689293    4.514    0.778
        17 -12.1107    171.4804    173.2744   6.1952905549e+01   1.5072115212e+01     0.297837    0.2081517 -47.53  0.001673461    1.734    0.423
        18 -13.4952    201.7081    131.6843   4.8084685175e+01   1.6727812895e+01    0.4948958     0.395313 -60.60  0.002353709    1.757    0.431
        19 -13.5766    172.0557    123.7847   5.1832993645e+01   2.3343656215e+01    0.6403828    0.4805997 -84.32  0.003043892    2.317    0.568
        20 -10.0905     94.5408    124.5006   7.1821457548e+01   3.7994436014e+01    0.1504403    0.1436335  43.35  0.000138636    1.007    0.007
        21 -13.3472    161.4819    128.3698   5.5073296770e+01   2.4538959821e+01    0.5062703    0.4380507  37.93  0.001830694    1.167    0.143
        22 -13.6675    166.9290    116.6179   5.1217349006e+01   2.5593140393e+01    0.7119746    0.5332797  -9.23  0.003629492    1.548    0.354
        23 -12.3345    203.7299    175.2740   5.6194848971e+01   1.0024906541e+01    0.4942067    0.2510031 -53.55  0.001909483    4.867    0.795
        24 -12.3610    147.1342    106.3954   5.3042176788e+01   3.1523795565e+01    0.3230264    0.2639383  33.02 0.0007087662    1.247    0.198
        25 -13.3307    186.1368    171.4935   5.8740103419e+01   1.3127068272e+01    0.3915901    0.2523707 -46.35   0.00197249    1.896    0.473
        26 -10.5705    188.1105     70.7474   3.5851807996e+01   2.8650834917e+01    0.1950238    0.1712634 -53.38 0.0007983561    1.108    0.098
        27 -12.9859    182.2387     67.6541   3.5912376685e+01   3.0394908283e+01    0.4004458    0.2329522 -34.85  0.001089909    1.592    0.372
        28 -13.9008    177.0292    169.1997   6.0099881303e+01   1.4870033150e+01    0.5219126    0.4291378  22.66  0.003016864    1.131    0.116
        29 -12.2243    158.4248     66.9966   3.9759539928e+01   3.5979535874e+01    0.4312249    0.2622002 -23.26 0.0004163165    1.912    0.477
        30 -12.7344    130.2540     65.9057   4.5438215305e+01   4.2951467123e+01    0.4238101    0.3890002 -22.64  0.001253657    1.160    0.138
        31 -13.4697    137.8103     63.7511   4.2985044432e+01   4.1486399548e+01    0.6102333    0.4413091  81.52  0.002807874    1.686    0.407
        32 -11.8566    186.0499     62.0283   3.3833949660e+01   3.0358762935e+01    0.3072127    0.1957835 -33.18  0.001545112    1.461    0.315
        33  -9.6798     47.6810    172.6896   9.3167997990e+01   3.3117373294e+01    0.1280739    0.1003248 -26.04 0.0004144594    1.643    0.391
        34 -12.2258    206.2738     48.7508   2.7849438511e+01   2.7726286949e+01    0.3810441    0.2324433 -57.97 0.0004563948    1.698    0.411
        35 -11.2006    198.5738     47.1564   2.8285564465e+01   2.9581620606e+01     0.205867     0.196163  67.85 0.0003014343    1.171    0.146
        36 -11.5533    211.7297     40.4153   2.5206164134e+01   2.7589730062e+01    0.3612866    0.1962282 -34.72  0.001205309    1.566    0.362
        37 -12.0365    168.9302    202.1618   6.7233603373e+01   1.0970119466e+01    0.4730971    0.3032396  59.49  0.002188891    3.573    0.720
        38 -11.3777    165.0544    199.0310   6.7536323229e+01   1.1970409380e+01    0.2665237    0.1990495  50.01 0.0007303982    1.814    0.449
        39 -13.6387    193.5442    165.8583   5.6319353670e+01   1.2864150593e+01    0.4511338    0.3523387 -52.42  0.002708201    1.810    0.448
        40 -11.3647    191.9529     35.3250   2.5853059251e+01   3.2511706459e+01      0.39043    0.2062215  50.85  0.001000239    2.176    0.540
        41 -13.5708    192.4404    194.4755   6.1498868602e+01   8.8993907153e+00    0.8278724    0.4600594 -57.24  0.003329412    5.139    0.805
        42 -15.2026     12.8177    152.7966   1.0204249078e+02   4.1057159983e+01     1.227916    0.9984302 -40.46  0.005981886    1.489    0.329
        43 -12.0178    206.2679    160.9915   5.3144267781e+01   1.1678006971e+01     0.216738    0.1611587  17.88 0.0003651248    1.255    0.203
        44 -11.7175    198.8236     22.4003   2.1733474133e+01   3.2420280668e+01    0.2307069    0.1925283 -13.30 0.0005100028    1.381    0.276
        45 -11.2489    182.9101     36.9480   2.7309042568e+01   3.4404947992e+01    0.2345488    0.1738237 -32.66 0.0004088759    1.294    0.227
        46 -14.8483    191.2898    153.0092   5.4285261871e+01   1.5169252183e+01    0.7527279    0.7187163 -60.46  0.004971308    1.450    0.310
        47 -10.8241    203.1244     17.5695   2.0126338817e+01   3.1971007603e+01     0.248053    0.1845218  54.64  0.001285161    1.577    0.366
        48 -11.9504    176.0650    154.7010   5.7552801440e+01   1.7375801024e+01    0.1889342    0.1598783  17.95  0.001145251    1.090    0.082
        49 -12.2250    133.7571    145.7272   6.5249726538e+01   2.6336509037e+01     1.029994    0.2766657 -53.34  0.002749217    5.613    0.822
        50 -13.1791    204.1731    199.3711   6.0180726618e+01   6.7214978651e+00    0.3970873    0.2704625  30.99  0.002622795    1.453    0.312
        51 -10.3448    132.3280    138.6611   6.4164750159e+01   2.8022958245e+01    0.1539748     0.140473  11.22 0.0008493055    1.065    0.061
        52 -14.5100    227.9910    104.9007   3.8382931007e+01   1.6135068720e+01    0.7688836    0.3855597 -29.91   0.00271035    1.719    0.418
        53 -10.0457    208.4849    211.5076   6.1326456921e+01   4.6700405639e+00    0.1129882    0.0853814   4.99 0.0008101129    1.041    0.039
