#   1 NUMBER                 Running object number                                     
#   2 MAG_AUTO               Kron-like elliptical aperture magnitude                    [mag]
#   3 X_IMAGE                Object position along x                                    [pixel]
#   4 Y_IMAGE                Object position along y                                    [pixel]
#   5 X_WORLD                Barycenter position along world x axis                     [deg]
#   6 Y_WORLD                Barycenter position along world y axis                     [deg]
#   7 A_WORLD                Profile RMS along major axis (world units)                 [deg]
#   8 B_WORLD                Profile RMS along minor axis (world units)                 [deg]
#   9 THETA_WORLD            Position angle (CCW/world-x)                               [deg]
#  10 FWHM_WORLD             FWHM assuming a gaussian core                              [deg]
#  11 ELONGATION             A_IMAGE/B_IMAGE                                           
#  12 ELLIPTICITY            1 - B_IMAGE/A_IMAGE                                       
         1 -11.0642     23.8746     32.0859   9.9710322653e+01   6.8682818174e+01     1.540438    0.4032188 -49.88  0.003485935    3.097    0.677
         2 -10.2206     10.2153     18.9370   1.0295158090e+02   7.2646734257e+01     1.358031    0.3872605 -36.36  0.003918008    7.319    0.863
         3 -10.6556     37.3024      9.5206   8.2674671953e+01   7.1811608761e+01    0.9269949    0.3325777 -49.43  0.002845526    2.610    0.617
         4 -10.8661     21.9192     53.4801   1.0621108689e+02   6.3997019701e+01    0.9741025    0.4457539  81.63    0.0028182    3.708    0.730
         5 -10.2966     26.3354     11.1396   8.9854016828e+01   7.2850351265e+01    0.7797154    0.4067619  31.38  0.003620764    2.251    0.556
         6 -10.3654     18.3099      5.3532   9.1932643944e+01   7.4815771917e+01    0.6663489    0.5098388 -77.41  0.003096011    1.656    0.396
         7  -9.7770      2.2446     14.2072   1.0638870637e+02   7.4153302875e+01    0.7185177     0.201547 -72.85  0.002734362    3.646    0.726
         8 -10.0135      6.3091      5.1924   1.0019973775e+02   7.5828478689e+01    0.3512497    0.2597153 -47.99  0.001144988    1.097    0.088
         9  -9.8242      2.5014      3.1283   1.0208878856e+02   7.6496262258e+01    0.3055075    0.1585749 -49.40  0.001253507    1.499    0.333
        10 -10.4088     90.7049     37.8365   7.3838254635e+01   5.7310349541e+01     1.049021    0.4998162  30.29  0.003343536    4.122    0.757
        11  -9.5872    102.8417     21.1340   6.2825966514e+01   5.7359481179e+01    0.8280421     0.378628 -22.75  0.002440249    2.531    0.605
        12  -8.3010     72.1788      8.5551   6.6197154085e+01   6.5988619495e+01    0.2664256    0.1845471 -22.33  0.000648159    1.402    0.287
        13 -10.5805     73.9320     16.8259   7.0007657196e+01   6.4368059446e+01     1.598851    0.4804586 -29.17   0.00450558    4.857    0.794
        14  -9.3098     78.0738      3.1502   6.1044964950e+01   6.5480198736e+01    0.3906265    0.3264692  43.38   0.00100952    1.218    0.179
        15  -9.9536     79.3135     24.1246   7.1661466630e+01   6.2078408108e+01    0.7396694    0.4092707  22.58   0.00240259    3.426    0.708
        16  -9.9966     50.7631     15.5524   7.9084457833e+01   6.8736438900e+01     1.118864    0.6521586 -13.30  0.004602222    3.138    0.681
        17 -10.3783     62.3605      3.7069   6.7167174466e+01   6.8629825507e+01    0.6771735    0.4996703  -9.47  0.003755739    1.403    0.287
        18  -9.9253     60.8133     31.7944   8.2309228425e+01   6.4047484132e+01    0.9949357    0.4194113 -37.56  0.003550544    2.589    0.614
        19  -9.7719     63.2094     21.4594   7.6571123950e+01   6.5593271467e+01    0.5693592    0.3114863 -56.30  0.002037105    2.334    0.572
        20  -9.8263     64.6311     13.3947   7.1814250126e+01   6.6717155201e+01    0.3540189    0.2813514 -22.99 0.0002118226    1.196    0.164
        21  -9.0222    128.4714     24.9127   5.8157694032e+01   5.0408287690e+01    0.5213683    0.2687182 -28.87  0.001344491    1.906    0.475
        22  -8.3039    154.8145     16.9670   5.0029620950e+01   4.4278303357e+01     0.384322    0.1904498 -52.50  0.001275685    2.407    0.585
        23  -8.5448    125.1386     13.1865   5.3844211836e+01   5.2788479324e+01    0.2695206    0.2217239 -59.27 0.0005126487    1.327    0.247
        24  -8.3877    128.9109     16.1296   5.4353608295e+01   5.1433397260e+01    0.3389392    0.2565627 -51.35 0.0007211925    1.414    0.293
        25  -8.8235     95.8684     16.3316   6.2524653477e+01   5.9693638012e+01    0.4095264    0.2022132 -31.67  0.001146348    1.925    0.480
        26  -8.2382     97.6437     11.6877   5.9719709498e+01   5.9912335807e+01    0.3013754    0.1920024  33.81 0.0009409966    1.752    0.429
        27  -9.0980    114.0069     10.1035   5.4844184796e+01   5.6056354579e+01    0.3967142    0.2470526  31.15 0.0003376829    1.845    0.458
        28  -9.4421     85.3558     13.2184   6.4176892196e+01   6.2519553223e+01    0.4470965    0.2615119 -55.06  0.001423492    2.299    0.565
        29  -8.2239     80.4812     12.4035   6.5362580403e+01   6.3695216676e+01    0.2934228    0.1746057 -47.31  0.001167557    1.854    0.461
        30  -9.7018    134.1041     11.5218   5.1369714938e+01   5.0578544492e+01     0.400452    0.2915962 -64.61   0.00117409    1.583    0.368
        31  -8.0176    141.5184     11.9952   5.0248017694e+01   4.8502807147e+01    0.2266585     0.148822 -21.26  0.000610784    1.542    0.352
        32  -9.0376    102.5536      8.2992   5.6717031336e+01   5.9152298923e+01    0.5136733    0.2766865 -50.20    0.0014066    2.273    0.560
        33  -8.0401    155.4958      9.5322   4.7052829961e+01   4.4888925502e+01    0.1489433    0.1462856  64.03 1.973969e-05    1.013    0.013
        34  -9.1631    126.0138      6.6139   5.0735426967e+01   5.3294982847e+01    0.5761061    0.2630857 -29.92  0.002271664    2.081    0.520
        35  -8.0067     68.1399      9.1641   6.8068971371e+01   6.6707353162e+01    0.1791002    0.1548953 -53.30 0.0002814201    1.306    0.234
        36  -9.1677    110.5857      6.6594   5.3973948596e+01   5.7330901051e+01    0.4598234    0.2208153 -10.36  0.001710819    2.598    0.615
        37  -8.6460    136.5971      1.6513   4.6695393988e+01   5.0911636279e+01    0.2790937    0.1843525  76.32 0.0005752866    1.555    0.357
        38  -8.9505    131.0943      6.1251   4.9578091753e+01   5.1976214534e+01    0.3184578    0.2193291  23.20 0.0008510255    1.648    0.393
        39  -8.0889    120.2792      5.6310   5.1409088532e+01   5.4925277801e+01      0.28883    0.2118672  63.98  0.001050003    1.353    0.261
        40  -8.4687    115.5060      4.4236   5.1820225446e+01   5.6306481776e+01    0.2783933    0.2350492 -48.65 0.0007250812    1.257    0.204
        41  -8.1781     97.6988      5.7131   5.6654802756e+01   6.0646614216e+01    0.2432832    0.1864558  -8.42 0.0005280841    1.331    0.248
        42  -8.5037     95.9938      2.9915   5.5672854566e+01   6.1374661579e+01    0.2406939    0.2330039  -5.39 0.0006290941    1.045    0.043
        43  -8.8654     89.0935      2.5577   5.7323464458e+01   6.3064254056e+01    0.4192763    0.2263927  -0.30  0.001432445    2.581    0.613
        44  -7.8605    143.3679      5.1869   4.7127967762e+01   4.8700881884e+01    0.2167071    0.1261064 -34.66 0.0005026442    1.688    0.408
        45  -8.7532    104.8543      1.9266   5.2934211806e+01   5.9303382499e+01    0.3296827    0.2210282  49.16   0.00112967    1.447    0.309
        46  -7.7024    150.5429      1.4961   4.4571320118e+01   4.7048383811e+01    0.1470056    0.1445175  86.25 -1.319299e-06    1.009    0.009
        47 -10.2687    117.4700    123.9586   9.0782958638e+01   3.4635525509e+01    0.8296115    0.6252907 -63.58  0.002746218    1.415    0.293
        48 -11.1351    193.0454    248.6778   9.4686222797e+01   4.8376587438e+00    0.4872141    0.2603903  47.06  0.003464477    1.610    0.379
        49 -10.2540    181.8023    249.0230   9.6401553835e+01   6.3345649404e+00    0.2227758    0.1601765  38.72  0.001878121    1.101    0.092
        50 -10.8409    163.0288    248.6307   9.9216509883e+01   8.9355851165e+00    0.4326212     0.157354  42.00  0.002582681    1.861    0.463
        51 -10.4481    108.8240     99.9290   8.7811129796e+01   4.1114774638e+01    0.9069254     0.525498  68.34  0.003728359    2.445    0.591
        52 -10.1333    139.2948    104.4337   8.1386026247e+01   3.4016409890e+01     0.705547    0.3951113 -35.95  0.002082656    2.056    0.514
        53 -10.8989    131.6853    119.3222   8.6510834938e+01   3.2790341026e+01    0.8777366    0.5761425 -86.45   0.00238076    2.474    0.596
        54 -11.0716    133.7039    109.1532   8.3794497322e+01   3.4303577636e+01    0.8832546    0.5126797 -44.85  0.004071149    1.821    0.451
        55  -9.7826     41.6538    122.3636   1.1004276599e+02   4.6356539638e+01    0.5376815    0.2362255  87.10  0.002376266    2.738    0.635
        56 -10.0237     27.4104    123.0080   1.1391727996e+02   4.7680477994e+01    0.5438577    0.2181378  65.97  0.002340512    2.652    0.623
        57  -7.7670    158.1715    122.1223   8.1321507504e+01   2.6880449311e+01    0.1922458    0.1599942  71.04 0.0005716072    1.332    0.249
        58  -8.4909     99.2755    119.9044   9.4470058181e+01   3.8714814834e+01    0.5213747    0.3292803   5.87  0.001655759    5.812    0.828
        59  -8.4586      1.5427    116.6007   1.2037254785e+02   5.1177128503e+01    0.3248801    0.1021634  88.14  0.001461087    2.856    0.650
        60  -9.5592    152.3689    116.0827   8.1204388668e+01   2.9134534209e+01     0.263957    0.2333549  24.83 0.0004875355    1.204    0.170
        61 -10.1921     91.9011    113.0345   9.5074731644e+01   4.1406955119e+01    0.5434429     0.353322 -87.76  0.001793374    1.918    0.478
        62  -8.7278     91.5077    105.0763   9.3593197156e+01   4.3172063750e+01    0.7811266    0.4908629  11.21  0.002861622    4.117    0.757
        63 -10.2605     78.1603    112.9873   9.8755240358e+01   4.3620301008e+01    0.5436917    0.2949755 -84.29  0.001727699    2.546    0.607
        64  -7.7737     77.9864    105.5157   9.7433837236e+01   4.5278816001e+01    0.2912676    0.1865535 -20.63  0.001135209    3.831    0.739
        65  -9.0868     39.8107     52.3260   9.8359754750e+01   6.2519693280e+01    0.4364489    0.1546294 -51.78   0.00177035    2.439    0.590
        66 -10.5126     14.5685    111.8189   1.1647530287e+02   5.1248108701e+01    0.7145434    0.2740145  86.29  0.003321998    2.562    0.610
        67 -11.2531     21.6065    101.9281   1.1352250537e+02   5.2864233576e+01     1.561787    0.5526844  62.62  0.006324092    3.427    0.708
        68 -10.5351     19.1582     86.9974   1.1262386273e+02   5.6462448526e+01     1.281827    0.2520449 -59.90  0.004749628    3.808    0.737
        69 -10.5301     25.7520     77.9680   1.0913033734e+02   5.7991226246e+01    0.7808863    0.3744171  74.35  0.001947423    2.626    0.619
        70 -10.5671     32.0559     64.7971   1.0444615035e+02   6.0465879918e+01     1.368635    0.5486404 -36.92  0.004490581    5.425    0.816
        71  -9.9820     34.6248     90.7045   1.0804948880e+02   5.4209256025e+01    0.5732083    0.2372138 -87.78  0.002040141    3.118    0.679
        72  -9.0629    240.1617    115.2122   6.5471882738e+01   1.0908658861e+01    0.1630972    0.1538266 -43.28  0.001066068    1.345    0.256
        73  -9.7236    208.8693    112.9541   6.9772047882e+01   1.7511214506e+01    0.2429903    0.2222386  27.96 0.0004003372    1.057    0.054
        74  -7.7941    166.8852    113.8175   7.7668432339e+01   2.6416178172e+01    0.1873714    0.1660658  89.53 0.0004123037    1.320    0.243
        75 -10.3357     62.9248     95.7097   9.9982067349e+01   4.9677659749e+01    0.5526378    0.3125281  84.58  0.001549745    2.413    0.586
        76  -9.1534     64.8292     85.2671   9.7265223566e+01   5.1776389154e+01    0.6217467    0.5131956 -40.74  0.003350044    1.425    0.298
        77  -9.4404     59.3216    109.4778   1.0342242092e+02   4.7070373853e+01    0.4712063    0.2630255 -80.26  0.001509054    1.853    0.460
        78 -10.1117     65.7739    111.0683   1.0185318029e+02   4.5846346764e+01    0.4568428    0.3361968  71.75  0.000989404    1.299    0.230
        79  -9.8786     66.1342    103.1270   1.0039135515e+02   4.7561322026e+01    0.5907809    0.4062012  35.37  0.003265423    1.619    0.382
        80  -8.4516    159.0598    111.8703   7.8821151703e+01   2.8433751179e+01    0.2091105    0.1875195  87.58 0.0004243506    1.253    0.202
        81  -8.3829    149.7529    109.7654   8.0314602741e+01   3.0805533147e+01    0.2456882    0.1721886 -38.99 0.0006898537    1.528    0.346
        82  -8.3874    144.5308    110.5143   8.1640716138e+01   3.1784150369e+01    0.1419365    0.1335825  57.73 0.0001738252    1.007    0.007
        83  -7.7779    213.8165    109.2134   6.8093639106e+01   1.6962887495e+01     0.189379    0.1455973  18.47 0.0004127473    1.310    0.237
        84  -9.6417     40.3486    106.8906   1.0853793400e+02   4.9925235091e+01    0.4061077    0.1682528 -78.18  0.001586575    2.379    0.580
        85 -10.8809     44.7084    102.3831   1.0662191512e+02   5.0458024515e+01    0.8256863    0.3638771  69.47  0.003063513    3.364    0.703
        86  -8.1419    159.2486    107.6047   7.7770337171e+01   2.9121973917e+01    0.2083152    0.1263917  40.84  0.000583067    1.649    0.393
        87 -10.0248      6.3578    103.8222   1.1821489198e+02   5.3623757518e+01    0.4429101    0.2495402  65.31  0.001779557    1.543    0.352
        88 -10.3240      4.5457     89.4208   1.1764408543e+02   5.6958713040e+01    0.8430255    0.2511713  87.04  0.002669682    3.710    0.730
        89  -9.7099      6.8495     78.0447   1.1580510122e+02   5.9397306580e+01    0.5869582    0.2712946 -43.93  0.002940643    2.767    0.639
        90  -8.6212    166.0461    104.1645   7.5530070088e+01   2.8198160036e+01    0.2888624    0.2018296 -43.74 0.0006305026    1.516    0.340
        91  -9.6370    149.5153    103.2475   7.8799012610e+01   3.2020661916e+01    0.4615637    0.2848371 -59.02  0.001156043    2.067    0.516
        92  -8.8743    150.1902     95.3212   7.6645685953e+01   3.3287948344e+01    0.4872119    0.2571121 -46.84   0.00203656    2.019    0.505
        93  -8.0571     73.8421    103.0282   9.8140335560e+01   4.6460368430e+01    0.2067884    0.1586692  84.42 0.0005156125    1.289    0.224
        94  -8.5600    159.0719    101.2483   7.6246928181e+01   3.0251743032e+01    0.2498401    0.2078021 -51.78 0.0004446267    1.292    0.226
        95  -9.6181     81.3728    100.1507   9.5409092134e+01   4.5923630639e+01    0.4140439    0.2650917 -87.87 0.0008256455    1.940    0.485
        96  -8.6790     81.5159     94.9423   9.4264930028e+01   4.7047464181e+01     0.338389    0.2311988 -24.65  0.001536845    2.532    0.605
        97 -10.0340     36.8324     81.0428   1.0576413663e+02   5.6214577822e+01    0.8256663    0.4622907 -20.18  0.003279523    4.365    0.771
        98 -10.1876    239.6157     96.8410   6.1331648608e+01   1.3118211911e+01    0.5630459    0.2757528  56.72  0.002070638    2.219    0.549
        99  -9.4240     94.4268     97.3796   9.1119331537e+01   4.4316345421e+01    0.3192869    0.2480196  85.07 0.0006547288    1.393    0.282
       100  -8.9043     96.2572     90.6637   8.9024676522e+01   4.5425998493e+01    0.4486848    0.3052147 -18.37  0.001727626    2.766    0.638
       101  -7.1346    171.2548     95.6584   7.2335661452e+01   2.8415983455e+01    0.1431447     0.112559 -66.82 0.0002037888    1.580    0.367
       102  -8.6464    164.7388     94.5735   7.3362447812e+01   3.0096472817e+01    0.3530921    0.2244655 -39.32  0.001374218    1.617    0.382
       103  -8.2988    163.5013     87.5197   7.1732258616e+01   3.1566321578e+01    0.3814321    0.1619608 -43.59 0.0007277267    2.478    0.596
       104  -9.5682    138.7128     92.6735   7.8557312486e+01   3.6339547459e+01     0.414659    0.3262142 -59.23 0.0007784293    1.374    0.272
       105  -8.1824    139.9749     87.5274   7.6882357315e+01   3.7014555430e+01    0.3836544    0.1323611  46.36  0.001276565    2.884    0.653
       106  -8.5407    157.4474     91.0699   7.3954422870e+01   3.2376208222e+01    0.2982592     0.225544 -50.80  0.001140062    1.419    0.295
       107  -9.5276    110.4067     89.9256   8.4937180837e+01   4.2870113168e+01    0.7772579    0.3852568  31.21   0.00274519    3.290    0.696
       108  -9.0984    150.5535     88.9049   7.4861176251e+01   3.4347802347e+01    0.3353313    0.2110063 -40.07  0.001140595    1.627    0.385
       109 -10.5762     48.1268     83.0848   1.0229719760e+02   5.4478133616e+01     1.129004     0.399078 -61.19  0.002823665    2.410    0.585
       110  -8.4730     57.9211     76.7082   9.7637651729e+01   5.4691475472e+01    0.2967393     0.152943  46.41 0.0006961582    2.046    0.511
       111 -10.2805     85.3135     86.5255   9.1203041067e+01   4.8264740297e+01    0.5322465    0.3588771  69.83 0.0009433526    1.769    0.435
       112  -9.4522     87.6949     78.6309   8.8470814411e+01   4.9570630209e+01    0.5485443    0.3712934  20.63  0.001661499    2.275    0.560
       113  -7.4523     78.5036     89.5158   9.3954654122e+01   4.8736907232e+01    0.1373235    0.1242465 -86.32 4.096097e-06    1.002    0.002
       114 -10.2944    104.0143     82.7611   8.4801968347e+01   4.5623444834e+01    0.5318141    0.3041081 -59.28  0.000904871    1.911    0.477
       115  -9.6435    105.2400     71.2162   8.1153757567e+01   4.7760991638e+01     0.754823    0.4384267 -32.38  0.003150457    2.172    0.540
       116  -8.9652    157.9716     82.6009   7.1517210620e+01   3.3707127708e+01    0.5375619    0.2661606 -23.22   0.00161793    2.898    0.655
       117  -8.6400    139.9580     75.5017   7.3453312489e+01   3.9225993070e+01     0.467577    0.2327552 -44.09  0.001366476    2.034    0.508
       118  -8.7009    140.4708     83.1207   7.5542680467e+01   3.7714699008e+01    0.3019159    0.2413383 -53.89 0.0005866276    1.306    0.234
       119  -8.3079    141.0162     79.4992   7.4380717192e+01   3.8251512445e+01    0.3536614    0.2029817  34.72  0.001408554    2.204    0.546
       120  -9.3962    239.4423     82.3768   5.7848375373e+01   1.4826143586e+01    0.3158359    0.1958012  13.55  0.001508392    1.939    0.484
       121  -7.6801    170.1729     83.1879   6.9200023714e+01   3.0693009131e+01    0.2066554    0.1756368 -67.09  0.001060588    1.348    0.258
       122  -8.5731    149.9248     80.2841   7.2591855830e+01   3.6018997735e+01    0.4079152    0.2123585 -35.93  0.001296394    1.982    0.496
       123  -8.8288    118.8902     80.3303   8.0086596633e+01   4.3055316040e+01    0.3429818    0.2368483 -56.08 0.0007691307    1.516    0.341
       124  -8.2102    119.3752     76.3294   7.8802663935e+01   4.3740827023e+01     0.285917    0.2114219  22.90 0.0008511429    1.816    0.449
       125  -8.9877     74.2009     79.3120   9.2872227174e+01   5.1699869079e+01    0.5903192    0.2310618 -58.07   0.00142144    2.457    0.593
       126  -8.3405     68.6682     79.6097   9.4733281487e+01   5.2491007313e+01    0.2339302    0.1177813 -60.33 0.0008524429    1.860    0.462
       127  -7.7791    166.4067     79.1225   6.8799592382e+01   3.2260848446e+01    0.2168452     0.133475 -46.45 0.0009368559    1.732    0.423
       128  -8.0007    184.1892     78.0915   6.5148962539e+01   2.8100568877e+01    0.2285783    0.1947435  15.34 0.0005500717    1.254    0.203
       129  -6.9426    174.2975     78.7143   6.7146835315e+01   3.0409852252e+01    0.1464854    0.1163151 -71.54 0.0003640668    1.549    0.354
       130  -8.1959    156.9021     76.2630   6.9920432668e+01   3.5040846352e+01    0.3001258    0.1910184 -39.88  0.001214623    1.580    0.367
       131  -9.3373    138.1049     65.2369   7.0719089372e+01   4.1509760616e+01    0.6220171     0.448083 -19.05  0.001574895    1.668    0.401
       132  -9.5750    127.3584     75.2568   7.6432792981e+01   4.2177427209e+01     0.429275     0.294982 -72.39 0.0007831477    1.977    0.494
       133  -9.2378    129.3470     69.0174   7.4029831571e+01   4.2896981159e+01    0.6251675    0.3496272  23.98  0.001997767    3.854    0.741
       134  -8.4434    130.4692     64.9561   7.2463238572e+01   4.3382591207e+01    0.3904656    0.2051907 -40.81  0.001410864    1.882    0.469
       135  -9.8990     81.6087     72.3897   8.8671550044e+01   5.1998882300e+01    0.4792175    0.3191735 -75.47   0.00139388    1.809    0.447
       136  -9.1188     83.4593     64.6414   8.5808621190e+01   5.3346404809e+01    0.5289965    0.3633455 -15.60   0.00230149    2.522    0.603
       137 -10.3793    113.5940     71.8950   7.9025455443e+01   4.5867714681e+01    0.4195264    0.3781429  55.70  0.002297646    1.116    0.104
       138  -7.9379     82.5246    249.4779   1.1195310224e+02   1.9358120263e+01   0.09882804   0.06482878  51.33 4.914195e-05    1.004    0.004
       139 -11.1965    121.0813    109.5070   8.6892172813e+01   3.6787188436e+01     1.181416    0.5881813 -52.59  0.003037467    2.132    0.531
       140  -9.0069     40.7937     20.4501   8.6419393525e+01   6.9257565251e+01    0.3375541     0.193774 -56.99 0.0009139897    1.731    0.422
       141 -10.1975    119.0455    244.3828   1.0575837522e+02   1.5353653852e+01    0.1720989    0.1287373  46.12 0.0001839117    1.115    0.103
       142  -9.7579     16.0537     70.3289   1.1151693187e+02   6.0547264106e+01    0.4393564    0.2070197 -72.23  0.001226265    1.706    0.414
       143 -10.0368     16.8746     61.1054   1.0975262226e+02   6.2624812625e+01    0.5959381    0.5456541  34.03   0.00430239    1.335    0.251
       144 -10.3978    109.0970    112.7819   9.0578852191e+01   3.8421796014e+01     1.042377    0.4588577 -52.65  0.002445803    2.350    0.574
       145 -10.1923     12.0836     45.7870   1.0898197751e+02   6.6496484997e+01    0.7288296    0.3829482 -10.38  0.003284911    3.175    0.685
       146 -10.2418      4.5423     42.2087   1.1182391913e+02   6.7765723170e+01    0.7153029    0.2638438 -70.74  0.002380333    2.053    0.513
       147  -9.6228    151.2897    246.5981   1.0084023617e+02   1.0749199917e+01    0.1955525    0.1215847  58.26  0.001430472    1.732    0.423
       148  -8.7131    172.0000    241.9541   9.7152938500e+01   8.3583952255e+00    0.1231684   0.05957467 -42.17 0.0008068656    2.973    0.664
       149 -10.1447    187.3241    234.2626   9.3931855272e+01   6.9468729752e+00    0.3136469    0.2131094  40.68  0.001776975    1.130    0.115
       150  -9.4728      6.8098     32.6734   1.0873740210e+02   6.9808420038e+01    0.2812934    0.1979359 -31.35 0.0008505248    1.619    0.382
       151 -10.0529      7.3362     28.4233   1.0741743676e+02   7.0733463253e+01    0.3238347    0.2524127  66.56   0.00103244    1.474    0.321
       152  -8.3207    121.3271    229.8187   1.0414229408e+02   1.6831514765e+01    0.2003379    0.1132248  55.48 0.0005701088    1.527    0.345
       153  -8.2421    230.8770    219.9499   8.5556712546e+01   2.0294715770e+00    0.1506513    0.1085038  27.03 0.0003841339    1.047    0.045
       154  -8.1179    162.7336     72.9298   6.7734052324e+01   3.4170049195e+01    0.2654008    0.1922405 -50.84 0.0005438955    1.489    0.328
       155  -9.8876     63.3741     60.8283   9.1593139752e+01   5.7499974882e+01    0.6294518    0.2503119  36.93  0.002090384    2.834    0.647
       156 -10.4811     55.3734     71.0389   9.7190739734e+01   5.6329940768e+01    0.6342872    0.3302658  58.50  0.001379476    2.488    0.598
       157  -9.1515     55.0895     63.0201   9.5253596261e+01   5.8192185595e+01    0.4013754    0.3652546   9.39  0.001839562    1.361    0.265
       158  -7.5342    175.4818     72.5206   6.5142567388e+01   3.1083434263e+01    0.1471806    0.1462225  14.22 0.0008099992    1.016    0.016
       159  -7.9924    169.3672     71.2313   6.5920858251e+01   3.2801484279e+01    0.2143833    0.1343119 -42.23 0.0004426553    1.623    0.384
       160  -9.2453    147.0269     69.4370   7.0003314721e+01   3.8610300894e+01     0.386316    0.2600328 -54.41  0.000975891    1.667    0.400
       161  -7.8863    124.2989     69.6896   7.5514029035e+01   4.3929550730e+01    0.2352934    0.1914015  56.64 0.0005930532    1.234    0.190
       162  -9.0730    121.1791     66.1669   7.5211041326e+01   4.5306501949e+01    0.3450591    0.2628343 -63.26 0.0006382111    1.459    0.315
       163  -8.5831    122.0091     61.0746   7.3333322574e+01   4.6073339452e+01    0.3365954    0.2582179  24.03  0.001316871    1.631    0.387
       164  -9.7662     94.7802     68.2413   8.3339055573e+01   5.0466647674e+01    0.4514305    0.2492419 -54.04 0.0008805283    1.816    0.449
       165  -9.2521     97.0518     59.2390   7.9771458804e+01   5.1865472978e+01    0.7777623    0.4837875 -32.06  0.003454747    1.887    0.470
       166  -8.0442     75.6301     67.2255   8.9168376914e+01   5.4144434796e+01    0.4271067    0.1295683 -58.61  0.001281785    4.090    0.755
       167  -7.7431     23.2959     69.0110   1.0858676035e+02   6.0281965526e+01     0.176191     0.128733 -75.79 0.0003414502    1.128    0.114
       168  -9.0069    209.1199     64.9264   5.7417032432e+01   2.3866766825e+01    0.3467304    0.2382303 -19.19  0.001026613    1.450    0.310
       169  -8.3744    170.7855     64.5646   6.3643066541e+01   3.3483981386e+01    0.3498155    0.1767953 -27.40 0.0005971576    2.081    0.520
       170  -9.3477    109.8029     63.8952   7.7565070543e+01   4.8265144683e+01    0.3895882    0.2621376 -58.52 0.0006285208    1.630    0.386
       171  -9.0208    110.8458     58.1459   7.5359115442e+01   4.9151900422e+01    0.3421447    0.2922658  -1.78 0.0009231814    1.429    0.300
       172  -8.5906    156.7849     69.4702   6.7913539880e+01   3.6208761512e+01    0.3768087    0.2039937 -24.94  0.001186881    2.175    0.540
       173  -8.0854    157.6060     63.1015   6.5767751526e+01   3.7048010540e+01    0.2471302    0.2109532  85.16 0.0006013882    1.297    0.229
       174  -8.7507     53.2095     39.1562   8.8453114088e+01   6.3705927177e+01    0.3039318    0.1626443 -43.19   0.00143937    1.778    0.438
       175 -10.2907     49.9978     54.2515   9.4758278270e+01   6.0845684885e+01    0.8048566     0.344752 -63.36  0.002795141    2.304    0.566
       176  -9.6461     56.5084     43.0978   8.8514609754e+01   6.2388687169e+01     0.751232    0.4652757 -10.40  0.002971825    3.557    0.719
       177  -8.0012    249.6667     61.6602   5.1417605313e+01   1.4959420074e+01    0.1422166   0.09362052  20.30 -0.000217102    1.749    0.428
       178  -7.4770      2.2988    217.3226   1.2372769931e+02   3.2446557467e+01   0.07426649   0.06700058  89.13 0.0002547675    1.626    0.385
       179  -9.2361    101.1005     31.9232   6.8131479270e+01   5.6072402194e+01    0.5587297    0.2136073 -39.47  0.001843535    2.470    0.595
       180  -9.9903     10.5209    207.5607   1.2206985008e+02   3.3254692893e+01    0.4154805    0.2192414  27.00  0.002806327    2.440    0.590
       181  -8.7112     87.5734     58.2020   8.2414135334e+01   5.3940541945e+01    0.3782955    0.2226612 -57.54  0.001454875    1.792    0.442
       182 -10.0865     73.6104     57.1817   8.6804758132e+01   5.6663678004e+01     1.126104    0.3928059 -45.20  0.002946369    2.840    0.648
       183 -10.3627     85.1144     47.9770   7.9647647631e+01   5.6491460334e+01    0.6244193    0.4076463 -82.32 0.0009543915    2.685    0.628
       184  -8.7549     80.3772     46.2843   8.0642837755e+01   5.7729874961e+01    0.4039686    0.2107241 -40.46  0.001091505    1.884    0.469
       185  -7.6203    164.4375     60.1975   6.3492868502e+01   3.5773148683e+01    0.2192352    0.1351555 -44.51 0.0009321141    1.670    0.401
       186  -7.6704    152.5334     60.0327   6.5837476399e+01   3.8826916624e+01    0.2325085    0.1474384 -36.74  0.001011959    1.561    0.359
       187  -8.8375    146.5643     58.7969   6.6712022216e+01   4.0533426708e+01    0.2991368    0.2352585 -66.44 0.0008581341    1.464    0.317
       188  -9.4467    147.5876     54.6110   6.5096692772e+01   4.0962814701e+01    0.5067959    0.2569399 -22.91  0.001858433    2.424    0.588
       189  -9.2729    129.8308     57.2734   7.0076687654e+01   4.4916410585e+01    0.8320179    0.1976096 -41.85  0.002295105    4.049    0.753
       190  -9.4579    130.2980     47.7024   6.6600253217e+01   4.6451017237e+01    0.7246079    0.2748655 -30.61  0.001452836    2.874    0.652
       191  -9.1668    133.0012     36.3664   6.1730151893e+01   4.7576741188e+01    0.5666195    0.2790429 -36.77  0.001661298    1.956    0.489
       192 -10.8669    134.0819     30.9308   5.9371029558e+01   4.8097766613e+01     0.384516     0.298428  -2.07            0    1.482    0.325
       193  -8.6825    142.0253     48.7588   6.4288471862e+01   4.3324608461e+01    0.3070133    0.2295075 -18.67 0.0009239368    1.475    0.322
       194  -8.8084    138.8288     56.9376   6.7825533260e+01   4.2775522376e+01     0.364681    0.2088556 -41.50 0.0004880989    1.730    0.422
       195  -8.1046    138.6907     52.6239   6.6383288594e+01   4.3536470631e+01    0.3254411    0.2299233 -10.98  0.001189533    1.791    0.442
       196  -8.0906    123.4310     40.4256   6.5556045735e+01   4.9353518466e+01    0.5062957    0.2738191  23.18  0.001577093    3.889    0.743
       197  -9.3169    118.2437     54.7813   7.2175806389e+01   4.8105411508e+01    0.5222852    0.3138171 -37.26  0.001565339    1.656    0.396
       198  -9.0109    121.2439     46.9374   6.8567031269e+01   4.8792685250e+01    0.3433447    0.2344685 -42.20 0.0004437311    1.439    0.305
       199  -7.8792    168.7752     55.5865   6.1208117614e+01   3.5357648358e+01    0.2051375    0.1490283  75.66 0.0004685596    1.554    0.357
       200  -8.9392    162.4783     53.9187   6.1849910914e+01   3.7241237365e+01    0.5039312    0.2521271 -54.49  0.001156768    2.720    0.632
       201  -8.3832    157.5285     49.4771   6.1329066368e+01   3.9202597134e+01    0.2715012    0.1932751 -86.75 0.0007719881    1.807    0.447
       202  -8.9667    105.5013     51.8569   7.4680409242e+01   5.1525414502e+01    0.6040025    0.3213259 -32.44  0.002357581    2.101    0.524
       203  -8.6912    112.0837     47.1140   7.1072808614e+01   5.0919242917e+01    0.3269507    0.2178788 -52.71   0.00148331    1.605    0.377
       204  -8.5244    114.1434     40.8113   6.8102472042e+01   5.1539087776e+01    0.5061674    0.2893206 -12.51  0.001810894    2.947    0.661
       205  -9.3291    149.7744     47.1208   6.2070772757e+01   4.1583804635e+01    0.4718489    0.1965342 -35.55  0.001378704    2.291    0.564
       206  -7.0603    235.6686     47.6689   4.9287438386e+01   1.9606612176e+01    0.1463919   0.09926431  23.89 0.0007052019    1.721    0.419
       207  -7.5388    162.2532     46.3979   5.9389014788e+01   3.8417483256e+01    0.2116738    0.1487186  78.39 0.0005509126    1.635    0.388
       208  -8.3910    157.7066     44.5616   5.9614780901e+01   3.9886395200e+01    0.3017457    0.2393212  36.98 0.0004586288    1.341    0.254
       209  -9.1061    153.3971     41.0394   5.9207933371e+01   4.1540276808e+01    0.4066268    0.2403869 -51.06  0.001161397    1.900    0.474
       210  -9.2213    229.1509    202.0749   8.3244491391e+01   3.8189395136e+00    0.2381093    0.2144945  72.97  0.001516802    1.953    0.488
       211  -9.1393    192.2723    194.8771   8.7988289681e+01   1.0297911911e+01    0.6517321     0.347679 -60.63  0.002286149    7.964    0.874
       212  -8.8347    217.2016    196.8357   8.4276868605e+01   6.1334980012e+00    0.1999851    0.1350071  37.11 0.0003360938    1.183    0.155
       213 -10.1887     69.6404     40.8410   8.2480439359e+01   6.0756645423e+01    0.9135858     0.436142 -46.27  0.002520174    1.917    0.478
       214  -9.9439     76.1525     32.1113   7.6442298138e+01   6.1273621333e+01    0.4300533    0.3423055  81.43  0.001123365    1.657    0.396
       215 -10.4589    248.5214    194.5737   7.9254346157e+01   1.6080314898e+00    0.2092577    0.1553947  28.65  0.001589792    1.152    0.132
       216 -10.0475     37.7895     41.9919   9.6198315950e+01   6.5070218953e+01    0.4603412    0.3475298  85.68  0.001733585    1.565    0.361
       217 -10.4303     35.8942     37.9842   9.5768894837e+01   6.6168752311e+01    0.5367332    0.3154645 -27.63 0.0003589471    2.411    0.585
       218  -9.0851    105.0951     41.1946   7.0776301316e+01   5.3570808204e+01    0.4545054    0.2447027 -52.96 0.0008793146    2.187    0.543
       219  -8.3102    106.4847     36.4826   6.8484350707e+01   5.4069494325e+01    0.3024644    0.2292073  21.95   0.00145114    1.617    0.382
       220  -8.7630    139.5333     40.1276   6.1712610182e+01   4.5316678475e+01    0.4129915    0.2617377 -35.40   0.00117966    1.544    0.352
       221  -9.1377    144.2916     36.5556   5.9385379204e+01   4.4601692665e+01    0.3099473     0.229813 -54.17 0.0006244576    1.458    0.314
       222  -8.7792    118.9354     34.6898   6.4419489953e+01   5.1385002901e+01    0.3195424    0.2085423 -33.20 0.0006965212    1.501    0.334
       223  -8.9174    218.2051    192.0102   8.3379113797e+01   6.4542486143e+00    0.1892184    0.1266771  31.89 0.0002385128    1.156    0.135
       224  -7.9404     45.3947     15.7627   8.1797877062e+01   6.9515402818e+01    0.1831422    0.1406322 -23.34  0.001070064    1.331    0.249
       225 -10.1913     46.3020     29.8285   8.7867761379e+01   6.6621549988e+01     0.470177    0.2998059 -66.78  0.001131175    1.823    0.451
       226  -8.4192     42.0459     28.2316   8.9221457885e+01   6.7517182611e+01    0.1679893    0.1595179 -33.73 0.0001971228    1.112    0.101
       227  -8.2336    153.4597     34.7384   5.6928307575e+01   4.2414244998e+01    0.2072075    0.1511769  -9.53 0.0003133583    1.549    0.354
       228  -8.4162    218.5496    187.1644   8.2561056848e+01   6.8877489556e+00    0.2052154    0.1316985  23.65 0.0002534418    1.373    0.272
       229 -10.3405    186.4586    183.4069   8.7237635582e+01   1.2601223277e+01    0.2119586    0.1719528  38.67 0.0002321486    1.077    0.071
       230  -8.2721    138.9767    184.0204   9.5921080055e+01   2.0480583773e+01    0.1708201    0.1395802  50.47  0.001174745    1.046    0.044
       231  -8.3998    244.9682    182.5095   7.7808583106e+01   3.1870566462e+00    0.1640187    0.1259488   3.15 0.0005232842    1.177    0.150
       232  -8.9917     44.4417     53.4268   9.6757792028e+01   6.1728859666e+01    0.4409784    0.2237553 -41.05    0.0010471    2.283    0.562
       233  -8.9731    110.4508     33.2831   6.6063811859e+01   5.3668118364e+01    0.3230687    0.2318072 -51.22 0.0007077213    1.485    0.327
       234  -9.1164     91.5575     26.5199   6.8660215102e+01   5.9099755697e+01    0.4460597    0.2574064 -54.76  0.001213791    2.179    0.541
       235  -8.5492     92.2082     20.9834   6.5873203439e+01   5.9839024456e+01    0.3832144    0.2395359  22.29  0.001509828    2.258    0.557
       236  -8.7488     84.9187     21.7092   6.8569504614e+01   6.1316696366e+01    0.2828279    0.1930576 -39.02 0.0008408584    1.393    0.282
       237  -9.1062    152.4493     28.9589   5.4979944700e+01   4.3463057209e+01    0.4480229    0.2315136  -2.55   0.00144644    3.170    0.685
       238  -7.4964    156.3305     27.6591   5.3811179166e+01   4.2574389119e+01      0.24047    0.1356796 -80.65 0.0008471385    2.727    0.633
       239  -8.9602    144.1640     26.3067   5.5506355521e+01   4.6052411986e+01    0.4201076    0.2053843 -25.11  0.001077816    2.073    0.518
       240  -7.7861    118.6383     28.1882   6.1812690791e+01   5.2456541753e+01    0.2163938    0.1419962 -15.90 0.0005810865    1.738    0.425
       241  -8.4669    110.4399     26.3961   6.3132882461e+01   5.4748697523e+01    0.4499544    0.2593111   2.34  0.001566759    3.225    0.690
       242  -8.0825    111.4434     22.2123   6.1026171549e+01   5.5117556673e+01    0.3048998    0.1335196 -34.05   0.00116151    2.158    0.537
       243  -9.1175     71.8788    180.5098   1.0881522710e+02   3.1099200912e+01    0.1799479    0.1472544  78.39 0.0003263524    1.163    0.140
       244  -7.6780    150.1321     25.2134   5.3981324317e+01   4.4575607375e+01    0.2192152    0.1751216 -56.63 0.0006791927    1.330    0.248
       245  -7.5865    140.2448     22.9752   5.4944302158e+01   4.7540698247e+01    0.1978341    0.1280914 -26.42 0.0004101967    1.538    0.350
       246  -9.2031    118.7901     21.2999   5.8820279533e+01   5.3401218284e+01    0.3017941    0.2718697 -59.09 0.0005696762    1.177    0.150
       247  -8.2369    230.2027    168.0655   7.7531583170e+01   6.9394139841e+00    0.2330853      0.14924 -32.83  0.001102743    1.813    0.449
       248  -8.1897    139.8250     18.0877   5.3049697775e+01   4.8262299036e+01    0.2407958    0.1954083 -57.57 0.0005138133    1.317    0.241
       249  -8.6982    207.0960    167.1145   8.1051524555e+01   1.0997428939e+01    0.1754618    0.1423828  27.11 0.0002760981    1.008    0.008
       250  -8.7886    132.5384     17.0538   5.4018476298e+01   5.0352634717e+01    0.2520564    0.2254234  74.04 0.0007089414    1.144    0.126
       251  -7.7957    192.5083    164.9857   8.3155855246e+01   1.3842974615e+01    0.1600429    0.1214489 -32.75 0.0005413811    1.523    0.343
       252  -8.8720     72.0373    165.0154   1.0729312291e+02   3.3896779488e+01    0.1727688    0.1383897  63.33            0    1.028    0.027
       253  -7.4046    135.2027    160.9920   9.3333710510e+01   2.4730534143e+01    0.1385442    0.1021113 -53.21            0    1.586    0.370
       254  -7.6082    189.3947     15.8137   4.4942074580e+01   3.4837376291e+01    0.2057253     0.140576  -0.96 0.0004151124    1.674    0.403
       255  -7.3715    120.0000     15.9509   5.6177489654e+01   5.3794647350e+01    0.2517537   0.08390438 -25.69 0.0008080594    2.982    0.665
       256  -8.5100    112.4856     15.6181   5.7772452885e+01   5.5758040453e+01    0.2720821    0.2341428 -50.02 0.0006245187    1.223    0.182
       257  -7.9594    234.9753    155.7471   7.4554492379e+01   7.4134662328e+00    0.1505194   0.08919061  41.48 0.0003161004    1.498    0.333
       258  -8.3277    133.9830    147.5650   9.1392020722e+01   2.7224684356e+01    0.4197015    0.1486151 -57.12  0.001482636    4.223    0.763
       259  -8.6090    237.2491    146.5680   7.2451454514e+01   7.9897866632e+00    0.1803963   0.09508374  35.91 0.0009565636    1.702    0.412
       260  -7.1948    176.2586     14.3270   4.6015188289e+01   3.8606102652e+01    0.1521704    0.1108509  27.94 0.0003902333    1.558    0.358
       261  -7.6307    168.0597     13.7010   4.6863057671e+01   4.0950838488e+01    0.2112356    0.1887502  82.32 0.0004720996    1.121    0.108
       262  -9.3082     66.7640    144.0469   1.0618620880e+02   3.8700564278e+01    0.4420621    0.2113235  56.35  0.002218542    1.973    0.493
       263  -7.4062    226.0280    142.9250   7.3447929063e+01   1.0407731505e+01    0.1481209    0.1252225   5.94 0.0003654473    1.077    0.072
       264  -7.1877     95.6292    136.2632   9.8182108752e+01   3.6000485561e+01    0.1373687   0.08731329  66.12  0.000432742    1.657    0.397
       265  -8.6457    112.5220    134.0589   9.3820224347e+01   3.3569828563e+01    0.3279757    0.2108635  74.14  0.001028161    1.980    0.495
       266 -10.1288    134.0541    131.8082   8.8504732380e+01   3.0015724770e+01    0.5095104    0.3414382  49.54  0.002681574    1.355    0.262
       267  -7.9499     85.9894    134.0000   1.0016754636e+02   3.7982933138e+01    0.2850659    0.1279844  46.48 0.0009934308    2.003    0.501
       268  -8.6252     82.4976    131.0208   1.0057897666e+02   3.9130339081e+01    0.3343406    0.1908596  86.30  0.001522456    2.353    0.575
       269 -10.7564     70.3620    126.6474   1.0301339803e+02   4.1825031573e+01    0.6740986    0.6105452  37.94  0.001918464    1.327    0.247
       270 -10.2165     58.3574    124.6573   1.0587429977e+02   4.3866264295e+01    0.6094602    0.2925876  72.81  0.002543578    2.794    0.642
       271  -9.8157     98.4948    128.5833   9.6221494419e+01   3.7072841143e+01     0.558553    0.3069968  72.45    0.0022851    2.782    0.641
       272  -7.2081      1.5008    131.4968   1.2113417768e+02   4.8048756201e+01    0.1110696   0.08141097  75.09 -0.000176858    1.000    0.000
       273  -7.8683    160.6839    128.4907   8.2166640682e+01   2.5299373626e+01    0.2404023    0.1277121 -40.81  0.001096333    2.063    0.515
       274 -10.4693    140.7069    117.8108   8.4139537198e+01   3.1250738325e+01    0.7071463    0.3685127 -52.67  0.001252132    2.196    0.545
       275  -9.0511    126.0324     83.8616   7.9246183103e+01   4.0814550046e+01    0.4984294    0.3493059   4.46  0.001929143    2.545    0.607
       276 -10.3683    128.7019    100.3752   8.2898899110e+01   3.7028614991e+01    0.9230068    0.5297392 -26.04  0.002791595    2.896    0.655
       277 -10.5875    123.1117     92.1875   8.2218567764e+01   3.9806783941e+01    0.7183806    0.5668803 -39.12  0.001534863    1.359    0.264
