#   1 NUMBER                 Running object number                                     
#   2 MAG_AUTO               Kron-like elliptical aperture magnitude                    [mag]
#   3 X_IMAGE                Object position along x                                    [pixel]
#   4 Y_IMAGE                Object position along y                                    [pixel]
#   5 X_WORLD                Barycenter position along world x axis                     [deg]
#   6 Y_WORLD                Barycenter position along world y axis                     [deg]
#   7 A_WORLD                Profile RMS along major axis (world units)                 [deg]
#   8 B_WORLD                Profile RMS along minor axis (world units)                 [deg]
#   9 THETA_WORLD            Position angle (CCW/world-x)                               [deg]
#  10 FWHM_WORLD             FWHM assuming a gaussian core                              [deg]
#  11 ELONGATION             A_IMAGE/B_IMAGE                                           
#  12 ELLIPTICITY            1 - B_IMAGE/A_IMAGE                                       
         1 -12.2661    119.6808     38.3306   2.8260334435e+01   5.0043603757e+01    0.9355769    0.4103011 -48.53  0.003141229    2.388    0.581
         2 -11.1728     61.4129     35.8000   4.5127909245e+01   6.4701927853e+01    0.6103033    0.4040648  -9.13   0.00254083    2.560    0.609
         3 -11.6778     57.3500     30.9720   4.4619551039e+01   6.6429096576e+01    0.7660431    0.4863594 -31.52  0.001562194    1.820    0.450
         4 -12.2903    104.8218     13.2927   2.1447804946e+01   5.7062627508e+01    0.5926161    0.4318001 -56.54  0.001733756    1.386    0.279
         5 -13.1081    105.3919     20.4246   2.4298890729e+01   5.6107588553e+01    0.3433643    0.2980192 -76.39 0.0004828724    1.101    0.092
         6 -10.4624     12.7046      2.1667   5.7495120593e+01   7.9464514900e+01    0.2735078    0.1888268  21.83 0.0008496523    1.359    0.264
         7 -11.2775      6.4700     10.6860   7.0818850728e+01   7.8597382584e+01    0.5959721    0.5244936  43.45  0.003843874    1.330    0.248
         8 -10.6381     12.8351      8.5405   6.2325446460e+01   7.8314781560e+01    0.5397526    0.2539956 -57.53  0.001471249    2.638    0.621
         9 -11.6716     26.3369     28.3932   6.2173951267e+01   7.2603380248e+01    0.4960314    0.3888753 -59.03  0.002113234    1.430    0.301
        10 -11.8894     20.3488     22.0939   6.3655400838e+01   7.4712789752e+01    0.7158258    0.3967206 -38.53  0.002489765    1.907    0.476
        11 -12.0818     15.7126     14.7040   6.3525714521e+01   7.6778272612e+01    0.8085301    0.4058156 -29.72  0.003481667    2.601    0.615
        12 -12.0909     22.5262     10.9698   5.4717205346e+01   7.6489731283e+01     0.572454    0.3965861  23.74   0.00186108    1.414    0.293
        13 -11.1964    136.5625     22.0910   1.9742174335e+01   4.7854882871e+01    0.8191866    0.4687281 -67.95  0.003816852    1.833    0.454
        14 -11.3364    127.6547     16.5036   1.9034836371e+01   5.0764924115e+01    0.5553344    0.3749152 -30.93  0.001131824    1.587    0.370
        15 -11.2337    202.2969     25.2474   1.4136402712e+01   3.2298126192e+01    0.4622224    0.2934676  78.25  0.002794612    1.640    0.390
        16 -11.9321     48.0550     12.7986   3.8783188881e+01   7.1276445267e+01    0.9622002    0.3603055  56.51  0.003648842    2.627    0.619
        17 -11.8526     35.4662     18.3428   4.9783932307e+01   7.2996128994e+01    0.6963482    0.2980784 -35.97  0.002817267    2.723    0.633
        18 -10.9114    135.0208     14.9206   1.7509453221e+01   4.9048988955e+01    0.6377051    0.3169439  72.46  0.002933781    1.827    0.453
        19 -11.0741     67.8343     19.0666   3.3926141944e+01   6.5837608097e+01    0.4253753    0.3393611 -58.26  0.001087372    1.417    0.294
        20 -11.6736    165.6868     16.6817   1.4827157411e+01   4.1322261586e+01    0.3496329    0.2403161  77.72  0.001169984    1.397    0.284
        21 -10.6314    147.5329     16.5329   1.6581388111e+01   4.5729580642e+01    0.6388595     0.250956  44.74  0.002183157    4.302    0.768
        22 -11.6468    228.6779     15.9548   1.0457665036e+01   2.8199361715e+01     0.247278    0.2047863  86.01 0.0003663697    1.386    0.279
        23 -11.1376    225.7054     13.6876   1.0116667761e+01   2.8981558280e+01    0.2199742     0.164755 -43.74 0.0003643385    1.154    0.133
        24 -11.1200     85.7501     14.3694   2.6044073794e+01   6.1918363564e+01    0.3982658    0.3203599   4.44  0.001757599    1.583    0.368
        25  -9.7656    187.0109     15.0288   1.2687554447e+01   3.6656455024e+01    0.2284587    0.1896014  54.78  0.000590759    1.538    0.350
        26 -10.6391    190.7688     13.0379   1.1926814211e+01   3.6050985434e+01    0.3009509    0.1389143 -40.05  0.001188798    1.743    0.426
        27 -10.8035    192.4417      8.7859   1.0756168165e+01   3.6128196378e+01    0.3075254    0.2273019 -38.07  0.001973734    1.288    0.224
        28 -11.0097    193.6724      5.6629   9.9097500858e+00   3.6176402801e+01    0.2698927    0.1642489  73.90  0.001214766    1.703    0.413
        29 -10.3266    218.9484     12.5563   1.0202063602e+01   3.0370889668e+01    0.2283193    0.1579082 -52.94  0.001558215    1.080    0.074
        30 -11.3983    206.2755      2.7537   8.5817419021e+00   3.3843363506e+01    0.4680017    0.2093599 -87.20  0.002073122    2.202    0.546
        31 -11.8865    212.1195      9.4268   9.8403104676e+00   3.2016792764e+01    0.5105618     0.341171 -12.68  0.002549024    2.071    0.517
        32 -10.9613    218.5475      3.8282   8.2891823427e+00   3.1320604323e+01    0.2694217    0.2191169 -77.36 0.0009643045    1.222    0.182
        33 -11.2181    223.8306      2.9275   7.8782034401e+00   3.0405391812e+01    0.4016701     0.191831 -67.38  0.000382344    1.807    0.447
        34  -9.5462    121.0459     11.7497   1.8223362750e+01   5.2980456699e+01    0.3441739    0.1504934  81.03  0.000944989    2.266    0.559
        35 -10.4509    168.6565      9.6667   1.2586912420e+01   4.1361000437e+01    0.4427614    0.1763128  63.85  0.001992602    2.504    0.601
        36  -9.6517    163.4954      9.5148   1.2947862346e+01   4.2589859597e+01    0.2550085     0.119551 -28.29  0.001050341    2.151    0.535
        37 -10.0660    163.4972      6.4814   1.2069049626e+01   4.2890025970e+01    0.4596979    0.2510765  22.93  0.001801054    4.301    0.768
        38  -9.5589    145.1857      9.7475   1.4658824896e+01   4.7021921903e+01    0.2150009    0.1622937  28.24 0.0006471972    1.873    0.466
        39 -11.8923    244.8373      5.1040   7.5506841693e+00   2.6436806757e+01    0.5861765    0.3291005 -70.05  0.004029495    1.565    0.361
        40 -10.9034    232.6154      7.2744   8.4505995847e+00   2.8365657326e+01    0.2427663    0.1627332 -72.96  0.001188005    1.330    0.248
        41 -11.5335    233.4239      2.7037   7.4694597811e+00   2.8665761535e+01    0.3446644    0.1569025 -56.72  0.002089044    1.651    0.394
        42  -9.8124      1.1295      7.7875   7.5601924180e+01   7.9633551618e+01    0.3485278   0.09245086 -60.53  0.001327703    3.408    0.707
        43 -10.8776      2.1640      2.1256   7.0607713569e+01   8.0690079718e+01    0.3641371    0.2303158  -4.52  0.002017239    1.620    0.383
        44 -10.9631    184.8690      6.5060   1.0629583550e+01   3.7999901269e+01    0.4224481    0.1910661 -51.48  0.001613953    1.778    0.437
        45 -10.3607    187.4387      2.5817   9.4747598035e+00   3.7817718291e+01     0.307929    0.1700263 -73.89  0.001724917    1.600    0.375
        46  -8.7989     89.3354      7.2910   2.1815761708e+01   6.1733766465e+01     0.144297   0.09386618  44.52 0.0007022788    1.637    0.389
        47  -9.4683     77.9785      7.4736   2.4577957304e+01   6.4659338133e+01    0.2957077    0.1898994 -85.74 0.0008190119    1.774    0.436
        48 -10.7344     73.7773      3.3239   2.3445891332e+01   6.6139385742e+01    0.6728501    0.2841074  58.34   0.00288142    1.967    0.492
        49 -10.3548    176.8885      5.9109   1.0972369553e+01   3.9841487491e+01    0.3463066    0.1485941 -87.28  0.001072229    2.334    0.571
        50 -10.5409    154.0105      6.3052   1.2771588650e+01   4.5185879826e+01    0.1890301    0.1523437 -80.62 0.0008165102    1.063    0.059
        51 -10.7517    122.4496      5.1191   1.5557926482e+01   5.3261632414e+01    0.2408002    0.1952781  87.48 0.0003150945    1.068    0.064
        52 -10.4723     41.4947      3.9640   3.6134416912e+01   7.3856537537e+01     0.334762    0.2322428  19.46 0.0009419643    1.722    0.419
        53 -11.6374    133.8859      2.7334   1.3444160856e+01   5.0537459117e+01    0.4568383    0.2938287  84.25  0.002234345    1.369    0.270
        54  -9.0895    128.6613      1.2693   1.3456492219e+01   5.2003106019e+01    0.1377488    0.1157946 -86.04 0.0007613479    1.029    0.028
        55  -9.9956    157.2139      3.4486   1.1651870874e+01   4.4681288133e+01    0.2218449    0.1556208 -58.59  0.001021305    1.213    0.176
        56 -10.0701    152.7999      1.4335   1.1376383289e+01   4.5936811639e+01    0.2899966    0.1354934  83.20 0.0007685783    1.950    0.487
        57 -10.3269    141.7550      3.6120   1.2991048551e+01   4.8469091691e+01    0.2951029    0.2297295  84.44  0.001665005    1.156    0.135
        58 -10.6280    113.1550      2.7595   1.5826782197e+01   5.5897612607e+01    0.3280912    0.2441094 -77.73  0.001833738    1.224    0.183
        59 -10.9635    105.4989      2.1033   1.6622104667e+01   5.7963841567e+01    0.4791813    0.2668385 -80.48  0.002222998    1.852    0.460
        60  -9.8581     29.4950      1.9992   4.2107034365e+01   7.6612613442e+01    0.1955598    0.1788441 -27.72 0.0005670573    1.222    0.182
        61  -9.6937     25.8726      3.8383   4.6395904967e+01   7.7048707552e+01    0.1837381     0.162665  29.19 -0.0006383859    1.027    0.026
        62 -10.5357     22.3160      3.0259   4.8701742783e+01   7.7805897322e+01    0.2307207    0.2094057  17.28 0.0005207298    1.047    0.045
        63  -9.2378     33.5263      1.5257   3.8958443703e+01   7.5856922721e+01    0.1316056    0.1150823  37.17 0.0001301305    1.004    0.004
        64 -10.2561     61.8450      6.8314   2.9126084778e+01   6.8781062185e+01    0.3182504    0.1891014  55.93 0.0009639298    1.457    0.314
        65 -11.4561    104.3733    122.2042   5.7528824331e+01   3.6755149741e+01    0.3822889    0.3224354  48.87 0.0005729933    1.167    0.143
        66 -10.4568     50.6925    249.9852   8.8545592540e+01   1.5944027494e+01    0.1660277    0.1322489  37.96  0.001162544    1.077    0.072
        67  -9.8234     49.6784    123.0680   7.6590336372e+01   4.5534997780e+01    0.3091805    0.2075728  -0.20   0.00131916    1.952    0.488
        68  -9.2415     19.1728    123.3941   8.8743101745e+01   4.8672246742e+01    0.2006263     0.122136  35.35 0.0003620642    1.547    0.354
        69  -9.5679     56.2528    122.3743   7.3955692839e+01   4.4831624776e+01    0.2264177    0.1296821  39.85 0.0007083651    1.643    0.391
        70  -9.9985     44.5422    120.0284   7.8106277579e+01   4.7016671802e+01     0.341186    0.2200649  76.39 0.0008733935    1.806    0.446
        71  -9.9293     43.6533    116.2169   7.7841515323e+01   4.8171384207e+01    0.3883395    0.2159875  31.94  0.001634004    1.702    0.412
        72  -9.3422     33.3449    119.2983   8.2509626375e+01   4.8496580548e+01    0.1555992    0.1098107 -32.44 0.0007035439    1.675    0.403
        73  -9.6074     57.9563    115.4629   7.2014276395e+01   4.6443199957e+01    0.3937727    0.2114978 -81.62  0.001438905    2.484    0.597
        74  -9.7231     37.4562    116.2980   8.0390002424e+01   4.8879796741e+01    0.2841133    0.1361789 -64.57  0.001117643    2.001    0.500
        75 -10.2668      7.6761    114.9474   9.2743072591e+01   5.1821155641e+01    0.3969925    0.2432164 -61.54  0.001131889    1.594    0.373
        76 -12.2002      2.4953    111.9018   9.4727305436e+01   5.2947263355e+01    0.4837249    0.3419378 -82.05 0.0008090672    1.329    0.247
        77 -11.2960      5.0471    105.2425   9.3131724066e+01   5.4657441918e+01     0.535593    0.3704697   5.79   0.00270182    1.575    0.365
        78  -9.7155     79.7168    114.9596   6.3856140689e+01   4.3052923172e+01    0.3898769    0.2816908 -88.88  0.001712781    1.735    0.424
        79  -8.7723    113.5101    115.5309   5.3314354895e+01   3.6522452298e+01    0.1527356    0.1458564  74.86  0.000118038    1.057    0.054
        80 -11.3812     42.3088     92.7915   7.3978018411e+01   5.4732432110e+01      1.28679    0.5208201 -56.08  0.001920955    2.334    0.572
        81 -10.2433     35.4239     92.8070   7.7209998635e+01   5.5576908245e+01    0.3852125     0.287944 -78.85  0.001741288    1.375    0.273
        82 -11.2122     16.4137    108.9058   8.8412762500e+01   5.2914348114e+01    0.6660055    0.3311664 -57.70  0.001941423    1.939    0.484
        83 -12.1367      9.1404     97.1919   9.0506067011e+01   5.6660161915e+01    0.5314971    0.4859811  34.93            0    1.118    0.106
        84 -11.6028      7.1354     88.7638   9.0601744778e+01   5.9102753124e+01    0.8742911    0.4921617  15.51  0.002862877    1.838    0.456
        85 -10.8603     26.8346     85.9757   8.0104369059e+01   5.8364254958e+01     1.022551    0.5507079  20.66  0.004346564    1.894    0.472
        86 -11.9473     42.4547     85.1689   7.2167076646e+01   5.6749900919e+01     1.119973    0.4496306  18.38  0.003229724    3.365    0.703
        87 -12.4841     17.7434    100.6183   8.6836854417e+01   5.5121159956e+01    0.4619002    0.3747714  25.18 0.0006887173    1.252    0.202
        88 -11.7646     25.3152    107.3706   8.4285307032e+01   5.2601390967e+01     1.468469    0.7009875 -11.49  0.004930726    3.464    0.711
        89 -11.1257     22.5529     94.4995   8.3694061601e+01   5.6422951894e+01    0.3808155    0.3195181 -19.13 0.0009098857    1.306    0.234
        90 -10.9629     17.8289     91.1509   8.5514268142e+01   5.7739363688e+01    0.4107525    0.3149299  64.41  0.001121972    1.345    0.257
        91 -11.7511     21.4220    114.6218   8.6885392336e+01   5.0924079460e+01    0.8696861    0.3216785   9.81  0.001779307    3.402    0.706
        92 -11.2825     28.3813    112.8802   8.3703955036e+01   5.0778959900e+01    0.4526297    0.3477805 -35.71  0.001972754    1.454    0.312
        93  -9.1819     67.3691    114.6885   6.8267848230e+01   4.5201434997e+01    0.1708764    0.1130277  62.43 0.0007036099    1.769    0.435
        94  -9.5362    104.8407    112.8652   5.5189169537e+01   3.8849807066e+01    0.2777781    0.2155253  28.03  0.001081386    1.405    0.288
        95 -10.0553     48.6118    112.0470   7.5090316241e+01   4.8675514579e+01    0.3467965    0.2143963  31.24  0.001512972    1.562    0.360
        96  -9.6877    101.4816    109.6806   5.5425485563e+01   4.0257442551e+01    0.2788937    0.1989367  16.95  0.001195953    1.872    0.466
        97 -11.4435     80.0080    108.2698   6.2202218980e+01   4.4691220986e+01    0.5063878    0.3417301  32.09 0.0009825677    1.510    0.338
        98  -9.6751    181.9955    104.6629   3.5639814011e+01   2.5028296360e+01     0.200027    0.1659954  30.29  0.001070232    1.409    0.290
        99 -10.3970     89.0032    104.9631   5.8266188321e+01   4.3826626345e+01    0.4467552    0.2385837  34.65 0.0006870063    1.945    0.486
       100 -10.0062     85.5723    103.5151   5.9073357936e+01   4.4837732345e+01    0.2665357    0.2377773 -60.00  0.000541907    1.142    0.124
       101  -9.7938     45.8919    104.6433   7.4822994743e+01   5.1051540070e+01    0.4966449     0.125602 -52.02  0.001414525    3.796    0.737
       102 -10.6879     52.0455     99.0945   7.1024874722e+01   5.1693818207e+01    0.6937868    0.2778423 -48.17  0.001304593    2.677    0.626
       103  -9.4288     64.6887    101.7152   6.6401807211e+01   4.9030592231e+01    0.2751349    0.1145649 -50.25 0.0002104341    2.453    0.592
       104 -11.7360     68.6550     95.7644   6.3356345286e+01   4.9884421582e+01    0.5846844     0.397768  22.97 0.0006501147    1.677    0.404
       105  -8.9492     28.2900    100.2834   8.1889949654e+01   5.4286517772e+01    0.1494884    0.1082686 -35.84  0.000307726    1.531    0.347
       106 -10.4390     79.7614     84.2505   5.5861230566e+01   5.0619436141e+01    0.4970238    0.4032091 -43.82  0.002088221    1.304    0.233
       107 -10.9631     76.5453     79.6925   5.5696937544e+01   5.2334395142e+01    0.6484538    0.4233791 -56.08  0.002847247    1.597    0.374
       108 -10.4252     72.5639     78.2487   5.6814523787e+01   5.3461938978e+01    0.3914297    0.3436724 -79.06  0.001991715    1.213    0.176
       109 -10.8994     77.9695     96.6996   6.0031447593e+01   4.7955407466e+01    0.4807792    0.3130566  57.66  0.001527703    1.731    0.422
       110 -11.0202     79.7791     92.8955   5.8334889373e+01   4.8543938272e+01    0.9644315      0.54436  45.94  0.003917788    1.740    0.425
       111 -11.0929     89.2603     89.5395   5.4009452369e+01   4.7448462749e+01    0.5720462    0.4061249 -30.46   0.00250447    1.773    0.436
       112  -9.7974     89.5006     84.5580   5.2460857014e+01   4.8545136131e+01    0.3019449    0.2424235  70.62 0.0007405367    1.367    0.268
       113  -9.6497     31.3717     96.0723   7.9741790663e+01   5.5133101530e+01    0.4635399    0.3144839  73.96  0.002112633    1.663    0.399
       114 -11.9829    125.7674     94.8454   4.4700627837e+01   3.8441767096e+01    0.2856885    0.2649927 -51.60 0.0002643993    1.074    0.069
       115 -10.7424    121.5471     93.9819   4.5551422606e+01   3.9541945978e+01    0.9990187     0.269877 -48.02  0.002849523    3.859    0.741
       116 -11.1589     98.5628     91.1472   5.1396478342e+01   4.5132670943e+01    0.4020533    0.2449316  51.22  0.001690659    1.650    0.394
       117 -10.2427     49.7514     91.4896   7.0283313577e+01   5.4050551715e+01    0.4215811    0.2746936  46.41  0.001870508    1.545    0.353
       118  -9.8132     66.3209     88.7943   6.2444771150e+01   5.2057168979e+01    0.3585968    0.2491561   5.18   0.00142996    2.105    0.525
       119 -10.1265    104.1132     87.3193   4.8566996684e+01   4.4785548697e+01    0.2730952    0.2119695 -38.57  0.001298014    1.392    0.282
       120 -10.3626    143.3317     84.5167   3.7798472065e+01   3.6574194084e+01    0.2547066    0.2378365 -68.31 0.0004923878    1.013    0.013
       121  -9.5437    133.9195     84.9942   4.0003920154e+01   3.8593705319e+01    0.2461165    0.1780315 -83.87  0.001119197    1.782    0.439
       122 -10.9074    112.9410     83.1322   4.4769555164e+01   4.3710623470e+01    0.4372583    0.2619641  61.96  0.001395977    1.897    0.473
       123 -10.3215     67.1474     81.6743   6.0071192906e+01   5.3670374313e+01    0.3590017    0.2962793 -18.58  0.001731323    1.483    0.326
       124  -9.4729     46.8497     75.2953   6.7425230587e+01   5.8686153672e+01     0.282062    0.2597098 -88.00  0.001123474    1.131    0.116
       125 -11.3086     53.3509     76.2706   6.4573969938e+01   5.7416252233e+01    0.6662573    0.4837351 -70.82  0.003114441    1.519    0.342
       126 -10.7982     58.1787     77.7346   6.2784911896e+01   5.6240545551e+01    0.4127221    0.2952998 -76.52 0.0005684161    1.661    0.398
       127  -9.7825    103.0126     79.6887   4.6603885543e+01   4.6668434546e+01    0.2785174    0.2160771 -47.38 0.0006332982    1.315    0.240
       128  -9.6864      1.4887     80.1683   9.2670144910e+01   6.1722114614e+01    0.2084911    0.1295483 -78.34 0.0006495133    1.509    0.337
       129  -9.0905     88.6955     73.2914   4.9193931590e+01   5.1221967754e+01    0.2278121    0.1985739 -66.60 0.0004761159    1.189    0.159
       130 -10.1531     92.8523     72.5535   4.7544138960e+01   5.0458530995e+01    0.4242657    0.2912381 -85.61  0.001417038    2.147    0.534
       131 -10.2826     87.9972     77.4740   5.0790512711e+01   5.0457941461e+01    0.5076349    0.3305045  68.80  0.002025879    2.012    0.503
       132 -10.3555     93.5004     76.6930   4.8672796338e+01   4.9428889366e+01    0.6516101    0.2272965  46.19   0.00210542    2.788    0.641
       133 -11.6830     13.9457     74.6905   8.5000201755e+01   6.2523840099e+01    0.5155878    0.3851077  76.37  0.002162225    1.437    0.304
       134  -9.2775    158.9114     76.3239   3.2560706906e+01   3.4557403227e+01    0.1838525    0.1733911  82.43 0.0004204663    1.095    0.087
       135  -8.9452    112.4871     75.5008   4.2570718983e+01   4.5364831116e+01    0.1540523    0.1441804  88.13 3.931511e-05    1.027    0.027
       136  -9.8707    103.3554     74.8072   4.4967264753e+01   4.7609278245e+01    0.3385315    0.2362716  75.10   0.00147023    1.777    0.437
       137  -9.7272     24.8483     74.0736   7.8730968056e+01   6.1766723940e+01    0.3179223    0.2292127 -59.03 0.0008222041    1.338    0.253
       138 -10.2159     81.1745     73.0158   5.1800141705e+01   5.2904942306e+01    0.3959487    0.2100072 -40.80 0.0009093994    2.114    0.527
       139 -10.3232     78.6354     67.5984   5.0920822392e+01   5.4636179167e+01     0.447571     0.337655  75.75  0.002057497    1.613    0.380
       140  -9.3756     65.8488     74.5970   5.8442366664e+01   5.5617604108e+01    0.2241731    0.1372695  49.50 0.0003478253    1.667    0.400
       141 -10.4984     32.6731     73.9213   7.4397919935e+01   6.0956438285e+01    0.5045911    0.3836896 -69.92  0.001751132    1.337    0.252
       142 -11.8258     40.7535     69.4699   6.8856644301e+01   6.1052815326e+01    0.5716971    0.3757778 -59.13  0.001564091    1.523    0.344
       143 -10.7469      2.0838     71.5345   9.1399495749e+01   6.4032577453e+01    0.3974964    0.2306741 -73.78   0.00127701    1.601    0.375
       144 -12.5398      6.5545     61.4627   8.7212333375e+01   6.6503916076e+01    0.9194955    0.5601395 -28.98  0.003247835    1.716    0.417
       145 -10.0453    186.7787     72.4729   2.7272083618e+01   2.9247330463e+01    0.2743862    0.2236406 -45.85  0.001662067    1.077    0.072
       146  -9.7897    153.7196     72.6152   3.2477523960e+01   3.6342775077e+01    0.3711256    0.1465426  46.95  0.001349976    2.981    0.665
       147  -9.6664     14.8792     67.3146   8.3101147351e+01   6.4427818190e+01     0.384513    0.2648414  -0.39  0.001904024    1.568    0.362
       148 -11.1521    122.9392     68.9322   3.7826777340e+01   4.4168796265e+01    0.5179147    0.2926965  52.25  0.001685486    1.750    0.429
       149 -10.9544     36.3711     71.1995   7.1689730888e+01   6.1204961862e+01    0.3616042    0.2536082 -45.68 0.0004830492    1.454    0.312
       150  -9.2408    217.4957     66.4813   2.2311481209e+01   2.4206219264e+01    0.1214885   0.09935394 -45.62 1.641373e-05    1.037    0.035
       151 -10.7083     88.2508     56.2218   4.3335505992e+01   5.4817959469e+01    0.6367026    0.2867871 -40.06  0.001990332    2.390    0.582
       152 -10.0874     96.4524     65.2910   4.3928601298e+01   5.1130419605e+01    0.2668689    0.2510659  49.31  0.001201213    1.094    0.086
       153 -10.9177     92.4799     62.7571   4.4316134131e+01   5.2556240339e+01    0.4273283    0.2916931  65.33  0.001086622    1.590    0.371
       154 -10.8857    201.7355     64.7984   2.3595558491e+01   2.7386745504e+01    0.2675581    0.1966196  69.09 0.0002517443    1.530    0.346
       155  -8.7699    192.3145     65.6786   2.4906721301e+01   2.9127725610e+01    0.1372335   0.08559471 -61.62 0.0003875294    1.657    0.397
       156  -9.1852     52.1668     65.6526   6.1798908147e+01   6.0210146193e+01     0.211702    0.1404775  24.94 0.0006061838    1.642    0.391
       157 -10.4452    157.7795     63.4656   2.9228358874e+01   3.6915839130e+01    0.4125859    0.2154629  46.24 0.0009870896    2.311    0.567
       158  -9.8411    106.1348     63.2696   4.0351352047e+01   4.9239604059e+01    0.3859932    0.1709547  47.77  0.001424735    2.253    0.556
       159  -9.4812     57.9137     62.1343   5.7798004651e+01   6.0010018280e+01    0.3992005     0.274748 -85.21  0.001683163    2.159    0.537
       160 -10.1957     63.9026     61.3797   5.4774764972e+01   5.9034401811e+01    0.4959013    0.3225396  37.39  0.002229612    1.525    0.344
       161  -7.4563     50.8058     56.6034   5.9274542976e+01   6.2555608442e+01    0.4690736    0.3484543  44.03  0.002313608    1.316    0.240
       162 -11.5746     40.3494     56.9837   6.5067283187e+01   6.4177547941e+01    0.4126787    0.2739108  44.37 0.0005652239    1.533    0.348
       163 -11.1753     43.0433     61.9298   6.5268413007e+01   6.2581782058e+01    0.3352573      0.29471 -42.62  0.001089795    1.162    0.139
       164 -10.2902     50.7956     61.5715   6.1083129373e+01   6.1409923902e+01    0.3738486    0.2594637  43.33  0.001520821    1.412    0.292
       165 -10.7822     46.2070     59.1937   6.2628311669e+01   6.2735386279e+01    0.3633203    0.2879529  70.74 0.0009586281    1.515    0.340
       166 -10.1403    234.1991     62.1930   1.9858423620e+01   2.1860204490e+01    0.1981402   0.09732734 -57.55  0.001059439    2.090    0.521
       167  -9.3481    228.4847     62.5414   2.0426216949e+01   2.2787005550e+01    0.1170488   0.09398469 -44.02 -0.0001010813    1.056    0.053
       168 -11.2807     75.4915     54.5057   4.7308836345e+01   5.8058368206e+01    0.3646738    0.3302009  39.74  0.001265708    1.114    0.102
       169 -12.1617     73.0129     48.2752   4.5775001441e+01   5.9830635069e+01     1.174592    0.5127153 -55.32   0.00243807    3.203    0.688
       170  -9.6906    113.8834     61.1718   3.7561012585e+01   4.7762382156e+01    0.2420594    0.2000579 -78.28  0.001227094    1.265    0.210
       171  -9.3682     91.5194     57.4830   4.2722457491e+01   5.3810555559e+01    0.2985772    0.1463969  54.55 0.0008595292    1.998    0.499
       172 -10.1869    124.7715     56.4666   3.3402846570e+01   4.5924879933e+01    0.4248073    0.2670679 -20.07  0.001507891    2.306    0.566
       173 -11.5988    118.0686     55.6693   3.4672871270e+01   4.7707768261e+01     1.439231    0.7466455 -74.80  0.004106813    4.803    0.792
       174 -11.0456    110.5994     40.4109   3.1005111041e+01   5.2045670334e+01    0.7035149    0.4629717 -52.02  0.001421225    1.568    0.362
       175  -9.2581    113.4638    249.4824   7.4489908931e+01   9.4545802492e+00    0.1192646   0.09103532  17.51 0.0008090051    1.039    0.037
       176 -10.8629    116.0125     48.9927   3.2852518999e+01   4.9331243468e+01    0.4160598    0.3045365  38.06  0.001769776    1.648    0.393
       177 -11.1372    117.5752     44.5430   3.0925604447e+01   4.9645707239e+01    0.5445138    0.3498294 -74.37  0.001393689    1.918    0.478
       178  -8.6660     29.5020     60.5016   7.2556969085e+01   6.4779755894e+01     0.372261    0.2395449 -71.16  0.001440699    1.685    0.407
       179 -10.0715     25.3647     59.9384   7.4915070609e+01   6.5390589631e+01    0.5542136    0.3200374  30.39  0.002087011    1.685    0.407
       180 -11.1912     25.0829     55.9803   7.3944840665e+01   6.6416669085e+01    0.6734529    0.3696516  20.16  0.002317311    1.861    0.463
       181 -10.1381     30.5470     53.5411   6.9716917075e+01   6.6369138874e+01    0.2898051    0.2756568  44.11 3.216992e-05    1.088    0.081
       182 -10.2520     33.6734     51.6743   6.7124352888e+01   6.6401622803e+01     0.270587    0.2291094 -24.39 0.0008525897    1.239    0.193
       183  -8.6937    135.3376     59.3381   3.2092404963e+01   4.2872020872e+01    0.1463472    0.1156487  23.28 -0.001141135    1.756    0.431
       184 -10.5170    106.2019     58.2474   3.8598524456e+01   5.0155857918e+01    0.3919395    0.2425606  80.08  0.001324301    2.239    0.553
       185  -9.7304     80.2304     58.6791   4.7100003136e+01   5.6164251666e+01    0.2985201    0.2139908 -33.77 0.0007211182    1.607    0.378
       186 -10.5579    156.6838     54.0176   2.6724059782e+01   3.8626554294e+01    0.6564293    0.3522484 -64.93  0.002753578    2.313    0.568
       187  -9.6669    201.1235     53.3646   2.0963456755e+01   2.9067008523e+01    0.2019192    0.1523333 -31.99 0.0003467151    1.318    0.241
       188  -9.1160    139.6365     54.2766   2.9691071996e+01   4.2650212133e+01    0.1523715    0.1036798 -75.62 0.0007008343    1.669    0.401
       189 -10.9608     61.3196     47.7555   5.0575337968e+01   6.2446648367e+01    0.8811551    0.4951212 -33.93   0.00361973    2.210    0.548
       190  -9.6024     55.8476     50.5175   5.4341281186e+01   6.2965086040e+01    0.2128821    0.1413428  39.82 0.0003567509    1.447    0.309
       191  -9.1170     96.9892     52.6451   3.9216076926e+01   5.3404126880e+01    0.2940305    0.2439195 -74.66  0.001495818    1.289    0.224
       192  -8.9141     93.5230     52.5418   4.0236389026e+01   5.4258830324e+01    0.2126679    0.1389803  44.82 0.0004471248    1.559    0.358
       193 -10.2250     51.7487     48.2041   5.5455422660e+01   6.4233771064e+01    0.3015081    0.2400966  31.85 0.0006200418    1.243    0.195
       194 -11.0463     46.4322     48.7858   5.8540217894e+01   6.5066611969e+01    0.5499853    0.4129542 -12.82   0.00265068    1.714    0.416
       195 -11.6863     44.1646     43.9704   5.7782684722e+01   6.6502374513e+01    0.3912784    0.3767638 -89.40 0.0003043898    1.134    0.118
       196 -10.6190     39.7160     44.2324   6.0509830818e+01   6.7192905840e+01    0.3905671    0.2723956  14.47  0.001159866    1.679    0.404
       197  -9.8416    239.9304     50.8145   1.7062425107e+01   2.2302259991e+01    0.1570162    0.1366633 -35.32 0.0005608845    1.252    0.201
       198 -10.0625    145.8877     48.8114   2.6911419299e+01   4.1972556118e+01     0.413668    0.2484293 -11.36  0.001647813    2.970    0.663
       199 -10.3140    132.5376     50.1581   2.9731835184e+01   4.5033820850e+01    0.3504023    0.2015233  68.01  0.001560258    1.745    0.427
       200 -10.7957     82.9912     47.2278   4.1622523619e+01   5.7732786821e+01    0.3890136    0.3200594  -8.32  0.001943643    1.582    0.368
       201 -10.0017     25.9018     49.3946   7.1305537955e+01   6.7939049616e+01    0.2711086    0.1936851 -51.04 0.0005550061    1.373    0.272
       202  -9.5890      1.9718     49.0462   8.8156533724e+01   6.9933383199e+01    0.2024355    0.1920665 -43.31 0.0006516201    1.024    0.023
       203 -10.2800     23.0296     37.3371   6.8801396383e+01   7.1099398708e+01    0.5314888    0.1971392  39.39  0.002003861    2.753    0.637
       204 -10.8224     20.5985     46.1002   7.3832716172e+01   6.9319579574e+01    0.4418121    0.2906128 -40.86  0.001716236    1.520    0.342
       205 -10.4995     26.0535     42.8427   6.8822786191e+01   6.9468999929e+01    0.2989965    0.2596358  19.95 0.0007885285    1.120    0.107
       206  -8.9022    179.6855     45.3012   2.1256419789e+01   3.4635787058e+01    0.1397129   0.08502074 -62.81 0.0003404762    1.613    0.380
       207  -9.8158     12.9251     47.1854   7.9690815314e+01   6.9750357965e+01      0.42239    0.1303639 -42.40  0.001402262    3.468    0.712
       208 -10.5279    155.9674     42.6934   2.3532508552e+01   4.0428555592e+01    0.2923013    0.2712891 -17.49  0.001087001    1.317    0.240
       209  -9.7414     91.7567     41.9291   3.6610665525e+01   5.6534863187e+01    0.4312696    0.2658289 -82.61  0.001338085    2.615    0.618
       210  -9.7276     56.7533     41.8544   5.0155590051e+01   6.4553510056e+01    0.3146396    0.1886078  45.33  0.001023391    1.578    0.366
       211 -10.7921    138.7440     44.4542   2.6757840392e+01   4.4361804111e+01    0.5073954    0.2477944  45.38  0.001981492    2.598    0.615
       212 -10.3809    231.5525     38.8164   1.5152477170e+01   2.5157669231e+01    0.3254339   0.09541377 -40.64  0.001538482    2.300    0.565
       213 -10.5388     80.3592     39.3485   3.9222969060e+01   5.9736863804e+01    0.4767932    0.2929234  76.37  0.001956114    2.204    0.546
       214 -11.2668     79.0156     34.2293   3.7413952265e+01   6.0899587297e+01    0.6553053    0.3853374  42.59  0.002891499    1.781    0.438
       215  -8.6224    171.3002     39.6709   2.0708959367e+01   3.7259191208e+01    0.1440148   0.08522054 -61.42 0.0007031055    1.643    0.391
       216 -10.0830    200.4195     45.1993   1.9082049776e+01   3.0273765743e+01    0.3388998    0.1666514  83.11  0.001420145    2.474    0.596
       217  -9.0906    194.5611     38.1945   1.7920463985e+01   3.2361758758e+01    0.1593903    0.1150726 -20.72 0.0006308271    1.657    0.397
       218  -9.4290    213.4891    248.4791   5.5449007123e+01  -4.9876654629e-01     0.103419   0.07120553  -1.68 0.0008101698    1.016    0.016
       219 -10.1528     68.2807     32.6614   4.0679990907e+01   6.3695909876e+01    0.5460913    0.3279172  65.11  0.002392636    1.864    0.464
       220  -9.8709     43.0116     28.0374   5.0692014075e+01   6.9873347791e+01    0.2072058    0.1750988  12.91            0    1.261    0.207
       221  -9.2798    173.9837    246.6793   6.2034049797e+01   3.4514224617e+00    0.1839926   0.07221133   9.96 0.0007050061    4.319    0.768
       222 -11.4998     48.5966     30.4982   4.8828515155e+01   6.8336365720e+01    0.7768809     0.302292  42.16  0.002926223    2.442    0.591
       223 -11.4171      4.7703     35.6757   8.2889867489e+01   7.3117849236e+01     0.491529    0.3473528  -8.18  0.002696262    1.411    0.291
       224 -10.3442      9.3705     30.6193   7.7256490866e+01   7.4004004716e+01    0.6782655    0.3578783   0.18  0.003078877    2.130    0.531
       225  -9.3066    206.1544     37.5074   1.6749752754e+01   3.0081180585e+01    0.1562092    0.1130023  85.53 0.0003850603    1.442    0.307
       226 -10.9512    176.1002     34.3427   1.8728652408e+01   3.6852858331e+01    0.6191093    0.2523843 -44.97  0.001831667    2.063    0.515
       227  -9.9777    170.1982     30.2010   1.8209669460e+01   3.8710502153e+01    0.2915806    0.1869456 -62.41 0.0003453218    1.426    0.299
       228 -11.8291    152.9845     35.9473   2.1929974980e+01   4.2055219790e+01     0.251494    0.2174226 -69.52  0.001490016    1.014    0.014
       229  -9.4701    132.8837     37.0822   2.5353773603e+01   4.6873212230e+01    0.3590004    0.1761382 -84.87  0.001241576    3.287    0.696
       230  -8.9884    214.0274     35.0035   1.5556216459e+01   2.8839086234e+01    0.1440435    0.1113565 -52.66 0.0009657269    1.012    0.012
       231 -12.0280    126.4571    241.7783   7.0903916966e+01   9.2292921283e+00    0.3521339    0.3013892 -47.92  0.002548208    1.503    0.335
       232 -10.8699     74.4512    238.9935   8.2311784978e+01   1.5475115389e+01    0.4754108    0.1819856  38.68  0.002268768    2.026    0.506
       233 -11.3829    106.3867     32.5559   2.8968494565e+01   5.4271685222e+01    0.5499085    0.3458546  23.43  0.002235048    2.728    0.633
       234 -12.4618    113.6084     25.3285   2.4631469820e+01   5.3367693280e+01    0.7534037    0.3825476  60.29  0.002121199    1.796    0.443
       235  -9.9864    168.6063     23.8112   1.6580180211e+01   3.9839184397e+01    0.2567807    0.1873308  57.09 0.0009882993    1.576    0.365
       236 -11.6578    160.0263     29.8653   1.9235360407e+01   4.1138196372e+01    0.3768077    0.3302549 -61.96 0.0004852978    1.070    0.065
       237 -11.9065    164.2911     27.6495   1.8114882820e+01   4.0397170736e+01    0.3392174     0.241578 -57.52 0.0004460514    1.231    0.187
       238  -9.5593    139.3906     32.7172   2.2858834239e+01   4.5826271748e+01    0.2463052    0.1542628  51.10 0.0007458092    1.769    0.435
       239 -10.3655    240.8263     32.1277   1.3182426334e+01   2.4309921729e+01    0.1722701    0.1591594 -75.23  0.001171185    1.323    0.244
       240 -11.0253    189.1106     28.2336   1.5902890117e+01   3.4723525540e+01    0.4333578    0.2801388  -9.51  0.002237387    2.355    0.575
       241 -10.9045     32.4616     30.7022   5.8904554422e+01   7.1207713778e+01    0.3954249    0.2500116 -61.65 0.0005355547    1.963    0.491
       242 -11.1631    147.0666    237.9137   6.6164396524e+01   7.5246093879e+00    0.3926384    0.2796651  29.93   0.00263828    1.310    0.236
       243 -10.2284    167.1827    237.9234   6.2202831565e+01   5.3349267414e+00     0.162352    0.1335419  13.56 0.0007299446    1.201    0.167
       244 -10.4725    197.0107    232.0136   5.5994340763e+01   3.0335102626e+00    0.1353057    0.1002117  -1.93  0.001009767    1.013    0.013
       245  -9.4124    247.3094    231.3141   4.8038357493e+01  -1.4855629514e+00    0.1017323   0.05401562  -8.56  0.000392892    1.630    0.386
       246  -9.0584     15.5232    233.5256   9.6015197490e+01   2.2253111924e+01    0.1198627   0.09528251  38.23 0.0008088368    1.065    0.061
       247  -9.0781     75.5124    224.4752   8.0839755343e+01   1.8070018267e+01    0.1297881    0.1045618  31.06 0.0001495671    1.006    0.006
       248  -9.5514    234.2823    223.3614   4.8802644517e+01   5.2808230500e-01    0.1074863   0.05804739 -10.97 0.0005464423    1.677    0.404
       249  -9.2692     21.9850     32.3522   6.7444756198e+01   7.2337904839e+01    0.2662426    0.1082199  34.74  0.001076955    2.325    0.570
       250 -11.8511    126.0905     28.3189   2.3489766836e+01   4.9766535223e+01    0.5282339    0.3846462 -88.61   0.00275691    1.325    0.245
       251 -10.1462    148.2092     28.3007   2.0209790069e+01   4.4196414140e+01    0.3494355    0.2082825  63.19  0.001121286    1.650    0.394
       252 -11.2163     67.8733    240.7786   8.3985613204e+01   1.5853144361e+01    0.3616904     0.219736   5.73  0.001324512    1.883    0.469
       253 -10.7925    143.5171     25.2186   1.9842454032e+01   4.5735107367e+01     0.415494    0.2576303  85.86  0.001514705    1.569    0.363
       254 -10.9874    148.4074     22.6355   1.8407975209e+01   4.4826419853e+01    0.4647543    0.1765811  67.26  0.001625825    2.411    0.585
       255  -9.3689    153.2028    219.5742   6.2539103695e+01   9.6290965831e+00    0.1707349   0.09819104  15.86 0.0005621242    1.621    0.383
       256  -9.7081    231.1133     27.1575   1.2709298136e+01   2.6557019895e+01    0.2654235   0.09641015 -57.20  0.001291733    2.499    0.600
       257 -11.2634    183.3880     25.8340   1.5773491434e+01   3.6251754715e+01    0.3540361    0.2815008 -50.76  0.001686252    1.101    0.092
       258  -9.3798    187.4767     22.9832   1.4695553547e+01   3.5682436055e+01    0.1776838    0.1417224 -51.36 0.0005029676    1.092    0.084
       259  -9.4025    144.3043    215.3254   6.3819450500e+01   1.1395744000e+01    0.1267895   0.08385997  -7.55 0.0006921582    1.643    0.392
       260  -9.7338    212.9136     24.2866   1.3189041491e+01   3.0283290535e+01    0.1676668    0.1323015 -65.06  0.001158746    1.093    0.086
       261  -9.5828     90.6344     23.0730   2.8836653453e+01   5.9603250901e+01     0.297257    0.1912451  58.63   0.00128944    1.406    0.289
       262  -9.4617    164.4969    211.9298   5.9175975345e+01   9.4691702293e+00    0.1820558    0.1359664  16.44 0.0005443574    1.144    0.126
       263 -10.6378     38.8092     22.1984   4.9957207106e+01   7.1709466913e+01    0.2489275    0.2200928  19.23 0.0003396661    1.103    0.093
       264  -9.4895    152.7337    207.4686   6.0926688596e+01   1.1641947132e+01    0.2302892    0.1589383 -62.14  0.001288012    2.196    0.545
       265  -9.6695    223.5380     22.0656   1.2048874855e+01   2.8498933338e+01    0.2125099    0.1260348 -70.42 0.0006692443    1.557    0.358
       266 -10.8610    179.0183     20.6628   1.4776844308e+01   3.7814342579e+01    0.4125797    0.2439062  45.89  0.001854118    2.382    0.580
       267  -9.2541      5.2826     22.0702   7.7778334900e+01   7.6255574498e+01    0.1739021    0.1609274 -25.31 0.0006355591    1.050    0.047
       268 -10.2794     17.1814    205.8945   9.4612376838e+01   2.7890917671e+01    0.2834584    0.1519584  70.45  0.001455121    1.849    0.459
       269  -9.3152     61.3209    206.5705   8.2874593123e+01   2.3334512228e+01    0.1769658    0.1168639  17.38 0.0009288171    1.471    0.320
       270  -9.0908     63.3166     16.3140   3.4118868947e+01   6.7289717252e+01    0.1446147     0.101023  31.03  0.000703616    1.645    0.392
       271 -10.2104    246.5184     19.4951   1.0342625244e+01   2.4706391716e+01    0.1779287   0.09374345 -22.25  0.001031222    2.218    0.549
       272  -9.4272    216.2189     20.0584   1.2026612169e+01   3.0104682230e+01    0.2096075   0.08456532 -50.73  0.001079476    1.909    0.476
       273 -11.1181    163.3209     19.3225   1.5808176916e+01   4.1591115268e+01    0.2464977    0.2051346 -58.82 0.0004551309    1.071    0.067
       274 -11.4269      5.8789    199.2631   9.7398524950e+01   3.0286903117e+01    0.3940391    0.1988368 -68.74  0.001977477    2.213    0.548
       275 -10.0041     74.8802     19.4757   3.1705330217e+01   6.4054719334e+01     0.326086     0.221829  25.16  0.001479623    1.950    0.487
       276  -9.7146     46.1322     19.8595   4.4207216980e+01   7.0644990600e+01    0.2128951    0.1881839  73.21  0.001227443    1.283    0.221
       277  -8.9496      1.4707     20.5524   8.1098845017e+01   7.6838827126e+01    0.1292269    0.1131422 -24.96 0.0003109952    1.018    0.018
       278  -9.7605     78.4697    203.9522   7.8102708170e+01   2.1863833726e+01    0.2561704    0.1522811  40.06  0.000506534    1.457    0.314
       279 -11.4883    239.3611     16.8018   1.0126751290e+01   2.6207308146e+01    0.2453469    0.1690688  89.00   0.00177708    1.554    0.357
       280  -9.2242      1.3512    200.2843   9.8637503307e+01   3.0391681975e+01    0.1172981   0.09310296 -28.72 0.0003607706    1.658    0.397
       281  -9.5050    233.6126    196.7805   4.4935400622e+01   3.8050167150e+00    0.1415327   0.08378545 -37.35 0.0009465282    1.621    0.383
       282 -10.6795    155.2311     24.4978   1.8187431509e+01   4.2938481081e+01    0.4277571    0.2396202 -74.03  0.001170579    1.866    0.464
       283 -12.6232      4.4961    183.4856   9.7293799310e+01   3.4068833484e+01    0.8004159    0.4573473  78.45  0.004144683    1.682    0.405
       284  -9.4687    120.6155     15.7312   1.9779130108e+01   5.2671269307e+01    0.2186306    0.1534619  38.72  0.001102882    1.784    0.439
       285  -9.7023     28.0651    175.9443   8.9912135445e+01   3.3962968412e+01    0.2114876    0.1923731  51.08 0.0006225329    1.056    0.053
       286 -10.1646     15.9993    174.6962   9.3516826116e+01   3.5331978300e+01     0.311647    0.1746409  80.10  0.001498862    1.794    0.443
       287  -9.1756     51.5072    173.5259   8.2533288704e+01   3.2094918256e+01    0.1461769    0.1254811  47.38 0.0001348166    1.042    0.041
       288  -9.4214     39.4721    173.5326   8.6226786035e+01   3.3427649180e+01    0.1432881    0.1240587  48.21 0.0003370811    1.016    0.016
       289 -11.1801      9.3156    155.3507   9.4650051731e+01   4.0779522910e+01    0.3539405    0.2559605  80.87  0.001422282    1.309    0.236
       290 -12.7120     22.7337    149.3369   8.9688840839e+01   4.1304960194e+01       0.7796    0.4443434 -41.90  0.002843306    2.142    0.533
       291 -11.2494     16.1564    147.7749   9.1865979194e+01   4.2267492811e+01    0.4080245    0.2871183  35.66  0.001571709    1.307    0.235
       292 -12.6689      9.6991    165.4710   9.5018372484e+01   3.8142479566e+01    0.7156014    0.5774535 -71.74  0.002926894    1.324    0.244
       293 -10.6149     14.0808    159.0139   9.3271023657e+01   3.9470624274e+01    0.3039689    0.2917561  86.77 0.0005222979    1.131    0.116
       294 -10.6160     18.8855    165.2177   9.2081190335e+01   3.7483278066e+01    0.3826678    0.3069217  -6.40  0.001978199    1.478    0.324
       295 -10.1577    205.0113    163.1945   4.3730052680e+01   1.1825483844e+01    0.2062593    0.1482182 -28.78 0.0006002304    1.190    0.159
       296 -10.7874     27.9266    161.8500   8.8925068016e+01   3.7546633659e+01    0.4101954    0.3117797 -71.22  0.001834751    1.374    0.272
       297  -9.6640    104.1570    155.1326   6.4231472434e+01   2.9093695734e+01    0.2250656    0.2020123  -6.82  0.001224898    1.193    0.162
       298 -10.7525      3.9808    153.5044   9.6343722758e+01   4.1623834355e+01    0.4037352    0.1566217  46.72  0.001658625    2.195    0.544
       299  -9.1895     65.9351     10.5119   2.9862255857e+01   6.7366804232e+01     0.216795    0.1243255  62.13 0.0006118406    1.553    0.356
       300 -10.9776     10.3262    127.4687   9.2596947673e+01   4.8198643694e+01     0.544303    0.3106536 -76.70   0.00177817    1.673    0.402
       301  -9.4081     12.9836    122.5323   9.1159924122e+01   4.9377029504e+01    0.2424317    0.1833996 -65.44 0.0006907726    1.313    0.239
       302 -10.5746      2.9506    147.8086   9.6449388864e+01   4.3183730541e+01    0.3692824    0.2545381 -53.95  0.001632079    1.605    0.377
       303 -11.7543     12.5262    136.3410   9.2386219479e+01   4.5621393161e+01    0.8102495    0.6213577 -62.50   0.00433096    1.348    0.258
       304 -11.2054      8.4799    148.0244   9.4551793170e+01   4.2766407948e+01    0.4280518    0.2262021 -80.16  0.001955962    1.837    0.456
       305 -10.9071      5.7548    142.5853   9.5223104441e+01   4.4395775287e+01    0.3846899    0.2221209  51.48  0.000985251    1.572    0.364
       306 -11.0379      2.1542    140.8733   9.6423479433e+01   4.5073596854e+01     0.538155    0.2000192 -84.15  0.002071281    2.570    0.611
       307 -11.1486     47.1038    147.2620   8.1001007188e+01   3.9342264541e+01    0.7341602    0.4307672 -46.04  0.003190536    1.956    0.489
       308 -10.5543     30.2538    151.9954   8.7318411974e+01   3.9904834425e+01    0.3133416     0.236096 -40.16  0.001599277    1.554    0.357
       309  -9.9822     61.9195    151.5691   7.6574736589e+01   3.6336559185e+01    0.3465238    0.2437045   3.21  0.001003397    1.762    0.433
       310 -10.3447    104.1660    147.2084   6.2776606102e+01   3.0923525580e+01    0.2526535    0.2334156  23.44  0.001383023    1.063    0.059
       311 -10.9586     33.2537    144.4655   8.5542600015e+01   4.1617585839e+01    0.4230758    0.2551691  40.77  0.001245935    1.507    0.336
       312 -10.2470     80.0873    138.3170   6.8465079702e+01   3.7057094358e+01    0.3644281    0.2367373  40.96 0.0009756993    1.449    0.310
       313 -10.4636     40.5795    138.0879   8.2175672286e+01   4.2555809147e+01    0.3274974    0.2647707  67.19 0.0009578987    1.213    0.176
       314 -10.0242     32.3254    137.8000   8.5171032814e+01   4.3514515294e+01    0.3753729    0.2476323  26.57 0.0007402333    1.464    0.317
       315 -11.4885     25.0804    136.9565   8.7767810706e+01   4.4436505781e+01    0.8155188     0.395045  29.81   0.00260202    1.879    0.468
       316 -10.7390     30.2742    132.8934   8.5398145073e+01   4.5058547932e+01    0.4835244    0.3097559  20.22  0.001484984    1.587    0.370
       317  -9.1768    217.3552    138.7097   3.7285013776e+01   1.3793028406e+01    0.1101973   0.08941629 -63.24 0.0004760768    1.680    0.405
       318  -9.4921     73.3102    133.3181   6.9807050577e+01   3.9403269769e+01    0.1555933    0.1190575 -22.91 0.0003750733    1.640    0.390
       319  -9.4864     39.3196    133.4488   8.2054315030e+01   4.3957303361e+01    0.2617445    0.1479938  17.75 0.0006736402    1.888    0.470
       320  -9.3523     50.8002    129.7757   7.7239912193e+01   4.3570790812e+01    0.2069185    0.1645277  67.54 0.0004461273    1.284    0.221
       321  -9.3579     26.6002    127.2891   8.6195889985e+01   4.6951176549e+01    0.1978453    0.1306982 -63.94 0.0003406043    1.502    0.334
       322  -9.8051     22.9115    127.0011   8.7615109154e+01   4.7361802219e+01    0.2116804    0.1978612  71.14 0.0003423828    1.014    0.014
       323 -10.2434      2.2259    126.0634   9.5671202599e+01   4.9072238809e+01    0.3157761    0.1986466  58.69   0.00126554    1.493    0.330
       324  -9.9453     33.0280    125.7444   8.3486131145e+01   4.6747678243e+01    0.3190659    0.1554642  68.93  0.001157217    2.595    0.615
