#   1 NUMBER                 Running object number                                     
#   2 MAG_AUTO               Kron-like elliptical aperture magnitude                    [mag]
#   3 X_IMAGE                Object position along x                                    [pixel]
#   4 Y_IMAGE                Object position along y                                    [pixel]
#   5 X_WORLD                Barycenter position along world x axis                     [deg]
#   6 Y_WORLD                Barycenter position along world y axis                     [deg]
#   7 A_WORLD                Profile RMS along major axis (world units)                 [deg]
#   8 B_WORLD                Profile RMS along minor axis (world units)                 [deg]
#   9 THETA_WORLD            Position angle (CCW/world-x)                               [deg]
#  10 FWHM_WORLD             FWHM assuming a gaussian core                              [deg]
#  11 ELONGATION             A_IMAGE/B_IMAGE                                           
#  12 ELLIPTICITY            1 - B_IMAGE/A_IMAGE                                       
         1 -13.8974    182.9905     41.8820   6.2111266736e+01   3.3623227244e+01    0.9997061    0.8278093   9.07  0.001005918    1.632    0.387
         2 -14.1704    192.7102     34.1082   5.8982574297e+01   3.2309291238e+01     1.188987     1.003481 -22.76  0.004922362    1.364    0.267
         3 -14.8825    202.3789     22.3405   5.5131367355e+01   3.1454980981e+01     1.864584     1.376113  14.76  0.002444445    2.119    0.528
         4 -12.6433     32.5275     12.6727   9.1882861962e+01   7.3582298977e+01    0.4630328    0.2302451 -32.63  0.002201244    2.123    0.529
         5 -10.9414     61.0635      1.4884   7.0327335023e+01   6.9071505449e+01    0.3168922   0.09376032  55.09  0.001086049    2.589    0.614
         6 -10.0734    164.3515    205.6721   1.0273761497e+02   9.7309900014e+00    0.2055998    0.1820611  -9.73 0.0002412452    1.162    0.140
         7 -16.3236     73.4175    152.2792   1.1730763306e+02   3.5236185788e+01     19.14719     9.081866  70.33  0.008820144    5.332    0.812
         8  -9.6566    234.5754    198.4245   8.8645455165e+01   1.2485903918e+00    0.2058044   0.09063055 -45.31 0.0009599319    3.377    0.704
         9 -11.1843    204.1298    199.1262   9.3906707976e+01   5.0736816238e+00    0.1939203    0.1401304   0.49 0.0006646816    1.229    0.186
        10 -18.8560     11.6403    176.7644   1.3832721436e+02   3.6247869659e+01     18.01748     4.461411 -85.74   0.05937874    4.446    0.775
        11 -11.2410    195.5542    169.5075   9.0169007968e+01   1.0808380739e+01     0.376544    0.3055638 -37.56  0.001465317    1.317    0.240
        12 -10.3534    192.5057    163.0013   8.9484355218e+01   1.2351090354e+01    0.2975051    0.1630909 -51.31  0.001352048    2.434    0.589
        13 -12.4780    193.6509    194.4841   9.5047651852e+01   7.2166697167e+00    0.8493626    0.5168614 -56.12  0.004119328    2.944    0.660
        14 -11.2751    145.9558    168.5338   1.0039867840e+02   1.9326750281e+01    0.2644717    0.1936367 -24.36 0.0006648464    1.521    0.343
        15 -12.0573    144.8743    179.6375   1.0267502882e+02   1.7372344081e+01    0.3738304    0.2849121   6.52  0.002002083    1.406    0.289
        16 -10.4862    167.3176    188.1281   9.9198302900e+01   1.2199088486e+01    0.2660538    0.2054722 -53.91  0.001513172    1.677    0.404
        17 -12.4438     92.9238    157.1111   1.1224668691e+02   3.0996923534e+01    0.6581905    0.4514637 -26.03  0.002943053    1.986    0.496
        18 -11.0490    189.2556    155.3453   8.8577496902e+01   1.4165004935e+01    0.3590297    0.3125759 -14.57  0.001940088    1.048    0.046
        19 -10.2151    139.9333    156.5175   9.9507380350e+01   2.2804791415e+01    0.2349925    0.2067663 -76.62 0.0005081214    1.407    0.289
        20 -11.2088    133.6512    144.2443   9.8535873468e+01   2.6542476093e+01     1.031838    0.2851715 -53.83  0.002619488    5.502    0.818
        21 -10.8668    174.6263    148.9875   9.0157444193e+01   1.7855592882e+01    0.2650048    0.2330734  20.19  0.000772701    1.097    0.088
        22 -11.1072    105.5017    141.4122   1.0561394632e+02   3.2499009591e+01    0.5768853     0.349409 -27.53  0.002236444    2.464    0.594
        23 -12.3668     93.2442    141.8264   1.0934447226e+02   3.4591178745e+01    0.3015814    0.2723472 -29.72 0.0004351118    1.221    0.181
        24 -11.4539    208.2630    180.4792   8.9905983040e+01   7.1989286904e+00    0.5606775    0.3810943  -3.78  0.003289266    1.488    0.328
        25 -10.3734    113.6183    131.2894   1.0109162128e+02   3.3299564340e+01    0.3156527    0.2643376 -11.17 0.0007832103    1.416    0.294
        26 -10.4634    106.0567    130.7798   1.0317806004e+02   3.4879744101e+01    0.3429491    0.3146829  77.50  0.001115001    1.166    0.142
        27 -11.3484    119.0206    126.2568   9.8405613832e+01   3.3363759096e+01     0.791126     0.368724 -40.54   0.00287995    2.418    0.586
        28 -10.8839    136.0000    128.0075   9.4295365861e+01   2.9514290732e+01    0.3908896    0.1617894 -55.49   0.00124215    3.340    0.701
        29 -11.0810    101.0295    127.6643   1.0399443917e+02   3.6570269652e+01     0.311259    0.2534464  -5.51 0.0006334449    1.529    0.346
        30  -9.9354    160.6594    127.3324   8.8324713216e+01   2.4583207757e+01    0.1479955    0.1181294 -86.12 0.0004483666    1.749    0.428
        31  -9.9317    109.1931    119.9187   9.9723145678e+01   3.6786750209e+01    0.2220786    0.2024946  70.68 0.0003393501    1.158    0.136
        32 -16.0393     56.3906    203.6259   1.2828688281e+02   2.5524439531e+01     4.053911     2.204953  52.14   0.02039333    1.682    0.405
        33 -10.0777    167.8926    112.6472   8.3282553766e+01   2.5834759356e+01    0.3209724    0.2328454 -77.14  0.001462505    2.026    0.506
        34 -10.3693    135.0000    112.4697   9.0730513775e+01   3.2985851270e+01    0.3353673   0.08781182 -44.12 0.0009286765    3.886    0.743
        35 -11.0363    119.5220    110.7568   9.4428165645e+01   3.6700458797e+01    0.4139166    0.2660552  59.74  0.001716298    1.834    0.455
        36 -10.0485    205.6261    110.1239   7.5970215644e+01   1.8634082194e+01    0.2324488    0.1921814  38.01 0.0006529386    1.332    0.249
        37 -10.0095    211.1395    202.8591   9.3287023148e+01   3.6187601937e+00    0.1652455    0.1440312  -5.85 0.0005956272    1.244    0.196
        38  -9.4103    153.4423    195.5190   1.0343946594e+02   1.3090415030e+01     0.134089    0.1149713  15.46 2.674701e-05    1.007    0.006
        39 -10.5007     81.2959    196.0110   1.2105445322e+02   2.3934526265e+01    0.4031519    0.2710073 -30.79  0.002000414    2.056    0.514
        40  -9.8440    134.5069    102.9355   8.8346456366e+01   3.5059715769e+01    0.2355794    0.1524892 -43.18 0.0005924439    1.569    0.363
        41  -9.3576    183.7502     77.8253   7.1572202964e+01   2.8303300552e+01    0.2276167    0.1465459  19.64  0.000941675    2.725    0.633
        42  -9.4968     61.9884     71.4970   1.0299697932e+02   5.7172710861e+01    0.2223397    0.1456286  32.47 0.0004722494    1.531    0.347
        43  -9.4087     65.3041     70.3010   1.0116402472e+02   5.6855594771e+01    0.2399067    0.1510758  33.95 0.0004829988    1.589    0.371
        44 -11.0857    160.6521     62.1510   7.1081056104e+01   3.6182273865e+01    0.3767743     0.260996 -78.16 0.0008231688    1.728    0.421
        45 -12.2125     75.1983    179.0621   1.2060992613e+02   2.8564266397e+01    0.4642374    0.2938142 -38.86  0.001827474    2.034    0.508
        46 -10.6602    177.5879    237.3472   1.0477804986e+02   3.2237990937e+00    0.1810974    0.1120736 -43.19 0.0008819991    2.013    0.503
        47 -11.0228    182.7967    233.8896   1.0329717243e+02   3.0358795814e+00     0.281464    0.1228602  37.87  0.001441431    2.194    0.544
        48 -12.3569     79.0418    173.8815   1.1883960965e+02   2.9212924420e+01    0.4117725    0.3188772 -42.71 0.0007616644    1.498    0.332
