#   1 NUMBER                 Running object number                                     
#   2 MAG_AUTO               Kron-like elliptical aperture magnitude                    [mag]
#   3 X_IMAGE                Object position along x                                    [pixel]
#   4 Y_IMAGE                Object position along y                                    [pixel]
#   5 X_WORLD                Barycenter position along world x axis                     [deg]
#   6 Y_WORLD                Barycenter position along world y axis                     [deg]
#   7 A_WORLD                Profile RMS along major axis (world units)                 [deg]
#   8 B_WORLD                Profile RMS along minor axis (world units)                 [deg]
#   9 THETA_WORLD            Position angle (CCW/world-x)                               [deg]
#  10 FWHM_WORLD             FWHM assuming a gaussian core                              [deg]
#  11 ELONGATION             A_IMAGE/B_IMAGE                                           
#  12 ELLIPTICITY            1 - B_IMAGE/A_IMAGE                                       
         1 -14.4129    242.9604     52.4790   3.5720018649e+01   2.0583167409e+01     1.111446    0.8273697  38.21  0.006810118    2.100    0.524
         2 -13.8727    237.9674      4.2495   2.6822539054e+01   2.7327860357e+01     1.248292    0.7012439 -70.13   0.00802946    1.493    0.330
         3 -13.1152    224.9722     22.7861   3.1349783834e+01   2.7868980582e+01    0.4879112    0.3998168  63.44  0.003420997    1.439    0.305
         4 -13.8648    231.1566     15.4413   2.9408180576e+01   2.7459415042e+01    0.7116772    0.5643524 -30.29  0.005022936    1.587    0.370
         5 -12.1545    248.6929      8.1616   2.6884618363e+01   2.4893537172e+01    0.3454898    0.2366605  55.40  0.002374166    2.002    0.501
         6 -12.8972    247.7288     32.7295   3.1481039227e+01   2.2245667817e+01    0.9928111    0.2836065 -57.55  0.003685028    4.286    0.767
         7 -13.8087    249.5390     19.5801   2.8901528927e+01   2.3470801248e+01     1.302627    0.3502307 -36.35  0.005846121    3.267    0.694
         8 -12.8328    238.9188     17.1859   2.9186292899e+01   2.5750232483e+01    0.8401361    0.2808103 -58.57  0.003777578    2.996    0.666
         9 -13.7211    212.9839      8.8447   2.9453930261e+01   3.1853361303e+01    0.6151437    0.3758445 -57.00  0.003861278    1.427    0.299
        10 -12.6303    221.6868      5.6014   2.8152969085e+01   3.0398615484e+01    0.4099838    0.2007598 -47.70  0.002408084    1.755    0.430
        11 -11.5960    112.8542     11.8622   4.2828056755e+01   5.4199657238e+01    0.2095852    0.1992541  79.84 0.0006356245    1.152    0.132
        12 -10.9438    155.5910      9.7997   3.5398109287e+01   4.4497025140e+01    0.1662015    0.1072739 -45.11  0.000812403    1.646    0.392
        13 -11.2382    107.8413     10.2090   4.3270328820e+01   5.5474719550e+01    0.1837468    0.1574755  79.37 0.0004975485    1.234    0.190
        14 -10.7552     28.6970     10.4047   6.9817871248e+01   7.0421347330e+01    0.1967542    0.1162096  22.44  0.000577362    1.470    0.320
        15 -10.6160    148.6872      8.5516   3.5954724086e+01   4.6209731032e+01    0.2149208    0.1324554 -54.04   0.00118536    1.787    0.440
        16 -11.7741     20.9815      6.4529   7.1836110422e+01   7.1899355581e+01    0.2492003    0.1483079 -38.63  0.000733771    2.025    0.506
        17 -11.9246     22.3126      2.2972   6.8906878960e+01   7.2208461917e+01    0.4354854   0.07978035  36.66  0.001539556    4.882    0.795
        18 -11.1076    169.9642      3.3050   3.2061777552e+01   4.1782222115e+01    0.3165658    0.1426073 -56.03  0.001523038    2.441    0.590
        19 -12.2655    215.3076      2.9423   2.8072608502e+01   3.1966517479e+01     0.446484    0.1795497 -65.57  0.002140969    2.621    0.619
        20 -13.1416    222.1352     11.5057   2.9297620283e+01   2.9693583154e+01    0.6140869    0.2601089 -26.09  0.002916491    3.245    0.692
        21 -10.9328     31.7897      7.1235   6.6618033872e+01   7.0368621970e+01    0.1657065    0.1411835   7.66 0.0005727387    1.240    0.194
        22 -10.8621     39.9969      3.0113   6.0733548572e+01   6.9542640771e+01    0.2008085    0.1138465  17.43  0.001142476    1.734    0.423
        23 -12.2203     64.8174      3.2810   5.1573963372e+01   6.5108737716e+01    0.2961626    0.2062619  36.45  0.001489673    1.156    0.135
        24 -10.7809     90.4931      3.4921   4.4616883405e+01   5.9834651471e+01    0.1243316    0.1019511  47.03 0.0001703133    1.007    0.007
        25 -11.1819     81.2668      2.7533   4.6602171119e+01   6.1845102777e+01     0.209718   0.06409706  49.46 0.0008941762    2.407    0.585
        26 -11.4759      9.3588      1.8222   7.6063687165e+01   7.3806151750e+01    0.4020866    0.1265665  25.16  0.001813704    3.243    0.692
        27 -12.4327    112.4203      6.2967   4.1020643426e+01   5.4764139251e+01    0.3740755    0.1972195  47.06  0.001964045    1.665    0.400
        28 -11.8691      4.9650    228.5541   1.2106738450e+02   2.4140867368e+01    0.3742513    0.1428207  61.33   0.00179032    2.450    0.592
        29 -11.7666    211.3990    248.6292   7.9469933412e+01  -6.8069998718e+00    0.4448905    0.2309887 -23.40  0.002339088    2.006    0.502
        30 -11.4596     20.7225    249.1783   1.1912698731e+02   1.8359545067e+01     0.265975     0.124955  56.07  0.001478106    1.786    0.440
        31 -11.2476     12.6790    249.2230   1.2066100280e+02   1.9156341404e+01    0.2673316    0.1286757  60.39  0.001529727    1.751    0.429
        32 -11.2278      3.6466    250.5324   1.2240387139e+02   1.9760273170e+01    0.2833531    0.1012777  28.82  0.001401871    2.934    0.659
        33 -10.8175    199.3888    226.2718   7.8101031468e+01  -1.7175258310e+00     0.248361    0.1121033 -37.44  0.001143501    2.161    0.537
        34 -10.8366    224.1548    225.5171   7.3193993772e+01  -4.9522246004e+00    0.2328032     0.154984 -29.44  0.001332174    1.341    0.254
        35 -10.8708     10.7203    225.6897   1.1974491004e+02   2.4229408222e+01    0.2549307   0.08633718  49.62  0.001182212    2.479    0.597
        36 -12.0155    208.1820    223.7041   7.5918464393e+01  -2.5228043625e+00    0.3406221    0.1960081 -18.28  0.001707676    1.898    0.473
        37 -10.5166    190.6240    225.1743   7.9686104755e+01  -2.7693946486e-01    0.1908195    0.1102433 -30.21 0.0009543857    1.744    0.427
        38 -12.7064    238.9761    219.6281   6.9478098618e+01  -5.9306009394e+00      0.47211    0.2556265 -37.31  0.002023396    1.680    0.405
        39 -11.1499    217.3350    221.1578   7.3709350621e+01  -3.3616137100e+00    0.2656173   0.09769093 -34.30  0.001107104    2.653    0.623
        40 -11.2200      1.7223    220.0107   1.2126088038e+02   2.6267437982e+01    0.1716147    0.1260113  85.44 0.0008250332    1.122    0.109
        41 -12.4892    247.7502    217.5325   6.7587495978e+01  -6.6881016827e+00    0.4414685    0.2218352 -34.72   0.00168382    1.691    0.409
        42 -11.7132    248.3332    213.3349   6.6744035569e+01  -6.1300958626e+00    0.2362508    0.1527596   1.95  0.001325807    1.544    0.353
        43 -11.9991     12.5858    216.8846   1.1881395842e+02   2.5989469420e+01    0.2624344    0.1170167  47.43  0.001352173    1.959    0.490
        44 -10.7571    186.5018    213.0113   7.8406949094e+01   2.4869684307e+00    0.2061446    0.1269772 -39.91  0.001007697    1.607    0.378
        45 -11.7699      2.4291    212.6978   1.2070595431e+02   2.7820769652e+01     0.237199   0.09853704 -86.50  0.001146492    2.190    0.543
        46 -12.0644    214.4821    210.4879   7.2337810704e+01  -1.2102827147e+00    0.2714766    0.1976046  -2.37  0.001391344    1.304    0.233
        47 -10.6583    235.7924    203.5468   6.7139234204e+01  -3.0045601427e+00    0.2066559     0.133237 -37.07   0.00106154    1.413    0.292
        48 -11.4968    233.0200    212.7787   6.9315317344e+01  -4.1117226790e+00    0.3105529     0.176807 -30.10  0.001491258    1.525    0.344
        49 -11.0033    250.0464    200.5901   6.4155549477e+01  -4.3894709562e+00    0.3507496    0.1385168 -35.53  0.001647724    2.120    0.528
        50 -10.9172    242.8398    200.2738   6.5311744826e+01  -3.4121989407e+00    0.2792841    0.1421798 -43.34  0.001418575    1.935    0.483
        51 -11.1395    229.1181    199.0377   6.7492800690e+01  -1.3537882763e+00    0.3204951    0.1641134 -37.16  0.001604291    1.717    0.417
        52 -11.2549    247.5542    193.6689   6.3293483561e+01  -2.9766721503e+00     0.275134     0.199054 -42.72   0.00166245    1.464    0.317
        53 -10.8851    231.4250    193.7591   6.6085526908e+01  -7.9515818414e-01    0.2439955    0.1109609 -42.46  0.001125682    2.047    0.512
        54 -11.7146    237.4305    188.2912   6.3995420919e+01  -7.2509850522e-01     0.549077    0.1856372 -41.03  0.002250072    2.584    0.613
        55 -11.6120      4.1984    188.3914   1.1876135602e+02   3.3284755792e+01    0.1714352   0.09873363  43.16 0.0009531565    1.705    0.414
        56 -10.6167    230.5784    186.2793   6.4807148422e+01   5.9342822942e-01    0.2490725    0.1119506 -42.54  0.001127262    2.038    0.509
        57 -11.0080    224.3366    183.4533   6.5377234301e+01   2.0076242266e+00    0.2671941    0.1481145 -40.95  0.001225387    1.633    0.388
        58 -11.3203    242.2795    179.5610   6.1502864131e+01   5.0217489039e-02    0.3232493    0.2480272 -32.82  0.002003198    1.128    0.113
        59 -11.1325    226.3985    178.8024   6.4094046939e+01   2.5123320017e+00    0.1972946    0.1084191 -30.51  0.000947899    1.682    0.406
        60 -10.5507    233.4491    174.0317   6.1919448495e+01   2.2798712248e+00    0.2091807    0.1117736 -38.22  0.001030488    1.599    0.375
        61 -11.1183    225.9555    172.7169   6.2966551905e+01   3.6565943646e+00     0.322177    0.1746762 -38.53  0.001419741    1.603    0.376
        62 -12.7087      5.6946    172.7972   1.1721264265e+02   3.6937639621e+01    0.2990716    0.2202392 -31.58  0.001777244    1.741    0.425
        63 -10.3351    245.5936    167.7768   5.8678557220e+01   1.5540616503e+00    0.1892858    0.1040237 -45.39 0.0009565869    1.715    0.417
        64 -10.8954    213.4774    163.4958   6.3354427140e+01   7.3601955634e+00    0.2543858    0.1202885 -49.65   0.00103678    2.306    0.566
        65 -10.9096    245.9726    157.9488   5.6689790753e+01   3.1616729520e+00    0.2033724     0.166901 -32.97 0.0008923653    1.048    0.046
        66 -10.9239    226.9821    157.0047   5.9606253466e+01   6.3062830239e+00    0.2206289    0.1525648 -13.01  0.001003116    1.681    0.405
        67  -9.9602    146.4006    156.7502   7.6376041689e+01   2.1137716795e+01    0.1555312      0.12076  68.86 0.0006795998    1.696    0.410
        68 -10.3844    237.4970    169.0577   6.0253385457e+01   2.5321665817e+00    0.2088741    0.1108076 -38.43  0.001033514    1.591    0.372
        69 -10.7341    242.5825    153.2466   5.6285553599e+01   4.4826530013e+00    0.3269026     0.138507 -39.82  0.001158621    1.959    0.490
        70 -12.1739    244.4108    148.8600   5.5124125407e+01   4.9519687032e+00    0.5553415    0.1973624 -40.17  0.002273316    2.323    0.570
        71 -10.0986    233.3158    153.3293   5.7790738806e+01   5.9330922347e+00    0.1365086   0.09574195 -11.48 0.0007045541    1.678    0.404
        72 -10.4080    221.6873    153.3279   5.9761892745e+01   7.8545488430e+00    0.1330704    0.1053535 -66.74 0.0005462328    1.668    0.401
        73  -9.7408     39.6427    153.6741   1.0583566477e+02   3.8774552014e+01    0.1493067   0.09644333 -36.96 0.0007044661    1.777    0.437
        74 -11.1678    250.4369    151.7432   5.4782928289e+01   3.5408989482e+00    0.2564918    0.1029712 -42.87  0.001138214    2.086    0.521
        75 -10.3892    235.3180    147.6753   5.6310849338e+01   6.6062905832e+00    0.1296759   0.09919006 -63.94 0.0007044813    1.673    0.402
        76 -11.1044    224.2112    145.8607   5.7765462865e+01   8.7876316384e+00    0.3271277    0.1664039 -34.06  0.001470085    1.837    0.456
        77 -10.6432    230.4037    140.7580   5.5673413320e+01   8.6496085925e+00    0.2683549     0.111666 -43.88  0.001125003    2.098    0.523
        78 -10.5530    250.5040    140.0277   5.2453573335e+01   5.5035543722e+00    0.2023173    0.1055721 -39.41  0.001021777    1.557    0.358
        79 -12.6126      8.4309    141.9921   1.1353505277e+02   4.4430921681e+01    0.2949554    0.1745584  24.79  0.001569273    1.949    0.487
        80 -12.4268    242.4107    134.0255   5.2427563642e+01   7.8201129322e+00    0.5282181    0.2551483 -32.02  0.002272306    2.040    0.510
        81 -11.7854    248.9787    134.7837   5.1625727617e+01   6.6277588608e+00    0.3655872    0.1550987 -41.91  0.001263089    1.923    0.480
        82 -11.5888    248.7786    130.5731   5.0809103128e+01   7.3696199161e+00    0.2434673    0.1862641 -53.21 0.0009262257    1.288    0.224
        83 -11.2640    234.4827    134.4715   5.3719226160e+01   9.0689990618e+00    0.2908521    0.1138077 -40.58  0.001207272    2.155    0.536
        84 -10.5270    221.4239    129.2310   5.4689654349e+01   1.2303223361e+01    0.2008695     0.115224 -48.48 0.0006332604    1.640    0.390
        85 -10.4056     25.3307    128.6759   1.0656786899e+02   4.6549685316e+01    0.1395787   0.09755556  68.06 0.0007050288    1.702    0.413
        86 -12.2476      2.2806    127.5029   1.1374563064e+02   4.8442885160e+01    0.2652984    0.2054278 -70.23  0.001242772    1.058    0.055
        87 -12.7304    241.2414    124.9451   5.0738590091e+01   9.5717592711e+00    0.3993147    0.2151062 -54.01    0.0019003    2.002    0.501
        88 -11.1121    228.6009    124.7757   5.2591164958e+01   1.1804815754e+01     0.201609     0.110072 -47.61 0.0009526046    1.668    0.400
        89 -10.5038    188.6873    123.6860   5.9294747419e+01   1.9688925829e+01    0.1471566    0.1152013  -2.85 0.0005449944    1.637    0.389
        90 -12.8261    247.7704    117.1420   4.8237057291e+01   9.7848620837e+00    0.5946821     0.362909 -82.06  0.002574436    3.427    0.708
        91 -12.7635    239.0326     64.6079   3.8556177745e+01   1.9626673076e+01    0.6276848    0.2173069 -48.76  0.002703451    2.515    0.602
        92 -13.3152    237.8829     38.8818   3.3482201165e+01   2.3350914067e+01    0.5268842    0.2988858  68.19  0.003107463    1.813    0.449
        93 -14.2248    247.9207    104.8586   4.5728257016e+01   1.1779664293e+01     1.473779     0.397834 -43.16  0.005551131    2.958    0.662
        94 -14.5490    234.6064     74.7582   4.1147595213e+01   1.8970028724e+01     1.452458    0.3957287 -50.49  0.004870593    4.036    0.752
        95 -13.0376    243.0063     92.0612   4.3730421394e+01   1.4708009156e+01    0.5401586    0.2126064 -36.98   0.00235423    2.304    0.566
        96 -10.8941    225.7268    249.1423   7.6870800736e+01  -8.6299189848e+00    0.2354992    0.1270096   4.47  0.001240099    2.054    0.513
        97 -12.9130    247.6470     85.5840   4.1863947260e+01   1.4886869726e+01    0.5856506    0.3350262 -68.41  0.002948578    2.207    0.547
        98 -13.6505    242.2668    104.3716   4.6356980285e+01   1.2849061115e+01    0.5497187    0.2652243 -37.87   0.00264426    1.805    0.446
        99 -12.7754    231.1013    115.7819   5.0300279750e+01   1.2927108818e+01    0.3446199    0.2308692 -56.40   0.00156196    1.525    0.344
       100 -10.5568    220.3214    114.6792   5.1700416972e+01   1.5119009233e+01    0.1396342    0.1002443 -67.62 0.0003767887    1.672    0.402
       101  -9.7484    157.5145    112.5184   6.3127957663e+01   2.8536235356e+01    0.1520406    0.1473688 -48.11 0.0002835816    1.016    0.016
       102 -10.1364    104.8278    111.6179   7.6827083042e+01   3.9738822920e+01     0.209661    0.1447961  48.90 0.0006394135    1.572    0.364
       103 -11.1933      5.4882    111.4873   1.1062855256e+02   5.2237266512e+01    0.1318707    0.1070442 -59.72  0.000207512    1.014    0.013
       104 -13.9000    248.7879     66.3508   3.7900570114e+01   1.7552430955e+01     1.155155    0.6046417 -36.66  0.006216835    1.783    0.439
       105 -12.7892    244.2302     41.5816   3.3463953703e+01   2.1788228393e+01    0.3892745    0.3510996 -53.21  0.002184159    1.273    0.214
       106 -10.4679    230.8634    102.7825   4.7564045309e+01   1.5188910574e+01    0.1879611     0.138844 -59.65 0.0006834832    1.334    0.250
       107 -13.1876    246.1785     78.4073   4.0582817071e+01   1.6249588699e+01     1.170974    0.5082425 -66.46  0.003943385    5.026    0.801
       108 -10.5271      6.3423     93.6841   1.0750287350e+02   5.6501317066e+01    0.1240982   0.09297613  66.26 0.0005512034    1.711    0.415
       109 -13.0089    236.8532     90.2369   4.4115777525e+01   1.6129211723e+01     0.340096    0.2578155 -60.89  0.001320126    1.233    0.189
       110 -11.7036    216.6918     88.5549   4.6451182301e+01   2.0318115715e+01    0.3099805    0.1348759  60.90  0.001304883    2.647    0.622
       111 -11.8138    226.6885     86.5200   4.4634186034e+01   1.8665122857e+01    0.3182452    0.1548668 -28.63  0.001336208    2.623    0.619
       112  -9.8734    139.5343     86.5474   6.0343423609e+01   3.7655462589e+01    0.1479186    0.1447339  88.64 0.0004185443    1.044    0.042
       113 -12.1058    231.6799     83.3110   4.3305110534e+01   1.8209189838e+01    0.4380637    0.1417033 -47.56  0.001694384    2.793    0.642
       114 -10.1655    147.9737     84.9881   5.7940343023e+01   3.6030965953e+01    0.1767766    0.1727646  64.53 0.0004935902    1.017    0.016
       115 -10.1039    154.4553     83.4770   5.6098134811e+01   3.4824363521e+01     0.145302    0.1419649 -79.91 7.798391e-05    1.006    0.006
       116 -10.9680    219.9943     81.9589   4.4527583743e+01   2.0724261385e+01    0.2166653    0.1442013 -68.48 0.0009937555    1.666    0.400
       117 -11.0134     12.0000     81.0076   1.0279213803e+02   5.9128328604e+01    0.2181107   0.06301621 -63.48 0.0008068661    2.973    0.664
       118 -10.2291    175.3104     77.6681   5.0450949816e+01   3.1063614951e+01    0.1492586     0.106201 -71.59 0.0005420029    1.672    0.402
       119 -12.9632    227.5138     66.3077   4.0186412164e+01   2.1624107324e+01    0.4036195    0.2650278 -53.15  0.001985663    1.327    0.247
       120 -11.1688      2.9127     66.8735   1.0355256391e+02   6.2792626548e+01    0.2078565    0.1313972 -39.99 0.0008339406    1.269    0.212
       121 -10.1533    118.5510     64.4913   5.8994602628e+01   4.6271277081e+01    0.1443276    0.1351926  26.94 0.0004728425    1.038    0.037
       122 -10.2650    168.9852     67.4886   4.8919628226e+01   3.4168893444e+01    0.1892556    0.1196547 -89.19 0.0005528346    2.248    0.555
       123 -10.4221    134.4799     59.9242   5.3703204402e+01   4.3380026174e+01    0.2063327    0.1413217 -35.66 0.0006782819    1.533    0.348
       124 -10.3650     19.4691     57.0142   9.3296478220e+01   6.3773074393e+01    0.1895015    0.1073559 -49.97 0.0006087999    1.545    0.353
       125 -11.7515    228.6603     52.3075   3.7100233578e+01   2.3391561228e+01    0.3628497    0.1564829 -54.40  0.001683556    2.240    0.554
       126 -11.7780    231.2917     50.3387   3.6421760783e+01   2.3136561435e+01    0.2043357    0.1636533 -39.65 0.0008503183    1.308    0.235
       127 -11.1677    233.3998     45.2607   3.5173326089e+01   2.3400088152e+01    0.2199418    0.1258216 -49.43 0.0008334077    1.475    0.322
       128 -11.4006    238.3342     44.0761   3.4475638713e+01   2.2592354467e+01    0.1729423    0.1288653 -55.24 0.0006327676    1.114    0.103
       129 -12.4030    218.3462     41.8527   3.5948268917e+01   2.6894771586e+01    0.2123662    0.1802164  69.13  0.001251469    1.289    0.224
       130 -10.3182    169.4804     40.0035   4.1551947183e+01   3.7968962629e+01    0.1943009    0.1289448 -35.56  0.001024672    1.591    0.371
       131 -10.4829    110.9892    249.5124   1.0043195097e+02   7.0280021954e+00    0.1930008   0.08487389  50.14 0.0008098651    2.542    0.607
       132 -13.1786    238.0001     31.3990   3.1997471540e+01   2.4261918112e+01     0.667338    0.3795887 -84.19  0.003885147    1.778    0.438
       133 -11.4149     65.7558    249.0289   1.1004360125e+02   1.3228298539e+01    0.2820854    0.1029783  51.31  0.001186268    2.704    0.630
       134 -11.9504     36.0364    248.2590   1.1606819627e+02   1.6911016027e+01    0.3928111    0.1181333  52.07  0.001643633    3.014    0.668
       135 -11.5378    243.3761    246.5928   7.3292206663e+01  -1.0306167726e+01    0.3031035    0.1819436 -31.71   0.00192288    1.523    0.343
       136 -11.2423    233.3546    247.3701   7.5196261227e+01  -9.2773296154e+00    0.2300332    0.2064207 -24.33  0.001474874    1.557    0.358
       137 -11.6747    192.0617    245.1722   8.2695550142e+01  -3.7624355955e+00    0.3008742    0.1848687  11.15  0.001640911    1.626    0.385
       138 -12.2618    227.9441     34.2299   3.3425405192e+01   2.5899933333e+01    0.3842029    0.2233092 -71.70  0.002178316    1.690    0.408
       139 -12.6006    215.0483     30.7693   3.3896599381e+01   2.8972663402e+01     0.349964    0.2342727  42.29  0.001982183    2.171    0.539
       140 -10.9481    197.9902     29.8203   3.5420314442e+01   3.2749813360e+01    0.3600939    0.0926965 -52.24  0.001109967    5.172    0.807
       141 -11.4965    221.9415     29.5275   3.2995240615e+01   2.7693270629e+01    0.1846756    0.1418128 -53.35 0.0008176721    1.175    0.149
       142 -10.7956    141.3320    246.3310   9.3459651780e+01   3.2358084587e+00    0.1333926   0.09415532  -3.43 0.0004173672    1.723    0.420
       143 -10.3768    137.0802     25.7090   4.2748700664e+01   4.7248141562e+01    0.1776542    0.1532556  63.00 0.0003950362    1.029    0.028
       144 -10.1988    215.2995     20.6304   3.1722218558e+01   3.0102546048e+01    0.1305211     0.070774 -63.65 0.0007031308    1.738    0.425
       145 -12.3702      2.7488    242.9418   1.2221892140e+02   2.1356085330e+01    0.3740127    0.1860109  74.08  0.002173456    1.767    0.434
       146 -12.0660    225.4456    242.4119   7.5822527937e+01  -7.6411179566e+00    0.3572678    0.1812847 -31.70  0.001649931    1.810    0.448
       147 -10.9555     87.9872     16.6832   5.0365294707e+01   5.9226709265e+01    0.1844539    0.1481913  44.77 0.0004590152    1.066    0.062
       148 -10.8735    134.1789     16.0152   4.0299178935e+01   4.8906704563e+01    0.2451918    0.1687024  64.95  0.001406979    1.251    0.201
       149 -11.0239     45.1883    244.3855   1.1393203588e+02   1.6659751851e+01    0.1843135   0.08703948  44.06  0.000954786    1.756    0.431
       150 -10.6488     58.5189     12.4841   5.7895212757e+01   6.5442127918e+01    0.1241482   0.09991618  23.88 0.0008101678    1.007    0.007
       151 -11.0912    202.2316    241.5481   8.0097802107e+01  -4.5596124484e+00     0.252144    0.1774036 -14.70  0.001527855    1.314    0.239
       152 -11.8434     17.8222    241.2996   1.1923611213e+02   2.0249683844e+01    0.2655987    0.1359453  67.42  0.001482846    1.778    0.438
       153 -12.1393    240.2619    240.0599   7.2759233408e+01  -9.0596007355e+00    0.2841729    0.1907665 -23.86  0.001301835    1.259    0.206
       154 -12.4180    245.2503    231.1525   7.0382980095e+01  -8.3784636463e+00    0.3659714    0.1292748 -32.19  0.001402157    2.565    0.610
       155 -11.6513    247.0996    240.1422   7.1579932627e+01  -9.8445775267e+00    0.2087526    0.1382927 -22.92  0.001378974    1.239    0.193
       156 -12.4440    248.5129    227.0101   6.9110630367e+01  -8.1636225996e+00    0.3453221    0.1561836 -27.27  0.001402508    2.002    0.500
       157 -11.3094    214.9463    240.2060   7.7422315433e+01  -6.0095744654e+00    0.2197553    0.1570811 -24.18  0.001383979    1.273    0.214
       158 -12.2892    227.8398    219.4136   7.1441358942e+01  -4.4796375537e+00    0.4191206    0.2450961 -29.15  0.002059718    1.507    0.337
       159 -12.3174    231.0364    235.5965   7.3660446615e+01  -7.3321134430e+00    0.5139632    0.1963134 -35.90  0.002449173    2.388    0.581
       160 -12.2529    229.3821    227.4507   7.2567879822e+01  -5.9161593061e+00    0.5216574    0.2147233 -34.53   0.00250099    2.205    0.546
       161 -12.0064    205.4757    234.6922   7.8328565110e+01  -3.9210170829e+00    0.4096572    0.2457487 -39.45  0.002276998    1.708    0.414
       162 -11.6187      6.8560    236.3081   1.2110474071e+02   2.2337358829e+01    0.2125289    0.1275372  80.68  0.001322701    1.429    0.300
       163 -11.4002    249.2397    234.1516   7.0206086129e+01  -9.2567878633e+00    0.2462281    0.1344779 -39.43  0.001058846    1.854    0.460
       164 -11.5384    216.6802    231.3748   7.5607856799e+01  -4.8873146640e+00    0.2946104    0.2116377 -20.88  0.001826589    1.220    0.180
       165 -11.9016    236.8661    229.1395   7.1510363590e+01  -7.0930585860e+00    0.3819214    0.2220315 -35.93  0.002231813    1.600    0.375
