#   1 NUMBER                 Running object number                                     
#   2 MAG_AUTO               Kron-like elliptical aperture magnitude                    [mag]
#   3 X_IMAGE                Object position along x                                    [pixel]
#   4 Y_IMAGE                Object position along y                                    [pixel]
#   5 X_WORLD                Barycenter position along world x axis                     [deg]
#   6 Y_WORLD                Barycenter position along world y axis                     [deg]
#   7 A_WORLD                Profile RMS along major axis (world units)                 [deg]
#   8 B_WORLD                Profile RMS along minor axis (world units)                 [deg]
#   9 THETA_WORLD            Position angle (CCW/world-x)                               [deg]
#  10 FWHM_WORLD             FWHM assuming a gaussian core                              [deg]
#  11 ELONGATION             A_IMAGE/B_IMAGE                                           
#  12 ELLIPTICITY            1 - B_IMAGE/A_IMAGE                                       
         1 -14.8527     68.5843    144.3238   1.0081069486e+02   3.7609737151e+01       5.2759     2.617599  66.71   0.00890252    3.972    0.748
         2 -14.4569    201.0108     40.7406   4.2482597038e+01   3.0112661504e+01     1.629396     1.377917  15.91  0.004907103    1.630    0.386
         3 -14.5756    212.1954     29.8687   3.8581789490e+01   2.8919079620e+01     1.462662     1.088352   4.09  0.002442566    2.176    0.541
         4 -11.8637      2.5818     21.5285   9.4733398484e+01   7.1459182540e+01    0.4788469    0.1299994 -52.76  0.002062695    3.308    0.698
         5 -11.5853      2.9999      4.4667   8.6716407019e+01   7.4102686445e+01       0.4666     0.152697 -38.20  0.002370959    2.484    0.597
         6 -12.8695    240.4718      5.1529   3.0848075546e+01   2.5612737592e+01    0.5249441    0.4541909 -34.22  0.003805013    1.440    0.305
         7 -12.8398    234.2336      4.7351   3.1178604725e+01   2.6954013638e+01    0.5764489    0.3617374 -45.07  0.003062024    1.427    0.299
         8  -9.5168     82.0168    195.0055   1.0512910310e+02   2.3366282216e+01    0.2093871    0.1697398 -25.48  0.001137661    1.695    0.410
         9 -10.6375    140.3764    250.0881   9.9661630222e+01   3.3978079020e+00     0.266002    0.1343112  48.57  0.001324379    1.932    0.482
        10 -10.5063     92.6502    249.9456   1.0915976015e+02   1.0507798550e+01    0.3542594    0.1821348  25.96  0.001643041    2.504    0.601
        11 -13.8605     82.3780    219.4345   1.0804747968e+02   1.7952507217e+01     1.670646    0.6804203  39.61  0.002792203    2.146    0.534
        12 -15.5425     41.0234    196.7874   1.1484281380e+02   2.8366679330e+01     4.047119     1.632984  67.79  0.009893017    3.561    0.719
        13 -14.3970     53.0815    188.3233   1.1117599606e+02   2.8880549258e+01     1.731346     1.088684  73.21  0.008982588    1.642    0.391
        14 -16.0229      5.6149    177.7577   1.2124276272e+02   3.6256469909e+01     7.758568    0.9508602 -72.36   0.02416946    5.067    0.803
        15 -10.6460    149.5417    187.7701   8.8037828251e+01   1.3558380357e+01    0.3425511    0.2611605 -80.63  0.001133464    1.808    0.447
        16 -15.7742      9.5564    208.3166   1.2244293746e+02   2.9073471902e+01     1.382605     1.175738 -62.61  0.004437031    1.462    0.316
        17  -9.9707     79.1705    183.6420   1.0425479307e+02   2.6430412593e+01    0.3585439    0.2649343 -17.92  0.001752311    2.102    0.524
        18 -10.2608    112.2054    205.4342   9.9560476393e+01   1.6323854166e+01    0.2516077    0.1913253  68.33 0.0008172557    1.426    0.299
        19 -10.3206     99.3778    180.7365   9.8806782988e+01   2.3960645442e+01    0.2501699    0.2397278  26.80 0.0005895448    1.152    0.132
        20  -9.2835     89.9549    180.7232   1.0114855175e+02   2.5477412161e+01    0.1961308    0.1716652  57.17 0.0003746564    1.090    0.082
        21 -10.7017    189.1832    177.5952   7.7397845648e+01   8.2601886845e+00    0.4294985    0.3528592 -75.47  0.002230093    1.724    0.420
        22 -13.3653     80.4992    159.8704   1.0021698494e+02   3.1987750273e+01     1.774445    0.7138076  57.16 0.0003963632    4.529    0.779
        23 -13.7390     68.9373    155.1743   1.0257094899e+02   3.4846706148e+01    0.6532263    0.4815913 -51.92   0.00147911    1.351    0.260
        24 -11.8592    118.0017    247.2459   1.0380286242e+02   7.2740746400e+00    0.4108145     0.305795  -5.66  0.002338395    2.057    0.514
        25 -10.4899    146.4998    171.9823   8.5710027475e+01   1.7491359730e+01    0.2992592    0.2416368 -79.38 0.0008176034    1.546    0.353
        26 -10.3586     34.6884    172.0429   1.1383312991e+02   3.4890916211e+01    0.3081249    0.2017687  81.69 0.0009087655    1.469    0.319
        27  -9.4092    194.4150    172.2091   7.5221403933e+01   8.3162117163e+00    0.1996948    0.1326285 -49.91 0.0009470053    1.653    0.395
        28 -11.3592    130.6895    172.3059   8.9567561390e+01   2.0402872647e+01    0.5183824    0.1882771  30.45  0.001475006    4.195    0.762
        29 -12.0928     55.2541    147.0655   1.0506797588e+02   3.8695027375e+01     2.960547     0.997101 -46.18  0.009799386    3.611    0.723
        30 -11.2011    230.7990    168.2597   6.7529206636e+01   2.5744653671e+00    0.3394342    0.1659031 -49.44  0.001433415    2.491    0.598
        31  -9.3686    110.9716    167.9454   9.3664485985e+01   2.4993636171e+01    0.2329989    0.1754501  77.82 0.0004671987    1.609    0.378
        32  -9.3403    135.9818    164.9520   8.6820521058e+01   2.1065510981e+01    0.2354191    0.1827894  74.19 0.0006333787    1.613    0.380
        33 -12.3054     88.0185    153.2811   9.7004137934e+01   3.2436604907e+01    0.6483467    0.4681712 -23.13  0.002985144    1.929    0.482
        34 -11.1768    134.0000    146.4327   8.3364773591e+01   2.5685479028e+01    0.8806349    0.2674193 -52.48  0.002526299    3.658    0.727
        35 -10.8689    133.0000    141.0011   8.2386706607e+01   2.7137524699e+01    0.6525367    0.2002176 -52.51  0.001854975    3.662    0.727
        36 -10.5787    174.4334    148.8923   7.4375496773e+01   1.6860063803e+01     0.311528    0.2701538  86.73 0.0008022463    1.428    0.300
        37 -10.3353    143.8049    145.9854   8.0819043692e+01   2.3802195255e+01    0.2626944    0.1859238 -78.67  0.001086917    2.058    0.514
        38 -10.7393     29.0312    143.3589   1.1192301811e+02   4.2497491297e+01    0.3031686    0.2232975   8.41  0.001713962    1.797    0.444
        39 -10.4195    198.2337    139.7910   6.7372286104e+01   1.3809802377e+01    0.3085074    0.2204008 -61.12 0.0008521237    1.723    0.420
        40 -10.8989    101.9487    139.0086   9.0265635094e+01   3.3572325120e+01    0.5584198    0.3623034 -19.94  0.002176934    2.516    0.603
        41 -12.4044     89.3035    138.7281   9.3784235137e+01   3.5824585052e+01    0.2947798    0.2627906 -38.46  0.000467315    1.176    0.150
        42 -10.6052     25.7482    137.4217   1.1207322191e+02   4.4270979130e+01    0.3312618    0.1943701  42.83  0.001295386    1.849    0.459
        43 -12.2454     67.7371    173.4392   1.0567615736e+02   3.0513578497e+01    0.4349605    0.2854558 -37.07  0.001588759    2.033    0.508
        44 -10.7399    105.9842    130.8665   8.7303801929e+01   3.4804717762e+01    0.3932358    0.3459011 -60.16  0.001546043    1.118    0.106
        45 -10.2747    111.2396    129.7167   8.5561519260e+01   3.4087142921e+01    0.3083234    0.2604944  -6.55  0.000627606    1.426    0.299
        46 -11.2384    135.7283    128.1697   7.8630439768e+01   2.9506656248e+01    0.6162944     0.199453 -50.38  0.001820485    3.298    0.697
        47 -12.2150     72.0160    168.7452   1.0388661551e+02   3.1056666957e+01    0.4737091    0.2734366 -55.14 0.0007031905    1.689    0.408
        48 -10.0473    160.6643    127.4931   7.2400632047e+01   2.4289523504e+01    0.3280367    0.2422659 -70.83  0.001444814    1.749    0.428
        49 -10.9551     98.5576    125.6187   8.8205435473e+01   3.7427984527e+01    0.3025768    0.2521735  -3.78 0.0006352336    1.463    0.317
        50 -10.5748    117.0322    124.1872   8.2618589257e+01   3.4258451316e+01    0.2985094    0.2278327   7.99 0.0009613397    1.743    0.426
        51  -9.7252     87.9918    121.2802   9.0318012846e+01   4.0322641815e+01    0.3794363    0.2343849  74.82  0.001378462    2.982    0.665
        52  -9.9772    107.7834    118.8185   8.3882313924e+01   3.7326157964e+01    0.2185383    0.2011203 -22.09 0.0003852457    1.142    0.124
        53  -9.3872    148.6657    175.3413   8.5868170484e+01   1.6352361814e+01    0.2102472    0.1560968 -67.84 0.0006494835    1.655    0.396
        54  -9.2780    167.9527    112.8205   6.7061391878e+01   2.5720746804e+01    0.2621706    0.1858068  85.55  0.001083453    2.106    0.525
        55 -10.4062    135.0000    112.0586   7.4691477306e+01   3.3248939299e+01    0.4392879   0.08838885 -44.57  0.001046114    4.887    0.795
        56 -10.1906    205.4439    110.3328   5.9092664020e+01   1.7873337411e+01    0.2870744    0.2445226  37.08 0.0008864024    1.309    0.236
        57 -11.0894     34.4638    109.2658   1.0489614981e+02   5.0417279118e+01    0.2710341     0.236672 -62.71  0.001663684    1.028    0.028
        58 -10.8089    116.5402    108.7444   7.8771004056e+01   3.7895902531e+01    0.4649308    0.3033571  49.09  0.002030618    1.611    0.379
        59  -9.7243    134.5152    105.4642   7.3037507010e+01   3.4779324978e+01    0.3362407    0.1525809 -43.93  0.001211954    2.171    0.539
        60  -9.1959    138.2647    105.4170   7.2067580991e+01   3.3958686064e+01    0.2117252    0.1503406  59.50 0.0004319504    1.574    0.365
        61 -10.6953     41.3107    103.6819   1.0146182186e+02   5.1076738233e+01    0.2152574     0.165108 -80.68 0.0006561246    1.416    0.294
        62 -11.2259     38.0447    102.5018   1.0233879114e+02   5.1700289249e+01    0.2624162    0.2390344  88.26 0.0009263449    1.207    0.172
        63 -17.7501     17.5815    242.5322   1.2287104069e+02   2.1276608047e+01     7.069908     2.305654  28.19   0.02445372    4.232    0.764
        64 -11.8752    242.2892    101.2436   5.1285885020e+01   1.1914197910e+01    0.2933332    0.1939621 -31.85  0.001543279    1.438    0.305
        65 -10.2843     33.2849    100.1069   1.0349764390e+02   5.2741645304e+01    0.2257259    0.1979656  37.88 0.0006541161    1.320    0.243
        66  -9.7139    125.5230     92.9742   7.1878877579e+01   3.9382863523e+01    0.2843481    0.2208803  70.69  0.001320598    1.572    0.364
        67 -10.1842     53.2756     90.9717   9.4277762737e+01   5.2686394067e+01    0.2083166    0.1666446 -49.28 0.0005024868    1.120    0.108
        68  -9.7360    156.4089     88.4692   6.3041278095e+01   3.3185598734e+01    0.3406996    0.2253742 -76.65  0.001037286    2.364    0.577
        69 -13.8225     21.2672    221.8972   1.2097149283e+02   2.5036091663e+01    0.4676551    0.3653901 -59.06   0.00131285    1.600    0.375
        70  -9.5357    234.3213     86.3010   4.9023461537e+01   1.5932026814e+01     0.127245    0.1062812   6.78 0.0003609571    1.627    0.385
        71  -9.4932     74.9331     85.1106   8.5020252810e+01   5.0871887668e+01    0.2041901    0.1913053  82.53  0.000433262    1.272    0.214
        72 -10.0849    158.9762     82.6632   6.0845829935e+01   3.3654622200e+01    0.2185655    0.1947801  57.37 0.0005006291    1.124    0.110
        73  -9.9926    112.7329     82.4131   7.2260253893e+01   4.4289628814e+01    0.3385586    0.2550283  86.68  0.001195159    1.977    0.494
        74  -9.7438     69.8378     81.6966   8.5781449307e+01   5.2420692742e+01    0.1861905    0.1746667  39.65 0.0005623496    1.190    0.160
        75  -9.0096    184.3761     77.2975   5.4442737200e+01   2.8538023652e+01    0.1499828    0.1144525  24.21 0.0007025692    1.750    0.429
        76  -9.9281     54.2194     65.3123   8.6466364237e+01   5.8119365807e+01    0.2129263    0.2061143  81.53  0.000404487    1.325    0.245
        77 -10.7742     13.4543     59.9038   1.0186771290e+02   6.3416908983e+01    0.2417613    0.1893397 -53.43  0.000399257    1.156    0.135
        78 -13.5999    191.2191     47.9941   4.5622775697e+01   3.1441504007e+01     1.071508    0.7014883  52.10  0.001046106    1.614    0.381
        79 -11.5405    115.5328    241.7769   1.0365700347e+02   8.6238898678e+00    0.5299104    0.1899129 -62.78  0.002094423    3.857    0.741
        80  -9.7794    169.0652    236.0692   9.1935240030e+01   1.2557426232e+00    0.1861878    0.1640228  18.52 0.0004719283    1.048    0.046
        81 -11.3129    139.9633     45.5368   5.3692100122e+01   4.4278009185e+01    0.3778898    0.2790146 -75.68 0.0009357688    1.699    0.411
        82 -10.8228    187.9702     31.0283   4.1634368349e+01   3.4441995705e+01    0.2093192    0.1855042 -86.48 0.0005956459    1.011    0.011
        83 -10.6033      2.3058     29.4119   9.7870280773e+01   7.0096508929e+01    0.1997677     0.170554 -29.24 0.0009654586    1.183    0.154
        84 -10.4246    198.0530     23.7162   3.8599053791e+01   3.2920983577e+01    0.2516887    0.1956195 -16.23  0.001063849    1.657    0.397
        85 -10.0400     90.0063    212.7158   1.0557064833e+02   1.8253479170e+01    0.2423393    0.1832519  89.82 0.0006181138    1.395    0.283
        86  -9.6586    189.3663     15.0050   3.7358932558e+01   3.5934237066e+01     0.176399    0.1546914 -59.44 0.0006037103    1.140    0.123
        87 -12.4465    195.3835    197.9556   8.0114186087e+01   3.4359143014e+00     1.233256    0.9230822 -74.64  0.006034037    2.395    0.583
        88 -11.8140    108.4610    203.5327   1.0014100074e+02   1.7342168446e+01    0.4702528    0.2618077  34.78  0.001677469    1.757    0.431
