#   1 NUMBER                 Running object number                                     
#   2 MAG_AUTO               Kron-like elliptical aperture magnitude                    [mag]
#   3 X_IMAGE                Object position along x                                    [pixel]
#   4 Y_IMAGE                Object position along y                                    [pixel]
#   5 X_WORLD                Barycenter position along world x axis                     [deg]
#   6 Y_WORLD                Barycenter position along world y axis                     [deg]
#   7 A_WORLD                Profile RMS along major axis (world units)                 [deg]
#   8 B_WORLD                Profile RMS along minor axis (world units)                 [deg]
#   9 THETA_WORLD            Position angle (CCW/world-x)                               [deg]
#  10 FWHM_WORLD             FWHM assuming a gaussian core                              [deg]
#  11 ELONGATION             A_IMAGE/B_IMAGE                                           
#  12 ELLIPTICITY            1 - B_IMAGE/A_IMAGE                                       
         1 -14.9190      6.3070     70.7104   9.5431770673e+01   6.2949198921e+01     1.316344    0.7695053 -56.81   0.00676948    1.488    0.328
         2 -13.8562      3.2016     11.0229   7.5769557684e+01   7.4799216294e+01    0.7775598    0.5081884 -40.13  0.005014355    1.600    0.375
         3 -13.3740      7.8555      2.6931   6.7612779982e+01   7.5422904066e+01    0.6804023    0.3811164  42.76   0.00386748    2.261    0.558
         4 -16.0212     12.9582     20.9820   7.4211466370e+01   7.2230831758e+01     1.925376     1.082069 -16.26  0.008236281    1.946    0.486
         5 -14.1174     24.8458     13.4011   6.3064467196e+01   7.1738330538e+01    0.9268436     0.263915  42.06   0.00367495    3.376    0.704
         6 -13.1754     86.4064     14.4593   4.0102180043e+01   5.9625061058e+01    0.6773333    0.3906404 -64.34   0.00309888    2.858    0.650
         7 -14.9920     98.6309     11.3303   3.6207464661e+01   5.7117551572e+01     1.263672    0.6571048  68.03  0.004473835    1.706    0.414
         8 -12.3495     70.0826     15.9441   4.5187414655e+01   6.3067282428e+01    0.3356978    0.2685703 -88.87  0.001802132    1.662    0.398
         9 -11.8063     58.8961     15.8528   4.8855281341e+01   6.5398289172e+01    0.2976407     0.239284  44.53  0.001894605    1.094    0.086
        10 -11.8733     46.6008     12.6177   5.2046232012e+01   6.8136970402e+01    0.2418201    0.2146263  55.01  0.001631671    1.337    0.252
        11 -12.2413    215.0211      9.9719   2.2560165280e+01   3.1411238892e+01    0.2722557      0.20597 -59.34  0.001265144    1.126    0.112
        12 -10.8709    153.4577      8.4745   2.7257400724e+01   4.4625642262e+01    0.1226271     0.100384 -88.30 0.0002682437    1.005    0.005
        13 -13.8784     41.8270      3.8374   4.9519466026e+01   6.9906925972e+01    0.6329092    0.3974628  45.52  0.003323745    1.326    0.246
        14 -11.9547    224.4815      4.5008   2.0952770890e+01   3.0176269300e+01    0.1100207   0.07957692 -68.20 0.0001986018    1.005    0.005
        15 -10.6385     75.2831      7.3123   4.0020081507e+01   6.2739614836e+01    0.1275646   0.08004832  35.42 0.0002312059    1.573    0.364
        16 -11.3203     61.6127      1.3617   4.1223253816e+01   6.6162865083e+01    0.2940282    0.1073163  63.72  0.001237307    2.728    0.633
        17 -11.8090    156.7552    214.9650   7.5137314177e+01   6.8184131559e+00    0.1761752    0.1105719 -43.69 0.0008851757    1.600    0.375
        18 -12.8317    107.6971    247.7978   9.1075585340e+01   7.1833062737e+00    0.6074992    0.3693619  55.65   0.00303572    2.095    0.523
        19 -13.5289     99.9883    239.1891   9.1828499388e+01   9.8946280924e+00     1.130348    0.4307493  36.89  0.004732835    2.226    0.551
        20 -11.9705     51.3248    248.4506   1.0408426998e+02   1.4036831098e+01    0.3518011    0.2076668 -82.43  0.001895642    1.944    0.486
        21 -12.8437      2.9921    248.8511   1.1466889103e+02   1.8900446526e+01    0.4832896    0.3169188  66.16  0.002670373    1.282    0.220
        22 -13.5216      9.4696    245.5475   1.1315271378e+02   1.8996897802e+01    0.7356507     0.379728  55.65  0.003642892    1.625    0.385
        23 -12.5930      4.1662    212.1890   1.1262900181e+02   2.6918440219e+01    0.4774959     0.224265 -89.37  0.002286544    2.050    0.512
        24 -12.4022     72.3366    206.9709   9.4748286891e+01   2.0746900185e+01    0.3608658    0.2995754 -89.03  0.001988428    1.292    0.226
        25 -12.4973     57.4603    203.0690   9.8230637121e+01   2.3607488406e+01    0.5129808    0.2551569  87.04  0.001897609    3.078    0.675
        26 -12.8574     16.9548    195.9055   1.0834196123e+02   2.9765275709e+01    0.4163406    0.2228348 -65.88  0.001730205    1.773    0.436
        27 -12.8628     22.3967    166.1097   1.0410687155e+02   3.6995290320e+01    0.3050566     0.292098  13.96 0.0006730959    1.173    0.147
        28 -13.7046     29.8948    169.3551   1.0219907232e+02   3.5417066450e+01     1.006398    0.5544414 -36.41  0.004240805    2.302    0.566
        29 -14.3251     22.0264    181.0938   1.0570267198e+02   3.3081251606e+01     1.022677    0.4092764 -58.27  0.004178585    2.333    0.571
        30 -15.4789      8.3903    183.2828   1.0968000141e+02   3.3695331894e+01     1.477824     1.093381 -41.10  0.008272273    1.581    0.368
        31 -15.7587     10.9986    175.2073   1.0831456891e+02   3.5571169250e+01     1.665275     1.325721  64.79  0.009651253    1.188    0.158
        32 -11.3528    200.8088    191.8276   6.1959672255e+01   4.8958801930e+00    0.1689245    0.1544074 -45.35  0.000836821    1.339    0.253
        33 -12.4372    249.7462    182.3184   5.2085674282e+01   2.2499458504e-01    0.3398213     0.124248 -41.90  0.001629933    2.196    0.545
        34 -11.3839    122.4955    181.5066   7.7479769299e+01   1.9299560782e+01    0.3355652    0.2198872  89.31  0.001264662    2.919    0.657
        35 -12.0587     49.0187    181.5457   9.8004750474e+01   3.0099752441e+01    0.3124014    0.2195868 -68.29  0.001552264    1.388    0.279
        36 -12.1512     97.9977    187.7535   8.5074023705e+01   2.1730162228e+01    0.2071918     0.123634  31.12 0.0008962689    1.629    0.386
        37 -11.6627    243.6647    170.3385   5.0846337767e+01   2.8644406548e+00    0.1140487   0.08768176 -59.74 0.0007051555    1.751    0.429
        38 -12.7605    124.2955    166.8945   7.4207278927e+01   2.2430712076e+01    0.6435072    0.4073621 -66.84  0.002676653    2.026    0.506
        39 -11.4470      1.9564    159.1647   1.0962859297e+02   4.0448080990e+01    0.3235409    0.1667129 -70.64  0.001526184    1.674    0.403
        40 -12.3269     77.0640    156.7529   8.5745264898e+01   3.2843942507e+01    0.4436183    0.3423121  17.70  0.001290465    1.413    0.292
        41 -13.6856     73.3118    153.7734   8.6364118533e+01   3.4194577764e+01     0.796736    0.5746279  22.64  0.003424332    1.481    0.325
        42 -12.7248    248.7003    196.6271   5.4718757364e+01  -1.8647977049e+00    0.5687808    0.2382455 -45.10  0.002863471    2.279    0.561
        43 -12.7255    246.3697    149.4201   4.6643950173e+01   5.9038290545e+00    0.4137018     0.289096 -57.38  0.002550508    1.655    0.396
        44 -11.5108    103.2515    149.9816   7.6532769535e+01   3.0265330200e+01    0.3591523    0.2317322 -28.30  0.001454921    1.968    0.492
        45 -12.5254     60.5037    147.2923   8.9292517015e+01   3.7757386712e+01    0.4258663    0.3026794  11.92  0.001952455    1.635    0.388
        46 -11.8755    110.4284    154.4191   7.5416859269e+01   2.7893177065e+01    0.4557113    0.2889509 -67.74  0.001862207    1.954    0.488
        47 -13.8388     40.7046    195.1563   1.0189456676e+02   2.7556486420e+01     0.505454    0.3050212  78.39    0.0023371    1.874    0.466
        48 -12.1406    247.6593    136.9911   4.4171564930e+01   7.7374046601e+00    0.3030919    0.1810911  52.86   0.00178274    2.259    0.557
        49 -12.2496     40.7363    136.8635   9.4164427194e+01   4.3043721048e+01    0.3015453    0.1707781  52.01  0.001248751    2.079    0.519
        50 -12.2371     44.8103    132.9855   9.2058033891e+01   4.3615878765e+01    0.4556967    0.2594692 -84.73  0.001785251    2.315    0.568
        51 -13.8183    108.7330    124.1788   6.9029231083e+01   3.5562953011e+01    0.7567793    0.7394611 -56.36  0.004040696    1.031    0.030
        52 -13.8453    111.6028    116.5058   6.6269903122e+01   3.6787418110e+01    0.8199518    0.4242208  34.29  0.003110557    2.146    0.534
        53 -12.8312     28.6461    121.5683   9.5934715188e+01   4.8412282203e+01    0.3369955    0.2517081 -58.97  0.001737854    1.213    0.176
        54 -12.1021      4.3962    119.5091   1.0473556609e+02   5.0829085001e+01    0.5227782    0.1366325  14.28  0.001717996    4.304    0.768
        55 -12.7225     86.6935    114.7068   7.3474603266e+01   4.2002377483e+01    0.3353914    0.2506414 -11.98 0.0009972963    1.713    0.416
        56 -12.5668     78.4195    110.4060   7.5156785655e+01   4.4518097804e+01    0.5563092    0.3398239  57.44   0.00220658    2.203    0.546
        57 -14.8242    106.4891    105.2682   6.4790775881e+01   4.0369166881e+01     1.307844    0.9799164 -32.57  0.006134189    1.443    0.307
        58 -12.8986     36.6459     92.8680   8.6748738897e+01   5.4944818521e+01    0.5076591    0.2751292  16.19   0.00158306    2.065    0.516
        59 -14.1963     11.7043    103.3141   9.9475167880e+01   5.4594027534e+01    0.7274465    0.6150761 -78.21  0.003768585    1.195    0.163
        60 -14.2835     18.2793    111.6863   9.8240736061e+01   5.1932597273e+01    0.8040686    0.5943831  -0.33  0.003193064    1.503    0.335
        61 -13.0356     17.7132    104.2204   9.7157860223e+01   5.3917253444e+01    0.5111916     0.350486  48.60  0.001309283    1.718    0.418
        62 -14.5445     22.7392     94.8897   9.3191838070e+01   5.5866575287e+01     1.418935    0.7675711  11.32  0.006387122    2.072    0.517
        63 -13.2125     29.7727     89.6410   8.8928719502e+01   5.6484969118e+01    0.9165078    0.5434143  69.62  0.003568866    3.158    0.683
        64 -11.7733    121.7305    112.1603   6.2333052864e+01   3.5692915167e+01    0.2877142    0.2610355  77.12 0.0007641648    1.201    0.167
        65 -11.7929     62.9603    110.8198   8.0767891487e+01   4.6945822324e+01    0.2584146    0.1686997  56.43  0.001091492    1.963    0.491
        66 -12.2903     19.0750     86.0134   9.2858736133e+01   5.8373505695e+01    0.5392401     0.272681  10.62 0.0003620391    2.215    0.549
        67 -11.4178     41.8773    106.9773   8.7924464774e+01   5.0802718572e+01    0.2864014    0.1587609  15.64  0.001195807    2.080    0.519
        68 -12.2725    136.9727    103.2348   5.6127821572e+01   3.4349888181e+01    0.4776201    0.2551975  62.53  0.001779294    2.553    0.608
        69 -14.0967     95.4512    110.2050   6.9484248331e+01   4.1435069240e+01     0.642366    0.5775757  89.64  0.002937728    1.267    0.211
        70 -11.9615     47.0804     99.5284   8.4085377086e+01   5.2018909861e+01    0.4232586    0.3226951  63.24  0.002066365    1.686    0.407
        71 -12.0555     52.8391     97.5329   8.1274675847e+01   5.1718303894e+01    0.4545742    0.2668533  -6.73    0.0017139    2.726    0.633
        72 -12.0355     60.8700     97.5136   7.8133684854e+01   5.0526590630e+01     0.389663    0.2534782  52.11  0.001713978    1.882    0.469
        73 -13.4336      2.3972     97.1258   1.0235213903e+02   5.6740842405e+01    0.7369544    0.4397644 -84.90  0.003106542    1.817    0.450
        74 -12.4874    136.2010     94.8886   5.4092479668e+01   3.6190181682e+01    0.3765337    0.2240311  53.42  0.001642912    1.724    0.420
        75 -12.3736     49.0888     93.4448   8.1706092229e+01   5.3229050164e+01    0.3674889    0.2520546  51.92  0.001711494    1.800    0.444
        76 -10.8251     81.3443     93.3181   6.9462725003e+01   4.7979935311e+01    0.1587851    0.1184391  -6.78 0.0007049046    1.721    0.419
        77 -12.4282     42.4572     90.5952   8.3703766775e+01   5.4790026343e+01    0.3407536    0.2685708 -67.48  0.001771499    1.404    0.288
        78 -11.2938     35.1753     86.2098   8.5688172405e+01   5.6719297788e+01    0.2233761    0.1779513 -20.48 0.0006701573    1.238    0.192
        79 -12.2904    187.8401     84.4294   4.1630335244e+01   2.6929993605e+01     0.297091    0.1110523  48.47  0.001136064    3.172    0.685
        80 -13.8052    169.5418     76.9837   4.2747372775e+01   3.2052071422e+01    0.8675179    0.3253253  51.54  0.003353857    2.785    0.641
        81 -11.6803    158.0429     83.4909   4.6449872429e+01   3.3471751890e+01    0.2708083    0.2189639  72.63 0.0007187421    1.275    0.216
        82 -13.2153    161.6038     79.7557   4.4829570572e+01   3.3331177792e+01    0.5754742    0.3817642  29.63  0.002147228    2.299    0.565
        83 -13.3953     91.8715     58.0770   5.4727206725e+01   5.2737908363e+01    0.4623893    0.4257112 -39.41  0.002685512    1.162    0.139
        84 -13.8821     53.9916     68.0501   7.2006509327e+01   5.8150191375e+01    0.8715717    0.7353165  22.81  0.004905319    1.137    0.121
        85 -12.9940     54.4779     81.4403   7.6083143616e+01   5.5222562479e+01    0.6091545    0.4452288 -53.27  0.003073603    1.416    0.294
        86 -12.3330     77.1809     73.0943   6.4671403626e+01   5.3028025921e+01    0.5255678      0.33304 -18.47  0.001821381    2.241    0.554
        87 -13.9941     61.4588     75.6186   7.1433882547e+01   5.5359104140e+01    0.6914291    0.5354989  -9.48  0.001306787    1.437    0.304
        88 -13.1862     71.0198     75.0906   6.7572060507e+01   5.3786511370e+01    0.6232717      0.38729  18.01   0.00191761    2.096    0.523
        89 -12.2784    136.0482     79.7101   4.9956829039e+01   3.9080236090e+01    0.5556906    0.2530615  48.94  0.002054561    2.188    0.543
        90 -11.8213    114.2038     79.6748   5.5284911467e+01   4.3998802304e+01    0.3572023    0.2751702 -69.09   0.00165997    1.562    0.360
        91 -11.4312     41.6117     76.1834   8.0008092199e+01   5.8231928661e+01    0.2663378    0.1369767 -56.92 0.0007260898    2.055    0.513
        92 -14.0447    171.3716    242.2085   7.6320717291e+01  -4.2956446468e-02    0.7489921    0.5256863   8.41  0.004508002    1.271    0.213
        93 -13.9401      4.6679     63.5602   9.4539168487e+01   6.4683531947e+01     0.667436    0.4934507   9.65  0.003983101    1.395    0.283
        94 -12.6237    198.8122     70.1555   3.6848033198e+01   2.6962494977e+01    0.4589416    0.3499568  18.42   0.00248148    2.254    0.556
        95 -12.7851    163.9928     71.6679   4.2339188877e+01   3.4146548853e+01    0.3099855    0.2780075  89.03  0.001323148    1.063    0.059
        96 -11.3593    117.7279     72.3435   5.2163502925e+01   4.4548455371e+01    0.2375142    0.2115551  86.70 0.0004464555    1.193    0.162
        97 -12.1372     39.0874     67.9139   7.8574827947e+01   6.0364033112e+01     0.347352    0.1789954  38.30  0.001546192    2.056    0.514
        98 -12.2069    134.7139     66.5617   4.6509371889e+01   4.1642969689e+01    0.4426222    0.2502398  50.19  0.002006699    1.741    0.426
        99 -12.0462     30.7775     60.9955   8.0286238838e+01   6.2864514156e+01    0.2509642    0.2318254  29.28  0.001550959    1.248    0.199
       100 -12.8387     78.9020     60.4151   5.9747433130e+01   5.5054088825e+01    0.4648854    0.4227017 -46.95  0.002676256    1.212    0.175
       101 -12.8488     82.1922     54.4657   5.6520815030e+01   5.5389902908e+01    0.5491602    0.3719567  41.54  0.002046352    1.379    0.275
       102 -12.9919    178.2067     58.7866   3.6936910551e+01   3.2995718069e+01    0.4401966    0.4061807 -56.59  0.001912365    1.149    0.130
       103 -12.9685     60.7841     60.4113   6.6527146566e+01   5.8494062875e+01    0.3483826    0.2145251  13.18  0.001505984    2.226    0.551
       104 -13.1591     64.6795     48.8148   6.0659093728e+01   5.9812291891e+01    0.4891702    0.3848748 -33.81  0.002307608    1.341    0.254
       105 -13.6407     87.3898     65.1361   5.8540570415e+01   5.2473327101e+01     1.066351    0.6029364  20.29  0.003854247    3.179    0.685
       106 -11.9999     24.8184     59.3479   8.2747300038e+01   6.3886900857e+01    0.4062399    0.2415493 -43.13  0.001898427    1.535    0.348
       107 -14.3247    120.2225     54.7055   4.6136504331e+01   4.6869992330e+01    0.7915173    0.4401092  44.14  0.002968586    1.874    0.466
       108 -11.5200     17.6567     55.5548   8.5275961541e+01   6.5404920591e+01    0.3086663    0.1427439 -53.20  0.001430652    2.018    0.504
       109 -13.6201    103.2919     50.4832   4.8902541253e+01   5.1397896627e+01    0.9368237     0.551259 -66.61  0.002425332    2.951    0.661
       110 -13.2448     97.9902     50.2059   5.0236648597e+01   5.2634585495e+01     0.554967    0.3616786 -45.65  0.002008323    1.698    0.411
       111 -11.4146    136.3449     49.4867   4.1218301296e+01   4.3864943567e+01    0.2473314    0.1870002  64.90 0.0006152078    1.231    0.188
       112 -10.5018     23.6523     49.7439   8.0049910262e+01   6.5958214854e+01    0.1351618   0.08820724 -12.48 0.0003407999    1.595    0.373
       113 -11.9166    153.3386     46.7178   3.7513652138e+01   4.0293340608e+01    0.3489684    0.1556094  66.11  0.001509818    2.173    0.540
       114 -13.3347    212.6341     43.1266   2.9481656799e+01   2.8002754917e+01     1.009527     0.402726  85.10  0.004105202    3.736    0.732
       115 -12.9798    219.8024     41.6997   2.8548162986e+01   2.6798863214e+01    0.8613153    0.3755794 -83.10  0.003713854    3.431    0.709
       116 -12.9650      4.0461     43.2169   8.8980596349e+01   6.9056497987e+01    0.5137102    0.3394666  -3.39  0.003029805    1.425    0.298
       117 -12.2907     11.7187     43.4745   8.4488723422e+01   6.8387875657e+01     0.373088    0.1908289  -2.12  0.001743023    2.306    0.566
       118 -11.8465    159.0448     43.1762   3.5706573345e+01   3.9456292500e+01    0.3199463     0.180418  68.29  0.001604695    1.675    0.403
       119 -11.9600    109.5503     41.8917   4.4463150590e+01   5.1178129203e+01    0.3652412    0.1811009  63.74 0.0009717527    2.022    0.506
       120 -13.0225    132.2801     32.5839   3.6943710452e+01   4.7017936440e+01    0.4534822      0.28912  59.28  0.001553647    1.418    0.295
       121 -13.8376    122.1761     36.5675   4.0023853799e+01   4.8913289736e+01    0.8695628     0.398682  46.47  0.002919302    2.278    0.561
       122 -12.3085    114.2623     37.4787   4.1945452588e+01   5.0656319981e+01    0.3380169    0.2204758  52.29  0.001688996    1.403    0.287
       123 -12.6627    242.7164     36.3357   2.5737291508e+01   2.3286099211e+01     0.433069    0.1887017  78.17  0.002417722    2.500    0.600
       124 -12.1804     75.8690     36.9749   5.2022603366e+01   5.9344940877e+01    0.3775952    0.1854043  51.52 0.0009949693    1.863    0.463
       125 -11.3343     70.5005     36.0141   5.3452702475e+01   6.0590066701e+01    0.2471864    0.1787334  60.36 0.0006591477    1.526    0.345
       126 -12.5094     45.8845     33.3364   6.2132851772e+01   6.5620186882e+01    0.4576391    0.3508015  14.46  0.002723364    1.224    0.183
       127 -12.3393     60.4683    245.8777   1.0177908610e+02   1.3505685958e+01    0.2604981     0.167747   8.32  0.001343253    1.974    0.494
       128 -12.2819     28.8722    244.8259   1.0887466339e+02   1.7244242218e+01    0.3563671    0.1864862  44.62  0.001922272    1.567    0.362
       129 -12.8158    147.3575    238.9927   8.0962855582e+01   3.5965230374e+00    0.2335712     0.172371  44.11  0.001080584    1.570    0.363
       130 -14.1381     92.6255    229.9749   9.2467079420e+01   1.2796190938e+01    0.6653805     0.580707  16.54  0.004001363    1.118    0.105
       131 -11.2917     35.0238     34.7150   6.7979035013e+01   6.7149222469e+01    0.1838155    0.1491727  17.53 0.0005352274    1.086    0.079
       132 -13.7885    166.1252     30.1276   3.1398139991e+01   3.9471405221e+01    0.8043208     0.410481  74.60  0.004035885    1.848    0.459
       133 -12.7445    139.2541     21.4929   3.2592438064e+01   4.6621584667e+01    0.9363239    0.2921052  73.92  0.003038203    3.618    0.724
       134 -12.3977    152.4987     31.0569   3.3398396173e+01   4.2473315786e+01    0.2942167    0.2705945 -75.01  0.001206747    1.112    0.100
       135 -12.9871    148.0221     29.9963   3.3736783851e+01   4.3634629673e+01    0.5117323    0.3801096 -18.78   0.00255073    1.742    0.426
       136 -13.2276    142.8194     29.9173   3.4476001291e+01   4.4856515959e+01    0.5177794    0.3333903  86.36  0.002547588    1.569    0.363
       137 -13.0171    189.8480     26.7139   2.8051411092e+01   3.4677815646e+01    0.4291396    0.1299005 -48.74  0.001813844    2.901    0.655
       138 -13.0926     55.5738     26.9351   5.5146385203e+01   6.4751549659e+01    0.6721011    0.2933609  48.80  0.002679949    2.116    0.527
       139 -11.8892     63.1809     24.9967   5.1415042768e+01   6.3499241304e+01    0.3590344    0.1853811  31.54  0.001653757    2.148    0.534
       140 -12.3965    120.7815     25.2381   3.6695925403e+01   5.0564994782e+01    0.3936301    0.3306402  43.84  0.002432699    1.266    0.210
       141 -11.9040     30.9141     25.2639   6.5771292001e+01   6.9208133867e+01    0.3321561    0.1663964  24.13  0.001576963    2.090    0.522
       142 -11.7837     36.3319     23.6406   6.2198250897e+01   6.8593422684e+01    0.3202642    0.1672926 -34.31  0.001655289    2.027    0.507
       143 -11.5847     13.4133    222.2065   1.1101329341e+02   2.3766468681e+01    0.3870767    0.1520005  78.42  0.001546476    3.062    0.673
       144 -13.7157     26.5083    226.1372   1.0817268222e+02   2.1595396285e+01    0.8264235     0.419475 -49.40  0.003918802    2.452    0.592
       145 -11.6365     46.4474     20.2887   5.5864323299e+01   6.7286599622e+01    0.3667185    0.1842867  36.27   0.00182919    1.789    0.441
       146 -13.9789     20.6989    224.0934   1.0941199178e+02   2.2641073335e+01    0.5537181    0.5305761 -87.63   0.00239751    1.190    0.159
       147 -13.7410     64.6814    223.4580   9.8608253904e+01   1.7875789546e+01    0.8713051    0.7727116  45.98   0.00530771    1.016    0.016
       148 -13.1964     59.3975    212.7917   9.8806324928e+01   2.1015624056e+01    0.4422927    0.2502768 -48.10  0.001348195    1.999    0.500
       149 -11.6508    248.9797    225.7098   5.9507120773e+01  -6.1664674746e+00    0.1618039    0.1193517 -10.28  0.001182445    1.094    0.086
       150 -11.1467     51.2619     20.4197   5.3900730741e+01   6.6377899733e+01     0.226091    0.1073072  47.57  0.001087643    1.865    0.464
       151 -14.0204     64.3103    214.1930   9.7694736693e+01   2.0069362194e+01    0.5611371    0.3793418  55.24  0.002854066    1.489    0.329
       152 -12.3406    249.2976    216.0836   5.7891591630e+01  -4.8224215639e+00    0.2158904    0.1847234 -32.54  0.001629724    1.468    0.319
       153 -12.5536     24.2004    216.8813   1.0806969306e+02   2.3973048430e+01    0.5603883    0.3698738  74.77  0.003084689    1.463    0.317
       154 -12.4732    237.6701    214.2170   5.9430946637e+01  -3.3335989698e+00    0.2845338    0.1286122 -48.11  0.001379715    2.713    0.631
