#   1 NUMBER                 Running object number                                     
#   2 MAG_AUTO               Kron-like elliptical aperture magnitude                    [mag]
#   3 X_IMAGE                Object position along x                                    [pixel]
#   4 Y_IMAGE                Object position along y                                    [pixel]
#   5 X_WORLD                Barycenter position along world x axis                     [deg]
#   6 Y_WORLD                Barycenter position along world y axis                     [deg]
#   7 A_WORLD                Profile RMS along major axis (world units)                 [deg]
#   8 B_WORLD                Profile RMS along minor axis (world units)                 [deg]
#   9 THETA_WORLD            Position angle (CCW/world-x)                               [deg]
#  10 FWHM_WORLD             FWHM assuming a gaussian core                              [deg]
#  11 ELONGATION             A_IMAGE/B_IMAGE                                           
#  12 ELLIPTICITY            1 - B_IMAGE/A_IMAGE                                       
         1 -15.1022    242.0055     95.0129   8.6019056892e+01   1.4449933181e+01     6.723727     1.084098 -27.25   0.01756969    5.740    0.826
         2 -13.3248    234.5705     64.6038   7.9322484316e+01   1.9693177882e+01     2.079635    0.4013821 -37.29  0.006268931    4.227    0.763
         3 -14.5948    170.5305     66.2682   8.9908989739e+01   3.3878007096e+01     5.030397     1.683067 -47.86  0.002843408    5.432    0.816
         4 -15.0074    204.7466     23.5413   7.1335118484e+01   3.1087633501e+01     3.361673     1.465698 -52.30   0.01276884    2.829    0.647
         5 -13.1623    215.6508     16.8450   6.8269814625e+01   2.9171620876e+01    0.5301839    0.3240881  27.45  0.001729629    2.048    0.512
         6 -13.1191    186.2811     11.0060   6.9467108011e+01   3.6870209962e+01     1.931521    0.7817329 -68.83  0.005362456    5.564    0.820
         7 -14.4123    167.7652     48.1718   8.4578984733e+01   3.7232151687e+01     6.217191     1.998073  68.46   0.01392557    7.295    0.863
         8 -11.6565     55.3245     11.3489   1.0125113626e+02   6.8200617982e+01    0.3770318    0.1475552  32.31  0.001388917    3.254    0.693
         9 -11.4608     11.1445      9.3567   1.2658360765e+02   7.4047448139e+01    0.2206619    0.1317915 -45.47 0.0004950945    1.287    0.223
        10 -11.2140    149.5206      8.3828   7.3309039247e+01   4.6625959893e+01     0.250902    0.2469549 -15.97 0.0007065556    1.049    0.047
        11 -11.8506    144.0905      6.6112   7.3455190635e+01   4.8212246185e+01    0.6462846    0.2216281 -39.80  0.002205892    3.078    0.675
        12 -12.2626     49.5597      7.4854   1.0177872675e+02   6.9784239166e+01    0.4093613    0.2018512  24.65  0.001714685    2.667    0.625
        13 -10.6979    244.2264      6.6500   6.3295379049e+01   2.3752450099e+01    0.3471135    0.1708552 -67.44  0.001631108    2.481    0.597
        14  -9.6232    221.3694      7.1781   6.5057983462e+01   2.8735983823e+01    0.1927232   0.09900585 -34.00 0.0005258846    1.681    0.405
        15 -12.0628     67.8203      3.3512   9.1044498189e+01   6.6984060237e+01    0.6563634     0.187446  39.20  0.002065576    4.103    0.756
        16 -10.3166    154.0206      1.9991   7.0223424322e+01   4.6001955803e+01    0.2374094    0.1607364 -55.80  0.001133818    1.668    0.401
        17 -11.2873    118.5644      2.6092   7.6272222312e+01   5.5200664506e+01    0.3325331    0.1455054  72.03  0.001232955    2.664    0.625
        18 -11.3398    105.1174      2.1732   7.8978705031e+01   5.8622240892e+01    0.3222638     0.207615  56.29  0.001562905    1.490    0.329
        19 -11.1964     92.2937      2.4032   8.2379881274e+01   6.1696195177e+01    0.2819989    0.1203267  53.92  0.001143221    2.162    0.537
        20 -10.3312    249.3598      3.7904   6.2260884230e+01   2.2929117195e+01    0.2690214    0.1422987 -75.73  0.001359572    2.282    0.562
        21 -10.9641    146.5284     92.8026   1.0320340072e+02   3.4733057480e+01    0.3533142    0.2644918 -12.70  0.000887646    1.481    0.325
        22 -10.3385    133.2566     91.2750   1.0610163994e+02   3.7827138526e+01    0.2608308    0.2310199 -81.44 0.0005043382    1.427    0.299
        23 -11.2151    154.4986     84.0001   9.8767524671e+01   3.4608018663e+01     0.372568    0.2579789   9.92  0.001620015    1.845    0.458
        24 -11.7767    157.2949     81.0067   9.7238470071e+01   3.4509252840e+01    0.3796461    0.3609151 -75.09  0.001373251    1.257    0.204
        25 -11.5869    140.0049     80.9424   1.0132404574e+02   3.8378919432e+01     0.353542    0.3047574 -37.90 0.0007751714    1.156    0.135
        26 -12.6018    153.3608     69.9819   9.4710094089e+01   3.7314238019e+01    0.4039215    0.2924516 -20.49  0.001133233    1.388    0.280
        27 -10.4610    135.0452    105.1805   1.0942122659e+02   3.4694987495e+01    0.4905159    0.3066134 -14.17  0.001951031    2.407    0.585
        28 -10.1629     70.1780     61.9944   1.1698721304e+02   5.5806713354e+01    0.3389913    0.2203656 -74.59  0.001355415    2.379    0.580
        29 -11.7672    176.8425     59.1354   8.6470932026e+01   3.3447085430e+01    0.2782798    0.2491998 -14.72 0.0003543388    1.040    0.038
        30 -14.8349     46.6597    204.3699   1.4548972085e+02   2.7409189636e+01    0.9449815    0.7645426 -29.73  0.006994069    1.856    0.461
        31 -10.4860    184.2409    134.9974   1.0548052170e+02   1.9695309971e+01    0.2432137    0.1780851  51.75 0.0009354291    1.643    0.391
        32 -12.1803    185.5832     49.4419   8.1917719649e+01   3.2687105390e+01    0.3587134    0.2839711  15.01 0.0006682425    1.348    0.258
        33 -12.4677    190.5090     44.3568   7.9561531353e+01   3.2151134782e+01    0.4872439    0.3031421  20.54  0.002103688    2.040    0.510
        34 -11.2039    249.6947     46.5452   7.2983637487e+01   1.8692380329e+01    0.5596601    0.2394458 -14.48  0.002305269    2.550    0.608
        35 -11.2871    235.1592     46.2587   7.4412208857e+01   2.1719460068e+01    0.4338125     0.275104 -68.58  0.001570103    2.213    0.548
        36 -14.5160     58.2882    191.1789   1.4218682625e+02   2.8587266692e+01    0.8632965    0.7978406  43.69  0.003482505    1.196    0.164
        37  -9.5059    189.9699     36.0330   7.7028641872e+01   3.3301714457e+01    0.1722697    0.1658237 -10.12 0.0005861521    1.030    0.029
        38 -11.6442    149.1096     34.7245   8.3413274397e+01   4.3755355258e+01    0.2937856    0.2201649 -13.44 0.0006851534    1.341    0.254
        39 -10.2014     15.7688    133.9913   1.4776782935e+02   4.4352559447e+01    0.1640549    0.1271085  86.95 0.0002014909    1.075    0.069
        40 -10.3514    159.6215     28.8549   7.9321067593e+01   4.1813236019e+01    0.2804495    0.2225134  79.92 0.0009649568    1.440    0.306
        41 -11.5871      1.7853     27.1583   1.3895969274e+02   7.0578622145e+01    0.3792267    0.1067115 -63.38  0.001382188    2.392    0.582
        42 -10.2481    238.0043     28.1788   6.9342301744e+01   2.3047237487e+01    0.1832206    0.1572633 -35.34 0.0002938579    1.055    0.052
        43  -9.1927    118.7557    208.6335   1.3148849245e+02   1.8183872965e+01    0.1053658   0.08342868  -8.26 0.0006937715    1.613    0.380
        44 -10.2640      1.4175    126.0393   1.5105674658e+02   4.7062130823e+01    0.1726677   0.09265359 -83.69 0.0003454372    1.528    0.345
        45 -12.2051    124.0092     25.0184   8.4994606102e+01   5.1354576752e+01    0.3614258    0.2715273  79.33  0.001718947    1.683    0.406
        46  -9.6295     72.1807    105.1492   1.2743285012e+02   4.5434905792e+01    0.1824393    0.1547198  73.80 0.0003648211    1.284    0.221
        47 -10.1961    229.2310     22.9666   6.8734833134e+01   2.5482142041e+01    0.1998619    0.1912792  89.84 0.0005656005    1.158    0.137
        48  -9.1515     91.6777     22.6917   9.2938458205e+01   5.9295072486e+01    0.1540685    0.1059281  14.81 0.0003527764    1.645    0.392
        49 -12.3746     67.6915    144.4238   1.3516525728e+02   3.7003790920e+01    0.5949966    0.3354607  56.98  0.002015225    1.934    0.483
        50 -10.3346     37.9804    182.3386   1.4585491389e+02   3.2321842392e+01    0.1511766    0.1199199  50.84 0.0002856805    1.115    0.103
        51  -9.6199     84.2918     10.7010   8.9281736372e+01   6.2570568212e+01    0.1339837     0.110617 -54.12 0.0002233632    1.563    0.360
        52  -9.8870     11.9461    162.4761   1.5041175968e+02   3.8499918373e+01    0.1478716   0.09977504  33.84 0.0004214443    1.514    0.339
        53 -12.6392    240.5098     58.9024   7.7126294255e+01   1.9155404305e+01    0.8540509    0.4214124  82.68  0.001896436    4.418    0.774
        54 -10.3075    202.1194    248.1417   1.2126448899e+02   2.3086735400e+00     0.155655    0.1005461  17.60 0.0002778552    1.173    0.147
        55 -12.4552    220.7570    112.8623   9.3583797192e+01   1.6093933456e+01    0.4474321    0.2284898  -9.91  0.001812016    2.537    0.606
        56 -11.8129    204.8207    110.3545   9.5715567831e+01   1.9546375460e+01    0.4406668    0.2492301  25.38  0.001933613    2.084    0.520
        57 -10.0314    105.0432    109.8809   1.1866748005e+02   3.9280557846e+01    0.4867215    0.2923135  74.77  0.001641027    3.951    0.747
        58 -12.2009    215.1599    117.7369   9.5693813628e+01   1.6469472139e+01    0.3537264     0.239526 -11.99  0.001846506    1.399    0.285
        59  -9.1833    138.4886    244.5038   1.3164102180e+02   1.0637832586e+01    0.1061944   0.07851513  33.70 3.817672e-05    1.022    0.021
        60 -10.3932     20.4992    139.1005   1.4691153262e+02   4.2859093226e+01    0.1632172    0.1427001  63.91 0.0003742312    1.121    0.108
        61 -12.1563    211.0943    134.0267   1.0016762980e+02   1.4901794166e+01     0.434509    0.2568613  41.25  0.001954493    1.707    0.414
        62 -14.1653     19.1475    233.2202   1.5187222819e+02   2.5164861332e+01    0.6531832     0.480972  57.92  0.004660811    1.041    0.040
        63 -12.1861    226.0334    103.9804   9.0575183360e+01   1.6304521476e+01    0.3114862     0.204426  45.65 0.0008441245    1.655    0.396
        64  -9.1334    141.2877     99.3052   1.0629231601e+02   3.4589195587e+01    0.1517055    0.1149604   0.13 0.0002489817    1.567    0.362
        65  -9.2641    205.3860    223.5162   1.1743143195e+02   4.4087813567e+00    0.1103818   0.08112159  15.65 9.435379e-05    1.027    0.026
