#   1 NUMBER                 Running object number                                     
#   2 MAG_AUTO               Kron-like elliptical aperture magnitude                    [mag]
#   3 X_IMAGE                Object position along x                                    [pixel]
#   4 Y_IMAGE                Object position along y                                    [pixel]
#   5 X_WORLD                Barycenter position along world x axis                     [deg]
#   6 Y_WORLD                Barycenter position along world y axis                     [deg]
#   7 A_WORLD                Profile RMS along major axis (world units)                 [deg]
#   8 B_WORLD                Profile RMS along minor axis (world units)                 [deg]
#   9 THETA_WORLD            Position angle (CCW/world-x)                               [deg]
#  10 FWHM_WORLD             FWHM assuming a gaussian core                              [deg]
#  11 ELONGATION             A_IMAGE/B_IMAGE                                           
#  12 ELLIPTICITY            1 - B_IMAGE/A_IMAGE                                       
         1 -13.1684    202.7301     17.3750   5.7055557674e+01   3.2286967762e+01    0.8540986    0.4602096  -5.85  0.002995292    4.059    0.754
         2 -12.1425    208.4261     13.2118   5.5516984061e+01   3.1387494932e+01    0.5083872    0.2887295 -29.93  0.002665688    1.956    0.489
         3 -11.5354     21.2505     11.9989   1.0246961059e+02   7.1987747933e+01    0.1509967   0.08434463 -35.47 0.0008988914    1.620    0.383
         4 -11.0173     58.9914    237.4917   1.3571840032e+02   1.8112638738e+01    0.2127507    0.1829426  19.41  0.001364424    1.623    0.384
         5 -14.4080    235.4126    181.7381   9.0160565887e+01  -8.0929408179e-01     1.481185    0.5109695 -38.15  0.005932112    2.710    0.631
         6 -14.3022    225.7950    177.1779   9.0976551780e+01   1.5386466412e+00     1.767791    0.5953028 -36.99  0.006681025    2.854    0.650
         7 -14.5957    231.2160    243.8538   1.0206499953e+02  -9.0668691257e+00     1.939382     1.177969  13.45   0.01176012    1.511    0.338
         8 -14.0766    247.3570    222.9921   9.5728120273e+01  -8.5697486326e+00     1.592421    0.7549019 -42.64  0.008067256    2.614    0.617
         9 -12.5562    194.4355    248.2612   1.0957403393e+02  -4.3983517323e+00    0.8052599    0.3997304  26.29  0.004103791    1.886    0.470
        10 -10.9308    137.8804    249.8742   1.2098622554e+02   4.1463514937e+00    0.4656343    0.1947788  31.62  0.002042883    2.357    0.576
        11 -12.9867     76.0164    215.7532   1.3009896530e+02   2.0212562722e+01     1.704408    0.7697589  33.17  0.007643454    2.254    0.556
        12 -13.5915    105.6298    227.1470   1.2492495717e+02   1.3371164326e+01     1.430679    0.6911755  32.23  0.005594044    2.109    0.526
        13 -13.7890     92.5977    222.7983   1.2724120947e+02   1.6272922537e+01     1.145157    0.7965754  43.64  0.004586517    1.245    0.197
        14 -14.2562    105.8560    247.5320   1.2719963749e+02   9.5226789727e+00     2.228789     1.302836  29.28   0.01149671    1.817    0.450
        15 -14.7652     91.2495    246.2387   1.3001825588e+02   1.1939976158e+01     2.178343    0.8555545  39.43  0.009815214    2.055    0.513
        16 -13.9795     10.8636    206.5665   1.4329729813e+02   3.0036832064e+01    0.9677299    0.5397575  21.07  0.003744195    2.523    0.604
        17 -10.0484     70.1594    250.1914   1.3455022491e+02   1.4197921818e+01    0.1668803    0.1417888  58.90 0.0006470921    1.147    0.128
        18 -13.8625     37.5420    245.1161   1.4041607247e+02   1.9311991373e+01    0.9157443    0.5819701  59.14 0.0008202752    1.194    0.163
        19 -11.5891     32.3248    227.8772   1.4031603722e+02   2.3318976112e+01    0.2040163    0.1265527  55.64 0.0005989362    1.284    0.221
        20 -11.2660     37.8265    224.0415   1.3895187756e+02   2.3469866928e+01    0.2135858    0.1516071  51.12  0.001053017    1.215    0.177
        21 -11.8851     27.6109    221.2230   1.4081728181e+02   2.5216703565e+01    0.2222707    0.1710625  65.82 0.0002663383    1.050    0.047
        22 -17.1444      6.4283    236.1372   1.4565830057e+02   2.4416627185e+01     20.62712     1.385022 -78.41   0.04621733   14.106    0.929
        23 -11.8329     50.2286    214.5107   1.3560699719e+02   2.3971478538e+01    0.3530484    0.2421067 -46.51  0.001358878    2.041    0.510
        24 -12.1919     59.4217    202.8566   1.3246545278e+02   2.5336668427e+01    0.6987944    0.4319775 -66.87  0.003795857    1.618    0.382
        25 -12.3092    207.0275    247.8362   1.0712346480e+02  -6.1933671902e+00    0.6770257    0.4005075 -19.54  0.003849959    1.944    0.486
        26 -11.8475     49.3505    205.4477   1.3498640459e+02   2.6059096532e+01    0.3046739    0.1721859  80.84   0.00155923    1.819    0.450
        27 -11.4420    224.5261    204.6329   9.6509394122e+01  -2.6370954961e+00    0.2446802    0.1887172  15.52   0.00119049    1.164    0.141
        28 -11.2786    199.8621    233.1091   1.0616187634e+02  -3.0574841505e+00    0.5238801    0.2249042  24.20  0.002133372    2.914    0.657
        29 -11.2024     66.0116    238.3094   1.3437753213e+02   1.7015780842e+01    0.3139759     0.227635  36.80  0.001294804    1.404    0.288
        30 -14.7357    246.9972    187.0210   8.9190871184e+01  -3.4477692698e+00     2.717175     0.592683 -36.93  0.009032332    4.222    0.763
        31 -11.5486    107.6291    183.8684   1.1837849608e+02   2.2259536521e+01    0.6575102    0.3565641  67.13   0.00242499    2.897    0.655
        32 -10.4250     73.3680    184.2073   1.2695901723e+02   2.7681073879e+01        0.346    0.2022219 -41.37  0.001538056    2.379    0.580
        33 -10.2160     77.7502    178.4678   1.2507089506e+02   2.8392168993e+01    0.2551703     0.165625 -47.92  0.001099567    1.766    0.434
        34 -11.7143     92.1043    176.2216   1.2106664974e+02   2.6668756276e+01    0.5180317    0.3376195  56.21  0.002465467    1.548    0.354
        35 -10.8215     85.5671    168.0056   1.2145653174e+02   2.9698085450e+01    0.2404453     0.207434  16.99  0.000404931    1.399    0.285
        36 -12.2419     73.6725    164.3758   1.2405251427e+02   3.2413030653e+01    0.4371411    0.2770365 -44.94  0.001208072    1.832    0.454
        37 -10.4146     67.0005    233.4693   1.3375495776e+02   1.7834431309e+01    0.2527402    0.1602426 -55.47 0.0006890498    1.951    0.488
        38 -14.1619    236.4021    143.7570   8.2155308149e+01   5.2931385608e+00     1.272031     1.162628   5.09  0.006689461    1.124    0.111
        39 -12.3228    122.1070    145.1562   1.0726790163e+02   2.8629196931e+01    0.8343176    0.6507759 -20.24  0.003846001    1.649    0.394
        40 -11.8815     70.3250    144.6803   1.2174689439e+02   3.7794508043e+01    0.4038935     0.303201  61.23  0.002003663    1.399    0.285
        41 -12.3397     65.0062    141.7665   1.2278996087e+02   3.9280172711e+01    0.4602426     0.341921  65.06  0.002041882    1.446    0.308
        42 -11.0912     92.4933    144.3406   1.1529743148e+02   3.4357990718e+01    0.2745487    0.2482139 -25.34 0.0005063654    1.273    0.215
        43 -10.0125    100.7384    129.2363   1.0967770932e+02   3.6584047787e+01    0.2132222    0.1823677 -19.14  0.001052508    1.378    0.274
        44 -12.7979    237.4572    120.6179   7.6939421823e+01   9.0283229460e+00    0.9660565    0.3127695  50.86  0.003536173    3.417    0.707
        45 -11.0666    167.7265    112.5711   8.7940357397e+01   2.5799688520e+01    0.2759653    0.1910114 -62.79 0.0007375781    1.745    0.427
        46 -13.1890    242.0563    232.6581   9.8303104439e+01  -9.1079494875e+00    0.8629478    0.5059989 -44.72  0.004852979    2.401    0.583
        47 -13.1828    240.9727     98.9290   7.1606107343e+01   1.1949650448e+01    0.7975784    0.4222515 -61.05  0.003337261    2.568    0.611
        48 -13.3453    168.6749     65.6499   7.4852714689e+01   3.4254472136e+01    0.7189382    0.5824702   1.61  0.003553795    1.628    0.386
        49 -12.5031    186.3479     35.7459   6.3662287548e+01   3.4120274326e+01    0.4969731    0.1959968  61.75  0.002002076    2.270    0.559
        50  -9.8596    172.8222    249.3943   1.1394062864e+02  -1.2652469001e+00    0.1849022   0.09822787  28.85 0.0009487674    1.689    0.408
        51 -11.4211     55.0951    239.7020   1.3666603970e+02   1.8187570971e+01    0.2885953    0.1936072  63.78 0.0007417514    1.216    0.177
