#   1 NUMBER                 Running object number                                     
#   2 MAG_AUTO               Kron-like elliptical aperture magnitude                    [mag]
#   3 X_IMAGE                Object position along x                                    [pixel]
#   4 Y_IMAGE                Object position along y                                    [pixel]
#   5 X_WORLD                Barycenter position along world x axis                     [deg]
#   6 Y_WORLD                Barycenter position along world y axis                     [deg]
#   7 A_WORLD                Profile RMS along major axis (world units)                 [deg]
#   8 B_WORLD                Profile RMS along minor axis (world units)                 [deg]
#   9 THETA_WORLD            Position angle (CCW/world-x)                               [deg]
#  10 FWHM_WORLD             FWHM assuming a gaussian core                              [deg]
#  11 ELONGATION             A_IMAGE/B_IMAGE                                           
#  12 ELLIPTICITY            1 - B_IMAGE/A_IMAGE                                       
         1 -12.8886    225.9711     22.7113   2.9813076656e+00   2.6209775182e+01    0.4385604    0.3507675  83.83  0.001677382    1.267    0.211
         2 -12.7403    177.1670     71.3296   2.1397882993e+01   3.0757597381e+01     3.302365    0.6256866 -45.89  0.007048117    7.480    0.866
         3 -13.1607    205.0828     46.6821   1.0817855093e+01   2.7871331953e+01     1.667803    0.9886897  62.28  0.008456916    1.749    0.428
         4  99.0000    220.5415     29.4141   4.9977411018e+00   2.6602435513e+01     3.479678    0.9622717  80.35  0.009719226    6.844    0.854
         5 -13.2275    233.7293     48.3150   8.2021576791e+00   2.1488885581e+01     1.007013    0.7614191 -88.25  0.002760796    1.401    0.286
         6 -11.8005    211.2002     21.3637   3.8575276387e+00   2.9593154442e+01     0.473264    0.3921365  36.85  0.002928417    1.593    0.372
         7 -12.3767    203.5375     18.3975   3.7805597083e+00   3.1665208900e+01     1.239034    0.5926558  64.16  0.001616141    2.066    0.516
         8 -13.2357    201.2580     33.5347   7.8707512036e+00   3.0433345125e+01     1.552014    0.6843591  83.28 -5.881986e-05    2.862    0.651
         9 -13.3904    219.4408     57.0006   1.1724624874e+01   2.3311382191e+01     1.784184    0.8420826 -52.23  0.007234588    2.136    0.532
        10  99.0000     82.8014     30.0409   2.9514222243e+01   6.0008476551e+01     2.671704    0.6138798  40.19  0.005399246    9.147    0.891
        11 -14.0678     11.1711     69.2581   7.5692937954e+01   6.2279445131e+01     2.296008     1.255201 -29.93    0.0114207    1.983    0.496
        12 -11.8375     64.1332     47.1604   4.3974897464e+01   6.0889749823e+01     1.257984    0.9486208  79.93  0.004268091    2.229    0.551
        13  99.0000     30.7508     20.8621   4.8623328034e+01   7.0857931952e+01    0.9107357    0.5972468 -43.39  0.005166876    1.530    0.346
        14 -13.7810     56.7313     66.7610   5.4254999857e+01   5.8046370471e+01     2.051602    0.7596375 -50.44  0.007611472    2.530    0.605
        15 -12.8403     25.1417     41.1875   6.0778154706e+01   6.7598918148e+01     1.729266    0.5589613 -50.82  0.006989725    2.574    0.612
        16 -11.8588     47.7139     31.4076   4.4620472619e+01   6.6543240988e+01     2.192539     1.351969  57.51  0.009936385    2.641    0.621
        17 -12.2004     53.0814     21.3029   3.7073981237e+01   6.7269286708e+01     1.570276     1.268603  81.39  0.006099863    2.057    0.514
        18 -13.2398     71.3023     25.3835   3.1474698420e+01   6.3135089008e+01     1.429439     1.047111 -65.39  0.006940096    2.109    0.526
        19 -12.4005     80.1806     22.1709   2.6813609413e+01   6.1666188642e+01     1.148196    0.8761501 -84.26  0.005854926    1.944    0.486
        20 -14.1592     13.4761     39.7792   6.6989048360e+01   6.8921398719e+01     1.677642     1.395653  84.09   0.01048996    1.590    0.371
        21 -12.4954    173.4855     43.0891   1.3968957735e+01   3.5869249663e+01     1.438756     1.230556  45.87    0.0059028    1.294    0.227
        22  -9.6489    154.3285     61.5178   2.2755813720e+01   3.7893336843e+01     2.506349    0.9818062 -26.14  0.007901317    3.581    0.721
        23 -13.1587    176.2417     23.4620   7.9268895396e+00   3.7634706103e+01    0.3338986    0.3109922  77.77 0.0005973922    1.114    0.102
        24 -11.0649    232.5806      3.8810   3.5829614795e+02   2.6824295066e+01    0.9467037    0.2823127 -33.36  0.004269576    2.655    0.623
        25 -13.9864    244.4599      8.1243   3.5854412548e+02   2.3987895205e+01    0.9914587    0.3951384 -70.61  0.003165159    2.780    0.640
        26 -11.5549    228.2535     10.1310   3.5994726017e+02   2.7091092577e+01    0.5804973    0.2307849 -51.83  0.002659246    2.122    0.529
        27 -12.8046    221.4044      8.2235   3.5995738579e+02   2.8750701796e+01    0.7199022    0.2089699 -50.53  0.001328675    2.923    0.658
        28 -10.1527    111.4812      4.7350   1.1135204720e+01   5.6012831043e+01     0.475304    0.2518837  81.73  0.002088921    2.129    0.530
        29 -10.9735    114.9778     12.9892   1.3767723333e+01   5.4358574095e+01    0.4158685    0.2211292 -29.64            0    1.993    0.498
        30 -11.2124    116.2559      8.7627   1.1853510187e+01   5.4443838744e+01    0.3302292    0.2086001 -31.48   0.00126445    1.701    0.412
        31 -10.3374    187.3295     13.1616   3.8818179947e+00   3.6044616276e+01     0.249373    0.1463306 -60.45 0.0006359848    1.646    0.392
        32 -10.1739    141.8474     12.6993   9.0773482137e+00   4.7509417321e+01    0.2983202    0.1835305   7.88   0.00134328    2.412    0.585
        33 -10.7068    125.0717     10.6588   1.1005345776e+01   5.2018045673e+01    0.4774776    0.2998595  -7.37  0.001806614    2.010    0.503
        34 -10.1958    132.5930     11.4663   1.0057701784e+01   5.0010603435e+01    0.2483968    0.1778777 -65.56 0.0001108393    1.521    0.343
        35  -9.6562    131.1857      8.3624   9.1640448911e+00   5.0666350912e+01    0.2891276    0.2201096 -85.06  0.001350213    1.331    0.249
        36 -10.5645     88.5342     11.4251   1.9269473718e+01   6.1005553854e+01    0.2737262    0.2102851  14.52  0.001516776    1.410    0.291
        37 -10.5048    108.7488     10.2488   1.3928331272e+01   5.6195002170e+01    0.3307508    0.1815303 -30.00  0.001504235    1.942    0.485
        38 -10.3450     76.8718      4.8972   1.9445783223e+01   6.4356148435e+01    0.2041117    0.1669566  44.63  0.001218341    1.072    0.067
        39 -12.4922     78.7586      9.9150   2.1382650403e+01   6.3425503524e+01    0.3545437    0.2252441  45.64 0.0004695178    1.397    0.284
        40 -12.2537     69.4596      4.9500   2.1826167017e+01   6.6004358633e+01    0.7638045    0.5390868 -76.62  0.003838893    2.328    0.570
        41 -11.4911     65.4055      7.4320   2.4573256073e+01   6.6620955091e+01    0.3778715    0.3201934 -78.82  0.001998116    1.644    0.392
        42 -11.0777    101.0269      7.4282   1.4395704222e+01   5.8379701141e+01    0.3676134    0.1970295 -20.00  0.001402837    2.092    0.522
        43 -10.4264    104.5085      6.4198   1.3214257654e+01   5.7609957725e+01    0.2516251    0.1916817  56.88 0.0001120013    1.158    0.137
        44 -10.3578     26.8302      9.3782   4.4655373921e+01   7.3249957051e+01    0.2877254    0.1856427  13.94  0.001639928    1.571    0.363
        45 -12.7531    173.1411      6.2709   3.3191514091e+00   4.0196510627e+01     0.432374     0.292304 -10.75  0.002089055    1.889    0.471
        46 -12.3958     57.7081      4.7810   2.6040249643e+01   6.8502694591e+01    0.4566988    0.4381519  37.94  0.001657435    1.211    0.174
        47  -9.8741     50.8954      6.4363   2.9888558270e+01   6.9658777291e+01    0.4827076    0.3009807  19.77  0.002536802    1.733    0.423
        48 -10.6816     47.0804      5.6402   3.1175471227e+01   7.0468986387e+01     0.526964    0.2516385 -16.12  0.001807908    2.670    0.626
        49 -10.8609     47.5673      1.5559   2.8463063825e+01   7.0842719432e+01    0.4088781    0.1461976  45.67  0.001762782    2.432    0.589
        50 -11.3804    193.8911      7.5388   1.8122087398e+00   3.5049442949e+01    0.2999186    0.2104175  67.33  0.001356313    1.423    0.297
        51  -9.2472    163.2843      6.9944   4.5442032494e+00   4.2590607071e+01    0.1487528    0.1172633 -33.07 0.0008520057    1.350    0.259
        52  -9.5814    157.0199      7.2959   5.3382459678e+00   4.4146800690e+01    0.1531871    0.1100379  75.52 0.0003302646    1.254    0.203
        53  -9.7344     91.3679      7.1001   1.6528398794e+01   6.0759613106e+01    0.2067987     0.156836 -44.59  0.000600001    1.521    0.342
        54 -10.0256     93.1675      3.8660   1.4608288655e+01   6.0619892312e+01    0.2044558    0.1346148  33.11            0    1.556    0.357
        55  -9.3236     12.7593      7.3225   5.3148870382e+01   7.5277451564e+01   0.09947516   0.09356362 -55.64 0.0006886561    1.522    0.343
        56 -11.5159      2.7658      6.1222   6.0310090413e+01   7.6381628124e+01    0.2479975    0.2038543 -16.18   0.00085945    1.076    0.070
        57  -9.8063    146.2365      5.7287   6.1409382986e+00   4.7041853933e+01    0.1819683    0.1379035  48.88 0.0005351306    1.368    0.269
        58 -10.5048    206.9509      3.0057   3.5968938310e+02   3.2471372316e+01    0.2321489    0.1591796 -33.24  0.001385826    1.454    0.312
        59  -9.6909    183.4272      3.8151   1.6953860884e+00   3.7909798719e+01    0.2192923    0.1843659  82.80 0.0008029644    1.121    0.108
        60 -11.2224    187.0543      1.4463   7.5890447536e-01   3.7257313424e+01    0.3010103    0.1530253  71.44 0.0005007774    1.803    0.446
        61 -10.4108    216.6093      2.1471   3.5885287684e+02   3.0401443853e+01    0.4486805    0.1845811  75.18  0.002171634    2.315    0.568
        62 -12.1741     85.1385      1.6293   1.5529902467e+01   6.2733196575e+01    0.3817877    0.1720088  55.69   0.00108976    1.846    0.458
        63  -9.3784    144.2360      2.7427   5.4003303175e+00   4.7816517541e+01    0.1262767   0.09124041 -64.90 0.0003628377    1.406    0.289
        64  -9.5546      7.5244      2.4932   5.4314312656e+01   7.6597283259e+01    0.1182059    0.0943613 -15.28 0.0001140419    1.019    0.019
        65  -9.7682    250.3922      1.4439   3.5685410532e+02   2.3506623146e+01     0.113429    0.0863739 -56.35 0.0003097774    1.023    0.022
        66  -9.0535    125.6312      1.2704   7.4167010926e+00   5.2706224669e+01    0.1404786   0.09367153 -71.66 0.0005491737    1.668    0.400
        67 -10.0216     15.8079    238.4087   8.9201167600e+01   2.2514929505e+01     0.136361   0.09538396  25.43 0.0004499438    1.614    0.381
        68  -9.6589    236.6947    146.0121   2.9320457305e+01   6.7449249421e+00    0.1781718    0.1372878 -23.61 0.0003197159    1.098    0.089
        69  -9.6666    184.7069    135.0045   3.6038988802e+01   1.7837368213e+01    0.2027226    0.1787339 -26.02 0.0005036791    1.076    0.070
        70 -13.9038    210.7415     59.7328   1.3422856727e+01   2.4813230234e+01     1.620525    0.8912273 -66.40   0.00256381    2.379    0.580
        71  -9.5484    202.7367    132.0035   3.1966243664e+01   1.4890324729e+01    0.1918394    0.1674487 -24.64 0.0004533943    1.046    0.044
        72 -12.6663    220.3907     38.1478   7.0949452528e+00   2.5576065584e+01    0.7289271    0.3536391 -59.16  0.003364007    2.182    0.542
        73 -11.7310     96.0279     90.6144   4.7046387794e+01   4.5714040635e+01    0.6122509    0.4624804  58.92  0.001772271    1.493    0.330
        74 -11.9931    102.3613     96.1903   4.6631974565e+01   4.3185148970e+01    0.3377739    0.2829734 -38.49 0.0006248397    1.215    0.177
        75 -12.1155    106.9317     95.9912   4.5175671578e+01   4.2291992528e+01    0.3486611    0.2850713 -20.33 0.0007405776    1.414    0.293
        76 -12.1424     12.0660     97.5106   7.9918078326e+01   5.5213147427e+01     0.311463    0.2760897 -48.51 0.0008645678    1.144    0.126
        77 -11.7194     49.7190     95.2612   6.4878607456e+01   5.2220725255e+01    0.2578852    0.2398712   2.74 0.0005410546    1.160    0.138
        78  -9.7467     28.3048     95.3201   7.3248165207e+01   5.4519683183e+01    0.1440156   0.09182461 -39.77 0.0004158089    1.633    0.388
        79  -9.1831    232.7597     94.3286   1.8793256244e+01   1.5231933063e+01    0.1306352      0.08729 -52.67 0.0006893997    1.533    0.348
        80 -13.0069    183.6512     57.8037   1.6615461516e+01   3.1308999390e+01     1.304579    0.8276488 -33.67  0.004342058    1.544    0.352
        81 -12.2165    116.7589     92.8298   4.1382025554e+01   4.0889185745e+01     0.390538    0.3152848 -11.02 0.0008172011    1.522    0.343
        82 -11.1360     81.2354     98.5881   5.4196064907e+01   4.6630586990e+01    0.2763164    0.2222782  24.81 0.0008319636    1.341    0.254
        83  -9.7742     78.8182     91.7598   5.3198146690e+01   4.8675489414e+01    0.2577124    0.1610514 -16.27  0.000949903    2.774    0.639
        84 -11.3967    216.0008     90.0307   2.0092565457e+01   1.9174594213e+01    0.3036932    0.1685113 -45.00  0.001442696    1.668    0.401
        85 -11.4786    212.4865     88.9731   2.0347482715e+01   2.0061395472e+01    0.2247326    0.2146591  88.72 0.0006622763    1.141    0.124
        86 -12.3699    224.3976     86.8585   1.8189218614e+01   1.7970444773e+01    0.6122931    0.3833988   7.68  0.002578878    3.116    0.679
        87 -11.3741    237.7274     86.4826   1.6410017998e+01   1.5450266519e+01    0.3292971    0.2608269  85.35  0.001146045    1.555    0.357
        88 -11.5973    231.7234     84.2091   1.6636311120e+01   1.6926699195e+01    0.3976479    0.2552065 -58.73  0.001271269    1.737    0.424
        89 -12.2975     48.2239     85.4394   6.3136233866e+01   5.4839273705e+01    0.3725877    0.3326619  89.69  0.001484167    1.224    0.183
        90 -12.2920      3.9873     88.0212   8.1835908292e+01   5.8056643643e+01    0.4656305    0.2994671  18.05  0.002615998    1.794    0.443
        91 -11.8048    161.4440     84.1432   2.7943322423e+01   3.2294018252e+01    0.7615064    0.4894353  39.65  0.003372517    1.742    0.426
        92 -12.4549    168.5746     79.4920   2.5227315331e+01   3.1428799894e+01    0.6326652    0.4562961 -42.76  0.001347726    1.342    0.255
        93 -11.3178    110.3803     85.8096   4.1162581164e+01   4.3772238558e+01    0.3560793    0.2698113 -51.08 0.0009250729    1.357    0.263
        94 -11.1295    104.7686     86.0935   4.2945133758e+01   4.4914714136e+01    0.3361644      0.21364 -57.13 0.0008839933    1.788    0.441
        95  -9.7495    152.7516    124.0369   4.0352329093e+01   2.6497085177e+01    0.2043346    0.1896339 -38.78 0.0001847871    1.074    0.069
        96 -12.4709     87.3506     64.2930   4.1549355894e+01   5.3090432687e+01    0.9062304    0.6124346  41.95  0.001485922    1.471    0.320
        97 -13.2462     37.9467     81.8968   6.6522636584e+01   5.6918090660e+01     1.065074    0.5153713 -60.88  0.003895915    1.878    0.468
        98 -11.2694    182.0689    117.6831   3.2518251011e+01   2.1544028453e+01     0.416351    0.3791303 -36.32  0.001794927    1.059    0.056
        99 -12.6937     11.6190     24.5947   6.2545961839e+01   7.2214736810e+01    0.5131666    0.3341927  -8.92 0.0005013054    1.557    0.358
       100 -13.1965     79.5616     59.4297   4.2600770079e+01   5.5617305029e+01     1.579794    0.5270052  39.15  0.005174249    3.184    0.686
       101 -10.3610    140.8404    119.6373   4.2144538731e+01   2.9934538055e+01    0.2247619    0.1418691  54.39 0.0009457893    1.740    0.425
       102  -9.9089     72.8862    119.0709   6.1833422302e+01   4.2970894690e+01    0.2170197    0.1893038  72.89 0.0002796567    1.204    0.169
       103 -10.4386    203.8768    116.0399   2.8131771533e+01   1.7385222987e+01    0.4901216    0.2647502  70.38  0.001753768    3.851    0.740
       104 -13.1294     24.2727     67.2731   6.9085191928e+01   6.1793699516e+01    0.9959211    0.6212481  60.81  0.004783939    2.259    0.557
       105 -13.7920     45.6192     72.3957   6.0753929781e+01   5.8299650329e+01    0.9587797    0.9143639  78.08  0.002696534    1.180    0.152
       106 -12.8212     32.9940     66.0298   6.4658914056e+01   6.1255423287e+01     1.020637    0.4708245 -62.42  0.003610796    2.110    0.526
       107 -11.1116     65.9821    113.4677   6.2968741508e+01   4.5418726977e+01    0.3302368    0.1932455 -84.03   0.00128165    2.482    0.597
       108 -11.5713    137.7446    112.5003   4.1116784173e+01   3.2110260891e+01    0.5060961    0.2504393  37.36  0.001879956    2.236    0.553
       109 -10.8768     95.7819    112.3725   5.2941846852e+01   4.0702419013e+01    0.3612229    0.2572803 -77.56  0.001409358    1.809    0.447
       110 -10.0576    173.6862    112.2927   3.2874320283e+01   2.4322482850e+01    0.3038402    0.1700473  29.16 0.0009606401    2.548    0.608
       111 -10.9881    191.7243    103.9646   2.7363118399e+01   2.1954349597e+01     0.476908    0.2532785 -51.93  0.001205358    2.173    0.540
       112 -13.0237      3.9806     56.0383   7.6547156503e+01   6.5819062126e+01     0.896952    0.5443455 -60.99  0.002125148    1.359    0.264
       113  -9.7666    191.2996     99.3112   2.6284389082e+01   2.2849220625e+01    0.2031513    0.1844034  50.61 0.0004976203    1.173    0.147
       114 -13.0753     39.3414     57.2231   5.8985215836e+01   6.2549226786e+01    0.9365041    0.7337316  41.63  0.005266678    1.449    0.310
       115 -12.8918     81.0772     49.1785   3.8152092801e+01   5.7257965365e+01    0.8542927    0.6080559  32.43  0.003726627    1.437    0.304
       116 -11.8683     75.9529     52.0090   4.1163766156e+01   5.7760426370e+01    0.2683935    0.2416013 -60.17 0.0003358979    1.275    0.216
       117 -12.4764     75.2805     41.7962   3.7299569154e+01   5.9737788099e+01    0.6413061    0.3903401  42.01  0.002431006    1.595    0.373
       118 -12.7209     81.4909     40.5323   3.4490471309e+01   5.8667843351e+01    0.5537754    0.3617454  41.62  0.001469894    1.475    0.322
       119 -12.0742    166.0470     65.3565   2.1677647992e+01   3.4395271421e+01    0.9373049    0.5067613  51.02  0.004001251    1.878    0.467
       120 -12.0596    147.5098     83.3586   3.0731145437e+01   3.5735225039e+01    0.7446577    0.4266411 -43.41  0.002469119    1.734    0.423
       121 -10.2868     31.0104     85.7422   7.0291707142e+01   5.6675536426e+01    0.2888403    0.1757421 -56.29  0.001401644    1.444    0.307
       122 -10.8904    246.6642     83.0345   1.4607464509e+01   1.4290319651e+01    0.3372084     0.248833 -71.48 0.0007674678    1.620    0.383
       123 -10.8797    250.6918     81.6697   1.3868470286e+01   1.3754386120e+01    0.3690958    0.1903752 -31.66  0.001909898    1.680    0.405
       124 -12.1062    214.2381     83.4876   1.8778152637e+01   2.0549285303e+01    0.3094992    0.2521694  43.52  0.001268439    1.399    0.285
       125 -11.4995     38.7992     41.9345   5.3712260687e+01   6.5857827452e+01     1.607869    0.5926764  39.13   0.00635287    2.964    0.663
       126 -11.0954    100.6916     81.3157   4.2752935614e+01   4.6798275066e+01    0.3454972    0.2943427  45.95   0.00083055    1.176    0.150
       127 -11.9193     96.8994     76.3185   4.2385611430e+01   4.8649678121e+01    0.5980406    0.4501427  65.49  0.001554237    1.611    0.379
       128 -12.1721     96.7990     69.3891   4.0130575782e+01   5.0095723254e+01    0.5331653     0.431658 -17.60  0.001550014    1.397    0.284
       129 -11.7382     51.4971     87.4486   6.2325359561e+01   5.3924628092e+01    0.3252228    0.1988042 -32.68 0.0007771025    1.923    0.480
       130 -10.0692    161.6777     77.2978   2.5956699167e+01   3.3449925214e+01    0.2463849    0.1702812 -67.70  0.001083649    1.827    0.453
       131 -10.3901    155.8416     76.7180   2.6981040341e+01   3.4951697784e+01    0.3370951    0.2657163  76.74  0.001175725    1.421    0.296
       132 -11.2701     86.8331     73.7422   4.4935695321e+01   5.1240094111e+01     0.493254    0.3312556 -49.28  0.001837642    1.512    0.338
       133 -10.4830    103.9062     75.8715   4.0019999656e+01   4.7250023685e+01    0.2344885     0.208493   2.63 0.0006325549    1.241    0.194
       134 -12.4380     72.7100     74.1311   5.0207967738e+01   5.3790735271e+01    0.6808442    0.5849986  53.36  0.002519074    1.276    0.216
       135 -11.3496    225.9360     74.5365   1.5120336648e+01   1.9482600445e+01    0.2838846    0.1972408   7.90  0.001400555    2.286    0.562
       136 -12.8944    115.0619     80.1008   3.8042625187e+01   4.3921320006e+01    0.7378538    0.5787941 -28.89  0.003043185    1.377    0.274
       137 -10.3713    145.1356     53.1190   2.1967384136e+01   4.1514494847e+01     1.261483    0.5589795  35.32  0.003772875    4.213    0.763
       138 -11.1102    164.2474     55.4100   1.9076156898e+01   3.6390960869e+01    0.9242567    0.5220514  23.65  0.003157892    3.707    0.730
       139 -11.3455    173.7236     56.4804   1.7795392430e+01   3.3900710116e+01    0.4446039    0.3061981  64.14  0.001010372    1.459    0.314
       140  99.0000    134.3277     40.7019   2.0057107198e+01   4.6081529263e+01    0.7935631    0.6748722 -60.69  0.003913946    1.236    0.191
       141 -11.2612    103.8307     66.3482   3.6876766647e+01   4.9162115504e+01    0.3799001    0.2795076  12.44 0.0003655373    1.812    0.448
       142 -10.7078    198.5043    109.4985   2.7514885926e+01   1.9582771794e+01    0.2589258    0.2356102   8.96 0.0007777224    1.166    0.143
       143 -11.3784    135.1982     72.2322   3.0261274133e+01   4.0735733312e+01    0.5312325     0.337503  51.09  0.001011742    1.551    0.355
       144 -11.7030    128.7396     68.6342   3.0711516365e+01   4.2942995029e+01     1.122675    0.4903774  43.92  0.003877423    2.420    0.587
       145 -10.6172    196.0000    108.0132   2.7594833288e+01   2.0355319716e+01    0.3901539    0.1873601 -42.55  0.001629899    1.965    0.491
       146 -13.6966    116.3409     62.0843   3.1789523360e+01   4.7081676481e+01    0.9933843    0.7782726  32.37  0.002091056    1.376    0.273
       147 -12.0504    144.1422     45.1136   1.9566671337e+01   4.2963637554e+01    0.5311159    0.3359563  28.76  0.001268177    2.203    0.546
       148 -12.3932    149.0159     40.7159   1.7221117820e+01   4.2346432448e+01    0.6675525    0.5192634 -73.78  0.002257788    1.391    0.281
       149 -11.1309    161.5238     40.0000   1.4876805854e+01   3.9273919548e+01      0.33548    0.2734618  50.04 0.0009047394    1.285    0.222
       150 -12.1224    160.5116     35.9466   1.3789805682e+01   4.0063737091e+01    0.7851479    0.3989534  52.36  0.002345912    1.970    0.492
       151 -11.9209    143.7995     69.0234   2.7268567915e+01   3.9223115384e+01    0.8797844    0.6732315   7.25  0.003102862    1.770    0.435
       152 -10.7726    142.0086     61.0889   2.5176102040e+01   4.1015129649e+01     1.173881    0.3548358  45.71  0.003434848    3.792    0.736
       153 -11.5187    215.3130     42.0429   8.5400871068e+00   2.6191507057e+01    0.3432017    0.2790978  78.09 0.0007930874    1.272    0.214
       154 -10.1461     78.8554     66.8748   4.5498149198e+01   5.4235454627e+01    0.2274982     0.193097 -10.52 0.0002913172    1.279    0.218
       155 -10.8425    127.5867     58.6985   2.7728454206e+01   4.4967607128e+01    0.5608553    0.2800972  40.10  0.002112859    2.325    0.570
       156  99.0000    108.8475     55.5990   3.1613870194e+01   4.9991018582e+01     0.753035    0.4735554  50.57  0.003392959    1.542    0.351
       157 -10.8094     99.1802     47.8205   3.1585512626e+01   5.3555886952e+01    0.6038592    0.2295535 -31.14  0.002035753    3.122    0.680
       158 -11.5711     98.4800     56.0231   3.4879139196e+01   5.2286238583e+01    0.5776829    0.4217686 -61.34   0.00189635    1.714    0.417
       159 -10.8780    102.3996     53.3995   3.2706784060e+01   5.1866242910e+01    0.3976282    0.2584668  36.29  0.001791766    1.638    0.389
       160 -10.8004    248.3008     55.6352   8.4764220363e+00   1.7685946741e+01    0.3551588     0.194194  51.73  0.001908183    2.275    0.561
       161 -10.5744    135.5289     53.0748   2.3993516568e+01   4.3926133374e+01    0.5328192     0.237472  56.21  0.002036186    2.144    0.534
       162 -10.7983    245.2773     50.2554   7.5754958467e+00   1.8953275356e+01    0.2334272     0.158211 -42.81 0.0001840745    1.204    0.170
       163 -11.0653     90.4689     51.1818   3.5659969398e+01   5.4917300295e+01    0.2442908    0.2225869  38.35 0.0002747403    1.067    0.063
       164  -9.8069    250.3932     49.4224   6.9496300579e+00   1.8082852760e+01    0.2337961    0.1321804 -36.59  0.001317626    1.459    0.315
       165 -10.7560    123.1667     43.6123   2.3554437864e+01   4.8464137152e+01    0.4128416    0.2954577  48.33  0.001233794    1.352    0.260
       166 -10.6174    105.5827     43.7785   2.8157837483e+01   5.2719132665e+01    0.2955883     0.250525 -60.97  0.001320594    1.344    0.256
       167 -11.3880    247.8786     42.6127   5.6908925633e+00   1.9408496765e+01    0.4156828    0.2131773 -69.08   0.00171597    2.329    0.571
       168  -9.9625     99.9933     41.8128   2.9007884414e+01   5.4340183450e+01    0.3461035    0.2495917 -17.57  0.001679711    1.593    0.372
       169 -10.1565     94.0456     41.4096   3.0658025361e+01   5.5770867382e+01    0.2637944     0.201679  -9.76 0.0008760575    1.515    0.340
       170  -9.5236    249.4850     36.7240   4.2982067403e+00   1.9813908552e+01    0.4076157    0.1163579 -41.23  0.001774592    2.505    0.601
       171  -9.6154    114.2976     38.4748   2.3821502562e+01   5.1411422267e+01    0.1996627    0.1394045  72.55 0.0009330616    1.594    0.373
       172 -10.5687     96.3994     36.7212   2.8037355635e+01   5.5953160433e+01    0.2328402    0.1843549  55.91  0.001218305    1.240    0.194
       173 -11.2347     92.2779     33.8387   2.8097645756e+01   5.7328435294e+01    0.5309558    0.2907261  44.37  0.001135519    1.742    0.426
       174 -11.5765    122.5104     33.3286   1.9962102902e+01   5.0079116342e+01    0.3839257    0.2305301 -47.04 0.0005617087    1.830    0.454
       175 -10.1711    123.3743     28.2447   1.7893763055e+01   5.0515139888e+01    0.2550708    0.2175296 -45.25 0.0003951449    1.240    0.194
       176 -10.5556    131.7894     33.9493   1.8221617146e+01   4.7646938809e+01    0.3091633    0.2124166 -47.00 0.0006731809    1.538    0.350
       177 -10.0301    112.1267     32.9773   2.2259351417e+01   5.2714882318e+01    0.4018873    0.2296868  59.73 0.0009481678    1.666    0.400
       178  -8.5829    106.1810     31.3508   2.3127922250e+01   5.4390249725e+01    0.2953728    0.1373279  63.35  0.001147674    2.280    0.561
       179  -9.1303    104.1982     28.0668   2.2318844326e+01   5.5306516992e+01    0.2976214    0.1618168 -36.73  0.000749034    1.929    0.482
       180  -9.3360    152.4298     33.5525   1.4325965978e+01   4.2425133303e+01    0.1434235    0.1299632 -80.31 0.0003550117    1.061    0.057
       181 -10.2538    237.8003     30.8456   3.9113214953e+00   2.2814181618e+01    0.2736502    0.1542438 -88.76  0.001171349    1.971    0.493
       182  -8.6980    242.0131     29.9694   3.3983081375e+00   2.2071460475e+01    0.2754277    0.1646808 -52.86  0.001068099    1.397    0.284
       183  -9.6306    168.8913     26.8540   9.8340353112e+00   3.9073872024e+01    0.1953592    0.1471975 -62.16 0.0006141876    1.301    0.232
       184 -11.1082    234.1068     24.2462   2.7170357546e+00   2.4331866566e+01    0.2602322    0.1895535 -39.93  0.001274662    1.226    0.184
       185  -9.8536    234.1515    108.8265   2.1826989953e+01   1.2794216147e+01    0.1714726    0.1439512  11.91   0.00104755    1.358    0.264
       186 -10.5920    147.5822     25.1866   1.2386935292e+01   4.4686956565e+01    0.4540242    0.2567552  47.33  0.002060315    1.856    0.461
       187 -10.4532    113.0229     23.8676   1.8485106366e+01   5.3654558009e+01    0.3779138    0.2879147  31.71  0.001539685    1.410    0.291
       188 -10.9034     21.2126     25.1106   5.6540257470e+01   7.1223972935e+01    0.3722403    0.2871798  37.99  0.002293412    1.573    0.364
       189  -9.8955     19.7605     19.4182   5.4763760900e+01   7.2434246650e+01    0.2629517     0.193584 -56.20 0.0009941465    1.625    0.385
       190  -9.3922    153.4387     25.3813   1.1546926259e+01   4.3164014109e+01    0.1399546    0.1248061 -89.62 -1.001332e-05    1.043    0.041
       191 -10.0552    135.9421     25.3367   1.4401301957e+01   4.7658577006e+01    0.2095085    0.1688954  69.41 0.0009034842    1.155    0.134
       192 -11.6770    127.0546     24.6816   1.5832250910e+01   5.0011131890e+01     0.491559    0.2234731  65.06 0.0003400156    2.069    0.517
       193 -10.5681    244.5328     18.7708   8.0110672067e-01   2.2839427225e+01    0.2748732    0.1791729 -61.04 0.0009955334    1.298    0.230
       194 -11.0428    247.1597     22.5959   1.4469613555e+00   2.1899650501e+01    0.2531959      0.22369 -76.98  0.001556165    1.188    0.158
       195 -11.8890    242.3393     22.5988   1.7701594532e+00   2.2849842746e+01    0.4034486     0.202642  76.94  0.001521213    2.112    0.526
       196 -11.1517     99.4765     22.0167   2.1036523965e+01   5.7206214979e+01    0.5049112    0.2704891  70.40  0.001411347    2.195    0.544
       197  -9.8650    119.7495     22.1470   1.6356903305e+01   5.2163997082e+01    0.2097896    0.1845519 -79.35 0.0005142344    1.205    0.170
       198 -11.2659    129.6562     19.0198   1.3278999596e+01   4.9987452477e+01    0.3504469    0.2403671  84.21 0.0009676628    1.535    0.348
       199  -9.6024    123.7068     20.3594   1.4885985073e+01   5.1361116124e+01    0.2068649    0.1300752 -47.87 0.0006432083    1.749    0.428
       200  -9.9439    121.4100     17.2270   1.4149912564e+01   5.2288037320e+01     0.243228    0.1834017 -54.20 0.0007935614    1.458    0.314
       201 -12.7388     47.4586     55.3650   5.4514840882e+01   6.1891036944e+01      1.19945    0.4835725 -42.15  0.004708567    2.440    0.590
       202 -10.1063    138.7351     18.0345   1.1385324125e+01   4.7760633877e+01    0.2965299    0.2059794  50.85  0.001143562    1.412    0.292
       203 -10.0060     84.4082    108.8280   5.5716575226e+01   4.3606902821e+01     0.214765    0.1356766 -42.63 0.0003682827    1.654    0.395
       204 -12.1910    161.9796    106.5671   3.3884403338e+01   2.7975694244e+01    0.3878049     0.257298 -40.58  0.001730919    1.475    0.322
       205 -12.8940    154.9982     97.0709   3.2900993459e+01   3.1383309412e+01    0.9505868    0.6412508  59.91  0.004272472    1.628    0.386
       206 -11.0836    109.4350    104.3976   4.6737392674e+01   3.9887294772e+01    0.2758527    0.2173891 -27.61 0.0005938617    1.434    0.303
       207 -10.4278    182.4888    102.3923   2.8661642088e+01   2.4222412627e+01     0.427402    0.1282125 -41.19  0.001372095    3.112    0.679
       208 -11.5596    140.5779     95.8185   3.5927743234e+01   3.4930021128e+01    0.4809335    0.3866607 -83.69 0.0008977773    1.559    0.359
       209 -13.5094    130.9646     96.0438   3.8422789980e+01   3.7062253963e+01     0.899264    0.8611157 -35.49  0.004792786    1.051    0.049
       210 -11.1981     94.3195     15.9215   1.9751602991e+01   5.9149201825e+01    0.2665066    0.1883196  53.35 0.0007843659    1.272    0.214
       211 -13.2852    123.2776     98.1999   4.1086149464e+01   3.8314928776e+01    0.9455667    0.5830637 -19.35   0.00347184    2.645    0.622
       212  -9.4391    160.2210     14.3170   7.1368947708e+00   4.2645768031e+01    0.1239039    0.1010676  30.53 0.0003895463    1.489    0.328
       213 -11.6420    136.3105     87.7343   3.4673237982e+01   3.7523030581e+01    0.8069465    0.4746571  54.48  0.003355533    1.763    0.433
       214 -11.8106    127.4241     89.9425   3.7604179438e+01   3.9118984716e+01    0.6218714    0.3153463  43.98 0.0007797079    1.993    0.498
       215 -11.0097    149.8783     12.9416   8.0324005638e+00   4.5423298727e+01    0.2763777    0.1855272 -86.70  0.001281232    1.517    0.341
       216 -13.2127    191.7763     41.2347   1.0986469476e+01   3.1680837411e+01     1.081262    0.8402662  65.16  0.004404635    1.313    0.239
       217 -11.9462    121.3793     87.0750   3.8394025707e+01   4.1073886341e+01    0.5363828    0.3521253 -53.43  0.001528328    1.651    0.394
       218 -12.5481    125.4575     83.7976   3.6302672641e+01   4.0812789478e+01    0.6886373    0.5130466 -17.98  0.001761278    1.669    0.401
       219 -12.0837    136.3839     80.9977   3.2659534410e+01   3.8814691180e+01    0.8141181    0.5434987  87.65  0.003069951    2.449    0.592
       220 -10.4817    132.4865     82.5557   3.4099500784e+01   3.9429475155e+01    0.2686677    0.2478174 -58.54 0.0005350397    1.110    0.099
       221 -11.6736     75.1434    102.8397   5.7378022390e+01   4.6635520564e+01    0.3855403    0.2100239 -75.49  0.001347664    2.980    0.664
       222 -10.3189    227.1287    103.1176   2.1538636714e+01   1.4962187751e+01    0.2787879    0.1692854 -26.30  0.001046229    1.618    0.382
       223 -11.7524    225.8336     97.8293   2.0520287850e+01   1.6021609465e+01    0.3867395    0.2558842 -40.29  0.002091671    1.324    0.245
       224 -11.6813    144.5352    103.0717   3.6954087553e+01   3.2569418079e+01    0.4678663    0.4036439  20.46  0.001258749    1.285    0.222
       225 -10.4270     96.4838    100.9483   4.9786596327e+01   4.3260001925e+01    0.2393774    0.1506406 -49.95 0.0006629333    1.578    0.366
       226 -10.1045    215.0079    102.4644   2.3166200278e+01   1.7410970574e+01    0.1892146    0.1363445  52.40 0.0004521642    1.546    0.353
       227 -12.2701     86.9956     98.5482   5.2235840774e+01   4.5608896179e+01    0.6151431    0.4175497  25.34  0.001903263    1.697    0.411
       228 -11.1161     33.1304     99.8901   7.2200704841e+01   5.2907092979e+01    0.2187357    0.1843988  68.93  0.001247118    1.265    0.210
       229 -10.9275    170.0410     97.5731   2.9843590044e+01   2.7862839190e+01    0.4655197    0.3539279 -74.72  0.002202437    1.689    0.408
       230 -10.6464    115.4386     99.4389   4.3633190562e+01   3.9740398619e+01    0.1540268    0.1499718  86.18            0    1.054    0.051
       231  -9.5024    244.5483     98.0025   1.8105197769e+01   1.2536562317e+01    0.2014529    0.1071818 -33.37 0.0007065004    1.589    0.371
       232 -12.6636     55.1657     94.3199   6.2574701996e+01   5.1741028413e+01    0.3995669    0.3583408  44.63 0.0009886407    1.178    0.151
       233 -12.9218     62.2127     89.9213   5.8792222029e+01   5.1814246073e+01    0.9241646    0.3427495 -61.36  0.001732765    3.062    0.673
       234 -11.8897     57.6675     88.8698   6.0264070393e+01   5.2732344618e+01    0.3835067    0.3057553 -47.80  0.001138005    1.191    0.160
       235 -10.5836     70.8429     87.8619   5.4998908606e+01   5.0951805286e+01    0.3043284    0.2468625  44.42 0.0008170216    1.288    0.223
       236 -12.7386     66.6283     82.5925   5.5096310873e+01   5.2878102780e+01    0.6633817     0.551285  76.34  0.000609192    1.475    0.322
       237 -13.9531    177.9050     84.8427   2.4944797557e+01   2.8329714104e+01     2.577942     1.028173  35.08  0.006201843    6.849    0.854
       238 -13.1256    221.1360     79.5423   1.6904117698e+01   1.9723464916e+01    0.9185877    0.4626335 -51.92  0.002060899    2.111    0.526
       239 -14.3305    202.6760     77.4746   1.8957519679e+01   2.3950080788e+01     1.247911     1.084366 -21.58  0.007213942    1.213    0.176
       240 -13.7707    194.2611     85.9322   2.2405547678e+01   2.4452255451e+01     1.424083    0.9084092 -55.93  0.006676713    1.733    0.423
       241 -11.0008     36.3387    248.6713   8.5667771428e+01   1.8574796208e+01    0.2083088    0.1288211 -71.67  0.001391721    1.868    0.465
       242 -13.7970    193.4074     65.2600   1.7173654112e+01   2.7907513551e+01     1.349431      1.16994 -22.53  0.005044942    1.242    0.195
       243 -11.3091    113.8912    246.2565   6.9855816052e+01   9.4694127110e+00    0.2691512    0.2193443   0.58  0.001169565    1.473    0.321
       244 -10.4131    180.9949    243.9788   5.6336262582e+01   7.0345845671e-01    0.1697006    0.1327626  47.40  0.001138891    1.691    0.409
       245  -9.5802    218.5145    239.5217   4.8931493235e+01  -3.5038954646e+00    0.1130658   0.08435909   8.70 0.0002309674    1.026    0.026
       246 -13.7724    242.0926     61.2047   1.0291079426e+01   1.8140402572e+01      1.43698    0.9726871 -49.19  0.002737722    1.268    0.212
       247 -10.6119     88.3972    238.8088   7.4396294072e+01   1.4117808746e+01    0.1426642    0.1117894 -50.46  0.000265211    1.618    0.382
       248 -11.8919    234.8141     37.3985   5.6234428010e+00   2.2636431154e+01    0.8513896    0.4638528 -83.60  0.004318469    2.205    0.547
