#   1 NUMBER                 Running object number                                     
#   2 MAG_AUTO               Kron-like elliptical aperture magnitude                    [mag]
#   3 X_IMAGE                Object position along x                                    [pixel]
#   4 Y_IMAGE                Object position along y                                    [pixel]
#   5 X_WORLD                Barycenter position along world x axis                     [deg]
#   6 Y_WORLD                Barycenter position along world y axis                     [deg]
#   7 A_WORLD                Profile RMS along major axis (world units)                 [deg]
#   8 B_WORLD                Profile RMS along minor axis (world units)                 [deg]
#   9 THETA_WORLD            Position angle (CCW/world-x)                               [deg]
#  10 FWHM_WORLD             FWHM assuming a gaussian core                              [deg]
#  11 ELONGATION             A_IMAGE/B_IMAGE                                           
#  12 ELLIPTICITY            1 - B_IMAGE/A_IMAGE                                       
         1 -14.7284      9.0097    150.3173   1.4880284980e+02   4.2387968444e+01     6.484972     1.738495  86.16   0.02390291    4.549    0.780
         2 -13.5686      4.8829     14.2403   1.3187230467e+02   7.3389290220e+01     2.778141    0.5214518 -58.35   0.01089572    3.152    0.683
         3 -13.6228    190.1582     25.5266   7.3754564834e+01   3.3945239608e+01     1.499229     1.390096  55.81  0.006499701    1.099    0.090
         4 -13.5760    205.3372      6.7923   6.6437017958e+01   3.1988339470e+01     1.485423     1.050401  40.42  0.007779991    1.596    0.373
         5  -9.0657     81.3094    248.6438   1.4033478954e+02   1.7531677489e+01    0.1073219   0.05514506  57.78 0.0007042839    1.729    0.422
         6 -11.1968    174.7368    249.4222   1.2450145372e+02   5.4098357273e+00    0.2176119    0.1924766  30.85  0.001496625    1.316    0.240
         7 -12.6392    132.4359    245.8766   1.3129340000e+02   1.1465402458e+01    0.5229603    0.2905201  35.06  0.003527938    1.372    0.271
         8 -11.6272    141.3185    249.4431   1.3011251648e+02   9.8571013709e+00    0.3892339    0.1847548  42.33  0.002090606    1.537    0.349
         9  -8.4213     51.3366    250.2682   1.4548843203e+02   2.0657353145e+01   0.08285605   0.06825553  26.64 0.0002273176    1.594    0.373
        10 -10.1632     29.8281    249.9315   1.4901205260e+02   2.2884640787e+01    0.2396854    0.1185911  46.16    0.0018085    1.351    0.260
        11 -10.2159      2.4270    248.9873   1.5335444205e+02   2.5509217008e+01    0.2321172    0.1294758  75.96  0.001325298    1.505    0.335
        12 -10.3315    237.9976    247.4903   1.1426919056e+02  -2.5795554453e+00    0.1560772   0.07158213  33.85 0.0008623119    1.591    0.371
        13 -11.6329    143.9986    243.4732   1.2906195140e+02   1.0216165912e+01    0.2566357    0.1999186 -72.86  0.001974844    1.959    0.489
        14  -9.3166     66.7712    243.0542   1.4248746596e+02   2.0002473486e+01    0.1559865   0.09547368  57.18 0.0006227726    1.289    0.224
        15 -11.7001    184.7862    237.2075   1.2139902659e+02   5.3495008944e+00    0.3520091    0.2690094 -83.61  0.002229933    3.205    0.688
        16 -12.0102      2.3612    182.3397   1.5160852901e+02   3.6566719796e+01     1.076619    0.2407614 -79.55 0.0006322116    3.891    0.743
        17  -9.9395    249.0025    249.5044   1.1290953437e+02  -4.0638466043e+00    0.1564515   0.06994759  33.63  0.001050021    1.641    0.391
        18 -12.6749     40.7732    236.9390   1.4665835843e+02   2.3720288954e+01    0.2315531    0.2138451  84.46 0.0007869453    1.453    0.312
        19 -14.0531     54.0697    218.1501   1.4327581133e+02   2.5272950733e+01     4.654137    0.3519634  40.10    0.0181092    4.198    0.762
        20 -11.3921     65.6263    201.7505   1.3989663508e+02   2.6720243408e+01    0.2100383    0.1949139 -57.25  0.000579273    1.450    0.310
        21 -11.3401      2.4649    152.4924   1.5043840961e+02   4.2420266239e+01    0.5652156    0.2211553 -85.47  0.001495215    2.196    0.545
        22 -10.0432    193.2625    195.6475   1.1413024445e+02   8.9481786587e+00    0.6638479    0.3624997 -60.50  0.002125938    8.544    0.883
        23 -11.7158     71.4096    193.1743   1.3800056486e+02   2.7536064534e+01    0.2137197     0.204169  83.69 0.0005264917    1.275    0.215
        24  -9.8877     56.5134    236.9150   1.4392184029e+02   2.2053213230e+01    0.1530393    0.1410986  82.88  0.001375144    1.406    0.289
        25 -13.2013     68.1221    177.9842   1.3730363546e+02   3.0771763488e+01    0.4294091     0.267854 -43.34  0.002205198    2.334    0.572
        26  -8.2789    105.6608    181.3565   1.2945167260e+02   2.4996023743e+01    0.1319667   0.08313258  64.70 0.0007039933    1.813    0.448
        27 -10.7327     80.8594    179.9193   1.3469145875e+02   2.8759084192e+01    0.2036255    0.1823965  79.29 0.0003506308    1.139    0.122
        28 -14.4683     46.1096    229.2113   1.4535023136e+02   2.4359138405e+01     5.621338    0.1895252  33.99  0.002885003    9.380    0.893
        29  -8.5755    209.4627    179.9832   1.0866907824e+02   8.3181836785e+00    0.1314599    0.1081643 -61.93  0.000326379    2.113    0.527
        30 -11.7436     87.8119    170.3421   1.3204775876e+02   2.9632564310e+01    0.5467064    0.4916393  19.42  0.003683947    1.339    0.253
        31  -8.8099     63.9490    251.0000   1.4341793694e+02   1.9187942549e+01    0.1629246   0.04137526  36.04  0.000568504    2.909    0.656
        32  -9.9138     99.5985    153.7622   1.2704686917e+02   3.1158669901e+01    0.2443827    0.2332148  50.91 0.0007403298    1.105    0.095
        33  -8.9516    102.4472    149.6828   1.2573188086e+02   3.1532170296e+01    0.1644085    0.1250197 -47.05 0.0006787168    1.488    0.328
        34 -11.8964     88.5853    153.1931   1.2962593222e+02   3.2933398403e+01    0.2462693    0.2359282   2.07  0.000623891    1.273    0.215
        35  -9.7453    134.5575    147.3583   1.1774640075e+02   2.6526537410e+01     0.541492    0.1693658 -53.91  0.001766386    4.296    0.767
        36 -12.3410     67.1736    143.7589   1.3370685016e+02   3.7876100547e+01    0.6754342    0.4007549  62.36  0.003373015    1.765    0.433
        37  -8.4004    192.2144    143.9903   1.0497441099e+02   1.6277234679e+01     0.164262    0.1062096 -32.38 0.0004188387    1.606    0.377
        38  -9.6505    110.5217    138.1635   1.2180092852e+02   3.2544904686e+01    0.3584609    0.2428499 -18.65  0.001627191    2.490    0.598
        39 -13.3208      8.9150    207.7292   1.5118515282e+02   3.1475878095e+01    0.9853238    0.8051251  74.49   0.00657209    1.224    0.183
        40  -9.2677    156.5209    137.1755   1.1082681965e+02   2.4266320679e+01    0.2647735    0.1716335  54.08  0.001278381    1.665    0.399
        41 -10.5084     98.2564    135.5845   1.2444643405e+02   3.5111992131e+01    0.2373313    0.2166546 -19.30 0.0004056829    1.322    0.244
        42 -10.5826     56.8373    129.1523   1.3453332333e+02   4.2383479661e+01    0.2351331    0.1656129 -86.48  0.001342441    1.388    0.280
        43 -10.1451      3.4942    227.6610   1.5270102397e+02   2.8651786886e+01    0.3290897    0.1214813  41.53    0.0022008    1.843    0.457
        44  -9.1883    174.5060    137.9650   1.0719688506e+02   2.0627081492e+01    0.2414372    0.1881596  59.09 0.0006348845    1.507    0.336
        45 -11.3472     16.0442    199.0008   1.4953046617e+02   3.2379504756e+01    0.3540886    0.1482172  54.72  0.001066072    1.775    0.437
        46  -9.2054    107.7192    124.7023   1.1996364241e+02   3.5822633499e+01    0.1839895    0.1751674  31.33 0.0004650271    1.104    0.094
        47  -8.4507    221.5663    213.5185   1.1206022662e+02   2.6911333382e+00    0.1117173   0.08348472  19.82 0.0001705912    1.032    0.031
        48 -10.2377    168.0486    113.0414   1.0289982848e+02   2.6159130013e+01    0.3539302    0.2863923 -77.17  0.001071822    1.715    0.417
        49  -9.5536    203.5072    111.4757   9.5628366144e+01   1.8908426150e+01    0.2554493    0.1764259  13.85 0.0008931846    1.676    0.403
        50  -8.9425    156.3255     75.3191   9.5275576205e+01   3.5387850546e+01    0.1586275    0.1171279  16.21 0.0003366914    1.677    0.404
        51 -11.5052      9.6496     64.0083   1.4087345581e+02   6.1885667553e+01    0.6460027    0.2122094  30.48  0.002920839    3.178    0.685
        52 -11.8110      2.0258     57.9141   1.4315888380e+02   6.3688352061e+01     1.053801    0.1241055 -75.09  0.002816272    6.689    0.851
        53 -10.2485     19.5762    247.4456   1.5059078856e+02   2.4215068778e+01    0.3006205    0.1541268  34.97   0.00213522    1.709    0.415
        54  -8.9326      8.0229    249.4765   1.5248762074e+02   2.4956709783e+01    0.1344618   0.06544891  39.34 0.0006976493    1.562    0.360
        55  -9.2535     29.8856     61.1730   1.3194018578e+02   6.1102176490e+01    0.1847937    0.1603331  81.57  0.000489841    1.232    0.188
