#   1 NUMBER                 Running object number                                     
#   2 MAG_AUTO               Kron-like elliptical aperture magnitude                    [mag]
#   3 X_IMAGE                Object position along x                                    [pixel]
#   4 Y_IMAGE                Object position along y                                    [pixel]
#   5 X_WORLD                Barycenter position along world x axis                     [deg]
#   6 Y_WORLD                Barycenter position along world y axis                     [deg]
#   7 A_WORLD                Profile RMS along major axis (world units)                 [deg]
#   8 B_WORLD                Profile RMS along minor axis (world units)                 [deg]
#   9 THETA_WORLD            Position angle (CCW/world-x)                               [deg]
#  10 FWHM_WORLD             FWHM assuming a gaussian core                              [deg]
#  11 ELONGATION             A_IMAGE/B_IMAGE                                           
#  12 ELLIPTICITY            1 - B_IMAGE/A_IMAGE                                       
         1 -13.8245    231.1992     16.8469   3.4645833841e+01   2.6365226733e+01    0.9902833    0.8403696  47.91  0.002787998    1.569    0.363
         2 -13.5330    203.7595     40.4030   4.2902598243e+01   2.9692968118e+01     1.290546    0.9631083  26.61  0.005200858    1.961    0.490
         3 -13.6367    211.8876     35.0335   4.0641596798e+01   2.8496005085e+01     1.342399    0.9418533 -27.31  0.006073438    1.610    0.379
         4 -10.6092      2.3507      4.0673   8.7401592101e+01   7.4528249443e+01    0.3062286   0.08813977 -45.57  0.001405224    3.256    0.693
         5 -10.3680    249.3548      1.7666   3.0272831361e+01   2.4214890759e+01    0.2666503     0.145952  85.36  0.001588921    1.684    0.406
         6  -9.5562    120.9566      2.0188   4.3340820738e+01   5.3890698068e+01    0.2014014    0.1435407 -70.44 0.0008650047    1.718    0.418
         7 -11.2014    193.6545    196.1909   8.1488522165e+01   4.1548302524e+00    0.9122717    0.4755712 -63.75  0.002524178    6.974    0.857
         8 -11.4816    139.9342    249.5536   1.0084971569e+02   3.8009130346e+00    0.3530878    0.2158672  51.41   0.00197804    1.606    0.377
         9 -13.8124      5.8242    186.1792   1.2255530043e+02   3.4562157010e+01     1.538048    0.7617322  87.33  0.001975865    1.740    0.425
        10 -13.9277     86.0062    228.1081   1.0923946882e+02   1.5896210697e+01     1.273925    0.9747566 -64.91  0.007913189    1.428    0.300
        11 -13.2182     29.7679    206.2332   1.1894672342e+02   2.7752598698e+01    0.5283422    0.4082464 -54.05  0.001038316    1.626    0.385
        12 -16.2356     37.5938    193.1031   1.1613733386e+02   2.9838883538e+01     9.855168     3.930505  79.35   0.03469402    4.055    0.753
        13  -9.0802     99.5016    181.0289   9.9942482009e+01   2.4076311819e+01    0.2051891    0.1380656 -61.99 0.0004483471    1.490    0.329
        14 -11.8940     58.5330    178.7794   1.0967568270e+02   3.0671689530e+01    0.4184928    0.2831092 -36.28  0.001529741    2.094    0.522
        15 -11.8762     64.0117    173.3245   1.0760422700e+02   3.1261736990e+01    0.3100559     0.252163 -47.96 0.0006306848    1.398    0.285
        16  -9.8570    144.0116    179.7087   8.9061077397e+01   1.6462792678e+01    0.2718848    0.2081385 -21.18   0.00130156    1.616    0.381
        17  -9.0720    149.9474    178.1638   8.7397418345e+01   1.5675744297e+01    0.2023964    0.1595796 -72.88 0.0003885135    1.550    0.355
        18 -11.5111     74.2500    163.6363   1.0355259551e+02   3.2194865954e+01     0.296894    0.2875319  72.74 0.0003886134    1.125    0.111
        19 -12.8752     57.0104    128.3010   1.0230567039e+02   4.3394368313e+01     2.716947      0.79868 -70.80  0.005512541    8.976    0.889
        20 -13.3564     80.1049    156.9959   1.0090484581e+02   3.2962233901e+01     2.651305     1.184517  60.22  0.001120713    3.855    0.741
        21 -13.4034     61.1465    159.7644   1.0640774980e+02   3.4973829894e+01    0.5292977    0.3011524 -45.81  0.001589365    1.996    0.499
        22  -9.6725    124.1868    153.0043   8.8520864917e+01   2.6274833623e+01    0.2347661    0.1974305  87.20 0.0006187789    1.347    0.258
        23  -9.4851    175.1320    149.1752   7.5588098163e+01   1.6795974349e+01    0.2065904    0.1844893 -89.51 0.0005450891    1.330    0.248
        24 -10.4000    133.6608    143.9879   8.4136796652e+01   2.6509448482e+01     1.084834    0.2498037 -54.55  0.002123881    7.890    0.873
        25 -11.6601     29.2467    143.4108   1.1276301764e+02   4.2680845599e+01    0.3686045    0.3214025  -3.43   0.00209199    1.500    0.334
        26 -10.5750     97.6051    141.8429   9.3230910033e+01   3.3854186314e+01    0.6044903    0.3869823 -18.51  0.002284897    2.832    0.647
        27 -12.2628     84.5455    141.4620   9.6804664143e+01   3.6130225052e+01    0.3120033    0.2605569 -51.50 0.0005577547    1.172    0.147
        28 -10.6344     74.6186    135.7010   9.8508082908e+01   3.9103015248e+01    0.2887732    0.2228829  69.31 0.0002624685    1.456    0.313
        29 -10.8198    107.1258    131.3531   8.8267283310e+01   3.4689711888e+01    0.4716809    0.3474251  44.20  0.001856329    1.403    0.287
        30  -8.9287    157.3201    132.7139   7.5711092184e+01   2.4073861177e+01    0.1553375    0.1248124 -89.66  0.000282291    1.594    0.373
        31 -13.1723     68.2751    144.4351   1.0196228871e+02   3.7832385972e+01    0.9306806    0.6165873  82.02  0.002977468    1.869    0.465
        32 -11.3514     66.8904    127.0703   9.9073761380e+01   4.2379682778e+01    0.5026144    0.3140124 -85.66  0.002159334    2.134    0.531
        33 -10.7653     95.4304    127.7366   9.0749408477e+01   3.7690738187e+01    0.2787359    0.2439964 -25.28 0.0004149693    1.273    0.215
        34  -9.7870    115.3437    125.3461   8.4556763286e+01   3.4542051864e+01    0.2394817    0.1868665 -12.70  0.001008733    1.680    0.405
        35  -9.5543    105.9160    119.9811   8.5871828784e+01   3.7637926985e+01    0.2204619    0.2088119 -39.66 0.0002907921    1.055    0.052
        36  -9.4219    168.1630    113.2726   6.8346675937e+01   2.5767682949e+01    0.3053908     0.197467 -65.70  0.001215324    2.103    0.525
        37 -10.0107    205.1809    110.6517   6.0414404050e+01   1.7973006913e+01    0.3289052    0.2529089  34.67  0.001085055    1.515    0.340
        38  -9.4568    134.6817    106.0327   7.4328462427e+01   3.4860981239e+01    0.2662801    0.1209335 -60.77 0.0007047642    4.376    0.771
        39 -15.1208     10.5367    209.5222   1.2307589164e+02   2.8991107439e+01     1.622179     1.064965  66.36  0.009956593    1.225    0.184
        40 -10.9702     53.0747     91.4136   9.5465710881e+01   5.2856697099e+01    0.4187651    0.1904376 -55.47  0.001779466    1.955    0.488
        41  -9.9791     41.6767     92.1405   9.9719381408e+01   5.4016368983e+01    0.2000517    0.1844239  42.15 0.0004589213    1.262    0.208
        42 -15.6844      8.8322    239.3851   1.2499933483e+02   2.3073475805e+01     5.281493     2.268589 -82.74   0.03057942    2.052    0.513
        43  -9.3461    161.4259     82.4769   6.1366565649e+01   3.3348251241e+01    0.1514024    0.1459696 -61.85 0.0001761954    1.011    0.011
        44  -9.9994     30.3894     60.5002   9.5596537441e+01   6.2162935836e+01    0.4439233    0.2000864  45.97  0.001818439    3.698    0.730
        45 -11.1416     13.5305     60.2500   1.0278177524e+02   6.3606952465e+01     0.227108    0.1940143 -50.09 0.0004089994    1.125    0.111
        46  -9.8446     35.2460     56.0149   9.2088572882e+01   6.2576491659e+01     0.196101    0.1712536   5.73 0.0004970216    1.207    0.172
        47 -11.0447     11.9076     52.7761   1.0142582903e+02   6.5270110432e+01    0.2013442    0.1651385  37.60 0.0009178825    1.591    0.372
        48 -11.3131    170.1684    232.3790   9.2433900440e+01   1.8787308723e+00    0.3901554    0.1850456 -53.79  0.001686139    2.864    0.651
        49  -9.7716    209.8598    199.8530   7.9012331681e+01   7.9086511505e-01    0.1622307    0.1590475 -20.95            0    1.288    0.223
        50 -15.7741     66.6123    247.0797   1.1490163216e+02   1.4890834387e+01     9.065195     2.651408  29.24   0.01544141    7.925    0.874
        51 -12.7014    219.3527     28.2450   3.8259120474e+01   2.7640591590e+01    0.5468788    0.4305343  43.90  0.001363737    1.655    0.396
        52 -10.8626    132.9555     39.9224   5.4188680923e+01   4.7061693655e+01    0.3587765    0.2563086 -77.11 0.0006168121    1.858    0.462
        53  -9.9640    133.2632     32.5140   5.1625457906e+01   4.7931579552e+01    0.2517312    0.1986486 -73.02  0.001326965    1.493    0.330
        54 -10.3009    189.6477     15.1549   3.8051337210e+01   3.6073736325e+01    0.2269166    0.1608677 -87.68 0.0007325422    1.305    0.234
        55 -11.0914    183.5675    216.0152   8.7089466705e+01   2.4281196271e+00    0.2629478    0.1777493  49.71  0.001389841    1.676    0.404
        56 -10.4155    109.9970    201.4647   1.0061249612e+02   1.7751592579e+01      0.20499    0.1784491 -71.28 8.045678e-05    1.192    0.161
