#   1 NUMBER                 Running object number                                     
#   2 MAG_AUTO               Kron-like elliptical aperture magnitude                    [mag]
#   3 X_IMAGE                Object position along x                                    [pixel]
#   4 Y_IMAGE                Object position along y                                    [pixel]
#   5 X_WORLD                Barycenter position along world x axis                     [deg]
#   6 Y_WORLD                Barycenter position along world y axis                     [deg]
#   7 A_WORLD                Profile RMS along major axis (world units)                 [deg]
#   8 B_WORLD                Profile RMS along minor axis (world units)                 [deg]
#   9 THETA_WORLD            Position angle (CCW/world-x)                               [deg]
#  10 FWHM_WORLD             FWHM assuming a gaussian core                              [deg]
#  11 ELONGATION             A_IMAGE/B_IMAGE                                           
#  12 ELLIPTICITY            1 - B_IMAGE/A_IMAGE                                       
         1 -10.7932     51.1646     69.2314   1.1900409225e+02   5.7694132397e+01    0.4257599    0.2068277 -68.28  0.001668709    3.101    0.678
         2  -9.4622     97.4025     12.8257   8.1356329058e+01   5.9163545850e+01     0.188051    0.1204597  -3.78 0.0009501626    1.740    0.425
         3 -11.8380    211.6072    246.6729   1.1503325476e+02  -5.0197409102e+00    0.5186385    0.4749326 -40.50  0.003947651    1.553    0.356
         4 -10.1394    168.4248    242.0732   1.2207948041e+02   2.4242674908e+00    0.3372598    0.1902915  23.43  0.001720319    2.270    0.559
         5 -12.3371    161.8745    235.4404   1.2240181893e+02   4.4607334351e+00    0.9844429    0.5246131  21.32  0.004251597    3.231    0.690
         6 -11.9975    163.7219    226.9409   1.2088104111e+02   5.4363704689e+00    0.7703176    0.4041977  29.07  0.003702177    2.169    0.539
         7  -9.6105    177.5178    244.4398   1.2074713987e+02   6.2548080433e-01    0.2392662    0.1512528  -6.16  0.001237307    2.795    0.642
         8 -10.9568    147.1705    244.3041   1.2624727090e+02   5.5486621102e+00    0.1749088    0.1639118 -11.37 0.0008725093    1.382    0.276
         9 -10.8475    249.5548    137.4607   8.8046222191e+01   3.6849261554e+00    0.6836755    0.1728508 -40.55   0.00220034    3.805    0.737
        10 -12.7875    247.4932    151.6759   9.1466680494e+01   1.9048496188e+00     1.664845    0.6308997 -38.88  0.006763286    2.520    0.603
        11 -12.5637    219.9062    246.6423   1.1360186035e+02  -6.2697026177e+00    0.6284938    0.3164064  25.51  0.003465502    1.901    0.474
        12 -10.9056    243.6120    180.2716   9.7998705266e+01  -1.5844092296e+00    0.5376434    0.3237651 -19.21  0.002822881    1.710    0.415
        13 -11.3328    166.3308    248.2768   1.2326411279e+02   1.9008318135e+00    0.3869767    0.2231555  38.82  0.001421297    1.365    0.267
        14 -12.1049    247.3877    188.3377   9.8928593095e+01  -3.3253108147e+00     1.641813    0.6019642 -20.71  0.005008878    5.680    0.824
        15 -10.8370    144.8391    229.1334   1.2478027177e+02   8.2816902221e+00    0.3152674    0.1807775 -36.23  0.001615575    2.593    0.614
        16  -9.9608    114.8144    228.6608   1.3047216256e+02   1.3272614609e+01    0.2023523   0.09194785 -56.72 0.0009485073    2.581    0.613
        17 -11.4387    154.5578    240.5245   1.2442250391e+02   4.9114514024e+00    0.3578644    0.1860762 -45.65  0.001952969    2.448    0.592
        18  -9.6956     97.3876    227.2083   1.3364500832e+02   1.6232617700e+01    0.1576898    0.1048438 -87.60 0.0005895775    1.654    0.395
        19  -9.6131     88.2455    227.0202   1.3536336963e+02   1.7627313515e+01    0.1391339   0.09572799 -74.16  0.000499443    1.555    0.357
        20 -10.0620    157.4470    222.5057   1.2145336774e+02   7.2080116419e+00    0.2677513    0.1816249 -26.34  0.001460683    2.132    0.531
        21 -11.8586    125.5638    220.9244   1.2746311075e+02   1.2881167275e+01    0.3870187    0.2671349  41.55  0.001301882    1.279    0.218
        22 -10.7014    109.3984    222.3559   1.3080103821e+02   1.5246959379e+01    0.2552153    0.1322214  45.05  0.001342489    1.592    0.372
        23 -12.4972    159.7654    245.7720   1.2413318959e+02   3.3050570272e+00    0.8497683     0.513889  29.79  0.004929972    1.655    0.396
        24  -9.2416    183.0074    220.4852   1.1626253249e+02   3.1066435593e+00    0.1813573   0.09633814  24.19 0.0008089579    2.431    0.589
        25  -9.5894    148.7888    220.1085   1.2279791297e+02   9.0906201267e+00    0.1849324    0.1439304 -13.69  0.001018276    1.868    0.465
        26  -9.7391     99.3919    217.6102   1.3222894475e+02   1.7685715202e+01    0.2295114     0.108244 -80.62 0.0009587596    3.371    0.703
        27  -9.8928    143.7857    216.6047   1.2329216033e+02   1.0545783979e+01    0.2133258    0.1840779 -55.82  0.001017533    1.370    0.270
        28 -11.4283    131.4954    215.3143   1.2555987554e+02   1.2878613228e+01    0.3059741    0.2424606 -66.73  0.001277164    1.452    0.311
        29  -8.7189    204.6997    216.6904   1.1160641494e+02  -5.8781565540e-02     0.127036   0.08709336  12.54 0.0007012735    1.601    0.376
        30  -9.0628    179.7762    216.0157   1.1617775991e+02   4.3444699819e+00    0.1471972    0.1076728 -41.36 0.0008594267    1.608    0.378
        31 -11.1556    112.2412    214.0833   1.2925881859e+02   1.6306265361e+01    0.2509724    0.2282348 -25.94  0.001642016    1.545    0.353
        32 -10.1960    185.8401    212.9117   1.1452057874e+02   3.7553866134e+00    0.2747041    0.1746055 -26.93  0.001164791    1.964    0.491
        33  -8.9966    199.1593    213.7825   1.1214944023e+02   1.3027365529e+00     0.169854    0.1317204   5.89 0.0005729605    1.364    0.267
        34  -9.5979    217.4970    208.4649   1.0787020475e+02  -1.0804256608e+00    0.2167636    0.1136409 -22.44  0.001029628    2.393    0.582
        35  -9.4668    193.3597    208.7845   1.1240423992e+02   3.0563401913e+00    0.1734548    0.1174509 -23.65 0.0009426192    1.757    0.431
        36  -9.2754    205.9714    206.0258   1.0955872963e+02   1.2488672369e+00     0.217245    0.1271639 -12.38 0.0009973877    2.549    0.608
        37  -9.7683     99.1621    206.2258   1.3096093042e+02   1.9900849712e+01    0.1881755    0.1266828  64.68 0.0009294067    1.380    0.275
        38  -9.7851    185.6354    202.5440   1.1282925451e+02   5.4131543501e+00    0.2844968     0.156915 -37.23  0.001355179    2.078    0.519
        39  -9.4990    198.3719    201.9832   1.1028041908e+02   3.1996474774e+00    0.2585113    0.1805486 -12.22  0.000994466    1.749    0.428
        40 -10.4377    164.0081    200.6023   1.1679911226e+02   9.6999901618e+00    0.4313104     0.214768 -40.63  0.001962259    2.391    0.582
        41  -8.9083    223.3210    201.3544   1.0555357447e+02  -1.0795810447e+00    0.1356639    0.0884751   8.41 0.0007046637    1.755    0.430
        42  -9.2711    211.5263    200.7171   1.0758783550e+02   1.0528389624e+00    0.1583937    0.1250109 -44.41 0.0009271409    1.546    0.353
        43 -10.0210     89.1139    199.4583   1.3223983755e+02   2.2808530153e+01    0.2543012    0.1528984  87.58   0.00113644    1.931    0.482
        44 -11.7133    126.5494    197.9276   1.2414224983e+02   1.6960830055e+01    0.3067329     0.296976  27.93  0.001655764    1.227    0.185
        45 -10.7171    173.0815    194.3177   1.1389860428e+02   9.1022505510e+00     0.484421     0.260153 -38.92  0.001840982    2.152    0.535
        46  -9.0163    209.2949    194.3134   1.0683627854e+02   2.4050417383e+00    0.1339643   0.09442711   9.28 0.0004896846    1.598    0.374
        47 -10.9193    113.3346    198.5187   1.2701750784e+02   1.9113017912e+01     0.368664    0.1970477  67.02  0.001534349    2.501    0.600
        48  -9.9694    136.4795    194.5449   1.2153181549e+02   1.5845635804e+01    0.1374223    0.1193734  55.48 0.0001343583    1.019    0.019
        49  -9.4715     44.6514    194.3180   1.4092476996e+02   2.9908103990e+01    0.1315691   0.06965885  66.71 0.0007048238    1.732    0.423
        50  -8.8840    215.0000    193.0341   1.0553833147e+02   1.5742275423e+00    0.1951265   0.07335341 -37.48 0.0007187012    2.832    0.647
        51  -9.5585    224.8342    190.7285   1.0331159954e+02   1.7267769303e-01     0.356484    0.1721421 -24.25   0.00156716    2.525    0.604
        52 -10.6316    124.6795    191.8244   1.2363392975e+02   1.8485796717e+01    0.1972224    0.1764387 -36.83  0.000759928    1.388    0.279
        53 -10.6620    139.3193    190.2759   1.2025018582e+02   1.6150127829e+01    0.2864263    0.1857552  72.60   0.00132836    2.094    0.523
        54  -9.2819    179.4044    190.0268   1.1186138463e+02   8.6486795883e+00    0.1927358    0.1347809 -44.17 0.0009487661    1.597    0.374
        55 -10.9150    130.0898    189.3363   1.2208423362e+02   1.8014325751e+01    0.2905979    0.1534573  54.64  0.001296686    1.917    0.478
        56  -9.5713    156.3069    187.8772   1.1624118601e+02   1.3429501500e+01    0.2116221    0.1746043 -84.70  0.001047697    1.482    0.325
        57 -11.2984    120.8840    187.0440   1.2373076535e+02   2.0116625942e+01    0.3627038    0.2071495 -64.92  0.001608424    2.006    0.501
        58  -9.7109     56.2089    187.9732   1.3793539466e+02   2.9828683221e+01     0.239975   0.08690307  61.72 0.0008845186    3.657    0.727
        59  -9.5264    230.4245    186.6953   1.0154193226e+02  -2.2213427658e-01    0.2460465    0.1190315 -39.05  0.001150432    2.192    0.544
        60 -10.6356     94.6717    186.4284   1.2940622873e+02   2.4647461643e+01    0.3013668    0.1786732  84.13  0.001408022    2.158    0.537
        61 -10.6749    109.3355    186.0137   1.2611462766e+02   2.2326380433e+01    0.2636787    0.1681023  64.41  0.001179433    1.644    0.392
        62  -9.1750    203.5655    183.0164   1.0579003064e+02   5.2337320986e+00    0.1988855    0.1320415 -36.09   0.00102552    1.595    0.373
        63  -9.9215    174.2269    180.6970   1.1119993980e+02   1.1292346059e+01    0.4645683    0.2454942 -33.15  0.001979862    2.372    0.579
        64  -9.1049    211.5382    182.5219   1.0418039008e+02   3.8177071199e+00    0.1353812    0.1203149  16.41 0.0008090281    1.005    0.005
        65 -10.2073    148.0234    181.0573   1.1681959032e+02   1.6310505810e+01    0.2300517     0.167299  74.94  0.001132555    1.734    0.423
        66 -11.7656    137.8335    177.7526   1.1847338797e+02   1.8906597007e+01    0.5862504    0.2770363 -64.93  0.002145577    3.245    0.692
        67 -10.4217    129.9976    178.0346   1.2026464298e+02   2.0314744922e+01    0.2305798    0.1625876  73.70  0.001031112    1.687    0.407
        68 -10.6549    244.2730    199.5225   1.0155871449e+02  -4.2999168046e+00    0.2392838    0.1823957 -16.37 0.0009452127    1.239    0.193
        69  -8.6440    205.0000    176.8788   1.0431320199e+02   5.9619920716e+00    0.2094812   0.07774087 -39.00  0.000784405    2.828    0.646
        70 -11.0176     77.4730    176.1813   1.3190595392e+02   2.9490116961e+01    0.4960042    0.1828159  54.48  0.001879598    3.062    0.673
        71  -9.4629    182.8833    174.0717   1.0814437636e+02   1.0778466807e+01    0.3580793    0.1772302 -30.19   0.00140104    2.704    0.630
        72 -10.8915    105.6106    175.1172   1.2531590847e+02   2.5271471955e+01    0.3301845    0.1757549  57.24  0.001461367    1.985    0.496
        73  -9.0914    177.4870    171.5306   1.0875592062e+02   1.2319733432e+01    0.1426612    0.1329487  48.34 9.256975e-05    1.075    0.069
        74 -11.6240    121.8916    170.0176   1.2073559344e+02   2.3491650814e+01    0.3822077    0.2647828  79.97   0.00126663    1.803    0.445
        75  -9.8377    150.4995    170.2597   1.1430700219e+02   1.7966454299e+01    0.3168829    0.1620205  54.43   0.00128001    2.131    0.531
        76  -9.9581     55.2360    169.8370   1.3621288991e+02   3.3925089498e+01    0.2273156     0.105029  69.27 0.0009440565    2.791    0.642
        77  -8.7235    205.6588    169.3426   1.0266628360e+02   7.0864683632e+00    0.1372285    0.1136806 -88.30 0.0007048395    1.778    0.438
        78  -9.0393    168.3453    169.6729   1.1031482622e+02   1.4509679992e+01    0.1476594    0.1134623  79.92 0.0007050419    1.747    0.428
        79 -10.0068    111.9956    167.9680   1.2268536561e+02   2.5718869475e+01    0.2368583    0.1615366  75.59  0.001133379    1.734    0.423
        80 -11.5904    139.6452    165.7917   1.1589938119e+02   2.1016518616e+01    0.4619325    0.2973107  71.01  0.001523167    2.133    0.531
        81 -10.4768     99.4117    166.3078   1.2537711059e+02   2.8251351489e+01    0.3323308    0.1773468  66.58  0.001335039    2.561    0.609
        82  -9.2165    184.6496    165.8083   1.0612037031e+02   1.1919381487e+01    0.1951511    0.1346217 -49.40 0.0009415719    1.614    0.380
        83  -9.1557    192.0000    163.8833   1.0422663922e+02   1.0768656463e+01      0.37698   0.08179742 -41.04  0.001037618    4.811    0.792
        84 -10.1203    159.6475    164.8003   1.1123108104e+02   1.7219928737e+01    0.2877375     0.222291  85.16  0.001377528    1.704    0.413
        85 -10.4841     79.8080    164.0273   1.2969965553e+02   3.1868049396e+01    0.4235573    0.2088869  76.29  0.001492401    3.691    0.729
        86 -13.0763    231.5567    228.5197   1.0878174139e+02  -5.9242572327e+00     1.099735     0.802649 -18.33  0.007377977    1.418    0.295
        87  -9.3677     37.8348    164.6288   1.3963649247e+02   3.7129904531e+01    0.1721594   0.09444123  49.69 0.0006491045    1.728    0.421
        88  -8.6320    234.3363    163.3188   9.6153487019e+01   2.5607690361e+00    0.1423762   0.09746578   8.20 0.0007049205    1.703    0.413
        89 -12.8477    248.8270    201.9388   1.0123527004e+02  -5.3311149887e+00     2.690332    0.4830852 -32.46  0.008049131    6.287    0.841
        90  -9.6074     70.3403    163.6814   1.3191207490e+02   3.3315232264e+01    0.1431506   0.08878648  70.84 0.0007049422    1.712    0.416
        91  -8.8392    212.7258    162.6640   9.9931609759e+01   6.8114385494e+00    0.1424323    0.1042861   3.11 0.0006994056    1.604    0.377
        92  -9.2945    204.8189    161.6784   1.0123235554e+02   8.5560547537e+00    0.2630253    0.1070495 -36.43 0.0009946856    2.565    0.610
        93 -10.5584    151.8011    161.3598   1.1228675522e+02   1.9507015506e+01    0.4062985    0.2487293  65.97  0.001405905    2.235    0.552
        94  -9.2753    177.9670    161.0112   1.0651658468e+02   1.4185343950e+01    0.2321698    0.1820813  86.26  0.001122076    1.769    0.435
        95 -10.4902     93.0717    160.5834   1.2597918882e+02   3.0584115301e+01    0.3094096    0.1742041  64.40  0.001346681    2.135    0.532
        96 -10.6819    128.9671    159.4979   1.1718072651e+02   2.4426770230e+01    0.2706318    0.1931973  75.89  0.001270266    1.717    0.418
        97 -11.0880    105.8953    158.2054   1.2246768827e+02   2.8959016138e+01    0.4679374    0.2572643  68.68  0.001812352    2.707    0.631
        98  -9.5757    168.2597    158.1000   1.0798195423e+02   1.6766734355e+01    0.2905099    0.1934854  70.88   0.00122919    2.170    0.539
        99  -8.5648    188.3411    157.6852   1.0366051461e+02   1.2647622563e+01    0.1454666    0.1174701  87.28 0.0003900582    1.705    0.413
       100  -9.7035    157.9013    156.7646   1.0998378928e+02   1.9190100290e+01    0.2777103    0.1974939 -80.03  0.000984463    2.042    0.510
       101 -11.3874    119.6009    155.6223   1.1867911810e+02   2.7054422623e+01    0.3884338    0.2690864 -89.99  0.001436462    1.873    0.466
       102 -10.6862    145.4395    155.6019   1.1257226446e+02   2.1993417217e+01     0.322724    0.2437714  69.53  0.001066435    1.518    0.341
       103 -10.5883     82.2783    155.1139   1.2775390065e+02   3.3537862767e+01    0.3624716    0.1946938  73.05  0.001438054    2.768    0.639
       104 -10.7179     50.4777    155.8510   1.3567650511e+02   3.7689403822e+01    0.3339492    0.1624502  57.98  0.001568293    2.190    0.543
       105  -9.7978    233.9928    154.2954   9.4299811538e+01   4.0282703421e+00    0.3100444    0.2271286 -85.36  0.001415086    2.709    0.631
       106  -8.8277    212.2687    155.6116   9.8510910587e+01   8.0891584220e+00    0.1393721    0.1118508 -67.47 0.0006987345    1.709    0.415
       107 -11.6395    133.6375    153.1205   1.1483070036e+02   2.4896018700e+01     0.503608    0.3518314  87.35  0.001675157    1.989    0.497
       108  -9.1425    204.6208    154.2399   9.9673703059e+01   9.8870249631e+00    0.2022283    0.1340709 -27.64 0.0009531231    1.603    0.376
       109 -10.3758     68.2158    154.1285   1.3109309173e+02   3.5807881828e+01    0.2707098    0.1457802  61.76  0.001236306    2.093    0.522
       110  -9.8204    190.8457    151.1681   1.0173454499e+02   1.3322427678e+01    0.4297165    0.2755484  78.52   0.00158759    3.178    0.685
       111  -9.3656    162.9746    151.1878   1.0767314636e+02   1.9254483401e+01    0.2496268    0.1734019  73.78  0.001073571    2.013    0.503
       112  -9.6091    196.3029    157.2079   1.0195072635e+02   1.1080141041e+01    0.3315691    0.2080963 -60.28  0.001281454    2.342    0.573
       113  -9.5376     91.3213    151.6735   1.2493486105e+02   3.2909610568e+01    0.1489341    0.1011654  75.55 0.0007047629    1.685    0.407
       114 -10.4257    142.7439    149.3563   1.1190616920e+02   2.3867802147e+01    0.2764267    0.1862117 -62.59  0.001063144    1.698    0.411
       115  -9.7629    199.8159    147.7212   9.9173114756e+01   1.2048998007e+01    0.4259462    0.1798545 -43.96  0.001595954    2.476    0.596
       116 -10.0788     39.7816    147.9856   1.3734672763e+02   4.0719547229e+01    0.3713216    0.1523187  58.33  0.001559717    2.928    0.658
       117 -11.3132     56.7986    146.2827   1.3284367976e+02   3.9141154442e+01    0.5149331    0.2347664  64.50  0.002005734    3.151    0.683
       118  -9.3275    234.1259    146.9219   9.2674065427e+01   5.1711248782e+00    0.2060562    0.1710658 -41.63 0.0007515598    1.274    0.215
       119 -11.8212    149.6883    145.5128   1.0946043375e+02   2.3238458694e+01    0.5779526    0.4061101  80.70  0.002192575    2.042    0.510
       120 -11.4203    107.5645    145.5648   1.1973016869e+02   3.1536049616e+01    0.6074678    0.3329254  70.03   0.00217881    3.100    0.677
       121  -9.6820    166.2086    144.5706   1.0550046688e+02   1.9897325856e+01    0.3056971    0.2145617  69.35  0.001153442    1.831    0.454
       122 -10.6238    138.1498    144.8517   1.1203977659e+02   2.5780914716e+01    0.2373562    0.2032217  79.17 0.0008520027    1.252    0.201
       123 -11.4465    124.9988    142.5650   1.1475861098e+02   2.8928836118e+01    0.6201999    0.3619698 -75.77  0.002303258    2.773    0.639
       124 -10.7550     88.1577    143.9641   1.2439642974e+02   3.5212320310e+01    0.3146131    0.1893968  73.80   0.00134526    2.251    0.556
       125 -11.0468     70.3170    141.2693   1.2858430815e+02   3.8528259465e+01    0.3650189    0.1997657  78.03  0.001474672    2.737    0.635
       126  -9.6719    172.5500    138.5671   1.0273765877e+02   1.9713369731e+01    0.3401596    0.2356347 -86.28  0.001362374    2.422    0.587
       127  -9.2598    182.2219    142.0002   1.0145858596e+02   1.6912020014e+01    0.2424628    0.1735058 -70.80  0.001016257    1.988    0.497
       128 -10.0839     23.5128    138.3423   1.4032214633e+02   4.4540990344e+01    0.3416824    0.1472477  75.01  0.001417016    3.149    0.682
       129  -9.6876    197.6227    136.8524   9.7123059945e+01   1.4501464467e+01    0.4546301     0.166384 -45.77  0.001515524    2.983    0.665
       130 -10.5428    138.6920    138.1225   1.1043818768e+02   2.7133276885e+01    0.2470996    0.1918046 -72.08  0.001057008    1.471    0.320
       131 -10.3213    162.8518    136.7466   1.0446540732e+02   2.2223071969e+01    0.2842999    0.2033213 -75.65 0.0009166863    1.964    0.491
       132  -9.7244    179.7857    133.9386   1.0009522754e+02   1.9015504945e+01    0.2926944    0.2151083 -62.50  0.001338446    1.655    0.396
       133 -10.1715    113.0597    133.6955   1.1590184822e+02   3.3244670528e+01    0.3454284    0.2104167  75.99  0.001299959    2.710    0.631
       134 -12.7175    243.9344    215.4409   1.0446754379e+02  -6.2464325022e+00     1.215527     0.659401  37.11  0.006913537    1.641    0.391
       135 -10.7487    143.3535    131.8045   1.0786636624e+02   2.7518446963e+01    0.3486614    0.2596775 -81.44  0.001381527    1.751    0.429
       136 -11.6032    132.1514    130.8948   1.1040818399e+02   3.0084127846e+01    0.6461089     0.357857 -63.85  0.002322957    2.374    0.579
       137 -11.1965     83.6554    132.2178   1.2342145323e+02   3.8690307067e+01    0.3891492    0.2528572  72.02  0.001279073    1.923    0.480
       138 -10.2328     38.9960    136.0484   1.3605317492e+02   4.3586274587e+01    0.2143345    0.1310418  72.51  0.001132596    1.748    0.428
       139  -8.6797    205.6432    131.2869   9.4256708909e+01   1.3751246659e+01    0.1477347    0.1189626 -83.22  0.000702325    1.676    0.403
       140 -10.2746    168.8855    129.9010   1.0149412076e+02   2.2270755384e+01    0.3779266    0.3060344 -87.35  0.001072336    1.548    0.354
       141 -10.9611    152.9530    128.9232   1.0489550493e+02   2.6039918198e+01    0.5302196    0.2970497 -57.66  0.001942395    2.163    0.538
       142 -11.9337    247.9373    166.3938   9.4478792415e+01  -3.5048712090e-01     1.235933    0.2796161 -38.04  0.004029524    4.210    0.762
       143  -9.2880    193.1288    130.2019   9.6446064663e+01   1.6733989589e+01    0.2084891    0.1829004 -80.28 0.0007980664    1.350    0.259
       144 -11.2089     99.5857    128.3595   1.1832729981e+02   3.6944802592e+01    0.6176156    0.3707199  81.13  0.002224553    2.947    0.661
       145 -10.7740     73.0023    129.5208   1.2582850216e+02   4.0931812470e+01    0.2770584    0.1851244 -83.87  0.001135752    1.647    0.393
       146  -9.6196     12.3634    128.9756   1.4218274418e+02   4.7602335317e+01    0.2965906     0.130247  81.86  0.001347965    2.639    0.621
       147  -8.5648    186.3572    129.6567   9.7694444086e+01   1.8363884000e+01    0.1597134    0.1219284 -82.19 0.0007036313    1.827    0.453
       148 -11.2260    118.3097    125.6861   1.1274787338e+02   3.4058958321e+01    0.5820674    0.3448712  75.56  0.002015908    3.198    0.687
       149 -11.4782     59.7292    124.5598   1.2863948692e+02   4.3914179616e+01    0.5979998    0.3131108  79.78  0.002233445    3.396    0.706
       150 -10.1175    179.9647    124.9080   9.7874608987e+01   2.0739187857e+01    0.3601025    0.2913705  85.51  0.001117937    1.547    0.354
       151 -11.1527     44.2370    123.1595   1.3277731390e+02   4.6070936687e+01    0.6396831    0.3173392  79.24  0.002499921    3.300    0.697
       152 -10.8021     28.1520    121.9507   1.3710585976e+02   4.7940806484e+01    0.7285817    0.3031798  77.16  0.002369363    5.154    0.806
       153  -9.6828    249.8207    124.0108   8.4998130100e+01   5.7146437919e+00    0.2365839    0.1876959  78.56  0.001282089    1.734    0.423
       154  -9.5264    188.9716    124.0490   9.5792564632e+01   1.8838186912e+01    0.2463788    0.1902322 -78.71  0.001124472    1.737    0.424
       155 -10.5993    158.5688    121.5446   1.0177603627e+02   2.6322629776e+01    0.3894931    0.2863488 -67.75  0.001447642    1.670    0.401
       156  -9.1871    195.3818    122.2289   9.4059375791e+01   1.7712112894e+01    0.2210496    0.1366385 -48.42 0.0009408275    1.711    0.415
       157  -9.8918    172.6308    121.2252   9.8536141603e+01   2.3156076529e+01     0.357848    0.2560481 -66.66  0.001333147    1.786    0.440
       158 -11.1324    130.8587    118.2909   1.0771789120e+02   3.3145588767e+01    0.5642288    0.3448826 -74.27  0.002057031    2.714    0.631
       159 -10.1755     71.0605    120.0602   1.2457568097e+02   4.3458491430e+01    0.2279149    0.1592142  79.39 0.0007562732    1.717    0.418
       160  -9.1457    249.3353    118.2936   8.3770528883e+01   6.7023343051e+00    0.1385688    0.1029104   9.52 0.0007026371    1.642    0.391
       161  -9.7357      2.8607    116.7528   1.4344398830e+02   5.1035459811e+01     0.393318    0.1282077  85.96  0.001269478    5.348    0.813
       162  -9.7773    186.0024    116.1086   9.4415053214e+01   2.1037924394e+01    0.3248406    0.2127443 -52.35  0.001372345    1.673    0.402
       163  -9.6613    193.0020    115.4599   9.2841681755e+01   1.9523536775e+01    0.3078552    0.2071852 -52.76  0.001210215    1.633    0.387
       164 -11.3795    108.9938    113.6105   1.1238086108e+02   3.8624439807e+01    0.6957035    0.3755369 -70.86  0.002390533    3.114    0.679
       165 -11.4669    141.7857    118.2861   1.0496759462e+02   3.0780811357e+01    0.7392266    0.3554192 -55.68  0.002615743    2.506    0.601
       166 -10.9924     92.7553    112.8222   1.1676680223e+02   4.1760272192e+01    0.4297154    0.3089725 -86.76  0.001474695    1.762    0.432
       167 -11.0468     79.1222    112.7295   1.2070643416e+02   4.4001267391e+01    0.4659678    0.3010124 -88.11  0.002058701    2.157    0.536
       168 -10.1488    174.8022    111.6206   9.5610383263e+01   2.4546505339e+01    0.3992075    0.2164154 -47.84  0.001563963    1.927    0.481
       169 -10.8926    122.2150    111.9332   1.0837439798e+02   3.6366179317e+01     0.510882    0.2750324 -54.61  0.002031213    1.955    0.489
       170 -10.2330    159.1176    111.3430   9.9032298568e+01   2.8297237666e+01    0.3629863     0.220356 -47.28  0.001508823    1.675    0.403
       171 -11.0633     66.4594    110.7988   1.2404989054e+02   4.6294716813e+01    0.2751509    0.2073368  77.84  0.001210882    1.532    0.347
       172 -10.6229     14.0600    109.5729   1.3947451124e+02   5.1941469374e+01    0.3960468    0.2161888 -83.61  0.001778927    1.655    0.396
       173 -10.2378    133.2775    109.2255   1.0477647635e+02   3.4607391440e+01    0.4158439    0.2594361 -67.44  0.001617948    2.236    0.553
       174  -9.6684    189.4592    107.9588   9.1623347518e+01   2.1760160344e+01    0.3469731    0.1386671 -43.55  0.001186383    2.499    0.600
       175  -9.5006     59.3019    109.6527   1.2596930327e+02   4.7508284282e+01    0.1396443   0.09885596  80.94 0.0005463209    1.689    0.408
       176 -10.6434    139.5815    103.8151   1.0172364532e+02   3.4362725198e+01    0.5650079    0.3213377 -53.21  0.002246167    1.913    0.477
       177 -11.7525     45.5621    102.4188   1.2877004019e+02   5.0824981438e+01     0.713238    0.3698037  74.04  0.002647877    3.877    0.742
       178 -11.0332     22.6080    102.2150   1.3587755027e+02   5.3006037744e+01    0.6479758    0.3059689  76.06  0.002601479    3.614    0.723
       179  -9.9870    166.6981    103.2850   9.5164779820e+01   2.8119619117e+01    0.4145907     0.202214 -45.14  0.001541717    2.074    0.518
       180 -10.8418    149.8792    101.5952   9.8584163946e+01   3.2453770460e+01    0.7307262    0.2469246 -47.05  0.002224082    3.140    0.682
       181 -11.4031    128.5921    101.2122   1.0384061163e+02   3.7356434558e+01     0.635448    0.3095197 -47.12  0.002419689    2.041    0.510
       182  -9.6288    175.5065    101.6284   9.2808884614e+01   2.6315930472e+01    0.3248439    0.1530342 -39.20  0.001171536    2.105    0.525
       183  -9.6649    182.9530    109.4661   9.3333377204e+01   2.3025859408e+01    0.3118069    0.2082143 -54.13 0.0009667269    1.662    0.398
       184  -9.4362    159.7393    100.8917   9.6078687456e+01   3.0261876136e+01    0.3109072     0.192457 -45.27  0.001183455    1.622    0.384
       185 -11.6596    109.2940     99.1467   1.0856413423e+02   4.1818732690e+01    0.6769218    0.4337755  75.79  0.002273025    2.666    0.625
       186 -10.0614     82.0017     99.9918   1.1686335406e+02   4.6515587846e+01    0.3175673    0.1939235 -78.22  0.001146475    2.450    0.592
       187 -10.2095     94.8118     97.1102   1.1224145544e+02   4.4998944958e+01    0.3060443    0.1998797 -63.17 0.0009755826    1.685    0.406
       188 -11.3713     64.0058     96.3012   1.2160487178e+02   5.0018687994e+01    0.5344176     0.323143  84.83   0.00215893    2.987    0.665
       189  -9.3291    164.6101     93.8063   9.3009402294e+01   3.0473966990e+01    0.2353135    0.1424291 -49.20 0.0009536598    1.735    0.424
       190  -9.7357    176.7119     93.1680   9.0240486071e+01   2.7622351993e+01    0.2563514    0.1908853 -54.28 0.0009536638    1.425    0.298
       191 -10.4893    138.7062     91.3153   9.8425792762e+01   3.7152231951e+01    0.5813572    0.3127282 -52.81  0.002219338    2.105    0.525
       192 -10.2032     21.7305     92.3588   1.3454979871e+02   5.5344258625e+01    0.3267415     0.149855 -35.97  0.001494567    2.807    0.644
       193 -11.6174    124.5943     89.6471   1.0162444469e+02   4.0672650929e+01    0.7799485    0.3444396 -46.29  0.002844776    2.258    0.557
       194  -9.2935    157.6242     91.2067   9.3842982490e+01   3.2679040486e+01    0.2228874    0.1507691 -29.30 0.0008649849    1.630    0.386
       195 -10.5489     34.8053     89.1729   1.2962849970e+02   5.4975583867e+01    0.5856383    0.1991985 -68.75  0.002198685    3.116    0.679
       196  -9.5385    150.8485     88.7199   9.4700473474e+01   3.4802172986e+01    0.3160533    0.1784876 -49.15  0.001245969    1.876    0.467
       197  -9.0686    164.0000     86.9680   9.1194149756e+01   3.1926431759e+01    0.2596747   0.08925888 -37.72 0.0007683078    2.913    0.657
       198 -10.6369     86.2048     86.5090   1.1197939231e+02   4.8856458468e+01    0.3422669    0.2466322 -80.98  0.001487812    1.938    0.484
       199  -9.9562     64.3466     87.3243   1.1929216080e+02   5.2023726603e+01    0.1431153   0.09952126 -26.24 0.0007049921    1.743    0.426
       200  -9.1934    179.6108     85.7696   8.7581835017e+01   2.8260460793e+01    0.2325066    0.1382453 -47.26 0.0009482836    1.728    0.421
       201 -10.6703     48.2830     84.3474   1.2398147191e+02   5.4694938535e+01    0.3114432     0.209782  79.97  0.001548384    2.179    0.541
       202 -11.0803    104.4263     82.4466   1.0519514776e+02   4.6380040730e+01    0.5534352     0.291835 -58.36  0.002110423    2.427    0.588
       203  -9.9208    158.4678     82.5300   9.1124726874e+01   3.4126082805e+01    0.3260515    0.1535489 -38.14  0.001195646    2.122    0.529
       204 -10.3973    119.1150     79.7641   1.0014639691e+02   4.3885669732e+01    0.4082315    0.1919562 -49.99  0.001505747    2.316    0.568
       205 -10.1060     74.4892     80.4932   1.1406605975e+02   5.2069260967e+01    0.2577546    0.1299259 -61.50  0.001032198    2.381    0.580
       206 -10.0688     24.2048     80.4369   1.3149609230e+02   5.7861260436e+01    0.3690975     0.188211 -81.94  0.001691906    2.487    0.598
       207 -10.9830     27.4513     71.9201   1.2848643477e+02   5.9495554943e+01    0.7947154    0.2893632 -31.49   0.00249298    5.840    0.829
       208  -9.1237    174.6475     77.8447   8.6308409978e+01   3.0922993871e+01    0.2317737    0.1362748 -45.52 0.0009454011    1.725    0.420
       209 -10.3893     61.8962     77.2369   1.1742848734e+02   5.4597485249e+01    0.3439503    0.1776616 -69.55  0.001331462    2.987    0.665
       210 -10.4319     49.2703     77.4486   1.2192192536e+02   5.6126465390e+01    0.2917894    0.1654464 -22.45  0.001282155    2.680    0.627
       211  -9.1086    184.3507     77.1979   8.4231616937e+01   2.8578707292e+01    0.2318296    0.1330557 -45.24 0.0007802298    1.751    0.429
       212  -9.1013    167.3929     77.2074   8.7611517341e+01   3.2868796348e+01    0.2261111    0.1405389 -46.99 0.0009429464    1.656    0.396
       213  -9.1837    211.5104     76.4998   7.9330860746e+01   2.1913223981e+01    0.1478913    0.1417336 -54.65 0.0002107188    1.020    0.019
       214  -8.7829    189.6372     76.3008   8.2997636286e+01   2.7394808898e+01    0.1626963    0.1171644 -73.88 0.0007035511    1.724    0.420
       215 -10.3645    140.7169     82.3071   9.5249293683e+01   3.8471329478e+01    0.4181986    0.2034308 -45.54  0.001551453    2.099    0.524
       216 -10.3846    140.4827     75.0032   9.3060339878e+01   3.9918484212e+01    0.3590303    0.1395728 -44.08  0.001202136    2.633    0.620
       217 -10.7186    127.8977     75.3172   9.6370208485e+01   4.2804494303e+01    0.4838157    0.2692835 -56.84  0.001830237    2.368    0.578
       218  -9.0502    206.6004     74.1867   7.9499860420e+01   2.3495861911e+01    0.2072475     0.144239 -22.68 0.0007578172    1.606    0.377
       219  -9.4367    151.0000     72.9181   8.9911528158e+01   3.7739365255e+01    0.2578429   0.08852664 -36.55 0.0008017035    2.937    0.660
       220  -9.9332    115.6646     72.5122   9.8818908090e+01   4.6063339070e+01    0.2692103    0.1375212 -40.98  0.001074379    1.924    0.480
       221 -10.3922     81.9292     72.3254   1.0914406901e+02   5.2610022747e+01     0.323075     0.199425 -61.72  0.001438087    2.005    0.501
       222 -11.1975     82.8630     65.7594   1.0671804415e+02   5.3786425912e+01    0.5873455    0.3171661 -14.66  0.001728148    5.215    0.808
       223  -8.9063    195.3052     72.6720   8.0975267391e+01   2.6569242234e+01    0.1600459    0.1137475 -66.97 0.0004952197    1.651    0.394
       224  -8.9914    175.7507     71.9912   8.4378346241e+01   3.1657806868e+01    0.2074547    0.1317736 -35.05  0.000886736    1.584    0.369
       225 -10.0380    105.4912     71.4893   1.0144200268e+02   4.8394970828e+01    0.2678194    0.1345589 -52.12  0.001029133    2.281    0.562
       226  -9.9694     94.8526     70.8536   1.0449550647e+02   5.0604991209e+01    0.4208494    0.1974997 -53.40  0.001592604    2.505    0.601
       227  -9.0697    162.6892     71.3369   8.6844755704e+01   3.5093057913e+01    0.1627313    0.1199914 -71.01 0.0007044649    1.685    0.406
       228  -8.9903    107.5387    248.5446   1.3389177273e+02   1.1078443654e+01     0.117009   0.08932745  54.04 0.0008075119    1.031    0.030
       229 -10.0596    146.9026     67.4444   8.9140553781e+01   3.9726694590e+01    0.4874279    0.2025653 -40.23  0.001730614    2.388    0.581
       230  -9.5307    203.5663     66.2736   7.7834721256e+01   2.5517156540e+01     0.290081    0.1339137 -38.06  0.001060662    2.042    0.510
       231 -10.6443    138.5958     65.5556   9.0510378436e+01   4.2088952756e+01    0.4318502    0.1463574 -36.94  0.001388396    2.946    0.661
       232  -9.9823    109.7941     62.9083   9.7311737689e+01   4.9137112309e+01    0.4013473    0.1690601 -40.32  0.001501811    2.329    0.571
       233  -9.4792     17.8226     62.7527   1.3001698405e+02   6.2214187779e+01    0.2111923   0.08282816 -37.36 0.0008952114    2.727    0.633
       234 -10.7179     73.0571     57.8164   1.0740931167e+02   5.6974010854e+01    0.8738683    0.1968116 -44.26  0.002661211    4.068    0.754
       235 -10.3267    100.5628     54.3943   9.7075247182e+01   5.2591475760e+01    0.2596253    0.2297185   1.49 0.0001309822    1.138    0.121
       236  -9.9737      7.4956     57.5173   1.3291476011e+02   6.3965300261e+01    0.2096988   0.09986445 -76.97  0.001031331    2.389    0.581
       237  -9.6992    130.4078     57.2653   8.9781013577e+01   4.5481204532e+01    0.2163246     0.137747 -45.19 0.0009514756    1.652    0.395
       238  -9.9689    121.4434     65.7008   9.4978876550e+01   4.6073803575e+01    0.4225329    0.1300335 -43.94  0.001291988    3.378    0.704
       239  -9.6947    118.8928     55.7479   9.2269994404e+01   4.8410200559e+01    0.2889293    0.1874088 -60.05  0.001225993    2.123    0.529
       240  -9.5055     62.6273     54.8444   1.1018323502e+02   5.9132892318e+01    0.1900305    0.1173036 -54.28 0.0009432449    1.727    0.421
       241  -9.0502     16.3465     70.6427   1.3232161043e+02   6.0602712472e+01    0.1199023   0.08443256  75.53 0.0007033465    1.837    0.456
       242  -9.7941    149.9021     79.5994   9.2212554502e+01   3.6779325600e+01    0.3311051    0.1935297 -52.71  0.001152408    1.953    0.488
       243 -10.2135     91.7476     49.2300   9.7944180299e+01   5.5240061817e+01    0.5564948    0.1692574 -42.96  0.001856434    3.349    0.701
       244  -9.3768     25.8033     55.4158   1.2494232879e+02   6.3162710234e+01     0.156719    0.1083263  -7.99 0.0006165941    1.692    0.409
       245 -10.0073    130.0486     47.3022   8.6414071366e+01   4.7173930335e+01    0.3555427    0.1665398 -18.92  0.001187936    3.277    0.695
       246  -9.7982     81.6276     46.8079   1.0039497259e+02   5.7542349428e+01     0.195648    0.1216216 -46.52 0.0009459388    1.699    0.411
       247  -9.2328     23.0206     47.0000   1.2366855724e+02   6.5104498083e+01    0.1685356   0.06768215  22.28 0.0008005219    2.929    0.659
       248  -9.3072    122.2341     45.2581   8.7643036208e+01   4.9340768699e+01    0.2347178    0.1056259 -43.09 0.0008852741    2.409    0.585
       249  -9.8478     64.1492     47.4951   1.0696781558e+02   6.0296155676e+01    0.3171133    0.1751288  -3.43  0.001103157    4.239    0.764
       250 -10.0651      4.8837     40.9048   1.2995053701e+02   6.7520944034e+01    0.3287341    0.1256614 -72.20  0.001355272    3.669    0.727
       251  -9.1188    113.6998     41.6659   8.8572532913e+01   5.1846585336e+01     0.149807    0.1076994  15.85 0.0005495974    1.654    0.395
       252 -10.5061    105.7054     39.2794   8.9891452085e+01   5.3973889050e+01    0.4344152    0.1721239 -28.62  0.001595907    2.785    0.641
       253  -9.0757     36.6848     41.3184   1.1585406754e+02   6.4949862634e+01    0.1105167   0.09698403 -87.12 0.0005187573    1.652    0.395
       254  -9.6566     83.9994     40.0170   9.6939639717e+01   5.8244292189e+01    0.2179019    0.1547832   7.85 0.0004988844    1.647    0.393
       255  -9.5773     95.0000     35.9799   9.1772351284e+01   5.6720699562e+01    0.2294866      0.07621 -33.60 0.0008093533    2.991    0.666
       256  -9.3629    119.3819     33.2295   8.3904083821e+01   5.1742706424e+01    0.2004543    0.1281473 -39.31 0.0007849291    1.658    0.397
       257  -9.3501     44.1617     25.7663   1.0635097803e+02   6.6808494750e+01    0.1681212    0.1215167 -11.91 0.0004116708    1.299    0.230
       258  -9.4339    110.3791     24.8332   8.2921853570e+01   5.4905598707e+01    0.1909826     0.129157  -9.38 0.0006941641    1.657    0.397
       259  -9.2361     58.8219     22.2147   9.8561267094e+01   6.5268544037e+01    0.1720911    0.1273776  -0.69 0.0003243979    1.301    0.231
       260  -8.8969     84.5156     21.5334   8.8996644877e+01   6.0817524622e+01    0.1322046    0.1175448  11.22 0.0001090764    1.022    0.021
       261  -9.5932     12.9904     21.4705   1.1956420772e+02   7.0679686087e+01    0.1511256    0.1041592  12.68 0.0009131047    1.588    0.370
       262  -9.0618     40.5424     14.4355   1.0271919648e+02   6.9003250790e+01    0.1213119   0.09512464  -9.17 7.913246e-05    1.045    0.043
