#   1 NUMBER                 Running object number                                     
#   2 MAG_AUTO               Kron-like elliptical aperture magnitude                    [mag]
#   3 X_IMAGE                Object position along x                                    [pixel]
#   4 Y_IMAGE                Object position along y                                    [pixel]
#   5 X_WORLD                Barycenter position along world x axis                     [deg]
#   6 Y_WORLD                Barycenter position along world y axis                     [deg]
#   7 A_WORLD                Profile RMS along major axis (world units)                 [deg]
#   8 B_WORLD                Profile RMS along minor axis (world units)                 [deg]
#   9 THETA_WORLD            Position angle (CCW/world-x)                               [deg]
#  10 FWHM_WORLD             FWHM assuming a gaussian core                              [deg]
#  11 ELONGATION             A_IMAGE/B_IMAGE                                           
#  12 ELLIPTICITY            1 - B_IMAGE/A_IMAGE                                       
         1 -13.1107    150.0871     59.0791   8.0136641900e+01   4.0072472317e+01     1.253451     1.025404 -35.12  0.005345703    1.296    0.228
         2 -13.4452    158.4629     32.4630   7.0884456944e+01   4.1723718801e+01     1.021457    0.8676583  76.09   0.00388604    1.086    0.080
         3  -9.3234    116.1948     12.6197   7.2734961352e+01   5.3544978959e+01    0.2362666    0.1895786  55.85  0.001244062    1.102    0.093
         4 -11.1547    120.2709      9.2941   7.0815400195e+01   5.2945706691e+01    0.4225803    0.3365915  40.38  0.001570635    1.148    0.129
         5 -10.4690    173.0163     10.9874   6.2927416867e+01   4.0594923466e+01    0.1950523    0.1667014  76.95 0.0003422384    1.034    0.033
         6 -12.3467    143.4768      6.8763   6.5994623410e+01   4.7904164598e+01     0.553584    0.4832947  26.95  0.003683092    1.292    0.226
         7 -11.6151    172.7981      3.1437   6.0956958686e+01   4.1388006214e+01    0.5681167    0.2676229  82.56  0.002645656    2.170    0.539
         8  -9.2262      3.0699    160.7500   1.4292797989e+02   4.1000573200e+01    0.2109175    0.1198068 -57.43 0.0006743431    1.624    0.384
         9 -10.2658    248.9674    249.6745   1.0355652035e+02  -1.4547096164e+01    0.2937654    0.1886453 -22.34  0.001862621    1.464    0.317
        10  -9.2728    153.6826    249.1071   1.2147765090e+02   3.8470413561e-01    0.3869223    0.1800101  39.79   0.00174163    1.855    0.461
        11 -19.1512     92.1346    208.0022   1.2853167887e+02   1.9068453646e+01     6.303633     5.555271  51.74     0.016933    1.180    0.152
        12  -8.5575    250.7013    159.2337   8.6049019339e+01  -6.7930954630e-01    0.1865209    0.1087585 -33.56 0.0003040904    1.571    0.364
        13 -10.4978     18.1553    155.9343   1.3889483065e+02   4.0886734677e+01    0.4698587    0.2036961 -45.77  0.002112625    2.783    0.641
        14 -11.0713    192.0857    153.0033   9.5551796869e+01   1.1990845958e+01    0.6640932    0.3090204 -53.08  0.002080024    2.467    0.595
        15 -11.0328    187.6758    154.1824   9.6737957839e+01   1.2681694962e+01    0.5602677    0.3963766  38.79  0.002597266    1.498    0.333
        16 -11.1154    173.2897    152.5607   9.9477453157e+01   1.6121807093e+01    0.4563654    0.2650481 -51.36 0.0009894591    1.756    0.430
        17 -10.1424    220.1126    147.9604   8.8945367070e+01   7.1821824914e+00    0.2449986    0.2250091  48.53 0.0003690491    1.180    0.153
        18 -10.9647    186.7287    145.0051   9.4843314514e+01   1.4830067258e+01    0.4366702    0.3372054 -88.79  0.001998098    1.700    0.412
        19 -10.3877     29.5629    140.1938   1.3394875465e+02   4.3596385068e+01    0.2585005    0.2332668  20.99 0.0008763753    1.399    0.285
        20  -8.6467      5.4364    171.6550   1.4342396132e+02   3.8299406617e+01    0.2094872    0.1139613  50.24 0.0009038947    1.904    0.475
        21 -14.9469     67.0731    140.2023   1.2377565935e+02   3.9212038776e+01     2.239982     2.197967  50.94   0.01027476    1.161    0.139
        22 -12.3127    160.3950    129.6733   9.6986204200e+01   2.4020286188e+01    0.7002596    0.6272495 -14.98  0.003506722    1.277    0.217
        23 -11.6994    146.9240    131.0291   1.0050991453e+02   2.6714623587e+01    0.7300125    0.3679543  39.04  0.002698596    2.203    0.546
        24 -10.8113    175.8153    219.6100   1.1234204897e+02   1.7898474100e+00    0.2915327     0.234114 -46.48  0.000502722    1.355    0.262
        25  -9.4458    238.8169    129.9521   8.1737338407e+01   6.8685028510e+00     0.212534    0.2067746  66.66 0.0003867474    1.152    0.132
        26 -11.1480    154.0341    125.7919   9.7510102666e+01   2.6307165039e+01    0.3830167    0.3054556 -47.72  0.001395633    1.228    0.186
        27 -10.2851    145.6521    118.8760   9.7771455588e+01   2.9709867811e+01    0.2940552    0.2317555  59.66 0.0005190449    1.338    0.253
        28  -9.1694     35.1870    118.0062   1.2871806618e+02   4.8326962677e+01    0.2736271    0.1740703 -10.65  0.001319097    2.328    0.571
        29 -10.6454      6.0043    210.5470   1.4638927677e+02   2.9562564968e+01    0.4879956    0.1802427 -71.92  0.002497312    2.155    0.536
        30 -10.3636    167.7504    113.8608   9.1353157264e+01   2.5736482536e+01    0.3858189    0.3270101  81.15  0.001113064    1.291    0.225
        31  -9.2089     42.0190    115.0235   1.2610691918e+02   4.8329979961e+01     0.199377    0.1679129 -53.04 0.0003121207    1.042    0.040
        32 -11.1539     55.4874    102.3866   1.1918431830e+02   4.9688638250e+01    0.8011663    0.3873518  40.80   0.00360622    2.384    0.580
        33 -10.2293     65.0009    100.7516   1.1577647866e+02   4.8810791301e+01    0.4237455    0.2756271  33.68  0.002163053    1.696    0.410
        34 -11.2902     72.1976     99.9505   1.1331290891e+02   4.7961095461e+01    0.6047947    0.3863813  45.62  0.002187121    1.799    0.444
        35 -10.1337     58.9269     96.7494   1.1670768399e+02   5.0507255651e+01    0.6538776    0.2845113  17.53  0.002224309    4.356    0.770
        36 -11.9872     72.5226    108.4110   1.1533627483e+02   4.6010906982e+01    0.5115607    0.4702932  53.07 0.0007368819    1.218    0.179
        37 -12.2815     65.1819    107.1521   1.1728583164e+02   4.7342646533e+01    0.8984013    0.5817506 -13.66  0.004072481    2.309    0.567
        38  -9.5646     94.5842     96.2398   1.0547260406e+02   4.5097628724e+01    0.2502379    0.1985219  40.18 0.0004201952    1.322    0.244
        39  -9.9317     10.5274    174.7254   1.4260294132e+02   3.7158794376e+01    0.4104463    0.1433626 -59.00 0.0007804535    2.467    0.595
        40  -8.1788     72.3281     94.2868   1.1177978149e+02   4.9177919452e+01     0.141176    0.1030623 -17.23   0.00038305    1.612    0.380
        41  -9.6507     84.1222     89.2258   1.0667426079e+02   4.8384944808e+01     0.475529    0.1995199  35.33  0.001842267    2.619    0.618
        42  -9.4256    140.2122     85.5157   9.0036446889e+01   3.7825400504e+01    0.2857306    0.2367309   7.92 0.0008356932    1.486    0.327
        43  -8.4812    178.7524     83.9941   8.1288444082e+01   2.8965151527e+01     0.198433    0.1830909 -59.43 0.0002455277    1.061    0.058
        44 -11.0608     23.5811    176.0589   1.3986403073e+02   3.5626695409e+01    0.5191516    0.2213237 -70.57  0.002509666    1.893    0.472
        45  -9.8192    100.3570     79.9424   9.9025862979e+01   4.7332098319e+01    0.3737118    0.2015644  44.02  0.001342082    1.894    0.472
        46  -8.9702     94.4297     79.6458   1.0069731867e+02   4.8498417438e+01    0.2520848    0.1865828  39.69 0.0005803451    1.383    0.277
        47 -12.1207    141.6197     71.2450   8.5564228364e+01   4.0080886105e+01    0.7365134    0.6383655  29.98  0.001553969    1.233    0.189
        48  -9.8584    147.7442    244.8827   1.2205679179e+02   2.1294889164e+00    0.3312971     0.250481  30.80  0.001035889    1.319    0.242
        49 -12.3687    153.9158     49.3662   7.6545171441e+01   4.0598198748e+01    0.6853892    0.6462042 -79.69  0.001151074    1.081    0.075
        50 -10.2247    234.4317     74.2775   7.0029705878e+01   1.7668280245e+01    0.2458002    0.2225564 -77.70 0.0004595172    1.094    0.086
        51  -9.2261    238.8191     70.3811   6.8613159094e+01   1.7346299592e+01     0.172939    0.1217514  57.01 0.0004047602    1.584    0.369
        52  -8.4963    120.8970     68.0972   8.9688470976e+01   4.5282281904e+01    0.2010659    0.1912152 -74.59  0.001146729    1.164    0.141
        53 -10.3715    132.7918     45.4318   7.9746631687e+01   4.6107584226e+01    0.2331298    0.2308815  60.04 0.0002783792    1.072    0.067
        54 -10.5601    142.3470     41.9362   7.6648119370e+01   4.4360022024e+01    0.2917776    0.1804214  52.03  0.001335306    1.473    0.321
        55 -11.4368     11.3705    207.1632   1.4514134142e+02   2.9773957826e+01    0.4513601    0.3341917  50.14  0.001978531    1.430    0.301
        56  -9.0969    227.9697     25.9888   6.0263941615e+01   2.6133247987e+01    0.2435063    0.1620574 -42.98 0.0008298515    1.498    0.332
        57 -10.6754    189.1632     15.6185   6.2094846150e+01   3.6298609823e+01    0.2997398    0.1935195  53.70  0.001663475    1.586    0.369
        58  -9.0815     28.8294    241.8597   1.4447758847e+02   2.0578947778e+01    0.3359235    0.1055491  45.04 0.0006056437    2.571    0.611
        59 -12.0566    246.7319    237.4301   1.0184386339e+02  -1.2605886203e+01    0.2763104    0.2364592 -18.32 0.0006185488    1.231    0.188
        60  -9.7767    169.0148    237.6809   1.1671375001e+02  -2.5890659956e-01    0.2597075    0.2076682 -43.68 0.0003860494    1.411    0.291
        61  -9.7857    170.6690    234.1651   1.1582242731e+02   7.0095640692e-02    0.2770221    0.2235668 -31.38 0.0007541695    1.402    0.287
