#   1 NUMBER                 Running object number                                     
#   2 MAG_AUTO               Kron-like elliptical aperture magnitude                    [mag]
#   3 X_IMAGE                Object position along x                                    [pixel]
#   4 Y_IMAGE                Object position along y                                    [pixel]
#   5 X_WORLD                Barycenter position along world x axis                     [deg]
#   6 Y_WORLD                Barycenter position along world y axis                     [deg]
#   7 A_WORLD                Profile RMS along major axis (world units)                 [deg]
#   8 B_WORLD                Profile RMS along minor axis (world units)                 [deg]
#   9 THETA_WORLD            Position angle (CCW/world-x)                               [deg]
#  10 FWHM_WORLD             FWHM assuming a gaussian core                              [deg]
#  11 ELONGATION             A_IMAGE/B_IMAGE                                           
#  12 ELLIPTICITY            1 - B_IMAGE/A_IMAGE                                       
         1 -15.8717    177.7951    105.0234   1.3776968004e+01   2.5968042662e+01     5.002788     1.612334 -38.28   0.01197538    2.890    0.654
         2 -15.7157    217.8577    109.0230   8.6334677025e+00   1.8211775952e+01     2.226177     1.654038 -36.72   0.01405474    1.103    0.093
         3 -15.5270    246.2981     91.1656   1.7403712465e+00   1.6420991385e+01     1.746374    0.9281892 -23.16  0.009190544    2.321    0.569
         4 -14.4613    135.0065    128.8109   2.8280710617e+01   2.9458920145e+01     5.342408     1.033816 -43.86   0.01306413    5.347    0.813
         5 -16.1456    243.4488     47.2443   3.5318586437e+02   2.2677854556e+01     5.765802     2.178278 -67.76   0.02291621    4.616    0.783
         6 -17.0508    239.0216    119.6143   8.1107329041e+00   1.3388689419e+01     3.674879     2.259701  32.36    0.0165707    2.302    0.566
         7 -11.5158    249.5132     17.5944   3.4694679204e+02   2.5081418835e+01    0.2991036    0.1610039 -35.13  0.001957778    1.535    0.349
         8 -11.3656    230.0046     18.1154   3.4801051525e+02   2.8405530148e+01    0.3631964     0.217536  55.71  0.001791039    2.332    0.571
         9 -10.1940    237.8362      1.4643   3.4424692529e+02   2.8730345430e+01    0.1367712   0.08999104 -83.62 0.0003905549    1.462    0.316
        10 -12.8946    192.0614    194.1471   2.9144281483e+01   7.9617836380e+00      1.01697    0.5124091 -59.35  0.003590982    5.570    0.820
        11 -12.4592    242.1013    250.1714   2.9425119378e+01  -4.6634136908e+00    0.4889442    0.1330778  30.79   0.00254418    3.811    0.738
        12 -13.4267    248.6187    248.8758   2.8292981211e+01  -5.0318489831e+00    0.6963623    0.4672395 -22.04  0.005471467    1.258    0.205
        13 -11.1523    186.7737    185.5962   2.8651315838e+01   1.0048747870e+01    0.3003661    0.1933774  34.67  0.001395486    1.673    0.402
        14  -9.9292    230.0665    199.2756   2.3662880839e+01   2.8301013490e+00     0.142082    0.1111686  -9.95 0.0001953613    1.096    0.088
        15 -11.2029    199.8471    195.3773   2.7963552737e+01   6.8129469942e+00    0.3098084    0.1743676 -45.82  0.001722551    1.888    0.470
        16 -10.8439    177.8659    191.4104   3.1339221891e+01   1.0234843751e+01    0.4109529     0.289385 -80.17   0.00181208    3.831    0.739
        17 -10.4686    239.6680    191.0282   2.0889329178e+01   2.9606018587e+00    0.2112997    0.1070375 -34.54  0.000667391    1.554    0.357
        18 -10.8469    236.2414    186.7070   2.0670688329e+01   3.9243607848e+00    0.3305288    0.1827606 -29.80  0.002076449    1.419    0.295
        19 -11.4649    166.8880    190.5207   3.3361957066e+01   1.1859106805e+01    0.3321526    0.2907971 -44.22  0.001592274    1.302    0.232
        20 -14.2767    159.9256    106.9845   1.7549756383e+01   2.9093486505e+01     1.992041    0.9313672 -52.36  0.001798782    2.305    0.566
        21 -10.5689    206.6378    235.4971   3.2994997974e+01   2.6717851837e-01    0.3152812    0.1480328  40.67  0.001635841    3.305    0.697
        22 -13.9711    196.8647    175.3212   2.5003452582e+01   1.0426067988e+01    0.6104967    0.3922335 -53.08  0.001560297    1.952    0.488
        23 -14.7211    185.4174    167.6429   2.5658599787e+01   1.3328992852e+01     1.455387     1.068134 -24.93  0.008601008    1.239    0.193
        24  -9.7758    222.4817    227.9762   2.9294545849e+01  -2.7218778947e-01    0.1174157   0.09104596 -51.48 0.0005394308    2.237    0.553
        25 -14.8749    198.9937    109.5548   1.1401904422e+01   2.1300702935e+01     1.600765      0.60482  53.75  0.006630152    3.272    0.694
        26 -15.2864    237.8487     64.6039   3.5716696373e+02   2.1383055371e+01     1.257525     1.057253 -69.08  0.009347507    1.231    0.188
        27 -10.6389    229.2519    186.0832   2.1604339729e+01   4.7831028855e+00    0.2045887    0.1559173 -52.56  0.001359983    1.900    0.474
        28 -10.8037    174.5172    185.4904   3.0973846360e+01   1.1712729107e+01    0.2173764     0.118897 -53.53 0.0009366765    2.275    0.560
        29 -10.1287    243.7552    179.6138   1.8407106378e+01   4.0994900834e+00     0.122583    0.1028913  30.51 0.0005751405    1.603    0.376
        30 -11.5838    249.8302    174.1170   1.6649215266e+01   4.2013742033e+00    0.3219534    0.1423533 -44.18  0.001759745    2.224    0.550
        31 -14.3173    233.0816    108.8409   6.6932097864e+00   1.5858236756e+01    0.5310478    0.3874398  41.89  0.001841761    1.778    0.438
        32  -9.9621    239.8046    220.8351   2.5560828678e+01  -9.7509360726e-01    0.1319846    0.1028902 -22.66 0.0005069781    1.309    0.236
        33 -10.4926    203.4532    152.1874   1.9542753282e+01   1.3372077751e+01    0.3071117      0.19817  -2.13  0.001239351    2.135    0.532
        34 -11.5832    146.6575    186.3095   3.6938627050e+01   1.5475466187e+01    0.4526217    0.3529586  81.36  0.001562114    2.129    0.530
        35 -12.7681     67.9189    144.5985   5.0933042357e+01   3.7076440104e+01    0.8259177    0.4405577  54.99   0.00282954    2.246    0.555
        36 -10.3113    223.5323    136.9113   1.3498937688e+01   1.2956990107e+01    0.1658147    0.1425653 -27.34 0.0003271894    1.093    0.085
        37 -12.3474    150.2652    131.3860   2.5332203129e+01   2.6068195630e+01    0.3258509    0.2603032 -62.48 0.0005831674    1.383    0.277
        38  99.0000     60.4733    114.7628   4.7857824441e+01   4.6137549114e+01     2.372535      1.49392  17.86   0.01003699    1.897    0.473
        39 -13.6652     46.8499    119.0223   5.3856431335e+01   4.6842628383e+01    0.9318888    0.5750578 -64.66  0.002704301    1.544    0.352
        40 -14.1006     39.1592    116.5555   5.6407149759e+01   4.8444386500e+01     1.025468    0.7213461 -51.62  0.002585141    1.397    0.284
        41 -14.1801     30.8878    117.0097   5.9761091894e+01   4.9204897083e+01     1.236024    0.7275327  10.57  0.001545803    2.014    0.504
        42 -11.8241    153.8374    126.2066   2.3377456483e+01   2.6465375786e+01    0.2155168    0.1972202 -68.54  0.000856861    1.179    0.152
        43 -14.2383    205.4502    171.2095   2.2784565738e+01   9.9578712734e+00    0.9747477    0.6965991 -54.76  0.005758229    1.831    0.454
        44 -13.9794      2.1908    118.8627   7.1392968869e+01   5.0892001050e+01     1.283855    0.7158239  54.55  0.002615015    1.824    0.452
        45 -13.8535      8.9441    114.2408   6.8267607997e+01   5.1778064190e+01     1.019954    0.5462249  79.53  0.004385772    1.984    0.496
        46 -11.8999    149.8806    111.8972   2.0831748376e+01   3.0126451143e+01    0.3003984      0.28717  29.89 0.0005401367    1.137    0.120
        47 -11.2695    143.1629    112.0172   2.2344512181e+01   3.1443909517e+01    0.2512945    0.2201509  44.72 0.0005102278    1.217    0.178
        48 -15.8143    154.0235    151.7445   2.8865431804e+01   2.1235403090e+01     3.272246     2.343568   6.65   0.01624176    1.764    0.433
        49 -10.6208    115.3006    121.1057   3.1559527841e+01   3.4949385166e+01    0.4513155    0.2027876 -53.98  0.001637648    2.301    0.565
        50 -11.4175    143.6944    103.8740   2.0168357958e+01   3.3000165999e+01    0.3526885    0.2824465 -89.54  0.001771827    1.526    0.345
        51 -15.2438    221.9050    176.6328   2.1102349746e+01   7.0298976928e+00     4.848846     2.186267 -16.72   0.01786248    4.650    0.785
        52 -11.8096    175.9830     92.1675   1.0982643661e+01   2.8596879856e+01    0.4785409    0.2909867 -41.27  0.001651817    1.453    0.312
        53  -9.5199    113.4405     95.4587   2.5398661530e+01   4.1126833374e+01    0.1517249    0.1467147 -58.08 0.0001453549    1.025    0.024
        54 -10.1066    118.5520     90.9580   2.2740034869e+01   4.1000621384e+01    0.2372277    0.1457708 -44.70  0.001024391    1.584    0.369
        55 -10.6538    206.5862     88.5736   5.6639778229e+00   2.3353972909e+01     0.328995    0.1613946 -42.69  0.001627884    1.660    0.398
        56 -10.8815    196.6585     86.0019   6.3903259972e+00   2.5595891505e+01    0.1951356    0.1433606 -42.54 0.0004835635    1.149    0.130
        57 -10.3626    206.9371     81.9913   4.1351580742e+00   2.4307203947e+01    0.1971855      0.15929 -44.30 0.0005068987    1.039    0.037
        58 -11.5542    175.4364    217.8753   3.6039129459e+01   6.1698094939e+00    0.3651281    0.2826771  87.60  0.001940904    3.208    0.688
        59 -10.8138    211.0768     66.8297   2.1960699111e-01   2.5785511213e+01    0.2762727    0.1537846 -36.87  0.001491718    1.521    0.342
        60  -9.9927    156.3289     64.8990   7.1001340662e+00   3.7403021860e+01    0.1972229    0.1264631 -28.81 0.0007177214    1.736    0.424
        61 -10.5620    171.5146    219.4989   3.7039544299e+01   6.3708476024e+00    0.1204021   0.09937247  -1.33 0.0004455222    1.031    0.030
        62 -11.4272    182.9498     45.4728   3.5814442837e+02   3.4415814978e+01    0.2894039    0.1564486 -42.26 0.0006197188    1.571    0.363
        63 -11.4983    175.9829     50.7216   3.4425541942e-01   3.5193889909e+01    0.2142445    0.1758789 -55.87 0.0004389515    1.046    0.044
        64 -12.1375    177.3271     46.0990   3.5895705528e+02   3.5545405054e+01    0.3925588    0.2420075 -21.51  0.001682033    2.053    0.513
        65 -11.0214    181.0592     40.9700   3.5718602978e+02   3.5423459038e+01    0.2972289    0.2418546  24.57  0.001246749    1.810    0.447
        66 -12.4084    151.9242     48.3669   3.0420688232e+00   4.0962907285e+01    0.3506393    0.3109858 -43.70  0.001460887    1.153    0.133
        67 -10.6441    208.3820     48.9231   3.5638536110e+02   2.8765620340e+01    0.1873407    0.1422878 -66.83 0.0005278052    1.193    0.161
        68 -10.8053    202.9743     44.5412   3.5586449022e+02   3.0402447192e+01    0.2486942    0.1865695  -9.81  0.001389721    1.916    0.478
        69  -9.9579    188.2814     44.3390   3.5727466414e+02   3.3436393203e+01    0.1154321    0.1007414   9.69 0.0004614714    1.625    0.384
        70 -12.1876    146.5235     43.1822   2.3230168042e+00   4.2973907552e+01    0.3274531    0.1911183  57.68  0.001393373    1.748    0.428
        71 -10.3711    190.1124     37.1277   3.5527711960e+02   3.3987770481e+01    0.1841483    0.1218456 -59.60 0.0004553356    1.315    0.239
        72 -11.8592    245.6248     34.6726   3.5051838519e+02   2.3822212456e+01    0.2102343    0.1393346 -52.09 0.0005266718    1.104    0.094
        73 -11.8806    149.2032     33.3889   3.5893730748e+02   4.3655486843e+01    0.4729787     0.196656 -21.73  0.001715985    3.556    0.719
        74 -10.9780    242.0263     31.0416   3.5000130627e+02   2.4848408326e+01    0.1663572    0.1225543 -51.29            0    1.030    0.029
        75 -15.6369    240.1900     82.8216   6.7272703528e-01   1.8521251638e+01     1.454842     1.209718  47.68   0.01057069    1.617    0.382
        76 -11.0155      6.4840    208.5075   7.5043998388e+01   2.7441614185e+01    0.1268617    0.1045706  55.19 7.299173e-05    1.006    0.006
        77 -10.1283    212.7323    205.7211   2.7460945558e+01   3.7768340746e+00    0.1373015    0.1232331 -11.34 0.0009128904    1.347    0.257
        78  -9.8437    250.5599    204.2895   2.1469984621e+01   1.2645202387e-01     0.143903    0.0735705 -25.99 0.0005908227    1.518    0.341
        79 -11.2544    224.1462     18.3347   3.4837601400e+02   2.9453843524e+01    0.2311569    0.1573636 -88.61 0.0008364901    1.476    0.322
