#   1 NUMBER                 Running object number                                     
#   2 MAG_AUTO               Kron-like elliptical aperture magnitude                    [mag]
#   3 X_IMAGE                Object position along x                                    [pixel]
#   4 Y_IMAGE                Object position along y                                    [pixel]
#   5 X_WORLD                Barycenter position along world x axis                     [deg]
#   6 Y_WORLD                Barycenter position along world y axis                     [deg]
#   7 A_WORLD                Profile RMS along major axis (world units)                 [deg]
#   8 B_WORLD                Profile RMS along minor axis (world units)                 [deg]
#   9 THETA_WORLD            Position angle (CCW/world-x)                               [deg]
#  10 FWHM_WORLD             FWHM assuming a gaussian core                              [deg]
#  11 ELONGATION             A_IMAGE/B_IMAGE                                           
#  12 ELLIPTICITY            1 - B_IMAGE/A_IMAGE                                       
         1 -14.5110    154.2316     58.8823   8.1112863338e+01   3.9022236022e+01     1.298359      1.15338  34.44 0.0009302619    1.189    0.159
         2 -14.9461    166.2495     44.2649   7.4633927061e+01   3.8218292056e+01     1.201896     1.082463   3.43  0.004008829    1.333    0.250
         3 -15.1777    184.7363     10.8662   6.3032901124e+01   3.7665199635e+01     2.416072     1.088609  66.45   0.00776393    1.855    0.461
         4  99.0000    134.7792    243.4092   1.2603783496e+02   5.1177632636e+00      0.31543    0.1355737 -43.54 0.0009538986    3.208    0.688
         5 -19.9771     65.4216    167.8139   1.3048987626e+02   3.2752397537e+01     18.51023     7.249534 -65.53   0.07395282    2.394    0.582
         6 -14.1625    100.8970    242.1616   1.3251372202e+02   1.0977378497e+01    0.8332788    0.6102035 -63.47   0.00510078    1.519    0.342
         7 -10.2438    160.5176    240.7414   1.2056367702e+02   1.1313553604e+00     0.222429    0.1282661 -42.45   0.00112657    2.071    0.517
         8 -12.5771    189.6476    177.7839   1.0328311947e+02   7.4523643498e+00    0.8614848    0.4786486 -67.93  0.002777604    4.018    0.751
         9 -13.4173    141.3216    164.2986   1.1128856393e+02   2.0336661157e+01    0.7372246    0.3805455  55.79  0.000217546    2.275    0.560
        10 -13.1856    144.6675    174.9953   1.1267220593e+02   1.7243726305e+01     1.007182    0.6391422 -42.70  0.004288141    1.698    0.411
        11 -13.6474    137.7348    171.1748   1.1353517239e+02   1.9496149080e+01     0.747817    0.5634994  52.56  0.001979116    1.309    0.236
        12 -12.6107    196.7596    176.2846   1.0149486988e+02   6.3125516908e+00    0.6354185    0.4320965 -66.24  0.001765529    2.090    0.522
        13 -12.5599    189.4371    155.5435   9.8537754855e+01   1.2024120269e+01    0.5243592    0.4994026  27.48   0.00153077    1.071    0.066
        14 -12.5358    193.0028    165.2064   9.9916647629e+01   9.2927227664e+00    0.4391487    0.3323621 -41.95 0.0009084868    1.313    0.239
        15 -12.1781    189.9681    160.9966   9.9633564557e+01   1.0788418535e+01    0.4091674    0.3460917  88.15   0.00127272    1.445    0.308
        16 -11.3406     13.1443    240.2357   1.4820382857e+02   2.3158633133e+01    0.1969519    0.1194637 -72.73  0.001337671    1.580    0.367
        17 -10.3506    129.4156    175.2182   1.1628759599e+02   2.0211446646e+01    0.2508112     0.207877  38.33 0.0006316812    1.252    0.201
        18 -12.1412    125.4483    172.2491   1.1666379724e+02   2.1660679257e+01    0.4385564    0.3429485  48.99 0.0009806196    1.249    0.200
        19 -10.5977     11.3457    174.0643   1.4363283892e+02   3.7348350768e+01    0.1801093    0.1049077 -68.44 0.0006458503    1.411    0.291
        20 -10.4816     13.3707    236.2383   1.4792462371e+02   2.3915528951e+01    0.1427121   0.08377448 -85.28 0.0007096793    1.372    0.271
        21 -10.2068    109.1639    239.3993   1.3057626327e+02   1.0167383137e+01    0.1116479   0.08933762 -47.38 0.0006575981    1.607    0.378
        22 -12.1302    176.8505    169.1287   1.0420217358e+02   1.1865041159e+01    0.3253054    0.2091236 -57.28  0.001410463    1.777    0.437
        23 -11.4983     28.4571    237.9362   1.4547322704e+02   2.1900288376e+01    0.1596513    0.1078362  88.56 0.0005909845    1.188    0.158
        24 -11.1605     21.5551    236.4304   1.4655493277e+02   2.2985343263e+01    0.1673653     0.113295 -83.24  0.001161685    1.275    0.216
        25 -10.3032    135.3618    179.9018   1.1578210426e+02   1.7991120622e+01    0.2696795    0.1896286  54.10 0.0006850482    1.415    0.293
        26  -9.4362      4.1509    162.9298   1.4415519823e+02   4.0458755992e+01    0.1575918   0.09796682 -67.07 0.0008000185    1.326    0.246
        27 -12.7792    204.3939    175.5322   9.9786011651e+01   4.9316391277e+00     0.482176    0.4632544 -82.00   0.00126529    1.180    0.153
        28 -12.2765    166.8217    155.1331   1.0338121854e+02   1.7000550085e+01    0.4673721    0.3129528  75.32   0.00185999    2.243    0.554
        29 -10.0599     15.1402    156.4839   1.4102135451e+02   4.1029742508e+01    0.1419483    0.1226089  33.65 0.0006681787    1.475    0.322
        30 -11.2123    131.0467    234.5848   1.2558644987e+02   7.3857392258e+00    0.1861603    0.1588031 -76.05 0.0005510406    1.285    0.222
        31 -10.6804    141.3670    229.4068   1.2274724911e+02   6.5510721234e+00     0.241794    0.2090645  81.98 0.0007386527    1.236    0.191
        32 -11.1176    174.3641    148.7455   1.0025076171e+02   1.6737120246e+01    0.3662936    0.2839637 -76.09  0.001270199    1.601    0.375
        33 -11.1786     17.2755    224.5739   1.4649790697e+02   2.5838642770e+01    0.1246735   0.07945406 -81.58 0.0005361385    1.302    0.232
        34 -12.6430      5.7540    138.3109   1.4122471276e+02   4.5927909741e+01    0.4352679    0.3205253  88.45  0.001697438    1.238    0.192
        35 -11.4266    218.1203    219.7832   1.0573503002e+02  -5.4013020682e+00    0.2674037    0.1834394 -52.93 0.0009985996    1.939    0.484
        36 -11.8513    152.1747    138.8443   1.0303969366e+02   2.3805153235e+01    0.2544187    0.2221691 -87.84  0.001251875    1.253    0.202
        37  -9.9372    112.0000    213.9308   1.2664430700e+02   1.4823952390e+01    0.1854517   0.07697453 -58.33 0.0003651448    2.549    0.608
        38 -13.2670     11.4281    206.1165   1.4624959827e+02   3.0293960635e+01    0.3994109    0.2875838  31.82  0.002220931    1.848    0.459
        39 -12.3142    160.3605    127.6788   9.8416932358e+01   2.4436999933e+01    0.4811789    0.3491443 -57.86  0.001611079    1.464    0.317
        40 -10.5861     16.2291    202.2752   1.4505032960e+02   3.0641359539e+01     0.162059   0.07684729 -71.19  0.000425917    1.745    0.427
        41 -11.6985    106.4930    206.4750   1.2675849126e+02   1.7369335804e+01    0.2468523    0.2195473  87.65 0.0007901368    1.073    0.068
        42 -10.7101    167.8743    112.8648   9.2979952709e+01   2.5839924672e+01     0.420559    0.2708403 -82.65  0.001517905    2.719    0.632
        43 -11.9453      2.9977    112.5031   1.3864918238e+02   5.1921820462e+01    0.2431515    0.1398714 -49.93  0.001258313    1.499    0.333
        44 -12.7276    104.8514    202.8347   1.2658538775e+02   1.8448159727e+01    0.3506868    0.2718579  43.09 0.0007895072    1.290    0.225
        45 -10.9705    205.0013    110.5722   8.4881309933e+01   1.7595354485e+01    0.3522359    0.2563504  33.18  0.001518879    1.701    0.412
        46 -11.9304      6.9609    119.9593   1.3859592184e+02   5.0004998605e+01     0.228383    0.1728334  -9.98  0.001012626    1.759    0.431
        47 -10.7281    151.8182    196.8406   1.1518819004e+02   1.1100993264e+01     0.285759     0.232033  35.74 0.0007498505    1.228    0.185
        48 -11.8572    152.2206    191.6636   1.1415214013e+02   1.2110626861e+01    0.5467921    0.3878606 -76.83  0.002178789    1.860    0.462
        49 -11.7023      8.3906    102.1195   1.3550401543e+02   5.3882356150e+01    0.2632659    0.2461261  51.78  0.001461241    1.337    0.252
        50 -12.2070    155.0870    187.5403   1.1273932970e+02   1.2419073248e+01    0.3428221    0.2856361  64.18 0.0008112896    1.250    0.200
        51 -10.8320    145.9158     81.4894   8.9490653901e+01   3.7177634874e+01    0.2276141    0.1462784  51.60 0.0004722767    1.521    0.343
        52 -10.0185    159.9669    247.7731   1.2169726433e+02   4.2420987760e-02    0.1839032     0.141738  41.06 0.0004052792    1.094    0.086
        53  -8.9213    125.1349    241.0626   1.2763389016e+02   7.1877969356e+00    0.5944172    0.1454715 -54.57  0.002050578    4.575    0.781
        54 -13.2347    170.4717     36.5167   7.1770895932e+01   3.8204528234e+01    0.4073964    0.3916121  74.85 0.0008655912    1.099    0.090
        55 -12.1541    151.2242    183.3696   1.1280764950e+02   1.4084772189e+01    0.3713747    0.2704819 -80.40 0.0003265112    1.796    0.443
        56 -11.0652     13.5597     59.9232   1.2494667681e+02   6.2265806535e+01    0.1769431    0.1602712   1.63 0.0004144768    1.303    0.233
        57 -10.7453      7.3788    251.0000   1.4973190904e+02   2.1721805583e+01    0.1868552   0.05143033  37.87 0.0008900914    3.583    0.721
        58 -10.6170    113.0999    196.2347   1.2373570905e+02   1.8477857535e+01    0.3491536    0.2364498  -9.30  0.001334417    3.502    0.714
