#   1 NUMBER                 Running object number                                     
#   2 MAG_AUTO               Kron-like elliptical aperture magnitude                    [mag]
#   3 X_IMAGE                Object position along x                                    [pixel]
#   4 Y_IMAGE                Object position along y                                    [pixel]
#   5 X_WORLD                Barycenter position along world x axis                     [deg]
#   6 Y_WORLD                Barycenter position along world y axis                     [deg]
#   7 A_WORLD                Profile RMS along major axis (world units)                 [deg]
#   8 B_WORLD                Profile RMS along minor axis (world units)                 [deg]
#   9 THETA_WORLD            Position angle (CCW/world-x)                               [deg]
#  10 FWHM_WORLD             FWHM assuming a gaussian core                              [deg]
#  11 ELONGATION             A_IMAGE/B_IMAGE                                           
#  12 ELLIPTICITY            1 - B_IMAGE/A_IMAGE                                       
         1 -13.3980    222.0163      7.2925   3.5597549637e+01   2.9397418644e+01     1.222965    0.9286403  56.51  0.005001203    1.478    0.324
         2 -14.3295    195.3813     38.1631   4.6250354904e+01   3.2094848223e+01     2.952475     1.769786  25.01    0.0122258    2.847    0.649
         3 -10.2160    189.7445     14.7234   4.0618158444e+01   3.6219455670e+01    0.2430828    0.2137572 -57.36 0.0008406367    1.127    0.113
         4 -10.9295     77.7653     14.3108   6.2835928607e+01   6.2441360752e+01    0.6315624    0.2950258  65.10  0.002166605    4.843    0.793
         5 -11.0394    195.0692      3.9085   3.7200341836e+01   3.6010436617e+01     0.289873    0.2318725 -24.71  0.001784103    1.435    0.303
         6 -11.3757     67.0190      3.2489   6.1237090983e+01   6.5600109193e+01    0.4516631    0.1943785  36.40  0.002149415    2.104    0.525
         7  -9.7054     58.6584    229.0207   1.1802676667e+02   1.9549129698e+01    0.1531214    0.1200741  84.85  0.000377671    1.161    0.138
         8 -10.6199    246.9521    249.3086   8.4458098029e+01  -1.0995323608e+01    0.2535628     0.129047  29.86  0.001465359    1.658    0.397
         9  -9.5088     53.5087    221.0454   1.1837323526e+02   2.1762940712e+01     0.349286    0.1205333  54.24  0.001519039    2.797    0.643
        10  -8.6552     58.8133    220.1167   1.1724132136e+02   2.1299922095e+01     0.349853    0.1768772  35.84  0.001711627    1.938    0.484
        11  -8.8878     81.2869    220.5970   1.1273007737e+02   1.8248533606e+01    0.1988367    0.1455575  34.90 0.0009395445    1.415    0.293
        12 -10.7244     27.1589    214.9005   1.2304265551e+02   2.5966705405e+01    0.2441308    0.1681668  78.01   0.00119544    1.169    0.145
        13 -10.4613    184.1159    212.6261   9.0060796114e+01   3.3473029701e+00    0.2556297    0.1897585 -26.20  0.001211822    1.430    0.301
        14  -9.8660     56.4775    209.4231   1.1675526436e+02   2.3798171935e+01    0.3297262     0.163174  87.64  0.001298885    2.398    0.583
        15  -9.8676     28.9035    209.7966   1.2235712347e+02   2.6840097662e+01    0.1668095    0.1168282  67.03 0.0004344582    1.165    0.142
        16  -9.9000     42.5701    208.8721   1.1956003148e+02   2.5554892507e+01    0.2338763    0.1260033  62.04  0.000369281    1.705    0.413
        17 -11.9863    195.4136    204.8250   8.6404776927e+01   2.7486415357e+00    0.9127433    0.3312485  28.04  0.002926368    4.156    0.759
        18  -8.7702     35.5452    208.6122   1.2095453016e+02   2.6385721290e+01    0.1234138   0.08712885  68.58  0.000227805    1.173    0.147
        19 -10.8299    192.9052    194.8280   8.5059753382e+01   4.8749159996e+00     1.029687    0.5471204 -62.34  0.003236567    5.452    0.817
        20  -8.4048     93.4938    205.5138   1.0840915915e+02   1.9593854958e+01    0.1899156    0.1249051  26.77 0.0007696994    1.775    0.437
        21  -9.1411     96.4090    202.7510   1.0741354789e+02   1.9740294975e+01    0.3012806    0.1529486 -53.74  0.001417493    2.104    0.525
        22 -10.9048     64.9123    203.4865   1.1439275180e+02   2.4000396635e+01    0.2055196    0.1585343 -77.21 0.0003055889    1.245    0.197
        23 -12.1527    134.5355    196.6664   9.7977102266e+01   1.4822053034e+01    0.4808691    0.3577928  65.97  0.002500932    1.585    0.369
        24  -8.4719     70.1242    197.1609   1.1256992984e+02   2.4692728652e+01    0.2782758    0.1293481 -47.95  0.001208774    2.773    0.639
        25 -12.6459     53.5711    198.0886   1.1629302388e+02   2.6589112765e+01    0.5013638    0.2684306 -51.46  0.002548156    2.225    0.551
        26  -9.1297     72.1451    249.9521   1.1719329782e+02   1.3941796537e+01    0.1538664    0.1202922  74.72 0.0004064582    1.159    0.137
        27  -9.0625     81.6736    194.4434   1.0965576420e+02   2.3700564581e+01    0.2847912    0.1984846  73.91  0.001543859    1.497    0.332
        28 -10.9969    149.5992    188.0591   9.3110656346e+01   1.3912691823e+01    0.4467375    0.3431977 -81.55  0.001729505    1.798    0.444
        29 -11.6180     74.3801    189.0241   1.1064553640e+02   2.5928449031e+01    0.5276272     0.280004  70.86  0.001285816    2.512    0.602
        30 -11.9254     61.7914    185.6387   1.1313698154e+02   2.8357830058e+01    0.7163047    0.3472176 -55.21  0.002999415    2.115    0.527
        31 -11.9745     66.9306    183.3616   1.1167557629e+02   2.8215942603e+01    0.8578485    0.3401661 -55.12  0.003413643    2.514    0.602
        32 -10.7388     65.9879    206.9984   1.1452376426e+02   2.3110211053e+01    0.2300689    0.1761507 -79.24 0.0003444372    1.253    0.202
        33  -9.4316     38.7638    199.3620   1.1955731573e+02   2.8011456545e+01    0.1493196    0.1201225  60.10 0.0003581049    1.146    0.128
        34  -9.3846     93.3541    185.8303   1.0579844146e+02   2.3900100887e+01    0.2855316     0.176634  44.83  0.001393096    1.532    0.347
        35 -10.8455     98.8421    181.2319   1.0381330906e+02   2.4087893821e+01    0.3931471     0.305107  -4.30  0.001932963    1.884    0.469
        36  -9.8592     72.3137    245.2695   1.1678064980e+02   1.4756624999e+01    0.3474571    0.1722345  62.39  0.001724345    2.015    0.504
        37 -10.9315    143.7125    178.3614   9.2675725431e+01   1.6990143402e+01    0.4082213     0.246947 -39.32 0.0009658092    1.818    0.450
        38 -10.1800    188.8574    176.8057   8.2356184004e+01   8.8519441726e+00    0.4335208     0.381469 -76.26  0.002371262    1.544    0.352
        39  -9.3859    149.2534    176.9682   9.1129396329e+01   1.6258056423e+01    0.2093208    0.1937132 -88.87 0.0004682174    1.225    0.184
        40 -10.1773    233.8155    174.8372   7.3182480628e+01   1.1834181658e+00    0.2948884    0.1461073 -18.39  0.001167813    2.753    0.637
        41  -9.7260     55.1606    173.9832   1.1332663700e+02   3.1875930473e+01    0.2840529    0.1949009  68.11  0.001181891    1.445    0.308
        42  -9.4172     84.1030    173.6796   1.0624901420e+02   2.8076517154e+01    0.1835479      0.17144  60.20 0.0003691383    1.090    0.083
        43 -10.0120     46.7485    172.7475   1.1519155695e+02   3.3145395224e+01    0.5010064    0.3535651   0.91   0.00177341    2.293    0.564
        44  -8.6766    194.4572    172.4879   8.0300649789e+01   8.6078583174e+00     0.144333    0.1313963  -0.43 0.0001066234    1.005    0.005
        45 -10.2569    138.5754    169.8618   9.2264855640e+01   1.9766855437e+01    0.3806623    0.2609193  43.41  0.001752974    1.424    0.298
        46 -10.2970    240.7141    169.1742   7.0789486318e+01   9.4177868446e-01     0.207134    0.1604239 -42.85  0.001180023    1.448    0.310
        47  -9.2481    187.8667    162.5181   7.9561615709e+01   1.1754830107e+01    0.3210835    0.1935143 -45.89  0.001432424    1.726    0.421
        48 -11.5697     94.1243    151.5019   9.9995230290e+01   3.1829074314e+01    0.6906488    0.5795343 -32.15  0.003677348    1.363    0.266
        49 -10.7772    133.9181    145.7485   8.8410592405e+01   2.6058644012e+01     1.294409    0.3337844 -54.74  0.002972375    5.971    0.833
        50  -9.7135    186.9846    151.6581   7.7345510013e+01   1.4049679018e+01    0.2618695    0.2043815 -21.84  0.001091424    1.315    0.239
        51  -8.9603    112.7709    150.7337   9.4922922349e+01   2.8855602922e+01    0.2068988    0.1741286  81.96 0.0006177847    1.334    0.250
        52  -9.4481    174.8403    149.0181   7.9389591305e+01   1.7055269014e+01     0.277485    0.2173632 -61.35 0.0008926513    1.533    0.348
        53  -8.4139    109.5596    148.0129   9.5216480912e+01   3.0069491845e+01    0.2218338    0.1436514 -55.26  0.000337403    1.513    0.339
        54  -9.3722    143.4772    145.4609   8.5952678073e+01   2.4227961867e+01    0.2873931    0.1475384 -58.01  0.001039962    2.418    0.586
        55 -10.6975    106.1118    137.5964   9.3964514530e+01   3.3169565754e+01    0.5330068    0.3521208 -31.31  0.002315961    1.877    0.467
        56 -11.6333     93.9736    137.5685   9.7317456064e+01   3.5238790018e+01    0.2940466    0.2554456 -45.21 0.0003839768    1.150    0.130
        57  -9.9153    136.0000    130.4287   8.4324224201e+01   2.9134143771e+01    0.6826464   0.08783093 -47.03  0.001314964    7.626    0.869
        58 -10.4820    105.9549    130.7304   9.2491341615e+01   3.4845435969e+01    0.3855359    0.3307924 -62.92  0.001116852    1.159    0.137
        59 -10.5218    114.1079    129.0896   8.9850573720e+01   3.3745274466e+01    0.3803005    0.3199238  21.49  0.001017799    1.318    0.241
        60  -9.3539    160.9034    128.2993   7.7642765057e+01   2.4341676580e+01    0.2883358    0.2176389 -53.53  0.001329346    1.407    0.289
        61 -10.3569    101.2987    124.9528   9.2485565124e+01   3.7055357537e+01     0.294687    0.2338236 -30.06 0.0006072713    1.382    0.277
        62 -10.6822    120.0064    122.7916   8.6710950067e+01   3.4093455708e+01    0.5480787    0.3554057  -4.79  0.001972119    2.908    0.656
        63  -9.6723    135.1230    119.8613   8.1914199544e+01   3.1700963556e+01    0.4039081   0.09825794 -43.90  0.001049569    4.072    0.754
        64  -9.3987    109.4615    118.2628   8.8540038944e+01   3.7168426268e+01    0.2439443    0.2332571   7.01 0.0002915244    1.094    0.086
        65 -10.0314    231.2304    113.7083   6.0054879192e+01   1.2035571961e+01     0.266562     0.260285 -17.89   0.00077039    1.105    0.095
        66  -9.1435    167.7171    112.6833   7.2052756446e+01   2.6095765725e+01    0.3216858    0.2326201 -79.42  0.001324943    2.113    0.527
        67 -11.4362    117.9583    110.0040   8.3997866519e+01   3.7439781911e+01    0.6227571    0.5016309  62.89  0.002730228    1.458    0.314
        68  -9.8818    134.6038    105.4820   7.8216996080e+01   3.4986117939e+01    0.6226076    0.1494075 -43.77  0.001632514    4.063    0.754
        69 -10.4649     66.6951    104.3338   9.8230313433e+01   4.7427257501e+01     0.305778    0.2497944 -19.21  0.001658579    1.363    0.266
        70  -9.5937    205.4836    110.1453   6.3643248731e+01   1.8104877497e+01     0.312701    0.2182913  39.22 0.0009523269    1.569    0.363
        71  -9.4101     64.2502     99.7224   9.7935446008e+01   4.8855252610e+01    0.2294177    0.1802217  33.07 0.0007523331    1.415    0.293
        72 -11.9525     49.2687    250.0195   1.2130368471e+02   1.6757895505e+01    0.1840823    0.1528958  62.42 0.0004746497    1.165    0.141
        73  -7.2599     76.3985    222.3926   1.1391125491e+02   1.8558726641e+01    0.3231511    0.1031511 -61.87 0.0008711934    3.154    0.683
        74  -8.8010    155.7900     82.4043   6.6296930628e+01   3.4828685737e+01    0.2149519    0.1430309  39.96 0.0004180802    1.587    0.370
        75  -8.8928    184.4557     77.2602   5.8859141738e+01   2.8855505452e+01    0.2870306    0.1490762 -29.60  0.001121981    2.066    0.516
        76  -9.3992     65.7143     70.8314   8.9426128677e+01   5.5179347172e+01    0.2542275    0.1993037  37.03  0.001058863    1.435    0.303
        77 -19.5067     12.8049    145.0051   1.2060530343e+02   4.2909745021e+01     19.16791     4.481023 -76.78   0.06469491    4.021    0.751
        78 -12.7137    179.7810     52.0471   5.2525269367e+01   3.4014377270e+01    0.8327436    0.7517381  18.56 0.0008144527    1.254    0.203
        79  -8.0189     84.2455    245.6842   1.1458182597e+02   1.3097723369e+01    0.1155368   0.07378144  66.80 0.0001863598    1.517    0.341
        80  -9.1950     39.7725    223.4744   1.2122330608e+02   2.2876138927e+01    0.1545515    0.1190544  32.83 0.0007980393    1.554    0.356
        81 -10.6853    249.3286    236.7649   8.1991617248e+01  -9.8387203549e+00    0.2935905    0.1393322  38.02  0.001607801    2.139    0.532
        82  -9.6425    168.0765    232.8622   9.6530606975e+01   2.6631620796e+00    0.2554758    0.1729465  42.64 0.0007713868    1.352    0.261
        83  99.0000     48.8280    217.4453   1.1900320948e+02   2.3052898622e+01    0.2457364    0.2367295 -26.53  0.001378255    1.500    0.333
