#   1 NUMBER                 Running object number                                     
#   2 MAG_AUTO               Kron-like elliptical aperture magnitude                    [mag]
#   3 X_IMAGE                Object position along x                                    [pixel]
#   4 Y_IMAGE                Object position along y                                    [pixel]
#   5 X_WORLD                Barycenter position along world x axis                     [deg]
#   6 Y_WORLD                Barycenter position along world y axis                     [deg]
#   7 A_WORLD                Profile RMS along major axis (world units)                 [deg]
#   8 B_WORLD                Profile RMS along minor axis (world units)                 [deg]
#   9 THETA_WORLD            Position angle (CCW/world-x)                               [deg]
#  10 FWHM_WORLD             FWHM assuming a gaussian core                              [deg]
#  11 ELONGATION             A_IMAGE/B_IMAGE                                           
#  12 ELLIPTICITY            1 - B_IMAGE/A_IMAGE                                       
         1 -12.7723     81.4597     77.4718   1.0757565783e+02   5.0988813363e+01     2.663824    0.9539135 -54.94  0.008229043    4.385    0.772
         2 -11.9540     99.8505     58.9545   9.6110012423e+01   5.1072188548e+01     2.938006      1.52269 -12.13  0.009245267    4.679    0.786
         3 -12.6087     82.5936     53.5381   9.9545137024e+01   5.5095749688e+01     2.343272     1.696825   7.11  0.009639972    1.524    0.344
         4 -13.2286     18.4767     41.4081   1.1888058825e+02   6.5124823192e+01    0.7140313    0.6138663 -65.20   0.00523496    1.640    0.390
         5 -13.1050     14.2250    105.1982   1.3534823052e+02   5.2666028245e+01     2.493986    0.9575582 -43.00   0.01159212    2.586    0.613
         6 -11.5316    151.2739     25.6354   7.3221695788e+01   4.4248353532e+01     2.128492    0.4424172  57.69  0.006846177    3.583    0.721
         7 -11.8605    148.7144     13.9215   7.0171014293e+01   4.6086700639e+01    0.8197552     0.643563 -36.82  0.002122197    1.438    0.304
         8 -12.5008    163.7645     10.7526   6.6915955256e+01   4.2790725330e+01     1.680771     1.111208 -32.06  0.009390783    1.708    0.415
         9 -12.7448     30.3570     86.7102   1.2674711612e+02   5.5426207148e+01     2.143827     1.379142  82.07   0.01067688    2.737    0.635
        10 -11.8951     52.0404     36.6682   1.0401899740e+02   6.2348897002e+01     1.612727     1.129624 -50.29  0.009611319    1.895    0.472
        11 -12.6707     39.6277     63.5990   1.1759249955e+02   5.9210808587e+01     1.652011     1.167541  54.31  0.009467842    2.221    0.550
        12 -12.1573     37.9814     45.9845   1.1267013266e+02   6.2542279699e+01     1.034402    0.7424209  54.52  0.006028592    2.448    0.591
        13 -11.6144    107.2322     29.9361   8.4116557401e+01   5.3726157615e+01    0.9256405    0.5373003  51.89  0.001948898    1.606    0.377
        14 -11.9000    123.9554      9.9207   7.3433929130e+01   5.2180023405e+01    0.6833988    0.5168695 -56.48  0.004037971    1.681    0.405
        15 -13.6161     99.0592      7.0999   7.7917474522e+01   5.7752728446e+01    0.8433668    0.5696774  48.68  0.002470794    1.265    0.209
        16 -12.0999    115.0759      8.2398   7.4691643838e+01   5.4285011856e+01    0.8788188    0.3815624  40.04  0.002573834    2.210    0.548
        17 -12.6771     70.8436     30.3874   9.4990139682e+01   6.0453343222e+01     1.653758    0.7722884  42.33  0.008224363    2.087    0.521
        18 -11.8123     69.8407     19.6547   9.1112266322e+01   6.1934287150e+01     1.179962     0.445314  32.94   0.00484417    2.927    0.658
        19 -12.2168    112.4168     21.6652   7.9941871550e+01   5.3564543039e+01    0.6534714    0.6152477 -67.13  0.001891299    1.304    0.233
        20 -11.7553    117.3428     15.4949   7.6691306317e+01   5.3124671555e+01    0.2978419    0.2625436  71.87 0.0001485362    1.246    0.197
        21 -12.2668     58.0383     68.7309   1.1264071946e+02   5.6092309797e+01     1.746917    0.7267566 -53.40   0.00648702    2.609    0.617
        22 -12.4635     91.0337     22.7106   8.5851156356e+01   5.7797633927e+01     1.770161    0.5645441 -20.98  0.005903313    4.852    0.794
        23 -11.9906    130.2135     20.2266   7.5551663604e+01   4.9772088175e+01     1.251807    0.6125141  58.48  0.005034966    1.793    0.442
        24 -12.3823    134.8892      4.7576   6.9732001481e+01   5.0145299021e+01     1.425987    0.7235166  67.23  0.007059295    1.792    0.442
        25 -10.6345     78.5027      7.3844   8.3489820343e+01   6.1687403461e+01    0.6457169    0.4479265  -2.77  0.004090314    1.433    0.302
        26 -11.5575     54.2366     17.1406   9.5481921952e+01   6.4653632114e+01    0.3963237    0.2488901 -13.48  0.002437813    1.506    0.336
        27 -11.4422      9.4332     25.9031   1.1744104744e+02   6.8333266032e+01     1.049942    0.5676759  10.87  0.006782628    1.954    0.488
        28 -10.5459     18.0258      3.0834   1.0415573612e+02   7.0734568255e+01    0.5881193    0.2886508  35.84  0.003651781    2.384    0.581
        29 -12.1060     18.9411     13.4990   1.0833212989e+02   6.9339569465e+01    0.9483795    0.5013757  22.60  0.006119857    1.874    0.466
        30 -10.9055     41.4094     17.0877   1.0034318310e+02   6.6402480430e+01     1.809498    0.8821639 -16.50  0.009349261    2.367    0.578
        31 -10.9111     68.3382      4.7465   8.5474829470e+01   6.3713131663e+01     0.644914    0.2997372  32.73  0.003393834    1.985    0.496
        32 -11.9671     58.1802      3.8177   8.8399671819e+01   6.5462733559e+01    0.7388257    0.3542095  50.49  0.003971491    2.321    0.569
        33 -11.1201      2.2949      3.0868   1.1168624052e+02   7.2107329396e+01     0.386702    0.2339438   7.65  0.002569464    1.512    0.339
        34 -12.1196      3.5900     17.0513   1.1681300720e+02   7.0082426325e+01    0.4459475    0.2367705 -18.74  0.001651853    1.696    0.410
        35 -12.2893      4.1227     10.5632   1.1398571793e+02   7.0972121641e+01    0.7659463    0.3792273 -14.27   0.00471352    2.035    0.509
        36 -12.1360     29.5445     24.0388   1.0803932290e+02   6.6841478822e+01    0.4642403    0.2797164 -29.23  0.000677013    1.378    0.274
        37  -9.8599    186.9082     22.0957   6.6730423845e+01   3.5969962502e+01    0.6128868    0.2984164 -47.25  0.002821248    2.152    0.535
        38  -9.8701    184.7373     14.1638   6.4982116973e+01   3.7369571722e+01     0.416805    0.2472069  54.45  0.001446725    1.608    0.378
        39 -10.5140    182.4215     21.1393   6.7088179667e+01   3.7173692269e+01    0.4244741    0.2054976 -39.72   0.00114063    2.134    0.531
        40 -10.3538    243.6481     12.3332   5.8500488944e+01   2.3838898344e+01    0.4273448    0.2827487 -43.41  0.002161802    1.491    0.329
        41 -11.1753    232.6206     12.1645   5.9415413847e+01   2.6307270911e+01    0.5782121    0.3532204 -27.75 0.0005695163    2.057    0.514
        42 -10.7720    245.2266     19.6461   5.9847103836e+01   2.2614242454e+01    0.5946338    0.2562284  76.54  0.002821513    2.229    0.551
        43 -10.2219    239.3043     17.1695   5.9862467944e+01   2.4222185492e+01    0.4877487     0.177055 -51.14  0.001781806    2.516    0.603
        44 -10.0378    249.8426      9.2907   5.7398602117e+01   2.2852498438e+01    0.5160423    0.1908001 -55.79  0.002358637    2.504    0.601
        45 -10.9304    245.8354      3.5673   5.6586966666e+01   2.4365203704e+01    0.5799712     0.248896  87.50  0.002644634    2.332    0.571
        46  -9.8863    215.8275     21.4503   6.3101330704e+01   2.9089289509e+01    0.4283363    0.2951743  64.24  0.002444396    1.391    0.281
        47  -9.7666    212.0069     13.1241   6.1605422724e+01   3.0950699474e+01     0.285915    0.2392688 -40.91  0.001200956    1.353    0.261
        48 -11.3565    201.3087     19.0152   6.4164231133e+01   3.2831593679e+01    0.6693242    0.3696969  89.90  0.002280528    1.939    0.484
        49 -10.3070     26.2686      4.6192   1.0116959201e+02   6.9687130436e+01    0.5384467    0.3035622  -7.13  0.003415134    1.709    0.415
        50  -9.7999    218.3370     13.8031   6.1115984897e+01   2.9392707185e+01    0.2940708    0.2150995  74.89  0.001565553    1.219    0.180
        51  -9.9994    222.3159     11.7381   6.0273563793e+01   2.8704342378e+01    0.4481608    0.2676257 -65.06  0.002452831    1.589    0.371
        52  -9.4916    225.3222      9.3209   5.9470686114e+01   2.8284906315e+01    0.3022368    0.1515947  66.95  0.001466162    1.784    0.439
        53  -9.8782    189.5695      8.7265   6.3026918861e+01   3.6764511806e+01    0.3913821    0.1938475  53.44  0.001580256    1.968    0.492
        54 -10.1047    195.9976      4.9221   6.1381459802e+01   3.5608039145e+01    0.5910663     0.364272  35.37  0.003020213    2.355    0.575
        55 -10.3199    200.4887      6.4788   6.1271300773e+01   3.4383751713e+01    0.5069875    0.2478259 -30.94  0.002519649    2.292    0.564
        56 -10.9474    204.1682      6.8191   6.0966383930e+01   3.3477195449e+01    0.2786094    0.2619188 -47.10 0.0003936677    1.290    0.225
        57 -11.3728    207.7560      3.4756   5.9839879437e+01   3.2975451295e+01    0.5746008    0.3510999  88.23  0.003202813    1.463    0.317
        58 -10.3586    173.8321      8.6639   6.4961129145e+01   4.0564388554e+01    0.2574237     0.201795 -77.10 0.0007234148    1.279    0.218
        59  -9.8951    180.5278      4.9484   6.3152046029e+01   3.9307632157e+01    0.3684891    0.3092412  -9.03  0.002332448    1.551    0.355
        60 -10.5426    174.5362      3.3338   6.3470804328e+01   4.0895934050e+01    0.7411572    0.3702473 -81.92  0.003193586    2.689    0.628
        61 -11.2631     50.4074     10.6493   9.4134821709e+01   6.5940752970e+01    0.4550906     0.288532  20.97  0.001427179    1.399    0.285
        62 -10.7850    222.6801      2.5216   5.8253581711e+01   2.9622486627e+01     0.504377     0.276334  73.09  0.002783783    1.569    0.363
        63  -9.3531    230.0312      3.0734   5.7742643644e+01   2.7900491508e+01    0.2445361    0.1661665  32.28  0.001323468    2.576    0.612
        64  -8.1309    189.3568      1.2982   6.1228079256e+01   3.7539278640e+01      0.12982   0.08318637  48.42 0.0007035274    1.703    0.413
        65 -11.9315     26.7053     51.9005   1.1891418867e+02   6.2603114777e+01    0.5800446    0.2546794 -28.18  0.002739187    2.617    0.618
        66  -9.5029     37.3947    241.7785   1.4512603327e+02   2.0239383554e+01    0.1508846   0.08899958 -69.38 0.0007240213    1.693    0.409
        67  -9.0740    211.1667    241.1608   1.1232875557e+02  -7.3848098815e+00    0.1560851    0.1452231  42.94  0.000679832    1.292    0.226
        68  -9.2726    114.3192    239.3256   1.3080044069e+02   9.5250876547e+00    0.1162047    0.1019674   6.06 0.0007046093    1.678    0.404
        69  -9.1439     13.7806    237.6699   1.4878216791e+02   2.3736743676e+01    0.2387722    0.1282845 -56.52  0.001426573    2.564    0.610
        70  -9.3031     12.9983    232.9550   1.4862488013e+02   2.4735846799e+01    0.1774891    0.1223279  76.84 0.0007982167    1.028    0.028
        71 -11.6702     51.5961     87.8191   1.2006927716e+02   5.3028073896e+01     1.853198     1.226186  35.22   0.01033271    1.726    0.421
        72  -8.4973    226.9840    232.0000   1.0783389163e+02  -8.6249120988e+00    0.2045957   0.06373493  40.29  0.000799769    2.924    0.658
        73  -8.4605    244.5052    204.5280   9.9598608233e+01  -7.3688495028e+00    0.1315288    0.1098177  -0.21 -2.187206e-05    1.059    0.056
        74 -10.8859     17.9879    186.2745   1.4427842995e+02   3.3985423805e+01    0.4778499    0.3027163 -41.92  0.002743525    2.405    0.584
        75 -10.9173      6.9185    186.2930   1.4647175316e+02   3.5013073740e+01    0.4284801    0.1686416  58.61  0.001758967    2.585    0.613
        76  -9.8868     11.9437    184.5416   1.4533830883e+02   3.4940730521e+01    0.2324916    0.1243723 -64.45  0.001258804    1.655    0.396
        77  -9.8052      1.5740    177.8491   1.4685582921e+02   3.7311041399e+01    0.2085152    0.1117792 -85.44  0.001168523    1.459    0.315
        78  -9.1122     38.3360    176.1584   1.3897828183e+02   3.4136866736e+01    0.1848567    0.0988408 -81.15 0.0004637649    1.709    0.415
        79  -8.7061     63.1019    168.1514   1.3228601634e+02   3.2949615020e+01    0.1938859    0.1417844  86.01 0.0006959251    1.326    0.246
        80  -9.4383     27.5933    167.0328   1.4033219003e+02   3.7378783727e+01    0.3201971    0.1314276 -47.15  0.001355105    3.250    0.692
        81  -9.3947      9.1740    167.7937   1.4442727524e+02   3.8903671897e+01    0.2103376     0.184294 -87.13 0.0009022154    1.210    0.173
        82 -10.1871     13.7546    165.4275   1.4321529353e+02   3.9042318021e+01    0.2814829    0.2084588  60.13  0.001897572    1.376    0.273
        83 -10.1059      2.5781    160.9022   1.4520305789e+02   4.0975127659e+01    0.3307492    0.1767847 -71.38  0.001756865    1.424    0.298
        84  -9.9201    104.4057    116.2753   1.1136328465e+02   3.8731404642e+01    0.6620443    0.4471817  61.49   0.00297278    1.845    0.458
        85  -9.0814     10.1596    157.7282   1.4323546213e+02   4.1087843683e+01    0.2249515    0.1082288 -54.19 0.0009822485    2.013    0.503
        86  -9.7924     97.6807    115.0411   1.1293124526e+02   4.0227996546e+01    0.3424359    0.2786001  26.99  0.001038278    1.379    0.275
        87 -10.0426    132.4046    111.5326   1.0267343080e+02   3.4164684504e+01    0.4464558    0.4093576 -18.64  0.002197678    1.183    0.154
        88  -9.3690     93.2893    111.6888   1.1334716950e+02   4.1754435191e+01    0.3634425    0.2609994 -16.84  0.001679744    1.906    0.475
        89  -8.6567     45.8260    113.1417   1.2753178989e+02   4.8064759989e+01    0.1803704    0.1363542 -40.48 0.0007219016    1.308    0.235
        90  -9.8207     35.9489    109.3114   1.2969275148e+02   4.9947358511e+01     0.410978    0.3109941  13.56  0.002514278    1.651    0.394
        91  -9.6974    105.3181    109.6037   1.0942525981e+02   4.0063859935e+01    0.3018645    0.2858954 -86.25  0.001137913    1.113    0.102
        92 -10.9886     67.4022    107.7478   1.1997015189e+02   4.6649118505e+01    0.6371027    0.3462323 -32.10  0.002527435    2.412    0.585
        93 -10.0956     73.8708    107.9808   1.1809921076e+02   4.5680500488e+01    0.3018901    0.2852857  70.17 0.0006792512    1.176    0.150
        94  -8.8819    120.4068    109.2177   1.0520359608e+02   3.7191071393e+01    0.2160695    0.1427021 -56.69 0.0006562668    1.610    0.379
        95  -9.6427    133.7554    103.3305   1.0013711474e+02   3.5626199984e+01     0.432465    0.2490959 -42.55  0.001703483    1.724    0.420
        96  -9.1945     53.4576    103.7195   1.2326261517e+02   4.9337892867e+01    0.4272294    0.1722834 -51.36   0.00183516    2.066    0.516
        97  -8.7497     97.2781    103.9284   1.1022585541e+02   4.2788391034e+01    0.3012092    0.1858667  66.92   0.00118151    2.696    0.629
        98  -9.7097     75.5335    102.2970   1.1621560652e+02   4.6708364097e+01    0.3489946     0.227907 -59.75  0.001138723    1.543    0.352
        99  -9.2374    105.9200    102.9013   1.0749644977e+02   4.1424181960e+01    0.2199343    0.2075659 -31.94 0.0005109323    1.042    0.040
       100  -9.2027     81.3493    102.1196   1.1442678586e+02   4.5858088542e+01    0.2566634    0.2086298  46.82 0.0009229524    1.364    0.267
       101  -9.2385      8.3108     94.0610   1.3521902571e+02   5.5485075310e+01    0.2471901     0.170248  52.81  0.001571773    1.912    0.477
       102 -10.9931      4.0877     99.4938   1.3739241237e+02   5.4564854854e+01    0.6107218    0.2923892 -74.35  0.003252073    1.911    0.477
       103  -9.3804      9.5991     99.8457   1.3581911541e+02   5.4151574572e+01    0.1903661     0.167955  40.85 0.0009895971    1.431    0.301
       104 -11.4644      5.0878     80.0156   1.3365018782e+02   5.8638374459e+01    0.6422386    0.2823009 -62.37  0.002397637    1.767    0.434
       105 -10.7903      3.4081     88.6903   1.3579341595e+02   5.6917602286e+01    0.4841578    0.2271607 -35.10   0.00246683    2.242    0.554
       106 -11.1983     13.4850     88.6362   1.3260629272e+02   5.6313927552e+01    0.3353795    0.3127029 -33.28  0.001117168    1.217    0.178
       107  -8.4264    140.7127    101.6423   9.7927535176e+01   3.4433473422e+01    0.1576049    0.1243531  -2.63 0.0007023745    1.680    0.405
       108 -10.3314    114.9587     95.7736   1.0302924047e+02   4.1171257022e+01    0.3607699    0.3271402  62.62  0.001941439    1.192    0.161
       109  -9.0908    115.0071    100.5169   1.0432848721e+02   4.0163582869e+01    0.3526054    0.2713338  45.05  0.001742725    1.338    0.252
       110 -10.2953    117.6861     98.3163   1.0299227373e+02   4.0086085288e+01     0.268013    0.2094117 -55.57 0.0006967743    1.332    0.249
       111  -9.4031     63.8282     99.5880   1.1911473321e+02   4.8956348360e+01    0.4299098    0.2734044  66.90  0.001916364    2.656    0.623
       112  -9.4075    159.4644     96.8436   9.2171694585e+01   3.1057730028e+01    0.3533491    0.2352369  61.32  0.001286744    1.618    0.382
       113  -8.9761    188.0495     94.0480   8.5433254871e+01   2.4705684413e+01    0.2517753    0.1833028 -74.84  0.000996738    1.674    0.403
       114 -10.5919    118.2758     41.8880   8.5415608011e+01   4.9853415926e+01    0.5416732    0.3274948 -40.82  0.002656056    1.816    0.449
       115 -10.3951    115.1143     51.1293   8.9291855787e+01   4.9211459898e+01    0.6168838    0.4061199  -4.22   0.00286389    2.061    0.515
       116  -9.9984    121.2174     91.4605   1.0011023709e+02   4.0767166197e+01    0.3228861    0.2958492  81.92 0.0008134193    1.220    0.180
       117 -10.9812    119.7599     86.5472   9.9084190389e+01   4.2052539188e+01    0.7173433    0.3245726  47.31  0.001902725    2.247    0.555
       118  -9.8555    123.2273     81.3812   9.6637978580e+01   4.2316565206e+01    0.3489611    0.2818156  23.54 0.0008420477    1.364    0.267
       119  -9.8831    104.0194     93.1292   1.0535342219e+02   4.3861034721e+01    0.4206579     0.276743  59.57  0.001811256    1.949    0.487
       120  -9.7675    126.7777     63.8826   9.0382880709e+01   4.4661248837e+01    0.2766937    0.2224396  19.89 0.0008107146    1.375    0.273
       121 -12.3084    121.2887     67.7022   9.2986576110e+01   4.5214224279e+01     1.470793     1.125698  78.40  0.007196232    1.771    0.435
       122 -11.2511    121.5979     56.4832   8.9356196916e+01   4.6994947834e+01    0.6558429    0.5892826  16.78  0.003771508    1.108    0.097
       123 -11.6037    106.7479     86.4998   1.0267552639e+02   4.4690302172e+01    0.8356668    0.6406158  28.84  0.003532465    1.399    0.285
       124 -10.9765    102.1214     81.0351   1.0239257810e+02   4.6656303167e+01     0.883966    0.5076757 -22.20  0.003524479    2.512    0.602
       125 -10.9650     98.2695     77.3454   1.0240887348e+02   4.8089993698e+01     0.442937    0.3876074 -59.37  0.002480678    1.297    0.229
       126  -8.6101    206.4649     91.9542   8.1521717777e+01   2.0664652165e+01    0.2285507    0.1133452 -57.78 0.0008095428    2.608    0.617
       127  -8.6812    194.5159     90.0136   8.3170617193e+01   2.3885919455e+01    0.2309902    0.1476212 -38.88 0.0008056359    1.560    0.359
       128  -9.6463      9.4578     85.9699   1.3338044757e+02   5.7137348104e+01    0.2628436    0.1423781 -83.05 0.0009213107    2.473    0.596
       129  -9.4931     74.4195     88.9720   1.1307771726e+02   4.9751931007e+01    0.2947272    0.2309023  21.56  0.001032974    1.405    0.288
       130  -9.5313     76.2001     83.4328   1.1097333316e+02   5.0627713391e+01    0.3699881    0.2299529 -63.06 0.0008774549    2.092    0.522
       131  -9.6695    153.0977     87.3423   9.0995737740e+01   3.4408687747e+01    0.3471154    0.2447839  39.38 0.0008950181    1.511    0.338
       132  -9.7173    161.4893     82.6806   8.7815852769e+01   3.3269711514e+01    0.5524743    0.3687516  87.88  0.002235042    2.244    0.554
       133  -8.8158    186.8807     84.5262   8.3171369066e+01   2.6738651467e+01    0.2297096    0.1473596  57.66 0.0008116637    1.549    0.354
       134 -10.3818    134.5923     80.7278   9.3523527778e+01   3.9938853830e+01    0.6493923      0.33935 -36.59  0.002633453    1.984    0.496
       135 -10.1966    138.7752     76.2372   9.1170112523e+01   3.9810159168e+01    0.5334385    0.1998888 -37.35  0.001836832    2.767    0.639
       136  -9.8305    217.1733     81.0482   7.7077822309e+01   2.0049190877e+01    0.4707407    0.2191215 -26.19  0.001625531    3.250    0.692
       137  -8.8746    140.5102     83.0462   9.2742431938e+01   3.8158453085e+01    0.2350795     0.149688 -38.39  0.001033655    1.596    0.374
       138 -10.0752     17.7940     81.8643   1.2982689118e+02   5.7443660515e+01    0.2241943    0.1859829 -17.66  0.000974851    1.306    0.234
       139  -8.9762    188.5115     80.0339   8.1687071202e+01   2.7137041469e+01    0.2319332    0.1463939 -39.78 0.0008295069    1.583    0.368
       140  -9.9630     90.0421     78.1733   1.0512894013e+02   4.9409939426e+01    0.5276721    0.2352337  41.35  0.001917489    2.338    0.572
       141  -9.9992    150.5120     75.4048   8.8177437031e+01   3.7213000176e+01    0.5931069    0.3517741 -34.78  0.002562347    1.773    0.436
       142 -10.3191    143.9009     77.3464   9.0270861905e+01   3.8423506827e+01    0.3629793    0.2293018 -37.11  0.001618688    1.625    0.385
       143  -9.9008    247.3896     75.7611   7.1583337130e+01   1.4095786638e+01    0.3380787    0.1347961 -49.85  0.001316249    2.380    0.580
       144 -11.1876    101.8728     70.5519   9.9253398689e+01   4.8673862673e+01    0.5972946    0.4489813 -46.57  0.002264987    1.391    0.281
       145 -10.3422     36.8303     75.8559   1.2195089491e+02   5.7084376049e+01    0.2552907    0.1678658 -39.09 0.0004119739    1.300    0.231
       146 -10.4148     18.8627     73.0946   1.2749436300e+02   5.9167360739e+01    0.3974679    0.2432068 -31.81  0.002414181    1.552    0.356
       147 -10.5892     16.8685    158.8865   1.4185050156e+02   4.0255161488e+01    0.4084302    0.2695208 -43.11  0.002452146    1.896    0.473
       148  -8.9108    192.8983     74.1174   7.9352396140e+01   2.7080252112e+01     0.234629    0.1930726 -69.14  0.000619086    1.233    0.189
       149  -9.4678    215.1795     71.7593   7.5130449933e+01   2.2078226371e+01    0.3008098    0.2373111 -18.74   0.00118789    1.614    0.381
       150  -9.2679      5.9453     71.3322   1.3158332196e+02   6.0360129437e+01    0.5098388      0.29166 -62.26   0.00211772    1.465    0.318
       151  -8.4099      7.4463     49.5412   1.2572486599e+02   6.4457788392e+01    0.3430034     0.289997  68.37  0.002502604    1.877    0.467
       152 -10.6602     11.1230     63.4683   1.2794146038e+02   6.1603739872e+01    0.4891371    0.2399032 -57.77  0.002135136    1.679    0.404
       153  -9.4432     21.5398     63.5411   1.2415771892e+02   6.0854688384e+01    0.1915163    0.1532284 -31.24 0.0005137917    1.086    0.079
       154 -11.5780     16.4341     61.5897   1.2552210069e+02   6.1609550432e+01    0.5940416    0.2844222  13.07  0.003172392    2.569    0.611
       155  -8.7381    155.1344     70.9025   8.5848616582e+01   3.6889218514e+01    0.2285532    0.1982351 -67.55 0.0007641139    1.242    0.195
       156 -10.8232    140.1469     68.0569   8.8401805625e+01   4.0923591183e+01     0.716986    0.4755057  64.88  0.003270926    1.697    0.411
       157 -10.2562    132.3817     68.3281   9.0356546054e+01   4.2656888781e+01    0.5147455    0.3373378  76.53  0.002156031    2.307    0.566
       158  -8.3222      1.3340     70.3067   1.3296094747e+02   6.0815871470e+01    0.1205301   0.06145329 -39.23 0.0007040413    1.669    0.401
       159 -10.3478    250.2671     67.2506   6.9368897167e+01   1.4828852008e+01    0.4940516    0.1859283 -33.91  0.001895581    2.868    0.651
       160 -11.3675    164.3935     62.8719   8.1614677730e+01   3.5964747808e+01    0.6542847    0.6235205  20.05   0.00317353    1.154    0.133
       161 -10.7861    164.7867     57.2249   7.9928672367e+01   3.6752859465e+01      0.60251     0.507844   1.49  0.002239098    1.465    0.317
       162 -10.2136    151.6442     67.1184   8.5508910462e+01   3.8366348371e+01    0.5675325    0.2413708  48.17  0.001794361    2.277    0.561
       163  -8.3545    189.3999     65.1427   7.7609151559e+01   2.9423500288e+01     0.203616    0.1283748 -50.35 0.0007012368    1.616    0.381
       164 -11.2576     67.3021     62.1834   1.0744764046e+02   5.6033287395e+01    0.3502924    0.2666354 -25.54 0.0008076212    1.205    0.170
       165 -11.2272     68.8590     74.5776   1.1076137452e+02   5.3483497349e+01    0.9209952    0.4786283 -35.94  0.003518425    1.896    0.473
       166  -9.0787    185.3731     60.8095   7.7153177367e+01   3.1106993495e+01    0.2984496    0.1953991  80.42  0.001351657    1.743    0.426
       167  -8.9298    178.0613     60.3366   7.8315049895e+01   3.2992358165e+01    0.6815156    0.4309236  -4.41  0.002219739    2.926    0.658
       168 -10.7189    173.9853     57.5024   7.8275425245e+01   3.4440497842e+01     1.001001    0.5328329 -21.33  0.000819471    2.700    0.630
       169 -10.4851    175.8357     53.3840   7.6805697933e+01   3.4603403122e+01    0.6621509    0.3964423  26.53  0.002600003    2.838    0.648
       170 -10.2979    221.7115     58.1007   7.0922243935e+01   2.2695904983e+01     0.445191    0.3882919  51.47  0.002582135    1.328    0.247
       171  -9.5425    149.2385     58.9948   8.3630103240e+01   4.0255206557e+01    0.5801715    0.1686554 -42.21  0.001826519    3.610    0.723
       172 -11.7476    140.2544     51.6288   8.3366217468e+01   4.3502867708e+01     1.146008    0.3753368  52.60   0.00402394    2.753    0.637
       173 -10.2098    158.2957     50.3766   7.9217715737e+01   3.9363313381e+01    0.6319281    0.4568439  36.88  0.003159972    1.521    0.343
       174  -9.0002    152.5619     56.0737   8.2055134531e+01   3.9907902272e+01    0.3348066    0.2614318 -58.61  0.001090035    1.432    0.302
       175 -10.5032    150.7888     51.0624   8.0932202459e+01   4.1082669544e+01    0.4389835    0.2892926 -12.99  0.001361101    2.039    0.510
       176  -9.3200    158.5734     58.5848   8.1553098418e+01   3.8063970617e+01    0.3181672     0.204089  32.80 0.0009367753    1.947    0.486
       177 -10.1696      2.8650     57.4069   1.2951182675e+02   6.3254631459e+01    0.3201161    0.2212211 -66.61  0.002183764    1.500    0.333
       178  -8.7079    193.2346     54.3989   7.4165659965e+01   3.0144590020e+01    0.2065943    0.1295995  79.15 0.0005584254    1.743    0.426
       179 -12.1293     19.0515    147.9373   1.4010185911e+02   4.2575742865e+01    0.7318062    0.5331836 -59.48  0.003217938    1.272    0.214
       180  -9.5410    186.3498     53.1304   7.4943871788e+01   3.2035292763e+01    0.2155576    0.1869915  -0.56  0.001087406    1.471    0.320
       181  -9.1303    238.4933     52.4410   6.7519068246e+01   1.9677027684e+01    0.1334234    0.1175207 -75.20 8.843516e-05    1.060    0.057
       182  -8.8166     65.7842     50.8217   1.0417908906e+02   5.8211753310e+01     0.160625    0.1401136 -41.68 0.0003310218    1.312    0.238
       183  -8.7408     16.3814     50.7666   1.2257587664e+02   6.3636224287e+01     0.162231   0.07683626 -42.40 0.0007273069    1.622    0.383
       184  -9.0449    188.9424     49.2970   7.3512948202e+01   3.1954093758e+01    0.2732353    0.1832195 -63.07 0.0009645911    1.634    0.388
       185  -8.3641    126.6611     50.7339   8.6247462069e+01   4.6751150642e+01    0.1448153    0.1023139  26.47 0.0006978681    1.595    0.373
       186  -8.9601    171.4170     48.9272   7.6353199085e+01   3.6346825160e+01    0.2570006     0.135195 -37.55  0.001050791    1.965    0.491
       187  -8.8568    125.7701     28.0359   7.9049044577e+01   4.9927678133e+01     0.244072    0.1623957 -52.51 0.0007820692    1.930    0.482
       188  -9.3608    129.7975     46.2986   8.4076676405e+01   4.6683900689e+01    0.2965015    0.2058649 -18.70 0.0009035496    1.650    0.394
       189 -10.2085    134.7124     33.8989   7.9010709474e+01   4.7190168048e+01    0.4631856    0.3269082  28.24 0.0009771568    1.575    0.365
       190  -9.7503    130.3061     40.3906   8.2061101271e+01   4.7374840671e+01    0.3896351    0.3531359  39.96  0.001745043    1.021    0.021
       191 -11.0351    147.3073     35.0715   7.6806810604e+01   4.4081012450e+01    0.9154086    0.2534472  51.32  0.001323141    3.064    0.674
       192  -9.4763    136.0238     38.7121   8.0257278083e+01   4.6278898931e+01    0.3155316    0.2021003  53.13 0.0008402877    1.417    0.294
       193 -10.7044    139.7589     42.3804   8.0604837414e+01   4.4922729593e+01    0.7706138    0.3380002  61.28  0.003056532    2.331    0.571
       194  -9.4193    142.5001     38.9148   7.8951539308e+01   4.4735068403e+01    0.3303908    0.2371993 -38.08 0.0009826429    1.502    0.334
       195 -10.1177    125.0032     37.3174   8.2280856004e+01   4.8972791164e+01     0.433933     0.278107  52.46  0.001328785    1.430    0.301
       196  -9.8132    125.4674     32.9698   8.0743416369e+01   4.9412288436e+01    0.3335996    0.2270336  -1.78  0.001117151    1.853    0.460
       197 -11.2415    109.6125     66.3496   9.5720405559e+01   4.7890786207e+01     1.251858    0.5973925 -22.40  0.004246301    3.567    0.720
       198 -10.4204    231.6955     44.2090   6.6476532242e+01   2.2412213121e+01    0.3816957    0.2477192  44.76 0.0008170991    2.041    0.510
       199 -10.3275    221.1290     45.1741   6.7965028715e+01   2.4735443765e+01    0.4629459    0.2676406 -66.62  0.002167798    1.897    0.473
       200  -9.3796    214.7925     42.5648   6.8149495806e+01   2.6605325859e+01    0.2534683    0.2320205  20.20 0.0009844709    1.459    0.315
       201  -8.9122    203.0157     27.2663   6.5953976980e+01   3.1441858717e+01    0.3919008     0.219703 -79.56  0.001666243    2.126    0.530
       202 -10.0824    207.8232     45.4528   6.9764389273e+01   2.7876501127e+01    0.6501964    0.3918486 -89.04  0.002996688    1.921    0.480
       203  -9.8167    199.3443     31.1622   6.7376421501e+01   3.1846900794e+01    0.3751498    0.2537328  81.96   0.00134236    1.402    0.287
       204 -10.8713    202.6948     37.8544   6.8589098214e+01   3.0163869639e+01    0.4807588    0.3955744  45.59  0.002128711    1.415    0.293
       205 -10.1958    210.1940     33.2481   6.6507654586e+01   2.8958122241e+01    0.3918456     0.347241 -82.85  0.001427437    1.049    0.046
       206 -10.1457    201.1766     57.8017   7.3800464215e+01   2.7678513333e+01    0.4768394    0.3705049  11.39   0.00236464    1.930    0.482
       207 -10.1401    105.7672     44.2464   8.9479335630e+01   5.2159002447e+01    0.4292738    0.3397536  32.00   0.00245675    1.187    0.157
       208  -8.8730    248.6977     44.8493   6.4748072469e+01   1.8512951618e+01    0.1859143    0.1669093 -27.10 0.0008559295    1.447    0.309
       209  -8.5469    166.5895     43.8039   7.5771162848e+01   3.8254780313e+01    0.2028707    0.1241907 -47.20 0.0009459378    1.752    0.429
       210  -8.4045    156.6524     44.2464   7.7740314651e+01   4.0627278451e+01    0.1409537    0.1058746 -85.87 0.0004196559    1.578    0.366
       211 -11.4142     25.0142    128.7038   1.3603495592e+02   4.6499072540e+01    0.5838007    0.4563323 -43.60  0.003141938    1.361    0.265
       212 -11.0487     13.2711     56.3834   1.2533377405e+02   6.2817373359e+01    0.2434175    0.2244714  23.04  0.001891345    1.416    0.294
       213  -9.6085    196.8894     41.9642   7.0422096792e+01   3.1026502326e+01    0.2337177    0.1846049 -88.34 0.0003921286    1.210    0.174
       214 -10.0193    194.5432     31.2083   6.8025821686e+01   3.3011845683e+01     0.445375    0.3133177   8.27  0.001460836    2.355    0.575
       215  -9.0629    190.7419     41.0412   7.1081867531e+01   3.2663456136e+01    0.3284231    0.2236422 -10.58  0.001559845    2.175    0.540
       216  -9.5182    192.5017     36.5279   6.9662475513e+01   3.2830919876e+01    0.3705656    0.2286691  72.88  0.001718876    1.532    0.347
       217 -10.6402    180.7557     37.8817   7.1767922561e+01   3.5548812214e+01    0.5864885    0.4112333 -16.99  0.002966519    1.850    0.460
       218 -10.3482    162.1439     39.8082   7.5426224370e+01   3.9882191836e+01     0.418754    0.2538835 -30.93  0.001006588    1.811    0.448
       219  -9.1330     77.4106     41.5465   9.6991112796e+01   5.7822817678e+01    0.2431685    0.2110267  61.97   0.00107099    1.595    0.373
       220  -8.1307    211.2679     41.3338   6.8308184895e+01   2.7619782457e+01    0.1265337    0.1067788  30.28 0.0006978474    1.588    0.370
       221  -8.3965      4.5201     41.3105   1.2456081394e+02   6.6103688108e+01     0.107521   0.07732245 -28.95   0.00029737    1.117    0.104
       222  -9.6280     28.1444    120.8085   1.3395938260e+02   4.8041957458e+01    0.3592218    0.1539876 -71.97 0.0009490211    2.258    0.557
       223 -10.0996    169.1252     37.4459   7.3536381622e+01   3.8475351935e+01    0.3666336    0.2759661 -54.36  0.001399386    1.420    0.296
       224  -8.5945    173.3179     38.6831   7.3180190533e+01   3.7280900759e+01    0.2201155    0.1620722 -62.85 0.0005909876    1.480    0.324
       225  -8.2939     53.3291    151.6972   1.3221442725e+02   3.8122596086e+01    0.1374746   0.09261734  75.40 0.0007033991    1.648    0.393
       226 -10.6882     34.5331    150.3071   1.3666264229e+02   4.0564121331e+01    0.3041676    0.2229038 -81.39 0.0009287528    1.167    0.143
       227 -11.0981     39.0509    146.1763   1.3496985046e+02   4.1064082950e+01    0.5369455    0.3195293 -68.18  0.001930642    1.399    0.285
       228  -9.7895     66.9935    148.4431   1.2822391798e+02   3.7124218490e+01    0.2708502    0.1827259 -83.73  0.001360435    1.579    0.367
       229 -11.4577     37.9223     28.7453   1.0645108276e+02   6.5252224430e+01    0.5230737    0.3776948   1.34  0.001320361    1.239    0.193
       230  -9.7648      1.4427    144.4179   1.4385478518e+02   4.4748005425e+01    0.5124773    0.1083116 -73.05   0.00186148    3.756    0.734
       231 -10.1562     18.6410     26.3593   1.1357923171e+02   6.7535829972e+01    0.2804383    0.2172832  -1.60  0.000783519    1.198    0.166
       232  -9.9840      5.2192    147.2000   1.4327043241e+02   4.3851346241e+01    0.2431556    0.1544592 -50.01   0.00151974    1.654    0.395
       233 -10.3187      6.6373    142.8768   1.4247283865e+02   4.4723489516e+01    0.3818236    0.2511752  68.44  0.002091057    1.596    0.374
       234  -8.8292     60.8280    147.4011   1.2962987759e+02   3.8199923422e+01    0.1713646    0.1353856  14.70 0.0009382184    1.705    0.413
       235 -10.6475     21.7493    138.3399   1.3823050628e+02   4.4556471132e+01    0.4363625     0.229678 -44.77  0.002230513    2.090    0.522
       236  -8.7458     46.0178    144.2417   1.3291758253e+02   4.0757168696e+01     0.175915    0.1529246 -71.38 0.0003570808    1.062    0.058
       237  -9.6138     32.0054    141.1838   1.3603225954e+02   4.2953540927e+01    0.2156619    0.1527213 -71.48  0.001292441    1.155    0.134
       238 -11.8718     28.3016     29.1006   1.1051395028e+02   6.6228032376e+01    0.7048819    0.3716321 -11.99  0.003343062    2.274    0.560
       239  -8.7012     80.5342    139.9774   1.2313422554e+02   3.7188954118e+01    0.2222186    0.1290687 -56.83 0.0007059537    1.565    0.361
       240 -10.2258    246.5667     33.0452   6.2485115403e+01   2.0602967572e+01    0.4352293    0.2024156  58.58 0.0008886569    2.263    0.558
       241 -10.9491    236.5772     32.6386   6.3397047263e+01   2.2881086905e+01    0.4902197    0.3692953  62.77  0.002648903    1.416    0.294
       242  -9.4117    242.5752     31.6910   6.2591064473e+01   2.1663140198e+01    0.2498309    0.1769972 -47.40 0.0007687017    1.327    0.246
       243  -8.2448    221.7020     35.6722   6.5698985825e+01   2.5906759473e+01    0.1247189     0.102868  37.02 0.0007027379    1.635    0.388
       244  -9.1989    154.9922     33.4276   7.4862635822e+01   4.2435435329e+01    0.2518651     0.190743   2.10 0.0006803247    1.708    0.414
       245  -9.6993     48.4834    137.9159   1.3126964921e+02   4.1975332869e+01    0.5220797    0.2068486  51.44  0.002014847    3.403    0.706
       246  -9.6476    177.9966     20.0243   6.7406587720e+01   3.8378241384e+01    0.2943872     0.244679 -83.34   0.00122831    1.158    0.137
       247 -10.2131     54.7273    137.7517   1.2959057157e+02   4.1273858757e+01    0.3068253    0.2028568 -60.19   0.00127286    1.303    0.233
       248 -10.9201    183.4532     27.1764   6.8524208367e+01   3.6222245964e+01    0.4179865    0.2955943  41.01 0.0008603115    1.643    0.391
       249 -10.3874      3.7254    135.4153   1.4233461875e+02   4.6613868193e+01    0.4113134    0.2971943  84.45  0.002766779    1.304    0.233
       250 -10.3555    177.6304     31.7757   7.0607104536e+01   3.7095905236e+01     0.458301    0.2904253 -48.77   0.00193468    1.668    0.400
       251 -10.5510    226.7501     28.6190   6.3545176239e+01   2.5650858235e+01    0.5508867    0.2668164 -53.85  0.002037032    1.993    0.498
       252  -9.8025    179.2041     26.5950   6.8981844573e+01   3.7333758959e+01    0.4296884    0.1864569  53.09  0.001835787    2.148    0.534
       253  -9.1032    193.2580     24.6933   6.6554923206e+01   3.4119516968e+01     0.282804    0.1804627  14.06  0.001101863    2.975    0.664
       254  -9.9482     48.8743     25.7343   1.0099009658e+02   6.4317861248e+01    0.4286314    0.1655724  35.15  0.002077088    2.570    0.611
       255  -9.4292     54.1358     24.8243   9.8659502914e+01   6.3717437186e+01    0.1819986    0.1272868  40.61  0.001140586    1.625    0.385
       256 -10.0364      9.0936    134.8612   1.4094955344e+02   4.6359706076e+01    0.2452549    0.2209042 -32.79 0.0008531177    1.408    0.290
       257  -9.8269    241.3882     23.7259   6.1034584931e+01   2.2952759357e+01     0.283926    0.1842132 -62.90  0.000439004    1.356    0.263
       258  -9.0178    232.8932     20.8795   6.1236478878e+01   2.5211412061e+01    0.2698911    0.2031164  73.03 0.0006596145    1.269    0.212
       259 -10.3430     11.8744    125.1094   1.3898966461e+02   4.8368514713e+01    0.3195276    0.2549796 -80.14  0.001013741    1.107    0.097
       260 -10.6548     15.4784    132.4745   1.3904226172e+02   4.6420355745e+01    0.3172683    0.2714366 -77.03  0.001598854    1.099    0.090
       261 -10.8145     12.6407    129.9065   1.3943043432e+02   4.7223198233e+01    0.3761446    0.3224894 -26.18  0.001447159    1.479    0.324
       262 -10.0509     44.9878    132.3941   1.3128121241e+02   4.3673376553e+01    0.3478193    0.2181564 -35.21  0.001774699    1.993    0.498
       263 -10.9881     72.1247    128.8620   1.2319997465e+02   4.1084362905e+01    0.5458341     0.360904 -46.98  0.002527412    1.453    0.312
       264 -10.1033     74.3510    125.0611   1.2179319968e+02   4.1660934319e+01    0.3185656    0.2383516  38.30  0.000934709    1.472    0.321
       265  -9.5342    210.0050     18.7794   6.3120826047e+01   3.0781041791e+01    0.2293376    0.1955842  80.14 0.0004260337    1.101    0.092
       266  -9.7332    213.6698     17.3094   6.2386268597e+01   3.0084541040e+01    0.2799273    0.1631378 -85.16  0.001147921    1.736    0.424
       267  -8.7791     95.5668    130.6639   1.1715585229e+02   3.6965414048e+01    0.2811786    0.1324455 -49.84  0.001110176    1.991    0.498
       268  -9.3432     98.1583     22.0709   8.3664319552e+01   5.6474142100e+01    0.2173636    0.1658558  41.96 0.0008770819    1.168    0.144
       269 -10.7877     55.9452    127.6852   1.2745202577e+02   4.3510094269e+01    0.5928236    0.2476494 -52.36  0.001612984    2.067    0.516
       270  -9.2184    178.6531     14.9447   6.5976630316e+01   3.8764199230e+01    0.2192356    0.1567674  60.89 0.0003660819    1.256    0.204
       271  -8.8944     35.4849    130.4570   1.3351435222e+02   4.5119825433e+01    0.1292444    0.1063748 -67.42 0.0008088637    1.016    0.015
       272 -10.5953     41.1380    117.6534   1.2975162966e+02   4.7523517217e+01     1.052821    0.4908352  67.49  0.002791703    8.205    0.878
       273 -10.6881     47.6804    125.8514   1.2940588463e+02   4.4911704811e+01    0.3847068    0.2586863 -61.50  0.002132634    1.257    0.205
       274 -10.5078     47.3631    121.0339   1.2860891328e+02   4.6072315161e+01    0.4040785    0.2821741  -2.90  0.001170791    2.087    0.521
       275 -11.2962     67.6621    122.5337   1.2314781062e+02   4.3201338973e+01    0.7471761     0.331242 -40.25  0.002867603    2.752    0.637
       276  -9.6460     67.6649    115.2994   1.2159930165e+02   4.4885328168e+01    0.2016082    0.1850208  83.53 0.0002435574    1.184    0.155
       277  -9.9989     63.9829    114.2321   1.2243944567e+02   4.5627901840e+01    0.2992073    0.1611153  39.25   0.00114868    2.059    0.514
       278  -9.8285     13.2019    117.3351   1.3753558322e+02   5.0028486190e+01     0.332615    0.2474309  63.67  0.001743761    1.575    0.365
       279  -9.8995     17.5273    122.4875   1.3711851409e+02   4.8539412720e+01    0.3337248    0.1834036 -80.58  0.001252474    1.774    0.436
       280  -9.5707     19.6282    119.7668   1.3614108472e+02   4.8993690480e+01    0.2418507    0.1525763 -55.25 0.0006053235    1.316    0.240
       281  -9.5312     92.3429    120.2561   1.1567705899e+02   3.9951793984e+01    0.5976427     0.159256 -45.88  0.001752347    3.794    0.736
       282 -10.2743     38.6616    126.9304   1.3207836328e+02   4.5624194739e+01     0.199865    0.1741953 -28.61 0.0009670497    1.351    0.260
       283  -9.6645    234.4275    248.2864   1.0925203721e+02  -1.1989785033e+01    0.2696753    0.1923934  69.32  0.001336786    3.475    0.712
       284  -8.9673    125.6349    249.6824   1.2990003021e+02   5.7674045713e+00    0.1196014    0.0966469  14.66 0.0002295158    1.775    0.437
       285  -9.7934    141.9342    243.8296   1.2603019468e+02   4.0285580416e+00    0.2657357    0.1704389  28.15 0.0008884571    1.847    0.459
