#   1 NUMBER                 Running object number                                     
#   2 MAG_AUTO               Kron-like elliptical aperture magnitude                    [mag]
#   3 X_IMAGE                Object position along x                                    [pixel]
#   4 Y_IMAGE                Object position along y                                    [pixel]
#   5 X_WORLD                Barycenter position along world x axis                     [deg]
#   6 Y_WORLD                Barycenter position along world y axis                     [deg]
#   7 A_WORLD                Profile RMS along major axis (world units)                 [deg]
#   8 B_WORLD                Profile RMS along minor axis (world units)                 [deg]
#   9 THETA_WORLD            Position angle (CCW/world-x)                               [deg]
#  10 FWHM_WORLD             FWHM assuming a gaussian core                              [deg]
#  11 ELONGATION             A_IMAGE/B_IMAGE                                           
#  12 ELLIPTICITY            1 - B_IMAGE/A_IMAGE                                       
         1 -12.2530    195.4369     36.6384   5.0602076871e+01   3.1494560643e+01    0.9983368    0.9658572   6.25  0.003735336    1.167    0.143
         2 -12.5520    205.0963     25.5560   4.6254929398e+01   3.0413121188e+01    0.9045777    0.7825973  25.94  0.002000127    1.411    0.292
         3 -11.3377     32.7916     16.7059   8.7579384560e+01   6.9162809790e+01    0.5511469    0.1476374 -41.35  0.002227278    3.219    0.689
         4 -11.3139     32.9237      5.3688   8.1821024499e+01   7.0780199008e+01    0.6805458    0.2212559 -35.22  0.003102292    2.716    0.632
         5 -10.7783     41.0872      7.9106   7.9290775215e+01   6.9384970761e+01    0.3229546    0.1714875 -22.62  0.001776718    1.728    0.421
         6 -10.5014    228.5580      2.2581   3.8012511953e+01   2.7224105868e+01    0.6744391    0.2514225  76.29  0.002846515    2.547    0.607
         7  -9.1994    192.3740    193.5295   9.0274047577e+01   4.9592435929e+00    0.3968267    0.2117925 -60.62  0.001428525    4.170    0.760
         8  -8.0290    142.3189    250.3230   1.0844351569e+02   4.6911683560e+00    0.1125048   0.08453041  18.36 0.0007044487    1.671    0.402
         9 -14.8103     52.8224    199.7611   1.2029765737e+02   2.7033688189e+01     6.695817     3.912121  83.22   0.03837647    1.632    0.387
        10  -7.9127     97.2270    190.7412   1.0996030655e+02   2.2626823865e+01    0.2096634    0.1489522  83.57 0.0006586183    1.493    0.330
        11  -8.6483     99.6660    180.9860   1.0805541667e+02   2.4309087308e+01    0.1888601     0.163095 -86.10 0.0006247791    1.116    0.104
        12 -10.5629     72.3630    177.3114   1.1372751039e+02   2.9269558134e+01    0.4465916    0.2819021 -41.84  0.002236604    2.261    0.558
        13 -10.3020     76.8200    171.9620   1.1201165425e+02   2.9829265422e+01     0.306652    0.2436663 -52.73 0.0008617292    1.431    0.301
        14 -10.7129     34.7763    208.9552   1.2453256512e+02   2.7298124304e+01    0.3883697    0.1733708  55.77  0.002168043    1.868    0.465
        15 -10.1008    100.6290    170.7086   1.0627436504e+02   2.6402047564e+01    0.4231433    0.2476751  59.85  0.001951906    1.853    0.460
        16 -14.6184     66.5100    247.3477   1.2162612052e+02   1.6292597067e+01      7.19719     2.128685  33.26   0.02159791    6.131    0.837
        17  -8.2699    130.3117    213.0223   1.0603939164e+02   1.2770444304e+01    0.1773609    0.1568633  63.52 0.0006962633    1.084    0.078
        18  -7.8605    162.3158    167.6522   9.1562711513e+01   1.5488330047e+01    0.1486283    0.1162933  83.73 0.0007047691    1.724    0.420
        19 -11.0340     84.6146    162.7109   1.0883816804e+02   3.0771132850e+01    0.6832597    0.3622901  64.36 0.0004816366    2.401    0.583
        20 -12.4566     58.1834    129.3412   1.1029579452e+02   4.2355094932e+01     1.709541    0.5222136 -69.09  0.005394128    3.963    0.748
        21  -7.3061    192.6781    164.7014   8.4501994028e+01   9.8732946746e+00    0.1488056    0.1094795   9.26 0.0007023417    1.624    0.384
        22 -10.5452     91.1919    155.5973   1.0608852299e+02   3.1380446050e+01    0.5958467    0.3993131 -29.81  0.001533886    2.335    0.572
        23  -9.2385    134.2476    146.8749   9.3760327031e+01   2.5538382560e+01    0.5856294    0.1981317 -55.10  0.001768021    3.629    0.724
        24  -9.7546    104.7186    139.8318   9.9731929498e+01   3.2768292453e+01    0.5791048    0.3274276 -28.96  0.002053625    3.316    0.698
        25 -10.6392     91.9537    140.5619   1.0321087401e+02   3.4780646823e+01    0.2759561    0.2507234 -43.17 0.0004114664    1.221    0.181
        26 -11.0396     52.2746    148.1178   1.1469526027e+02   3.8601307604e+01    0.4081144    0.2917275  65.58  0.002344097    1.389    0.280
        27  -8.6336     87.5488    146.1896   1.0538686033e+02   3.4161562004e+01     0.259722     0.177959  59.43  0.001148012    1.537    0.349
        28 -10.3351     71.6273    133.4308   1.0732623428e+02   3.9586706423e+01    0.3828967    0.2721977  12.83  0.001902343    2.042    0.510
        29  -8.8442    105.9806    130.6316   9.7469400937e+01   3.4693969919e+01     0.345578     0.218536 -55.96  0.001567222    1.540    0.351
        30  -9.1289    112.7489    130.9337   9.5738539740e+01   3.3367379160e+01     0.290345    0.2512936   3.28 0.0006430557    1.439    0.305
        31  -9.1166     67.5001    125.0217   1.0693125275e+02   4.2179099097e+01    0.2090507    0.1888089  45.76  0.001244999    1.220    0.181
        32  -9.4260     99.9822    127.2159   9.8344183936e+01   3.6571166676e+01    0.3716741    0.2324993 -39.19  0.001014886    1.821    0.451
        33 -12.1267     73.0451    158.1091   1.1095883288e+02   3.3541738716e+01    0.5516165    0.4630983 -50.45  0.001245731    1.353    0.261
        34  -8.4182    108.9996    119.3860   9.4089058386e+01   3.6757769860e+01    0.2059767     0.188361  44.05 0.0004181862    1.136    0.120
        35  -7.9881    167.7395    112.3136   7.7455656886e+01   2.5578247298e+01    0.3354317    0.1802963 -65.45  0.000966427    4.029    0.752
        36  -8.3364    205.8058    110.1896   6.9056525268e+01   1.7022359813e+01    0.2118188     0.178872   7.38 0.0006842576    1.329    0.247
        37  -9.7804    118.9864    109.0000   8.8749186786e+01   3.7170665259e+01    0.2908915    0.2325564  45.64  0.001420382    1.284    0.221
        38 -12.6490     68.2463    144.2932   1.1005495918e+02   3.7461358189e+01     1.123712    0.7754474  62.64  0.004948068    1.518    0.341
        39 -13.6436     10.5419    206.4652   1.2881094771e+02   3.0294460711e+01    0.6542536    0.5958325 -89.53  0.002889316    1.454    0.312
        40  -9.3964     41.1903     91.9148   1.0836223883e+02   5.3178122274e+01    0.2372323    0.1510823 -54.96 0.0006037598    1.303    0.232
        41  -8.6373     52.5912     90.7633   1.0433278246e+02   5.2205411545e+01     0.195724    0.1188758 -67.30  0.000956786    1.644    0.392
        42  -8.1861    111.7552    217.5977   1.1036211381e+02   1.5001622154e+01    0.1776282   0.09902333  50.40 0.0005296629    1.529    0.346
        43  -8.2841     33.2886     85.3570   1.0962424124e+02   5.5444272532e+01    0.1369526   0.07905065 -41.07 0.0006399784    1.681    0.405
        44  -8.5521     62.7513     69.3759   9.5076527044e+01   5.5691170410e+01    0.1728014    0.1288836  14.64 0.0004647257    1.543    0.352
        45  -7.3002    114.3241    200.6467   1.0764276673e+02   1.7815370247e+01    0.1413542   0.09233335  71.05 0.0007047205    1.761    0.432
        46  -9.3086    153.4066     56.4212   6.4136482295e+01   3.9524678680e+01     0.333024    0.2609808 -82.10 0.0007388177    1.586    0.369
        47 -16.7649      5.2135    239.4041   1.3123471660e+02   2.4686670372e+01     19.48747    0.7823094 -77.80   0.01228928   15.724    0.936
        48 -11.8955    185.4091     44.4609   5.4390757970e+01   3.3032907804e+01    0.8616127    0.6233079   8.57   0.00292618    1.893    0.472
        49  -9.7493    133.6801    246.4918   1.0957528200e+02   6.6262161804e+00    0.2429001    0.1688557 -59.03  0.001241229    1.808    0.447
        50  -9.2926     50.0181    234.2090   1.2354337423e+02   2.0697755767e+01    0.2586172    0.1421007  59.50 0.0002928292    1.418    0.295
        51  -9.0973    156.1184     50.6330   6.1676463658e+01   3.9739016225e+01    0.3204224    0.2403708 -84.18 0.0009548577    1.685    0.407
        52  -8.8945     53.8082    230.9298   1.2264224698e+02   2.0825725585e+01    0.2301262    0.1286579 -78.97  0.001143436    1.744    0.427
        53  -8.0911    209.2900    198.6396   8.7941129527e+01   1.0857102120e+00    0.1202324    0.1074709  88.40 0.0007026624    1.692    0.409
        54 -10.7908     32.7650     26.5257   9.1975394418e+01   6.7567806277e+01    0.4417747    0.1123635 -43.65  0.001728381    3.185    0.686
        55  -9.3294     31.4269    195.4119   1.2418562313e+02   3.0418594633e+01    0.2621435    0.1390761  56.46  0.001213329    1.613    0.380
