#   1 NUMBER                 Running object number                                     
#   2 MAG_AUTO               Kron-like elliptical aperture magnitude                    [mag]
#   3 X_IMAGE                Object position along x                                    [pixel]
#   4 Y_IMAGE                Object position along y                                    [pixel]
#   5 X_WORLD                Barycenter position along world x axis                     [deg]
#   6 Y_WORLD                Barycenter position along world y axis                     [deg]
#   7 A_WORLD                Profile RMS along major axis (world units)                 [deg]
#   8 B_WORLD                Profile RMS along minor axis (world units)                 [deg]
#   9 THETA_WORLD            Position angle (CCW/world-x)                               [deg]
#  10 FWHM_WORLD             FWHM assuming a gaussian core                              [deg]
#  11 ELONGATION             A_IMAGE/B_IMAGE                                           
#  12 ELLIPTICITY            1 - B_IMAGE/A_IMAGE                                       
         1 -15.2176      9.4577    137.5015   1.1351546329e+02   4.5430697400e+01     5.494303     1.587014 -74.19   0.01987974    3.019    0.669
         2 -13.2306      6.5263     56.2635   1.0014260245e+02   6.4913095387e+01    0.9271569    0.8316497  55.53   0.00539859    1.543    0.352
         3 -13.5300     19.9264     51.1047   9.2194365152e+01   6.4976168328e+01     1.510034    0.5381708 -44.30  0.006475018    2.263    0.558
         4 -13.1908    217.6331     41.2226   3.6870237518e+01   2.6843037161e+01     1.095932    0.9713194 -48.81  0.007345491    1.234    0.189
         5 -13.6643    234.1838     31.2207   3.3213909333e+01   2.4718708885e+01    0.8262587    0.7548776  73.99  0.005998752    1.372    0.271
         6 -12.0136     34.1161     33.4512   7.8738350408e+01   6.6627535234e+01    0.6259713     0.459232 -39.66  0.003636114    1.443    0.307
         7 -12.3201     56.2037     32.0941   6.8427777784e+01   6.3612996297e+01    0.8976407     0.706655  26.34  0.005593784    1.154    0.133
         8 -11.0444    157.4129     15.8003   3.7707706528e+01   4.3542089071e+01    0.4637792    0.2990044 -59.97  0.002549994    1.652    0.395
         9 -11.7014    231.9035     15.3311   3.0212589581e+01   2.7079214299e+01    0.4416387    0.3034833 -63.66  0.002951761    1.162    0.140
        10 -12.2335    135.0910      6.5730   3.8196481734e+01   4.9654740651e+01    0.4431646    0.3130537 -15.94  0.002629443    1.750    0.429
        11 -10.3315      2.2533      2.2352   8.1642932207e+01   7.4600511110e+01    0.1879422    0.1145218  12.60  0.001274867    1.428    0.300
        12 -10.2305     12.8970    234.0337   1.2049005582e+02   2.2074945629e+01    0.3582785    0.1379322  63.84  0.001684086    2.490    0.598
        13  -9.4536     59.6660    246.3067   1.1191573961e+02   1.4207954602e+01    0.2600899    0.1104765  71.82 0.0009694605    3.917    0.745
        14 -11.4735     42.1166    249.7728   1.1573047409e+02   1.5653473334e+01    0.6772254    0.1764612  34.29  0.002766353    3.229    0.690
        15  -9.5327      3.0290    250.5145   1.2317519357e+02   1.9678028233e+01    0.1589369    0.0920904  40.31 0.0006078153    1.573    0.364
        16 -11.8395     85.2927    230.7786   1.0486889960e+02   1.3987536232e+01    0.5492287    0.3952521  19.72  0.003004429    1.644    0.392
        17 -11.9103     85.1898    223.5122   1.0404784089e+02   1.5565994535e+01     0.700457    0.4690282  56.78  0.002059467    1.458    0.314
        18 -11.8717    101.4323    241.1380   1.0250910973e+02   9.5414139758e+00    0.3760625    0.2425195  42.59  0.001862783    1.344    0.256
        19 -10.5176     68.4195    226.3326   1.0815738112e+02   1.7274075896e+01    0.5719811    0.2155406  52.03  0.002261503    2.771    0.639
        20 -11.9860     64.6668    219.6127   1.0830214910e+02   1.9264697393e+01    0.8422223    0.4635049  68.26  0.003917177    2.114    0.527
        21 -10.6921     60.5063    213.5393   1.0861677534e+02   2.1192605301e+01    0.2497129    0.1965936  63.21 0.0008081641    1.149    0.130
        22 -12.0985     44.5854    214.2090   1.1233548173e+02   2.3015053004e+01    0.9082715    0.3933114  63.71  0.003720183    2.786    0.641
        23 -10.5606    132.6003    247.2226   9.6549632862e+01   3.7938564639e+00    0.1662827    0.1189743 -38.01 0.0007483958    1.627    0.385
        24 -12.3656     29.6834    204.5838   1.1487651701e+02   2.6930882549e+01     1.247356    0.6940237  81.80  0.006327521    1.790    0.441
        25 -12.6232     34.5965    194.5292   1.1281587910e+02   2.8807040734e+01     1.176423    0.5180763  71.89  0.004549459    3.058    0.673
        26 -14.5044     11.1030    202.6770   1.1890921366e+02   2.9210584911e+01      1.32989    0.9725673 -55.09  0.008280549    1.581    0.367
        27 -13.1365     14.8562    187.6387   1.1692732954e+02   3.2442563409e+01    0.9065989    0.5106947  59.16  0.003343146    1.700    0.412
        28 -11.9200     52.0926    202.3692   1.0940954678e+02   2.4882405179e+01    0.6712666    0.4497699  67.01  0.002861237    1.470    0.320
        29 -11.4074     41.1872    179.8351   1.0962575518e+02   3.1714429677e+01    0.2808078    0.2578244 -42.33 0.0004953298    1.285    0.222
        30 -11.5484     49.1957    173.2451   1.0670926384e+02   3.2457326736e+01    0.2626916    0.2521678 -66.92 0.0005174137    1.142    0.125
        31 -10.5309     62.5424    163.1796   1.0159649079e+02   3.3361889863e+01    0.2457184    0.2365382 -79.31 0.0003519568    1.069    0.065
        32  -9.7481     80.9177    161.9560   9.6206183724e+01   3.1046185046e+01    0.2522103    0.1771714  72.05  0.001136682    1.732    0.423
        33 -13.2005     48.0683    159.0041   1.0507313566e+02   3.6263518956e+01     0.764467    0.4359642 -37.10  0.003310618    2.254    0.556
        34 -10.0160    246.4911    159.5135   5.8203364232e+01   2.0070565191e+00    0.1322541    0.1070035 -29.06 0.0001473632    1.021    0.021
        35  -9.7616    105.6615    159.6748   8.8878553629e+01   2.7556227848e+01    0.1607682    0.1210859 -18.62 0.0007051365    1.724    0.420
        36 -11.7663     71.4486    156.4172   9.7938712023e+01   3.3882145290e+01    0.5444067    0.4697533   5.31  0.002246672    1.374    0.272
        37 -12.0461     67.8202    143.5580   9.6690608159e+01   3.7743286649e+01    0.7616398    0.4451064  61.65  0.002786671    2.330    0.571
        38 -10.5131    100.6077    144.1402   8.7078144663e+01   3.2352941172e+01    0.3127432    0.2405016  25.06  0.001468034    1.438    0.305
        39 -10.3064     88.3622    143.6065   9.0537692341e+01   3.4582674439e+01    0.3092069     0.289061 -89.97 0.0009082858    1.096    0.088
        40 -11.2336     75.7698    141.4091   9.3862631966e+01   3.7138904901e+01    0.3230515    0.2433839 -52.46 0.0005109812    1.252    0.201
        41 -10.9507     36.3441    141.6840   1.0597545100e+02   4.2059603476e+01    0.3156852    0.2128222  71.23   0.00155639    1.713    0.416
        42 -10.1247     92.3186    140.0222   8.8608113011e+01   3.4833747830e+01    0.2717699    0.2180097 -10.95 0.0006746355    1.541    0.351
        43 -10.4448    101.3353    138.6553   8.5661215189e+01   3.3601046904e+01    0.3440017    0.2634389  80.27  0.001547221    1.685    0.407
        44 -11.6611    102.5160    131.5015   8.3674769432e+01   3.5167575864e+01     1.048702     0.438617  32.90  0.003015863    2.727    0.633
        45 -10.3485     89.5690    127.7872   8.6697345438e+01   3.8390121090e+01    0.2684763    0.2639133 -57.21  0.000380337    1.031    0.030
        46 -11.2458     40.2831    118.3818   1.0074838807e+02   4.7661479160e+01    0.5674587    0.2543163 -57.76  0.002395238    1.877    0.467
        47  -9.8695    102.4777    119.7599   8.0827837747e+01   3.8042261508e+01    0.2673011    0.2152049  37.88 0.0003332366    1.283    0.221
        48 -11.3084     30.2354    111.1355   1.0284022991e+02   5.0479458940e+01    0.5132753    0.2632869 -75.83  0.002194994    2.175    0.540
        49 -11.4653     40.1956    104.6949   9.7985834634e+01   5.1097971822e+01    0.4531773    0.3514057 -18.60  0.002246847    1.404    0.288
        50 -11.2007     39.4962     99.8956   9.7177509398e+01   5.2344860248e+01    0.4445957    0.2765886   5.08   0.00212028    2.006    0.502
        51 -13.4294    244.1578     98.1503   4.5986792182e+01   1.2907159576e+01     1.017245    0.6745895 -56.70  0.005719515    1.403    0.287
        52  -9.7907     61.3355     97.7791   8.8673253892e+01   5.0156697608e+01    0.3536853    0.2304254 -78.61  0.001501278    2.318    0.569
        53 -12.7528     39.8709     82.4551   9.2735425939e+01   5.6398771630e+01      1.34754    0.7482449 -53.67  0.006047866    1.616    0.381
        54 -10.7684     15.6455     81.9862   1.0242055181e+02   5.8680888353e+01    0.4027085    0.2780337 -24.28  0.002227162    1.449    0.310
        55 -10.9585     33.6210     70.1303   9.1868042448e+01   5.9778480582e+01    0.5188589     0.399439 -57.08  0.003021843    1.346    0.257
        56 -10.6064    143.1711     69.1684   5.5659898321e+01   3.9772280255e+01    0.2115742    0.1762911 -79.85  0.001075784    1.347    0.258
        57 -12.2285     29.5395     50.2844   8.7362865161e+01   6.4211451972e+01    0.9057106    0.5799096 -23.86  0.004502255    1.464    0.317
        58  -8.6992     14.5355    247.5205   1.2091206263e+02   1.9134328787e+01    0.1165368   0.08679428  67.41 8.751378e-05    1.015    0.015
        59 -11.2616     11.0257     51.4697   9.6611010510e+01   6.5599979023e+01    0.3829867    0.2971916 -30.54  0.001462783    1.032    0.031
        60  -9.9417     29.4587    242.2277   1.1772219779e+02   1.8628931635e+01    0.2825061    0.1525812  76.46  0.001562595    1.771    0.435
        61 -12.9886     16.4867     42.1814   9.0862686539e+01   6.6972325692e+01    0.7361822    0.5065258 -23.38  0.003084343    1.231    0.187
        62 -11.5521     59.3745     52.1628   7.5101280311e+01   5.9925215772e+01    0.8878934    0.3761416  42.32  0.003733039    2.518    0.603
        63 -11.9505     51.1614     48.3153   7.7014859251e+01   6.1843383031e+01     0.823692    0.3775738  34.30  0.003662734    2.162    0.538
        64 -12.1313    108.4991    239.9636   1.0082676628e+02   8.7392112997e+00    0.3723449    0.3294119 -89.90  0.001929527    1.254    0.203
        65 -13.6549    130.6067    230.8357   9.4727342449e+01   7.1884567667e+00     1.014915    0.7731351  41.26    0.0057809    1.206    0.171
        66 -11.1650     90.8755     40.4366   5.9636793743e+01   5.5951511726e+01    0.3625097    0.2849594  -5.41  0.002042635    1.373    0.272
        67 -12.7624    122.8849    237.2580   9.7325074102e+01   7.1172871423e+00    0.5298631    0.4055687  44.17  0.002422326    1.196    0.164
        68 -13.6760    113.9292    231.3836   9.8527158345e+01   9.6409211888e+00      1.15082    0.8601149  56.81   0.00467343    1.381    0.276
        69  -9.9883     52.2991     23.4995   6.6284600957e+01   6.5414266048e+01    0.2511703    0.2057916  12.41  0.001236205    1.006    0.006
        70 -10.1918     19.1210    240.5232   1.1964651980e+02   2.0087471324e+01    0.3516514     0.151845 -79.15  0.001740867    2.176    0.540
        71  -9.8180      1.5249    239.0016   1.2292668927e+02   2.2134893031e+01    0.1698442   0.09264559 -85.38 0.0006435353    1.594    0.373
        72 -12.5509     33.6858    231.4910   1.1612276903e+02   2.0422358678e+01    0.6139424    0.4175206  67.70  0.002081199    1.260    0.207
