#   1 NUMBER                 Running object number                                     
#   2 MAG_AUTO               Kron-like elliptical aperture magnitude                    [mag]
#   3 X_IMAGE                Object position along x                                    [pixel]
#   4 Y_IMAGE                Object position along y                                    [pixel]
#   5 X_WORLD                Barycenter position along world x axis                     [deg]
#   6 Y_WORLD                Barycenter position along world y axis                     [deg]
#   7 A_WORLD                Profile RMS along major axis (world units)                 [deg]
#   8 B_WORLD                Profile RMS along minor axis (world units)                 [deg]
#   9 THETA_WORLD            Position angle (CCW/world-x)                               [deg]
#  10 FWHM_WORLD             FWHM assuming a gaussian core                              [deg]
#  11 ELONGATION             A_IMAGE/B_IMAGE                                           
#  12 ELLIPTICITY            1 - B_IMAGE/A_IMAGE                                       
         1 -12.7551    248.4267      5.6442   3.5767397426e+02   2.4920071916e+01     1.524923    0.3813742 -28.58  0.006373302    3.686    0.729
         2 -12.3932    240.4726      3.5748   3.5752063596e+02   2.6568081223e+01    0.6097028    0.4332386  84.19  0.004388501    1.566    0.362
         3 -11.6967      7.4695     27.1317   6.8292176502e+01   7.5533252410e+01    0.5937126    0.3652965 -13.01  0.003067674    1.756    0.430
         4 -11.6703      6.5351     15.9964   6.4052100625e+01   7.8040851834e+01    0.8269975    0.3483535   5.42  0.003323635    3.127    0.680
         5 -10.2950      3.2292     10.8908   6.4965275538e+01   7.9366467025e+01    0.2787256    0.2149446   0.25  0.001743134    1.228    0.186
         6 -11.0287      8.0154      8.3662   5.7636973918e+01   7.9440433277e+01    0.4367025    0.1995964  16.52  0.001983776    2.424    0.588
         7  -8.8206     55.9856     10.0262   2.3363064054e+01   7.0461621447e+01    0.2124848    0.1599769 -76.02 0.0006480783    1.697    0.411
         8 -11.5895     15.6335      8.4956   4.9399525399e+01   7.8499868267e+01    0.6115907    0.3510116 -12.40  0.002721335    2.760    0.638
         9  -9.9247      2.3011      4.0454   6.1701696593e+01   8.0812721896e+01    0.3048138    0.1748346 -38.08  0.001679614    1.643    0.391
        10  -8.3928     79.3712      4.1393   1.2402081007e+01   6.5240956188e+01     0.192147    0.1171158 -39.66  0.000942888    1.751    0.429
        11 -10.5877      9.5733      2.0991   5.0783109487e+01   8.0405296721e+01    0.4340761     0.169286  25.44  0.001831995    2.817    0.645
        12  -8.4091     62.6594      1.2958   1.5262781485e+01   6.9746713474e+01    0.1369833   0.09758951 -71.62 0.0007031439    1.659    0.397
        13  -8.3006     70.6699      6.3271   1.5922908328e+01   6.7268538972e+01    0.1432215   0.09889761 -68.66 0.0007051071    1.708    0.415
        14  -9.8474    131.7196    247.1933   6.1977291137e+01   6.9711730799e+00    0.1580586    0.1391575  50.06 0.0005785212    1.424    0.298
        15 -10.6435    243.3053    245.4346   4.2079023654e+01  -4.4620776615e+00    0.4808448    0.1731264 -24.01  0.002710369    2.777    0.640
        16  -9.3762    247.9160    233.8734   3.9828074363e+01  -3.6459750769e+00    0.2062124    0.1083784 -23.95 0.0009213029    1.524    0.344
        17 -10.5362    247.0617    227.1841   3.9002297069e+01  -2.8449660165e+00    0.4894249    0.1705729 -26.89   0.00259741    2.670    0.626
        18  -9.9407    249.1053    249.3474   4.1769768129e+01  -5.3480810764e+00    0.2743595     0.143509 -15.19  0.002042696    1.543    0.352
        19 -10.6799    248.9393    241.3272   4.0713228533e+01  -4.5180068914e+00     0.415726     0.175605 -32.05  0.002176275    2.047    0.511
        20  -9.7985    233.9691    250.5110   4.4134561285e+01  -4.1823972942e+00    0.1953293   0.09975077  21.77  0.001400617    1.668    0.400
        21 -10.4476    233.8494    244.7286   4.3380840264e+01  -3.5587392705e+00     0.402291    0.1885229 -14.58  0.002506465    2.168    0.539
        22  -9.4030    213.1922    250.5436   4.7376530850e+01  -2.2905697079e+00    0.2546361   0.08104455  28.31  0.001360202    2.697    0.629
        23  -9.8894    210.9406    245.9835   4.7142026992e+01  -1.5540713203e+00    0.2573054    0.1397327 -38.59  0.001009372    2.047    0.511
        24  -9.6520    213.5599    241.1315   4.6064267899e+01  -1.2471351368e+00    0.3250211    0.1524269   1.38  0.001664006    2.887    0.654
        25  -9.7923    201.5607    248.9646   4.9089247367e+01  -9.7639273870e-01    0.4222057     0.186108   6.67  0.002043549    3.258    0.693
        26  -9.2874    184.5073    250.2860   5.2208312723e+01   6.0881140814e-01    0.1949286   0.07666928  27.80  0.001069529    2.082    0.520
        27  -9.2611     27.4819    250.4744   8.4977311167e+01   1.8149215742e+01    0.2441853   0.08755764  28.07   0.00119116    2.106    0.525
        28 -10.0122     21.3953    248.5405   8.6246771542e+01   1.9089602659e+01    0.4000347    0.1296886  41.42   0.00201062    1.944    0.486
        29  -9.6203     89.2327    246.9832   7.1044300662e+01   1.2054115986e+01    0.1872188   0.09834204  43.19  0.001034292    1.605    0.377
        30  -9.7969     75.7627    247.5590   7.4077183276e+01   1.3520080683e+01    0.2401624   0.09954065  24.82  0.001140003    2.084    0.520
        31 -10.2947    119.5007    244.8237   6.4275909255e+01   8.7970110314e+00    0.2807496    0.1809962  73.01   0.00142556    2.943    0.660
        32 -10.0407    146.4091    245.2212   5.8775599823e+01   5.5338782405e+00    0.1569307     0.133955  14.54 0.0004805402    1.138    0.121
        33  -9.2362     45.2017    244.4310   8.0754099768e+01   1.7467536526e+01    0.3098212   0.08109508  29.94  0.001290358    2.626    0.619
        34 -10.7889      3.6950    241.6703   8.9965133803e+01   2.1987062781e+01    0.4576035    0.1456125  54.64  0.002260324    2.240    0.554
        35  -8.9741    168.5657    242.9888   5.4202650977e+01   3.2957583245e+00    0.1468162    0.1037535 -34.29 0.0005689914    1.560    0.359
        36  -9.8613    103.3974    246.4382   6.7894613946e+01   1.0466665910e+01    0.2431917     0.124962 -70.26  0.001263418    2.957    0.662
        37  -9.7682     29.4294    241.7115   8.4203307770e+01   1.9596275346e+01    0.3597179   0.09898695  32.01  0.001596147    2.361    0.576
        38  -9.4870    159.8025    239.7012   5.5464407839e+01   4.7616379589e+00    0.2116259    0.1822277  84.21   0.00108992    2.077    0.519
        39  -9.5372     61.7564    240.9739   7.6771411716e+01   1.6300943560e+01    0.3203445   0.09260702  40.16  0.001384865    2.372    0.578
        40  -9.1458     37.5407    240.7951   8.2314573585e+01   1.8951786027e+01    0.2493999   0.08991919  49.57  0.001183884    2.168    0.539
        41 -10.3869    242.0592    237.2130   4.1136938487e+01  -3.4848763144e+00    0.4216925    0.1770343 -18.17   0.00242173    2.554    0.608
        42 -10.1628     71.5902    239.2577   7.4391664546e+01   1.5490648695e+01     0.299596    0.1453696  55.17  0.001496749    2.168    0.539
        43  -9.3248     53.0881    239.0838   7.8644201717e+01   1.7620672936e+01    0.2606268     0.115341  56.91  0.001266683    2.257    0.557
        44 -10.8781     16.2031    238.5809   8.7092033695e+01   2.1467785849e+01    0.6352048   0.03521532  34.35  0.002351367    3.469    0.712
        45  -9.4117     98.1703    243.1753   6.8732524628e+01   1.1639281202e+01    0.1779877    0.1173251  44.43  0.000896504    1.374    0.272
        46  -9.7654    194.3349    243.4915   4.9606733621e+01   4.2324857652e-01    0.3248538    0.1415681  15.56  0.001702581    2.472    0.595
        47  -9.3866    122.8474    239.1647   6.2953984479e+01   9.2975969094e+00    0.1710117    0.1226534  10.71 0.0007883303    1.335    0.251
        48 -10.2738    231.1798    235.7882   4.2558731648e+01  -2.3322407979e+00     0.346523    0.1907047 -19.20  0.002003866    1.544    0.353
        49 -10.6145    236.1960    229.9761   4.0984700670e+01  -2.1499330729e+00    0.4779105    0.1474013 -30.50  0.002191942    3.022    0.669
        50  -8.9662    209.5424    236.5951   4.6101240307e+01  -3.0479075143e-01    0.2786718    0.1035415 -25.60  0.001333013    3.302    0.697
        51  -8.4460    135.2900    238.6475   6.0270488152e+01   7.8546363321e+00    0.1135577   0.08350152  50.80 0.0007026964    1.673    0.402
        52  -9.4213     82.2121    238.5735   7.1905227933e+01   1.4361995608e+01    0.3224936    0.1041896  26.53  0.001309017    2.673    0.626
        53  -8.8726     44.7246    236.3019   8.0422597482e+01   1.9061271110e+01    0.3257578   0.08052649  52.94  0.001149582    4.008    0.750
        54 -10.6956    214.7778    233.0080   4.4745636324e+01  -4.0528732405e-01    0.3619251    0.3027933 -79.15  0.002272752    3.606    0.723
        55  -9.6557    203.1756    233.4189   4.6725681606e+01   7.4831145265e-01    0.3425633    0.1491771 -30.50  0.001688025    2.264    0.558
        56  -9.1864    194.9943    237.7514   4.8724731196e+01   1.0730425175e+00    0.3595268    0.1778793  -7.55  0.001828725    2.832    0.647
        57  -8.7837    108.2714    233.8889   6.5567426056e+01   1.1993319805e+01    0.1701419   0.09654203  85.72 0.0006994859    4.189    0.761
        58  -9.0832    201.6993    242.1714   4.8170093276e+01  -1.7770750826e-01    0.2484801    0.1013984 -32.77  0.001406189    2.431    0.589
        59  -9.7701     32.2562    231.6555   8.3111099043e+01   2.1277486245e+01    0.4107722   0.09052645  52.44   0.00147701    3.771    0.735
        60  -8.4437    194.3605    232.2356   4.8078887605e+01   1.8502443306e+00    0.1330328   0.09728809 -38.58  0.000506865    1.630    0.387
        61  -8.9704     11.3588    231.7326   8.8001858126e+01   2.3263360286e+01    0.2393775   0.09925797  37.51  0.001252426    1.670    0.401
        62  -9.2385    186.0387    229.8898   4.9233249120e+01   3.0927217306e+00    0.2130618    0.1582048 -59.35  0.001285886    2.396    0.583
        63 -10.0029    149.2977    225.5813   5.5742439708e+01   8.1633294901e+00    0.4698195    0.3113969 -86.13  0.002074887    4.427    0.774
        64 -10.8565      5.9332    226.9012   8.9139122885e+01   2.4721492928e+01    0.3228863    0.1781805  67.76  0.001884861    1.587    0.370
        65  -9.0974    230.0333    227.6223   4.1578107269e+01  -1.2886183526e+00    0.2057653    0.1185097 -21.43  0.001112351    1.453    0.312
        66  -9.4448     20.7557    228.2440   8.5689028151e+01   2.3099369807e+01    0.2365422    0.1155109  32.59  0.001266994    1.569    0.363
        67  -8.8054    161.7639    227.5913   5.3502012252e+01   6.2974137680e+00    0.1634014   0.09368286  35.46 0.0007298649    1.618    0.382
        68  -8.6790    127.4533    226.9424   6.0543396327e+01   1.0740683505e+01    0.1522674    0.1076747  78.79  0.000808221    2.503    0.600
        69  -8.9077    112.4765    227.5334   6.3931521565e+01   1.2571304821e+01    0.1272801    0.1033374  28.47 0.0008092463    1.011    0.011
        70  -8.4362     60.3302    227.6754   7.6169317803e+01   1.9013495143e+01     0.139262    0.0735543  51.69 0.0007050312    1.702    0.412
        71  -9.7681    225.9839    220.1842   4.1118374512e+01   1.6184236868e-03    0.3990725    0.1650864 -19.45  0.001924575    3.185    0.686
        72  -9.7878    175.6527    232.8121   5.1542438958e+01   3.8855620188e+00    0.3341351     0.211914 -58.06  0.001926094    2.749    0.636
        73  -8.3267    200.0000    225.5351   4.6153362531e+01   2.1030171486e+00    0.2089533   0.05686084 -41.18 0.0007532067    3.722    0.731
        74  -9.2855     11.5030    225.8555   8.7801271309e+01   2.4445698715e+01    0.2740119   0.09355277  41.03  0.001315813    1.935    0.483
        75  -8.8200     72.5066    225.4981   7.3068065404e+01   1.7997150324e+01    0.1305735    0.1045222  38.30 0.0001269889    1.003    0.003
        76  -9.3245    216.5282    222.7825   4.2997351406e+01   6.6597775615e-01    0.2514544    0.1534918 -39.02  0.001133478    1.799    0.444
        77  -8.4305    180.3337    224.0833   4.9462840624e+01   4.5623889447e+00    0.1394455    0.1038555 -47.41  0.000433933    1.758    0.431
        78  -8.5379    173.0000    222.9399   5.0680933489e+01   5.6109508196e+00    0.1683134   0.06363676 -44.37  0.000589539    2.870    0.652
        79  -8.3576    104.3336    223.0186   6.5287344354e+01   1.4443114993e+01    0.1843833    0.1021126  83.39 0.0007046635    4.298    0.767
        80 -10.5684    239.4748    219.9613   3.9049774953e+01  -1.3180746616e+00    0.3660023    0.1641585 -22.78  0.002195966    2.067    0.516
        81  -8.5101    233.6951    222.6352   4.0300387330e+01  -1.0652646161e+00    0.1109309   0.06130837  -8.09 0.0007036937    1.740    0.425
        82  -9.3123    191.9789    220.5901   4.6842033607e+01   3.6794431814e+00    0.2223627    0.1464041 -38.51 0.0007173987    1.632    0.387
        83  -9.2306     43.7267    220.8381   7.9756837817e+01   2.2279742516e+01     0.281023    0.1033085  46.11  0.001249549    2.111    0.526
        84  -9.5816     19.0257    220.9000   8.5830549645e+01   2.4786074368e+01     0.339268   0.04451691  41.86  0.001237362    3.228    0.690
        85  -8.0488    158.6863    220.3210   5.3118472935e+01   7.7954229187e+00    0.1120086   0.09032238  51.04 0.0007039286    1.654    0.396
        86  -9.4181      2.0129    219.5399   8.9900073264e+01   2.6584676320e+01    0.2457825    0.1256784  63.04  0.001362652    1.611    0.379
        87 -10.5249    248.2673    214.4864   3.6974687821e+01  -1.5332913118e+00    0.5168723    0.2278958 -32.26  0.003288408    1.879    0.468
        88  -8.8181    210.0228    218.5050   4.3431208989e+01   1.9113481358e+00     0.169959    0.1185003 -24.50 0.0005725993    1.287    0.223
        89  -8.5958    119.4101    218.2134   6.1261618958e+01   1.3326006896e+01    0.1541947     0.125752 -82.79 0.0009366129    1.674    0.403
        90  -9.7412     56.0117    216.8693   7.6425911212e+01   2.1721314382e+01    0.1897245    0.1648997  67.76 0.0006626964    1.180    0.153
        91  -8.6585    139.5330    229.5627   5.8283686626e+01   8.7654416011e+00    0.1220301   0.09869163  23.55 0.0001679738    1.058    0.055
        92  -9.7448     11.5654    215.8727   8.7483817215e+01   2.6542271520e+01    0.2689219    0.1381115  36.03  0.001455706    1.488    0.328
        93  -9.4968    232.4229    213.9141   3.9197013782e+01   1.0230022431e-01    0.2588578    0.1515903 -34.27   0.00125883    1.602    0.376
        94  -8.3057    169.2610    215.6243   5.0353865007e+01   7.1739038020e+00    0.1040194   0.09502433  65.71 0.0005060836    1.663    0.399
        95  -8.6587    132.1830    215.1638   5.8007749320e+01   1.2147463333e+01    0.1637271    0.1424779  56.93  0.001014702    1.397    0.284
        96  -7.9792    185.3103    213.6794   4.7026638899e+01   5.4552511534e+00    0.1016418   0.09211233  49.96 0.0003162301    1.646    0.392
        97  -8.2439     92.3534    213.6581   6.7104815799e+01   1.7818012018e+01    0.1435951   0.08535605  54.42 0.0007040895    1.812    0.448
        98  -9.5690    213.6087    211.0002   4.1708211496e+01   2.4929630380e+00    0.3572788    0.1528298 -33.88  0.001687845    2.141    0.533
        99  -9.3707      3.4702    211.9808   8.9373537023e+01   2.8083793249e+01    0.3082353   0.07108255  39.95  0.001287053    2.499    0.600
       100  -8.9342    204.1312    210.6215   4.3231419463e+01   3.6298157260e+00    0.1822657    0.1344635 -36.29 0.0006855977    1.472    0.321
       101  -8.3217    192.0000    209.9994   4.5255319798e+01   5.1669614007e+00    0.1715603   0.06068595 -41.50 0.0005006445    2.834    0.647
       102  -8.9970    174.8253    209.4885   4.8365914298e+01   7.4026574977e+00    0.1945996     0.162221 -63.59 0.0009019442    1.844    0.458
       103  -9.8620    236.4872    207.1961   3.7566548448e+01   5.0171882069e-01    0.3384551    0.1583742 -36.75  0.001565228    1.945    0.486
       104  -8.0654    147.3367    209.7092   5.3964666122e+01   1.1029112758e+01       0.1215   0.09252865  52.00 0.0007023226    1.639    0.390
       105  -8.0286    115.5399    209.5511   6.1061384776e+01   1.5460555996e+01    0.1327715    0.1116882  34.56  0.000204601    1.068    0.064
       106  -9.7254    246.8562    206.6301   3.5985429453e+01  -4.8288230180e-01    0.2798937    0.1304754 -30.25  0.001130774    1.745    0.427
       107  -9.8225    250.2809    201.4213   3.4705352937e+01  -2.0780762550e-01    0.3413569    0.1165559 -33.60  0.001726049    2.392    0.582
       108  -9.6163    124.0237    205.9922   5.8614672807e+01   1.4944280312e+01     0.187116    0.1608139  26.57            0    1.016    0.016
       109  -9.4060     14.6826    205.3445   8.6333445189e+01   2.8577655707e+01    0.3481924    0.2086521  22.12  0.001887738    1.640    0.390
       110  -9.0466      2.5789    205.8344   8.9447042303e+01   2.9512112204e+01    0.1815497   0.09335756  70.07 0.0009487757    1.706    0.414
       111  -8.5991     98.7197    205.3681   6.4588487367e+01   1.8622333782e+01    0.1375544   0.09349284  59.88 0.0005885803    1.688    0.408
       112  -9.1330    228.0652    201.5518   3.7950563352e+01   2.1115695578e+00    0.3776651    0.1390662 -22.37  0.001464342    4.519    0.779
       113  -9.0639    194.7137    203.0135   4.3684585460e+01   5.8421178286e+00    0.2045711      0.13512 -38.25 0.0007345027    1.541    0.351
       114  -8.5125    183.4593    203.4957   4.5808112071e+01   7.2029061326e+00    0.1185568    0.1009793   2.19 0.0002333125    1.062    0.058
       115  -9.0259    162.9886    202.4971   4.9634482794e+01   1.0095148768e+01    0.1770204    0.1559337 -17.04 0.0004762875    1.143    0.125
       116  -9.6012    243.3537    200.1763   3.5480491201e+01   6.4711147817e-01    0.3029223    0.1045205 -33.30  0.001372285    2.422    0.587
       117  -7.9834    222.0000    200.9452   3.8793949702e+01   2.8698735485e+00    0.1724048   0.05385582 -38.17  0.000720901    2.890    0.654
       118  -8.4408    161.4919    212.0117   5.1367030602e+01   8.7469981175e+00    0.1452423     0.112705 -82.26 0.0005447526    2.442    0.590
       119  -8.5733    139.2925    199.4078   5.4204998862e+01   1.3981053248e+01    0.1878597    0.1587449  89.02 0.0005510522    1.680    0.405
       120  -9.5571    237.2269    197.5154   3.5942566814e+01   1.6251035633e+00    0.3332013    0.1200407 -33.91  0.001555328    2.351    0.575
       121  -8.7190    133.0015    199.1631   5.5585763165e+01   1.4938703097e+01    0.1764325    0.1480385  24.62  0.001067466    1.049    0.046
       122  -9.4312     11.5017    202.5030   8.7054994784e+01   2.9504481359e+01    0.3433928    0.1130669  38.73  0.001514508    2.108    0.526
       123  -8.8366    148.9955    197.9524   5.1857949179e+01   1.2843189237e+01    0.1906083    0.1565721  67.84 0.0008662167    1.735    0.424
       124  -8.5147    112.4369    197.9140   6.0257844764e+01   1.8181461256e+01    0.1790533    0.1174487  82.71  0.000806668    2.549    0.608
       125  -7.8951    202.2771    197.6234   4.1501185804e+01   5.6784021688e+00    0.1011787   0.09284773 -59.97  0.000553419    1.701    0.412
       126  -8.9824    192.2899    197.0641   4.3165387995e+01   7.0310414702e+00    0.1655419    0.1354607 -22.12 0.0005304838    1.154    0.134
       127  -8.9706    231.0000    193.9286   3.6287845225e+01   2.7712216841e+00    0.1713955   0.05215285 -37.40 0.0004990703    2.856    0.650
       128  -9.2124    224.4791    193.1627   3.7155409989e+01   3.6193622941e+00    0.2770504   0.09356423 -38.17  0.001336653    2.636    0.621
       129 -10.1562    246.1712    192.5212   3.3871031686e+01   1.2919376091e+00    0.3459843    0.1755002 -32.62   0.00137731    1.608    0.378
       130  -8.1837    160.4915    193.5361   4.8732854644e+01   1.1960865015e+01    0.1261103    0.1133588  15.07 0.0002193149    1.085    0.078
       131  -9.3267      3.8263    193.6113   8.8798029174e+01   3.2202309408e+01    0.1952046   0.08879671  36.66 0.0009518575    1.708    0.415
       132  -8.3293    138.6472    189.7822   5.2869585693e+01   1.5872853372e+01     0.168744    0.1282201 -61.99 0.0004306086    1.632    0.387
       133  -9.6161     91.0706    188.8846   6.4477884466e+01   2.3211589590e+01    0.5116343    0.1623227  41.10   0.00182777    2.692    0.628
       134  -8.7727    215.6815    195.1183   3.8862786266e+01   4.3924088762e+00    0.1652044    0.1257323 -39.08  0.000832773    1.487    0.328
       135  -8.5995    237.4454    188.0445   3.4381477013e+01   2.8094645179e+00     0.164546   0.08678839 -32.31 0.0007626436    1.568    0.362
       136  -7.8653    223.2640    188.2361   3.6532654782e+01   4.4288356852e+00    0.1056824   0.07106844  -5.39            0    1.417    0.294
       137  -8.9435    216.5161    187.3516   3.7446514868e+01   5.3717935654e+00    0.1987482   0.09868968 -40.20 0.0006019353    1.918    0.479
       138  -8.9255    155.6213    187.2312   4.8723693626e+01   1.3786835279e+01    0.2294752     0.125381 -51.42 0.0007888324    2.092    0.522
       139  -8.3299    129.2072    188.2520   5.4814250422e+01   1.7606469148e+01    0.1879711    0.1117758 -66.49 0.0006148047    2.375    0.579
       140  -9.4123     10.9799    187.9897   8.6656945755e+01   3.2938084038e+01    0.2398782    0.1122705  53.55  0.001137481    1.737    0.424
       141  -9.1670      4.1698    187.7765   8.8531892833e+01   3.3552646509e+01    0.2549201   0.06572836  52.49 0.0009537619    2.857    0.650
       142  -8.6269    230.5398    187.0782   3.5235210359e+01   3.7262249558e+00    0.1680694   0.09091022 -34.50  0.001025898    1.587    0.370
       143  -9.5643    249.7467    184.8277   3.2137106719e+01   1.8647427612e+00    0.2621781    0.1115269 -36.57  0.001274211    1.960    0.490
       144  -8.0773    164.7062    186.3553   4.6683323103e+01   1.2590765937e+01    0.1192513    0.1040255  78.45 0.0006115435    1.689    0.408
       145  -8.9235    120.4250    185.3734   5.6479239570e+01   1.9539636002e+01    0.2391461    0.1383333 -70.55  0.001026188    2.566    0.610
       146  -8.7383     25.0141    186.0000   8.2615152102e+01   3.2126524677e+01    0.2222918   0.06991984  23.53 0.0008040063    2.953    0.661
       147  -8.3949    210.2262    183.9814   3.7897414346e+01   6.6472597186e+00    0.1502042   0.08458348 -35.78 0.0004550396    1.600    0.375
       148  -8.1978    202.6870    184.3307   3.9220857875e+01   7.5802000880e+00    0.1045425   0.09658549 -71.07 0.0007044218    1.675    0.403
       149  -8.5970    224.3412    183.2489   3.5531824617e+01   4.9830015536e+00    0.1527341   0.09042015 -39.43 0.0005262168    1.622    0.383
       150  -8.4614    174.2108    183.2918   4.4259177475e+01   1.1719216433e+01    0.1799324   0.09828836 -52.77 0.0005052274    2.315    0.568
       151  -8.0808    235.2945    180.6889   3.3470549609e+01   4.0208308565e+00    0.0969172   0.08215531 -44.36 0.0002320678    1.592    0.372
       152  -8.5817    147.3659    180.1514   4.9327833934e+01   1.6360922248e+01    0.1806996    0.1279107 -61.34 0.0008641598    1.793    0.442
       153  -9.2843    249.1933    177.2094   3.0954657312e+01   2.8840863940e+00    0.2795069    0.1228879 -32.84 0.0007820078    1.810    0.448
       154  -8.7471    250.6070    172.6878   3.0008796653e+01   3.3020154930e+00    0.2030686   0.08252745 -37.79 0.0006514281    2.038    0.509
       155  -9.1017    191.2910    178.0325   4.0128640753e+01   1.0119109623e+01    0.1855854    0.1732772  57.53 0.0005807181    1.476    0.322
       156  -8.6167    217.4697    177.0029   3.5530141005e+01   6.7240959156e+00    0.1725799   0.09899599 -36.94 0.0007911064    1.557    0.358
       157  -8.5788    231.2118    176.3279   3.3324236042e+01   5.0961633914e+00    0.1680529   0.07466847 -43.05 0.0008688241    2.281    0.562
       158  -8.4177    182.8624    175.8253   4.1289950150e+01   1.1700265941e+01    0.1584877    0.1433209 -44.78 0.0004163045    1.303    0.233
       159  -8.1443    101.0073    176.0285   6.0021506361e+01   2.4591836696e+01     0.161009    0.1535623  48.63  0.000928654    1.053    0.050
       160  -9.6433     76.2560    172.7177   6.6451120513e+01   2.9124197971e+01    0.4924824    0.2487298 -85.64  0.001819015    2.988    0.665
       161  -8.5777    158.4083    174.2486   4.5899148527e+01   1.5726284321e+01    0.1777138    0.1268974 -57.94 0.0007704959    1.723    0.420
       162  -8.5099    103.4624    173.9958   5.9052623462e+01   2.4663195443e+01    0.1939882    0.1248481  83.52 0.0008067393    2.415    0.586
       163  -8.4585    224.4506    173.5326   3.3847944002e+01   6.3252755475e+00    0.1154518    0.0926407 -17.66 6.740708e-05    1.021    0.020
       164  -8.7129    175.5320    172.1294   4.2029945114e+01   1.3431971270e+01    0.1855249     0.120389 -40.25 0.0008586173    1.502    0.334
       165  -9.0640    121.0419    170.4178   5.3898153398e+01   2.2594935045e+01    0.2608192    0.1986586 -79.75  0.000855798    1.699    0.411
       166  -8.5225     55.9634    170.9634   7.2244306674e+01   3.2350107624e+01    0.3320563     0.117552  58.38  0.000964384    4.178    0.761
       167  -8.2946    244.4915    168.9890   3.0194272208e+01   4.4882733870e+00    0.1445042   0.08229248 -49.72   0.00059261    2.433    0.589
       168  -8.3397    237.3796    169.2354   3.1215388009e+01   5.3091597724e+00    0.1555363   0.08743898 -40.24 0.0006448308    1.649    0.393
       169  -8.0388    149.6531    169.3214   4.6913630219e+01   1.8073784729e+01    0.1360469      0.10883  71.95 0.0007049458    1.736    0.424
       170  -8.4779    218.6327    167.8474   3.3733928371e+01   7.9010543723e+00    0.1594116   0.09608626 -41.92 0.0005858758    1.609    0.379
       171  -8.7752    166.6728    168.1585   4.3071857196e+01   1.5525920013e+01    0.1918011    0.1645699 -64.22 0.0006347778    1.468    0.319
       172  -8.4019    191.5943    166.4919   3.7991854982e+01   1.1945392201e+01    0.1251084    0.1091104 -17.85 0.0002015392    1.031    0.030
       173  -8.8135    246.4623    162.9464   2.8885573924e+01   5.0523846411e+00    0.1705401   0.08657283 -33.83 0.0005523742    1.560    0.359
       174  -8.5204    212.6499    163.2141   3.3833205178e+01   9.4096140422e+00    0.1676338    0.0962843 -29.85 0.0004576091    1.560    0.359
       175  -9.2552     93.6150    161.3044   5.9748844207e+01   2.9209083025e+01    0.4490016    0.2339777  70.56  0.001396763    3.997    0.750
       176  -8.6277    177.3889    160.2418   3.9453940541e+01   1.5220321398e+01    0.1786068    0.1188944 -50.56 0.0005085607    1.647    0.393
       177 -10.3347    249.5437    157.3539   2.7506917462e+01   5.4212709502e+00     0.303491    0.2830964  14.71  0.001957732    1.391    0.281
       178  -8.8880    227.5079    158.6079   3.0733938895e+01   8.0550587111e+00    0.2057467   0.09251039 -45.11  0.001018371    2.299    0.565
       179  -8.8876    105.4292    157.6049   5.5789171349e+01   2.8112519619e+01    0.2896687    0.1942054  76.03 0.0008662266    2.119    0.528
       180  -8.2689    196.4759    157.5221   3.5448419806e+01   1.2677122323e+01    0.1256546    0.1109254 -21.35  6.89092e-05    1.042    0.040
       181  -8.5557    167.4059    157.1241   4.0827805600e+01   1.7430274828e+01    0.1842268    0.1243634 -55.28 0.0008133817    1.725    0.420
       182  -8.7578    217.8336    156.0357   3.1699090704e+01   9.7634972880e+00    0.1873562    0.1212337 -52.88 0.0007417583    1.975    0.494
       183  -8.6935    119.4518    154.9414   5.1525250407e+01   2.6277583817e+01    0.2050025    0.1324762 -83.80 0.0008084351    2.547    0.607
       184  -9.1791    132.3148    152.5335   4.7794186951e+01   2.4505107015e+01    0.3084527    0.2180996  66.90  0.000981482    1.893    0.472
       185 -10.0517      9.9859    152.7986   8.5348119304e+01   4.1928330638e+01    0.2846289    0.1603255  21.61  0.001088921    1.804    0.446
       186  -9.4948    248.9561    149.1909   2.6131398105e+01   6.5813577615e+00    0.2479745    0.1247312 -34.33 0.0007539546    1.548    0.354
       187  -9.4136    243.4885    149.5914   2.6900664751e+01   7.2221946195e+00    0.2417937   0.08977499 -36.06  0.001203294    2.139    0.532
       188  -8.6314    189.4705    149.9897   3.5213617389e+01   1.5042440892e+01    0.1960464    0.1171161 -43.60  0.001005999    1.591    0.372
       189  -8.2469    198.5490    148.5455   3.3355314179e+01   1.3828272800e+01    0.1258992    0.1119001 -30.91 0.0001728908    1.085    0.079
       190  -8.8529    233.5663    147.2886   2.7796982841e+01   8.8594911194e+00    0.1685777    0.0925334 -28.05 0.0009508209    1.600    0.375
       191  -9.3990     55.0442    144.8028   6.9279213764e+01   3.9293686919e+01    0.6831836    0.2465748  59.46  0.001759801    5.030    0.801
       192  -8.3872    223.4284    146.5503   2.9082130065e+01   1.0385682040e+01     0.120315   0.09782577 -25.25 3.659675e-05    1.008    0.008
       193  -9.8060    148.5063    144.6092   4.2357754780e+01   2.3207050948e+01    0.4187369    0.2929323 -83.83  0.001639946    2.401    0.584
       194  -8.8655    138.7523    144.5211   4.4609263798e+01   2.5037694013e+01    0.2966046    0.1789438 -63.94  0.001205136    2.182    0.542
       195  -9.5587    105.8641    143.7150   5.3064403405e+01   3.1329982098e+01    0.4296312    0.2648966  76.05  0.001372666    2.721    0.632
       196  -8.8824     88.2253    144.9582   5.8526870365e+01   3.4135226728e+01    0.2529894    0.1667289  80.05  0.001040549    2.030    0.507
       197  -9.0448    247.1626    143.6867   2.5359393393e+01   7.5538357554e+00    0.1982857    0.1178519 -38.36 0.0006414692    1.383    0.277
       198  -8.3667    165.4695    143.5803   3.8492543387e+01   2.0312915101e+01    0.1342971     0.130789 -39.58 0.0003188507    1.079    0.073
       199  -9.2935    124.6654    142.1807   4.7632646584e+01   2.8194968912e+01    0.3463651    0.2232415 -75.14  0.001286885    2.282    0.562
       200  -8.2260    182.2926    141.6324   3.4823051792e+01   1.7701473284e+01    0.1325595    0.1039499 -70.02 0.0007027141    1.716    0.417
       201  -8.5709    250.5414    140.5061   2.4364061081e+01   7.5478907050e+00    0.1133269   0.08638123 -30.35 2.416567e-05    1.046    0.044
       202  -9.8012    243.2912    139.3926   2.5053173914e+01   8.6543808529e+00      0.23959    0.1729345 -74.96    0.0013989    2.692    0.629
       203  -8.1705    207.3123    137.6504   2.9762573942e+01   1.4204862277e+01    0.1244801   0.09443944 -62.62 0.0007045913    1.720    0.419
       204  -8.5492    197.3892    137.1697   3.1262502704e+01   1.5904787132e+01    0.1841781    0.1088056 -47.70 0.0004757207    1.686    0.407
       205  -8.1259    172.2688    137.6909   3.5894777435e+01   2.0192906016e+01    0.1307785    0.1071764 -72.69 0.0002736388    1.541    0.351
       206  -9.3251    248.5070    134.8325   2.3565028502e+01   8.5841611434e+00     0.226326    0.1223039 -38.07 0.0009057726    1.460    0.315
       207  -8.4558    179.5426    133.7685   3.3676372691e+01   1.9595844286e+01    0.1897751    0.1207571 -51.76 0.0009289932    1.654    0.395
       208  -9.7531     83.3296    133.1036   5.7830791639e+01   3.8003378706e+01    0.4287605    0.2695366 -82.51  0.001454582    2.041    0.510
       209  -8.5320     69.3410    140.6834   6.3826533334e+01   3.8315639889e+01    0.1689242    0.1083377  62.44 0.0007048574    1.709    0.415
       210  -8.3841    112.4885    132.9702   4.8958413242e+01   3.2646765926e+01    0.2118366    0.1368114 -82.72 0.0008078424    2.383    0.580
       211  -8.6004    142.7264    131.2053   4.0788098783e+01   2.7094132585e+01    0.2278434    0.1802613 -70.29 0.0006072188    1.472    0.321
       212  -9.1155    131.8388    130.7710   4.3328214262e+01   2.9345405886e+01    0.2797391    0.1926073 -75.98  0.000806451    2.024    0.506
       213  -8.6804    247.1191    129.8796   2.2805229245e+01   9.4504900978e+00     0.173669    0.1263233 -42.20 0.0005508846    1.249    0.199
       214  -8.0100    204.6834    130.3077   2.8673386715e+01   1.5820655355e+01    0.1240264   0.09610476 -64.65 0.0005908879    1.631    0.387
       215  -8.5385    168.1631    129.1707   3.4850026879e+01   2.2555566478e+01    0.1897587    0.1608845 -69.36 0.0004853921    1.352    0.260
       216  -9.0523    152.8111    128.9256   3.7990669056e+01   2.5576389928e+01    0.2700766    0.1905313 -62.91 0.0008344735    1.667    0.400
       217  -9.6013     99.1050    127.5791   5.1697897788e+01   3.6524280621e+01    0.4026273    0.2583827 -87.74  0.001445831    2.351    0.575
       218  -9.9363     44.4123    123.4314   6.9972107229e+01   4.6546746076e+01    0.6260609    0.2502026  62.62  0.001769688    4.155    0.759
       219  -9.4010     59.9697    125.0746   6.4388188327e+01   4.3940209291e+01     0.507176     0.245631  60.14  0.001727467    2.736    0.634
       220  -9.2434    117.1689    124.6346   4.5780850800e+01   3.3676969383e+01    0.3202702    0.2337426 -87.77 0.0008817436    1.819    0.450
       221  -8.7975    179.0001    124.3376   3.1717519351e+01   2.1402114171e+01    0.1806036    0.1773458 -84.44 0.0005218115    1.114    0.102
       222  -8.7938     29.0516    123.2848   7.5953430630e+01   4.8336618369e+01    0.2858792    0.1097058  62.64 0.0008745487    3.498    0.714
       223  -8.4000    171.8188    121.5541   3.2427472021e+01   2.3285629821e+01    0.1764496    0.1367746  64.89 0.0005264427    1.523    0.344
       224  -8.7058    158.4165    121.2104   3.5019572461e+01   2.6001923740e+01    0.2066166    0.1304834 -54.46 0.0007160369    1.673    0.402
       225  -9.4179    141.4464    118.2057   3.8059833604e+01   3.0096175470e+01    0.3483404     0.230956 -69.98  0.001248314    2.023    0.506
       226  -8.8831    130.6526    118.1336   4.0668838017e+01   3.2370478673e+01      0.24584    0.1871069 -72.12 0.0008952915    1.527    0.345
       227  -8.2377    231.6708    117.3126   2.2242310873e+01   1.3484593111e+01    0.1193656   0.08314385 -57.96 0.0007043226    1.671    0.401
       228  -8.3937    193.2113    114.9553   2.7190326411e+01   2.0395772339e+01    0.1830116   0.09686248 -39.98 0.0005136864    1.666    0.400
       229  -9.3921    109.3427    113.9940   4.5446697404e+01   3.7779975258e+01    0.3916107    0.2533675 -77.79  0.001500103    2.198    0.545
       230  -9.7479     11.0109    112.7999   8.2204763753e+01   5.2808281373e+01    0.3744075    0.1592391  84.52  0.001405706    2.463    0.594
       231  -9.4850     92.7447    112.5743   5.0230215006e+01   4.1496403494e+01    0.3725264    0.2611621 -84.11  0.001220541    1.807    0.447
       232  -9.0831     78.9446    112.2984   5.4860985212e+01   4.4194821844e+01    0.3061433    0.2168626  84.07   0.00097549    1.744    0.427
       233  -8.5680    174.6292    111.8190   2.9649171131e+01   2.4529754684e+01    0.2095954     0.118783 -49.89 0.0007213937    1.737    0.424
       234  -8.7063    121.9966    112.3735   4.1493534043e+01   3.5486186647e+01    0.2196452    0.1959481  62.82 0.0005594164    1.115    0.103
       235  -8.2895    159.2695    111.6170   3.2558847987e+01   2.7706637847e+01    0.1514714    0.1095032 -70.00 0.0006991755    1.698    0.411
       236  -9.1959    133.6536    108.9964   3.7639804524e+01   3.3716154904e+01    0.3639718    0.1801974 -51.78  0.001139504    2.081    0.519
       237  -8.3753     66.4933    110.4862   5.9018573163e+01   4.6854750622e+01    0.1633498    0.1445365  70.42 0.0001832508    1.102    0.092
       238 -12.1181    248.6720    104.5565   1.7760743054e+01   1.2712256923e+01    0.7999246     0.214024 -36.16  0.003375984    2.810    0.644
       239  -8.5374    166.5914    103.8538   2.9218057236e+01   2.7651150483e+01    0.2091667    0.1240859 -51.77 0.0007545064    1.680    0.405
       240  -9.5100    150.4509    102.8856   3.2214551487e+01   3.1307255577e+01    0.3719124    0.2328077 -65.66 0.0009927873    2.055    0.513
       241  -9.6094     45.3515    101.8104   6.5744228472e+01   5.2422872868e+01    0.6662576    0.2973555  65.67   0.00188876    4.241    0.764
       242 -10.3298     22.4491    102.7689   7.6079238326e+01   5.4720778872e+01    0.4891389    0.2862372  65.63  0.001684287    1.834    0.455
       243  -8.8584    128.1986    101.8844   3.7138892612e+01   3.6449022280e+01    0.2454871    0.2025547 -79.20 0.0008133875    1.317    0.241
       244  -8.3539    159.6371    100.8245   2.9800997132e+01   2.9707335762e+01    0.2116858    0.1256408 -51.25 0.0004423583    1.663    0.399
       245  -8.3791     82.3510    100.1453   5.0618473759e+01   4.6668267436e+01    0.2292574    0.1476673 -69.62 0.0009296009    1.773    0.436
       246  -9.6918    108.4453     98.3548   4.1594790628e+01   4.1631537813e+01    0.3636144    0.2598161  74.98 0.0007058086    1.721    0.419
       247  -8.4532     94.6706     96.7987   4.5465965371e+01   4.4978756072e+01      0.22298    0.1455985 -62.63 0.0004005717    1.653    0.395
       248  -9.1151     63.8664     95.8677   5.6569750783e+01   5.1182640296e+01    0.3921519    0.2261763  82.02   0.00130934    3.042    0.671
       249  -8.2779    164.7862     93.9993   2.7069752089e+01   2.9862457693e+01    0.1934617    0.1106576 -41.10 0.0003869627    1.633    0.387
       250  -9.1109      2.6652     94.3394   8.4331305341e+01   5.8427390909e+01    0.1558113    0.0890507  55.92 0.0007051415    1.752    0.429
       251  -8.4291    176.4187     93.2046   2.4819380600e+01   2.7499325424e+01    0.2038103    0.1179497 -49.95 0.0003513446    1.639    0.390
       252  -9.0853    138.9590     91.9772   3.1835667512e+01   3.6071684588e+01     0.251372    0.1804243 -77.77  0.000727897    1.720    0.418
       253  -8.3684    189.2258    107.9227   2.6239159882e+01   2.2350634380e+01    0.1814292    0.1008613 -41.03 0.0005100773    1.591    0.372
       254  -9.7227    125.0522     90.7666   3.4854840696e+01   3.9539960727e+01     0.463098    0.2842827  67.30  0.001866653    1.973    0.493
       255  -9.2530    139.9237    104.4412   3.4964054328e+01   3.3305051641e+01    0.2911249    0.2042433 -63.56 0.0007406758    1.587    0.370
       256  -9.3804     86.5441     86.4943   4.5243216926e+01   4.9167625907e+01    0.3994375    0.2470618  76.64   0.00116918    2.638    0.621
       257  -8.9608     48.8999     84.4155   6.0113504483e+01   5.6619025447e+01    0.4290264    0.1983224  62.79  0.001200055    4.405    0.773
       258  -9.3900    104.6535     82.9973   3.8212095902e+01   4.5949899514e+01    0.3442726    0.2479635 -84.20 0.0008942963    1.773    0.436
       259  -8.4423    158.2569     83.6600   2.5546691378e+01   3.3213939687e+01    0.1521078    0.1052459 -65.54  0.000277195    1.581    0.367
       260  -8.7119    140.5517     82.5356   2.8806955980e+01   3.7558730881e+01     0.276041    0.1292436 -51.25  0.001018655    2.225    0.550
       261  -9.0160     24.8924     80.8489   7.1225316748e+01   6.0560585365e+01    0.3011885    0.1711064  71.21  0.001228236    2.208    0.547
       262  -8.3084    150.4492     80.5081   2.6173250231e+01   3.5603406002e+01     0.153319    0.1349688 -70.08 0.0001772627    1.071    0.066
       263  -8.2891    119.6364     80.3138   3.3148600256e+01   4.2994669057e+01    0.1675551    0.1197802 -85.61 0.0007040509    1.760    0.432
       264 -10.1338      5.0075     76.0137   8.1227233221e+01   6.3328820241e+01    0.5809116    0.1951527  86.41  0.001850953    3.765    0.734
       265 -11.0490    248.3035     75.0948   1.1904666134e+01   1.6736922995e+01    0.3637795    0.1189402 -33.39  0.001639158    2.484    0.597
       266  -9.2482    127.9927     75.2470   2.9489691007e+01   4.1989717875e+01    0.2859024    0.2004796 -67.67 0.0006176343    1.597    0.374
       267  -8.2083    140.6475     75.3137   2.6669647459e+01   3.8902883581e+01     0.162775    0.1127283 -76.87 0.0007045782    1.731    0.422
       268  -9.3324     63.1032     73.8926   5.0529276986e+01   5.6899130182e+01    0.3326606    0.2417431 -79.78  0.000737539    1.667    0.400
       269  -8.4997    163.4281     73.1908   2.1750589385e+01   3.3861457935e+01    0.2134955     0.120724 -49.71 0.0009395852    1.661    0.398
       270  -9.0180     82.4248     72.5646   4.2250327769e+01   5.3286956018e+01    0.3059356     0.207701 -81.54 0.0008165581    2.086    0.521
       271  -7.9926    115.6890     72.7166   3.1788498418e+01   4.5488386331e+01    0.1494696    0.1259013  19.61 0.0003306402    1.571    0.363
       272  -8.7840     95.0601     70.9930   3.7307703580e+01   5.0778443076e+01    0.2562273    0.1864704 -81.84 0.0009685557    1.726    0.421
       273  -8.7609     51.5190     69.5973   5.4506906379e+01   5.9996387954e+01    0.2719264    0.1489417 -71.65  0.001019788    2.404    0.584
       274  -8.8393    147.3754     68.1881   2.3193951484e+01   3.8553409557e+01    0.2220272    0.1246753 -49.60 0.0006295691    1.715    0.417
       275  -8.6330    138.5412     66.0394   2.4288176190e+01   4.1104517016e+01    0.2282082    0.1415214 -43.79  0.000530314    1.554    0.356
       276  -8.4344    121.6104     65.8053   2.8007671763e+01   4.5366100446e+01     0.222301    0.1348859 -53.23 0.0005987925    1.692    0.409
       277  -8.4689    110.2826     63.6367   3.0195873194e+01   4.8596878260e+01    0.1640438    0.1161438 -74.46 0.0007017084    1.682    0.405
       278  -9.1924    246.2897     61.6502   9.3156934225e+00   1.8816686880e+01    0.1257233   0.06523802 -53.51 0.0005520479    1.667    0.400
       279  -8.4252    164.6284     61.2194   1.8200360692e+01   3.5553586438e+01    0.1928488    0.1335637 -29.11 0.0006172862    1.597    0.374
       280  -8.0074    158.3117     61.7003   1.9342913290e+01   3.6990758011e+01    0.1532514    0.1019913 -68.66 0.0002445156    1.604    0.377
       281  -8.3730     97.5002     60.4690   3.2782056983e+01   5.2351818581e+01     0.158016    0.1445841  85.90 2.405378e-05    1.046    0.044
       282  -9.2837     73.4388     59.7822   4.1087646386e+01   5.8049226756e+01    0.2939919    0.2331338 -83.40  0.001024459    1.500    0.333
       283  -9.3342     23.8841     56.6372   6.5883090888e+01   6.7015315843e+01    0.4768011    0.2471804  72.54  0.001656743    3.598    0.722
       284  -8.3199    130.7171     57.3899   2.3144544492e+01   4.4577592772e+01    0.1651986     0.107071 -67.18 0.0005154601    1.748    0.428
       285  -9.1439      7.7963     57.5739   7.6615621943e+01   6.8074408505e+01    0.1878476     0.119123  31.28 0.0009373694    1.641    0.390
       286  -8.2437    140.2280     55.9962   2.0789105283e+01   4.2400208318e+01     0.189789    0.1195882 -39.33 0.0003125977    1.566    0.361
       287  -8.6730    119.3649     56.0803   2.5243082735e+01   4.7696324679e+01    0.2293091    0.1283472 -51.04 0.0009344725    1.834    0.455
       288  -8.3743     62.8506     54.5918   4.3583607905e+01   6.1379336247e+01     0.209811     0.136978  55.24   0.00050936    1.624    0.384
       289 -10.2493      2.6989     52.8368   7.9183282222e+01   6.9549983859e+01    0.4335679    0.1383673 -52.32  0.001668438    2.613    0.617
       290  -8.9858     92.4888     50.7451   3.0627371588e+01   5.5420179893e+01    0.2800051    0.1436821 -46.58  0.001104421    2.020    0.505
       291  -8.6440    172.1014     50.0721   1.3990642699e+01   3.5478376644e+01    0.1881172    0.1394231 -65.40            0    1.234    0.189
       292  -8.6443     82.2114     46.2309   3.2208217902e+01   5.8736916844e+01    0.2108728    0.1718348 -80.08  0.000518422    1.377    0.274
       293 -10.1935     12.3732     41.7527   6.9344283167e+01   7.1739111556e+01    0.5159834    0.1395048 -39.09  0.001456329    5.165    0.806
       294 -10.0748      5.5034     42.4686   7.4887803431e+01   7.2021240480e+01    0.3041755    0.1625435  55.20  0.001362982    2.373    0.579
       295  -8.9756     69.8585     41.7268   3.4926654850e+01   6.2436908237e+01    0.2778033    0.1890465 -71.56  0.001122752    2.060    0.515
       296  -8.1868     95.6670     38.2833   2.4538848411e+01   5.6747105851e+01    0.1545368    0.1114245 -79.71 0.0003390336    1.616    0.381
       297  -9.1855     26.1726     35.6006   5.6466858751e+01   7.1721024329e+01     0.270926    0.2084609  78.52 0.0009951611    1.788    0.441
       298  -8.3578    119.3833     33.1587   1.6872444034e+01   5.1298784043e+01     0.209746    0.1232896 -47.14 0.0004434535    1.683    0.406
       299  -8.6267     48.6818     33.3193   4.0843823999e+01   6.8474994438e+01    0.2095925    0.1649763  83.08 0.0007026943    1.722    0.419
       300  -9.2027     13.6125     31.2801   6.4510546186e+01   7.4086584823e+01    0.2008523    0.1495149  61.51 0.0007607889    1.710    0.415
       301  -9.7545    156.9800    246.2500   5.6819621672e+01   4.1634336443e+00    0.3988263    0.1992075 -15.28  0.001868481    3.315    0.698
       302 -10.2422    141.9192    248.3194   6.0031498764e+01   5.6070918973e+00    0.3198398    0.1664552   6.05  0.001586881    2.565    0.610
       303  -8.8740     63.8784     21.0952   2.6827327687e+01   6.7174111591e+01     0.217367    0.1855473 -79.13  0.000852232    1.330    0.248
       304  -8.5928     48.7386     21.5964   3.4158847823e+01   7.0482820776e+01    0.1907394    0.1269064  59.53 0.0005155869    1.611    0.379
       305  -8.6668     91.8658     26.7968   2.0529644011e+01   5.9416798787e+01    0.2060838    0.1621068 -67.98  0.001056111    1.345    0.256
       306  -8.6990     74.2843     19.4608   2.2132697489e+01   6.4867153897e+01    0.2404101    0.1581161 -55.71 0.0007538157    1.773    0.436
       307 -10.4674     64.0457    249.0764   7.6794815603e+01   1.4576802384e+01     0.454931    0.1258107  30.79  0.001948241    2.493    0.599
       308  -9.3684     50.7344    249.5720   7.9790274486e+01   1.5938961374e+01    0.2364694   0.09812313  24.20  0.001145826    2.107    0.525
       309  -9.8419    218.9397    246.0385   4.5861142557e+01  -2.3292721750e+00    0.3241633    0.1307832 -28.38  0.001910745    2.381    0.580
       310 -10.6149    223.9400    243.4035   4.4720046135e+01  -2.5052911740e+00    0.3823586    0.1927791 -41.23  0.002473903    2.417    0.586
       311  -8.6059     81.4445     27.2025   2.3761048969e+01   6.2023418204e+01    0.2026961    0.1288154 -49.72 0.0009221412    1.719    0.418
       312  -9.6403    225.4992    237.6511   4.3690720866e+01  -2.0047021298e+00     0.193671    0.1073485  13.15  0.001231529    1.565    0.361
       313  -9.2993    182.4630    239.0696   5.1126145089e+01   2.2664341705e+00    0.1906016    0.1539503 -30.79 0.0005766584    1.442    0.306
       314  -9.5611    175.2233    246.9502   5.3464469912e+01   2.0277657536e+00    0.2460242    0.1708142 -41.15  0.001435381    1.753    0.430
       315 -10.0561    178.8470    242.3135   5.2208938556e+01   2.2382602458e+00    0.4346431    0.1539885  25.42  0.002120294    2.531    0.605
       316  -8.3067    121.2618     21.6559   1.2138696305e+01   5.2280358334e+01    0.1514472   0.09585353 -61.75 0.0002698158    1.597    0.374
       317  -9.4640     34.5484    247.9754   8.3316040857e+01   1.7909511140e+01    0.2616306    0.1066138  40.32  0.001385259    1.673    0.402
       318  -9.6663    168.6897    247.5603   5.4751008671e+01   2.6659620966e+00    0.2163392   0.08856453  24.47 0.0009806046    2.080    0.519
