#   1 NUMBER                 Running object number                                     
#   2 MAG_AUTO               Kron-like elliptical aperture magnitude                    [mag]
#   3 X_IMAGE                Object position along x                                    [pixel]
#   4 Y_IMAGE                Object position along y                                    [pixel]
#   5 X_WORLD                Barycenter position along world x axis                     [deg]
#   6 Y_WORLD                Barycenter position along world y axis                     [deg]
#   7 A_WORLD                Profile RMS along major axis (world units)                 [deg]
#   8 B_WORLD                Profile RMS along minor axis (world units)                 [deg]
#   9 THETA_WORLD            Position angle (CCW/world-x)                               [deg]
#  10 FWHM_WORLD             FWHM assuming a gaussian core                              [deg]
#  11 ELONGATION             A_IMAGE/B_IMAGE                                           
#  12 ELLIPTICITY            1 - B_IMAGE/A_IMAGE                                       
         1 -13.6990      2.1148    120.1054   1.5125575152e+02   4.9596486499e+01     2.802955     0.291456 -83.50  0.006804646    8.521    0.883
         2 -14.8263      3.8512     23.6000   1.4053540848e+02   7.2839531418e+01     6.876272    0.8568324 -71.71   0.02006846    5.490    0.818
         3 -14.0397    188.6407     22.7322   6.9958256275e+01   3.4645159257e+01     1.964323     1.295551  -7.58  0.007282531    1.791    0.442
         4 -13.5869    194.9184     17.4744   6.7637975419e+01   3.3555375035e+01     1.502115     0.766459 -38.03  0.004656139    1.829    0.453
         5 -14.1027    201.4518      9.4852   6.4629963906e+01   3.2657026250e+01     1.640756    0.9490841  54.28  0.002060482    1.796    0.443
         6 -11.4122     56.3000    149.9660   1.3767072774e+02   3.8037192725e+01    0.3573255    0.2999336  67.84  0.001366649    1.071    0.066
         7  -9.7453    234.4855    250.5323   1.1255245628e+02  -3.1389926703e+00    0.1066906   0.06830844  16.94 3.983849e-05    1.007    0.007
         8 -10.8098    205.1215    249.7578   1.1731769491e+02   5.2249064255e-01    0.1874891    0.1258232  22.40 0.0006559891    1.027    0.026
         9 -11.4317    142.8777    248.1775   1.2836040020e+02   8.8739370899e+00    0.3893148    0.2862424  83.78  0.002453336    2.532    0.605
        10 -11.7620    145.9980    241.0295   1.2701997825e+02   9.3570117723e+00    0.3317766    0.2483372  31.43 0.0006967368    1.058    0.055
        11 -11.4178    150.4314    247.9384   1.2692128854e+02   7.8974293926e+00    0.5325243    0.1628738  39.93   0.00256683    2.382    0.580
        12 -10.7763    152.7589    243.9321   1.2605387020e+02   8.0751413184e+00    0.2216206    0.2114051  86.84   0.00138377    1.596    0.374
        13 -11.0224    132.9974    249.2984   1.3033082283e+02   1.0038320451e+01    0.3139834    0.1647027  33.76  0.001672868    1.344    0.256
        14 -12.4415    110.7382    248.7918   1.3450750304e+02   1.2989356375e+01      1.28174      0.15406  37.67  0.004554191    4.301    0.768
        15 -10.4287    126.5687    248.8949   1.3150801958e+02   1.0932712954e+01    0.3368396    0.1343203  43.63  0.001840647    1.951    0.487
        16 -10.6950    121.5681    244.7579   1.3208117835e+02   1.2137793628e+01    0.3035917     0.142646  44.97 0.0009448119    1.709    0.415
        17 -12.2453    126.1766    240.9332   1.3082960203e+02   1.2047197224e+01    0.3905714    0.3047524  43.73   0.00207527    1.189    0.159
        18  -9.8693    101.1553    250.3872   1.3645590715e+02   1.3975098638e+01    0.1882718     0.150226  10.39  0.001430623    1.577    0.366
        19 -11.2861     98.0170    246.6559   1.3676909095e+02   1.4888405417e+01    0.4274333    0.1520339  40.59  0.002307676    1.894    0.472
        20 -10.7692     87.6833    250.5488   1.3901706978e+02   1.5596668981e+01    0.4418744    0.1526541  30.05  0.001570576    2.553    0.608
        21 -10.6938     88.2868    246.9788   1.3865624102e+02   1.6035802906e+01    0.2732231    0.1719985  11.61   0.00149919    2.385    0.581
        22 -11.1601     81.6172    247.0185   1.3993214017e+02   1.6828587885e+01    0.3379253    0.2496863  75.60  0.002349666    1.548    0.354
        23  -9.5957     74.7072    250.5434   1.4145950816e+02   1.7121615746e+01    0.2291836   0.07716401  33.61  0.001204728    2.163    0.538
        24 -13.8098     46.1478    246.3044   1.4657369841e+02   2.0877441711e+01    0.9188338    0.3977606  36.82  0.003097849    1.615    0.381
        25 -15.5822     57.7701    217.5971   1.4281143044e+02   2.4299867121e+01     4.368652      2.32402  55.81   0.02689465    1.575    0.365
        26 -11.1371    132.3997    224.7957   1.2791511545e+02   1.3461702970e+01    0.2265045    0.1747583   7.38 0.0008620148    1.493    0.330
        27 -11.1655     84.7749    241.6771   1.3896180594e+02   1.7239967638e+01    0.2744042    0.1734095  17.59  0.001729152    1.970    0.492
        28 -11.0934     89.7745    236.0278   1.3756576318e+02   1.7478636651e+01    0.2792798    0.1289964  52.66  0.001573883    1.978    0.495
        29 -10.8256     83.5031    238.4203   1.3898082735e+02   1.7885107804e+01    0.2659828     0.124732  40.64   0.00119089    1.485    0.326
        30 -10.1095     86.4571    237.4176   1.3832665229e+02   1.7677162732e+01    0.2089707    0.1574725  31.10 7.351796e-05    1.240    0.194
        31 -10.6302    173.4238    240.1525   1.2176121521e+02   5.7190678930e+00     0.211137    0.1896483  73.13 0.0009525995    1.902    0.474
        32 -10.2697    115.7986    240.1877   1.3278154999e+02   1.3527217431e+01    0.2034834    0.1478181  48.14  0.001049628    1.239    0.193
        33 -11.7546     96.3701    239.1963   1.3650892414e+02   1.6176469033e+01    0.3521836    0.2647744  56.91  0.001899964    1.291    0.225
        34 -13.3222     48.7580    228.5199   1.4525327120e+02   2.3432996477e+01    0.6793882    0.3864997  18.81  0.001771377    2.251    0.556
        35  -9.2747    119.4008    237.5714   1.3183154447e+02   1.3418848971e+01    0.3037851     0.160553  68.16  0.001389289    4.086    0.755
        36 -12.9576     42.6452    237.3968   1.4685236748e+02   2.2627190140e+01    0.4910472     0.272269  28.06 0.0004507426    1.718    0.418
        37 -11.6805    136.1486    227.8273   1.2749759882e+02   1.2498095742e+01    0.2809018    0.2078678 -44.98  0.001937552    1.799    0.444
        38 -10.5541    101.4839    242.0848   1.3573944315e+02   1.5107547001e+01    0.2591501    0.1388777 -72.82  0.001572213    2.792    0.642
        39 -10.0599    110.6753    222.4628   1.3213005463e+02   1.6842369859e+01    0.2386005    0.1965763  22.90  0.001089645    1.255    0.203
        40 -11.7673     98.5427    223.1209   1.3471242068e+02   1.8368714536e+01    0.5099652    0.2990042  27.92 0.0002986953    1.558    0.358
        41 -10.6559     89.6672    218.9187   1.3620079247e+02   2.0211857254e+01    0.3936482    0.2465699 -81.08  0.002435785    2.097    0.523
        42  -9.7482     93.7483    217.3868   1.3520251361e+02   1.9933367765e+01    0.2476461    0.1712816  82.96  0.001577303    1.826    0.452
        43 -11.3254     98.7421    231.5463   1.3540864737e+02   1.7025395948e+01    0.3770668    0.2965896  54.52 0.0009537358    1.218    0.179
        44 -11.9827    110.3787    230.2718   1.3294303838e+02   1.5688050446e+01    0.7110898    0.3219062  34.90  0.002229386    1.642    0.391
        45 -10.2449    105.1024    222.8442   1.3332405280e+02   1.7538563994e+01     0.209401    0.1418941  26.23 0.0004977836    1.386    0.279
        46 -11.5779    105.0340    218.9878   1.3296761652e+02   1.8161508081e+01     0.220971    0.1699155  48.37  0.001518787    1.138    0.121
        47 -10.7288    121.4365    232.7343   1.3095840043e+02   1.3834777732e+01    0.2640645    0.1895716  22.30   0.00061605    1.348    0.258
        48 -10.1839    162.3960    233.1837   1.2298496785e+02   8.0847276762e+00     0.124264    0.1137605 -73.64 0.0006504777    1.751    0.429
        49 -10.6201    156.4921    231.6736   1.2393730441e+02   9.1066200415e+00    0.2186662    0.1712088  18.61 0.0008671581    1.170    0.145
        50  -9.5601     92.4942    231.6544   1.3667826534e+02   1.7808740816e+01    0.1896306    0.1131572 -66.11  0.001217615    2.194    0.544
        51 -11.3498    142.3459    229.0360   1.2639906430e+02   1.1455304082e+01    0.3119832    0.2195899 -52.13  0.001662028    1.971    0.493
        52 -12.6651    142.0111    220.1174   1.2541942744e+02   1.2758583722e+01    0.4154305    0.3748059  82.24  0.003027807    1.548    0.354
        53 -10.6385     79.5105    229.1552   1.3911321243e+02   1.9817651995e+01     0.166942    0.1303497 -88.56 0.0008740568    1.534    0.348
        54 -14.8140     10.8340    206.7421   1.5203964737e+02   3.0836019170e+01      1.85678     1.314935  80.95   0.01272186    1.316    0.240
        55 -12.4486     18.9917    250.0401   1.5160106452e+02   2.2935808934e+01    0.1947394    0.1205707  46.84 0.0004274996    1.079    0.073
        56 -10.5228    180.8276    229.4179   1.1902494555e+02   5.9561622843e+00     0.227765    0.1165128  30.91  0.001089137    1.448    0.309
        57 -15.7157      7.4173    246.8359   1.5355530087e+02   2.4435782175e+01     1.683656     1.004253 -79.34   0.01272118    1.989    0.497
        58 -10.4480    190.8652    228.1331   1.1699597395e+02   4.7015173390e+00    0.1860523    0.1337755  24.03 0.0002899486    1.035    0.034
        59  -9.1222    150.2805    229.6334   1.2490404610e+02   1.0252054705e+01    0.1105844   0.07870641  53.61 0.0003659638    1.685    0.406
        60  -9.0893    175.5122    228.5093   1.1990323437e+02   6.8149497357e+00     0.119046   0.08622223  26.86 -5.551068e-05    1.026    0.025
        61 -10.8213    165.0595    226.7261   1.2166953617e+02   8.5264911863e+00    0.2150025    0.2042642 -83.66  0.001107284    1.646    0.393
        62 -12.5182    248.1982    241.1001   1.0908530567e+02  -3.9428779469e+00    0.3924555    0.2677727  28.86  0.003055843    1.497    0.332
        63 -10.7291    117.4666    224.4642   1.3092920442e+02   1.5601186963e+01     0.224536    0.1732772  35.99  0.000546587    1.041    0.040
        64  -8.9704    220.2250    223.6078   1.1113465506e+02   1.1786114638e+00   0.09002655   0.08246125   8.24 0.0006879735    1.634    0.388
        65  -8.7655    155.7083    223.3621   1.2307156653e+02   1.0316509931e+01     0.112671   0.08169495  53.74 0.0007028125    1.700    0.412
        66 -10.6800    149.9940    222.4225   1.2409085385e+02   1.1273527667e+01    0.1815107    0.1624932   7.96 0.0001620831    1.261    0.207
        67  -9.4078    149.5696    218.5487   1.2369326833e+02   1.1877321501e+01    0.2028176    0.1368155  45.89 9.352814e-05    1.432    0.302
        68  -9.7259    164.1687    220.9811   1.2109922150e+02   9.4034578418e+00    0.2318911    0.1455909 -16.72  0.001346426    2.158    0.537
        69 -10.3040    177.2699    218.5449   1.1822496173e+02   7.8021436085e+00    0.2711946    0.2524555  79.60  0.001480626    1.769    0.435
        70 -10.6883    246.2789    218.8231   1.0609226474e+02  -1.7275821009e+00    0.2305585    0.1035044  17.12  0.001259287    2.164    0.538
        71 -10.1848    141.8768    213.2709   1.2460294167e+02   1.3780485996e+01    0.3089862    0.1746028  44.74  0.001488427    1.568    0.362
        72 -10.2850    233.5219    217.3701   1.0794466317e+02   5.0739626471e-02    0.1991111    0.1809613  69.69 0.0007429557    2.692    0.628
        73 -10.2690    183.3732    214.3228   1.1645580508e+02   7.4390926360e+00     0.228552    0.1734167  47.95 0.0007773862    1.661    0.398
        74 -10.4844     88.1865    213.3473   1.3603040598e+02   2.1340731396e+01    0.2786924    0.2295719  14.34  0.001094804    1.456    0.313
        75 -11.0369    101.5601    212.4158   1.3306070853e+02   1.9712230999e+01    0.4345316    0.2203898  36.59  0.002388889    1.513    0.339
        76 -10.8774    131.5037    211.8214   1.2659450469e+02   1.5537393422e+01    0.2276646    0.1761194  43.74 0.0003254599    1.168    0.144
        77  -9.7313    134.8692    208.0823   1.2542008165e+02   1.5618449236e+01    0.2653778    0.1873439  -1.89  0.001011409    1.926    0.481
        78  -9.5231    152.1696    211.9460   1.2230991948e+02   1.2433932345e+01    0.1814127    0.1408196  44.08 0.0005836001    1.289    0.224
        79 -14.1801     13.0344    239.0050   1.5240364262e+02   2.5173191362e+01    0.8236538    0.2602679  28.18  0.004282699    2.824    0.646
        80  -9.0925     33.0555    211.4758   1.4763863101e+02   2.7977660615e+01    0.1540676   0.08696758  35.23 0.0003479901    1.463    0.317
        81 -11.4835    246.7740    205.9684   1.0397008561e+02  -5.5123950857e-01    0.5566981    0.2037658  23.24  0.002525264    3.044    0.671
        82 -10.9323    174.5124    206.1021   1.1697790507e+02   9.8510929952e+00    0.3248241    0.2206989   1.76  0.001202659    1.650    0.394
        83 -10.2316     97.2840    207.6575   1.3351744520e+02   2.1104310671e+01    0.2048542    0.1423311  42.79 0.0005549131    1.123    0.109
        84 -11.5718     91.9488    204.8894   1.3442297154e+02   2.2310256742e+01    0.5651064    0.2309673  33.81  0.001322744    1.985    0.496
        85 -10.8583    166.1373    204.9307   1.1848521569e+02   1.1304112721e+01    0.3475811    0.2910453  -1.11  0.002359283    1.257    0.205
        86  -9.8049    125.8658    205.4896   1.2702988760e+02   1.7377539593e+01     0.187457    0.1622774  59.82 0.0005459685    1.301    0.231
        87  -9.6056    149.1695    204.7689   1.2196258349e+02   1.3950976555e+01    0.2327744    0.1521648  -9.32  0.001238231    2.228    0.551
        88 -10.9038    108.6504    203.6217   1.3058412769e+02   2.0208181560e+01    0.3455078    0.1991279 -52.12 0.0008476713    2.164    0.538
        89 -10.4573    133.0460    202.9639   1.2515752794e+02   1.6704683386e+01    0.1908944    0.1796183 -13.89  0.000325875    1.287    0.223
        90 -10.9273    134.2018    197.7282   1.2421471551e+02   1.7377289274e+01    0.2668041    0.2413152 -45.74 0.0002282736    1.382    0.276
        91  -9.9637    103.5700    203.2589   1.3167193990e+02   2.0993233035e+01    0.2367968    0.1728987  22.54  0.001104449    1.412    0.292
        92  -9.2715    158.0992    241.8698   1.2481955429e+02   7.6032939089e+00    0.1511902    0.1046574  18.86  0.000374412    1.287    0.223
        93  -9.6273    224.8819    202.5181   1.0704591090e+02   2.7922197289e+00    0.1667216    0.1245016   7.47  0.000436963    1.077    0.071
        94 -11.0556    197.0647    200.5963   1.1175883106e+02   7.1185911652e+00    0.3536233    0.1946776  40.28  0.001254749    1.668    0.401
        95  -9.5513    169.8593    200.5202   1.1707619911e+02   1.1349312142e+01    0.1743315    0.1470336  17.41 0.0004272676    1.110    0.099
        96  -8.8221    115.4318    200.9621   1.2877312084e+02   1.9677808214e+01    0.1555699    0.1009786  75.20 0.0008026134    2.339    0.572
        97  -9.1347    197.9146    208.0737   1.1277513186e+02   6.0626792246e+00    0.1826728    0.1136539  11.92 0.0003215118    1.541    0.351
        98  -9.7872    141.4922    198.2560   1.2269883558e+02   1.6155456769e+01    0.2391206    0.1677596   8.67  0.001108105    1.697    0.411
        99 -10.3586    100.6430    198.2804   1.3178815530e+02   2.2284237809e+01    0.2133197    0.1810021  31.17 0.0002760151    1.153    0.133
       100 -10.3660     83.9067    193.7130   1.3515250691e+02   2.5423482377e+01    0.4604123    0.2527162  33.75  0.001552429    1.545    0.353
       101  -9.7213     58.0000    199.0112   1.4153102501e+02   2.7633614395e+01     0.186701    0.1474426 -81.76  0.000372654    1.406    0.289
       102 -10.5283     56.8320    194.4415   1.4146698143e+02   2.8636657136e+01    0.3343731    0.1859549 -76.10  0.001934248    1.981    0.495
       103 -11.4365    135.5419    241.1592   1.2904028444e+02   1.0758484174e+01     0.298228    0.1590478  38.25  0.001759123    1.350    0.259
       104  -9.2322    192.1294    198.1441   1.1230437406e+02   8.1919253132e+00    0.1525689    0.1301414  30.39            0    1.294    0.227
       105 -11.9464     77.0562    187.8366   1.3618523448e+02   2.7448302114e+01     0.271033    0.2452044 -33.36 0.0007939059    1.449    0.310
       106 -12.0296     72.5481    194.6308   1.3786700675e+02   2.6717928442e+01    0.4328482    0.3357828 -13.22  0.001654243    1.963    0.490
       107 -10.5848     70.7790    190.2091   1.3788841269e+02   2.7787248784e+01    0.2014483    0.1747572  45.21 0.0002707689    1.113    0.102
       108 -10.2863     52.8375    197.9647   1.4261952977e+02   2.8413773940e+01    0.2034169    0.1488762  52.94 0.0005483388    1.074    0.069
       109  -9.6032     86.1531    199.0618   1.3515942555e+02   2.4132924311e+01    0.1724468    0.1609101 -75.44 0.0003299165    1.305    0.234
       110  -9.5970    113.5254    196.1163   1.2861804195e+02   2.0798073030e+01    0.2819524    0.1219957  45.33  0.001304928    1.997    0.499
       111  -9.2231    107.6059    195.8381   1.2992861956e+02   2.1719250894e+01    0.1560744    0.1188406 -89.57 0.0006325376    1.679    0.404
       112 -12.0303    134.9496    236.2374   1.2864533695e+02   1.1499172400e+01    0.2879451    0.2620261  42.14  0.001211118    1.297    0.229
       113 -14.7215     27.3027    248.3038   1.5008041379e+02   2.2432901579e+01    0.9522638    0.5249324  34.30  0.005121501    1.460    0.315
       114  -9.6709    177.0865    194.6438   1.1470288948e+02   1.1037240999e+01    0.2580364    0.1589198  13.36  0.001367888    1.779    0.438
       115 -10.4312    173.0350    192.7531   1.1522359281e+02   1.1958555546e+01    0.3226737    0.2059797 -22.40  0.001154477    1.874    0.466
       116 -10.5640    159.5341    194.2441   1.1825867811e+02   1.3914190236e+01    0.3311711    0.1801502  42.21  0.001030367    1.612    0.380
       117 -10.1856    120.8377    194.6022   1.2677629971e+02   1.9961228797e+01    0.3631271    0.1540184  43.03  0.001669107    1.959    0.489
       118 -10.4312     38.5038    193.0709   1.4554934690e+02   3.0871481046e+01    0.2188223    0.2135438  60.82  0.001708464    1.325    0.245
       119 -10.0293    249.5330    193.3356   1.0141713145e+02   3.5687761193e-01    0.2038255    0.1055137  18.22  0.001171081    1.743    0.426
       120  -9.3239     47.4154    192.7903   1.4350793522e+02   2.9998835805e+01    0.1386992    0.1040269 -67.74 0.0003979878    1.557    0.358
       121 -10.5403    191.4617    191.4962   1.1134487159e+02   9.1776989216e+00    0.2475042    0.1913263  17.86  0.000590061    1.033    0.032
       122  -9.6456    113.0221    192.0780   1.2823504742e+02   2.1587986071e+01    0.1934579    0.1568507  38.00 0.0002816608    1.020    0.019
       123  -8.8771    101.8635    192.1656   1.3081974340e+02   2.3216766216e+01    0.1613291    0.1364888  18.50 0.0004019024    1.294    0.227
       124  -9.9713    135.2141    190.3825   1.2297309037e+02   1.8440573748e+01    0.1966334    0.1859229  77.73 0.0006978365    1.309    0.236
       125 -10.8945    250.1547    187.6920   1.0034087682e+02   8.5746906081e-01    0.3430529    0.1567383 -15.86  0.001803996    2.253    0.556
       126 -11.4412    249.0550    179.6321   9.9081796795e+01   1.8680159900e+00    0.4318122    0.2258848 -41.42   0.00221886    2.985    0.665
       127  -8.8253    197.6754    189.7549   1.0985576104e+02   8.4229793958e+00    0.1273552   0.07934288  15.85 0.0006904646    1.532    0.347
       128  -9.5138     54.8614    188.8759   1.4151409744e+02   2.9943427226e+01    0.1672777    0.1431522  38.92 0.0002938563    1.190    0.159
       129 -10.4155     44.0881    188.7013   1.4401169013e+02   3.1152424504e+01    0.3249217     0.194974  18.25  0.001838478    2.029    0.507
       130  -9.9361    175.8463    186.9945   1.1371141930e+02   1.2339853107e+01    0.1934919    0.1590749  23.89 0.0004240558    1.052    0.050
       131  -9.5898    124.1382    186.1532   1.2489400349e+02   2.0932099167e+01    0.2592977    0.1564921  61.52 0.0009951701    2.243    0.554
       132  -9.3236     67.6287    186.7557   1.3832676962e+02   2.8853038958e+01    0.1625728     0.126004  41.15 0.0004112184    1.117    0.105
       133 -10.9554    141.4067    183.9729   1.2063836945e+02   1.8522920578e+01    0.4815657    0.2068836  51.12  0.001773286    2.978    0.664
       134  -9.4724     38.3453    184.0567   1.4506428890e+02   3.2666938979e+01    0.1907432    0.1462906  89.67 0.0009173122    1.299    0.230
       135  -9.7478     37.2323    180.1644   1.4509245683e+02   3.3565985298e+01    0.1606904    0.1417222  60.35 0.0004191345    1.133    0.117
       136  -9.2974    217.2715    183.2440   1.0509358897e+02   6.1759617830e+00    0.1490235    0.1307354  18.14 0.0003973847    1.311    0.237
       137 -10.8455     17.6324    180.8053   1.4972128487e+02   3.5224786135e+01    0.2866082    0.1578396 -60.26  0.001570315    2.183    0.542
       138  -9.0973    115.8700    181.4835   1.2618205956e+02   2.3081075259e+01    0.2246116    0.1512777  80.33  0.001119799    2.253    0.556
       139 -10.9443    104.3323    180.9018   1.2886255856e+02   2.4962401337e+01    0.2256239     0.177932  39.67 0.0002386304    1.063    0.059
       140 -10.2021     87.2266    183.6109   1.3331289770e+02   2.6908763066e+01    0.4510329    0.1849373  34.17  0.002037493    2.057    0.514
       141 -10.5537    129.1069    179.3429   1.2275806283e+02   2.1353093821e+01    0.2227042    0.2104191  18.49 0.0008078514    1.147    0.128
       142  -9.7924     48.1132    179.8907   1.4245920946e+02   3.2494145920e+01    0.1808423    0.1405393  51.04 0.0005089908    1.054    0.052
       143  -9.1735    242.6793    179.6851   1.0011335050e+02   2.7749684050e+00    0.1261672   0.07312155   8.79 0.0007040111    1.657    0.396
       144 -10.5709     11.7558    178.9863   1.5100328598e+02   3.6067275578e+01    0.3253091    0.1229688  29.38  0.001712811    2.309    0.567
       145 -10.7734    181.3744    176.5182   1.1077774944e+02   1.2961897595e+01    0.4106211     0.273503  46.13  0.002230256    1.589    0.371
       146  -9.8482     89.0994    156.8679   1.2951012991e+02   3.2135841918e+01    0.2452713    0.2083662 -72.09 0.0007555848    1.279    0.218
       147 -10.9969     80.0978    163.7898   1.3280651593e+02   3.1942482321e+01    0.3911861    0.2913741   7.74  0.002126566    1.769    0.435
       148 -11.4474     96.5853    159.0766   1.2783418519e+02   3.0533338534e+01    0.4808571    0.2465683 -56.13  0.002223557    2.145    0.534
       149 -10.6797     85.0381    165.8772   1.3177611546e+02   3.0809277963e+01    0.3675253    0.2115276 -67.43  0.001017069    1.951    0.487
       150 -12.7505     91.0064    167.1190   1.3039394232e+02   2.9689987870e+01    0.7078612    0.5773502 -63.99  0.003104362    1.378    0.274
       151 -11.8098     85.2293    175.7610   1.3291676067e+02   2.8745598227e+01    0.3629365    0.3112676  71.15  0.001242659    1.169    0.144
       152  -9.3466    109.2129    176.0324   1.2703216468e+02   2.5151273050e+01    0.1762024    0.1623705  49.76 0.0003893425    1.099    0.090
       153  -9.8114     95.4352    175.8909   1.3039831593e+02   2.7261375653e+01    0.2088281    0.1687476  21.48  0.000671641    1.325    0.245
       154  -9.3310     67.5352    174.9328   1.3725086202e+02   3.1252945444e+01    0.1684227    0.1207602 -79.06 0.0003245127    1.497    0.332
       155 -10.4449     77.0832    175.6453   1.3493587003e+02   2.9876266078e+01     0.194706     0.176053  88.68 0.0004367901    1.192    0.161
       156 -11.8772     72.1074    174.5224   1.3606358027e+02   3.0757607020e+01    0.3566878    0.2970301 -23.40 0.0007344898    1.645    0.392
       157 -11.5499     19.0096    173.2031   1.4907997493e+02   3.6660646857e+01    0.3851112    0.1880424  68.39    0.0019683    1.805    0.446
       158 -11.6556     16.6860    168.0359   1.4941430217e+02   3.7927934791e+01     0.445449    0.1763778 -88.18  0.002169108    2.411    0.585
       159 -11.8805    248.8001    171.8201   9.7691716948e+01   2.7607530466e+00    0.3869331    0.2772518  26.72  0.002561308    1.294    0.227
       160 -10.2358    154.7288    172.8540   1.1584212823e+02   1.8150585895e+01    0.3043232    0.2134167   9.98 0.0008418525    1.644    0.392
       161 -11.3902     43.8193    169.4323   1.4274942699e+02   3.5131754091e+01    0.3040949    0.2638757  11.08 0.0009556633    1.442    0.307
       162  -9.9319    100.5928    170.6967   1.2843479652e+02   2.7528268229e+01    0.2272279      0.13682  51.77 0.0007907021    1.599    0.375
       163 -10.7226     68.9645    168.2298   1.3620847513e+02   3.2476077336e+01    0.3441072    0.2151214 -59.58 0.0007903258    1.776    0.437
       164 -10.1493    107.5751    168.3033   1.2634589656e+02   2.6923798855e+01    0.2830031    0.1560535  35.11 0.0009534521    1.587    0.370
       165  -9.5789     58.5202    167.7783   1.3885665569e+02   3.3852116574e+01    0.2029459    0.1393398  54.60 0.0005680158    1.267    0.211
       166 -11.8785    249.3094    149.9188   9.3388494078e+01   5.1907610892e+00    0.4530523    0.3145486 -26.72  0.002140492    1.404    0.288
       167 -12.5368    244.8420    162.5497   9.6565941942e+01   4.4034289175e+00    0.4851139    0.3191255 -16.96  0.003002124    1.341    0.254
       168 -12.1472    244.9891    156.2170   9.5310286501e+01   5.1226059807e+00    0.8260584    0.5103821  60.50  0.003873364    3.561    0.719
       169  -9.4294    175.8673    166.2025   1.1004165233e+02   1.5505717236e+01    0.1927401    0.1681577  37.10 0.0003199426    1.211    0.174
       170 -11.3771     23.9461    164.3527   1.4743802349e+02   3.8107011110e+01    0.2880643    0.1590787  45.52   0.00166433    1.496    0.332
       171 -10.5587     47.1281    163.3738   1.4142191260e+02   3.6084094498e+01    0.2239303    0.1612579  81.76 0.0006447045    1.326    0.246
       172  -8.7094    122.6554    169.2905   1.2276153932e+02   2.4282463805e+01    0.1405777    0.0963763  58.63 0.0002323226    1.656    0.396
       173  -9.6708     37.0176    162.7620   1.4400250278e+02   3.7252528174e+01    0.2308382    0.1245779  47.33 0.0007129383    1.555    0.357
       174 -12.8548     35.1827    159.1781   1.4422657702e+02   3.8212388818e+01    0.8900305    0.3575765  26.42  0.004158591    2.449    0.592
       175 -12.6735     34.3190    148.1745   1.4364221743e+02   4.0752316885e+01    0.7095785    0.2867795  43.82  0.003364477    2.094    0.522
       176 -10.9982     33.2915    136.1381   1.4295003884e+02   4.3626275242e+01     0.231529    0.1799839  -4.76  0.001002191    1.707    0.414
       177 -11.1466     23.5769    149.4760   1.4667852342e+02   4.1401126606e+01     0.258463    0.1977312 -73.02  0.001646549    1.331    0.249
       178 -12.5786     23.3844    155.0373   1.4706224116e+02   4.0179834139e+01     0.541239    0.3408738  29.95 0.0008711687    1.570    0.363
       179 -11.0287     33.1425    154.0932   1.4440563762e+02   3.9529696363e+01    0.3246542    0.2619305 -16.41  0.001784235    1.720    0.419
       180 -10.7812     12.3934    161.3019   1.5018760324e+02   3.9688277318e+01    0.1974404    0.1593771  65.51  0.001254186    1.023    0.023
       181 -10.1722     59.1114    159.6752   1.3791302106e+02   3.5537410458e+01    0.2065558    0.1739767 -83.15   0.00028535    1.214    0.176
       182  -8.6701    171.4438    159.4691   1.0970851505e+02   1.7391845457e+01    0.1394647    0.1202171  23.61 0.0001508404    1.031    0.030
       183  -9.4788    119.8774    159.1492   1.2181723983e+02   2.6728957262e+01    0.2007963     0.167715  50.50  0.001135937    1.150    0.130
       184 -10.4722     46.7660    158.2750   1.4108455306e+02   3.7240409240e+01    0.2782818    0.1520675 -63.79  0.001462987    1.900    0.474
       185  -9.6363     52.4667    158.3155   1.3956105705e+02   3.6606399631e+01    0.1985184     0.148086  21.32 0.0005445032    1.501    0.334
       186 -10.9149     73.0644    156.7713   1.3382720443e+02   3.4416304224e+01    0.4967034    0.2324389  29.74  0.002220161    2.083    0.520
       187  -9.7736    134.5053    155.6888   1.1755791604e+02   2.4840205334e+01    0.2479374    0.2079618  28.39 0.0005547939    1.092    0.084
       188  -8.7069    228.2559    155.6232   9.7940054975e+01   7.8880461174e+00    0.1136475   0.09766509 -42.59 0.0005820639    1.656    0.396
       189 -10.2276     62.2178    153.2878   1.3638915599e+02   3.6579042182e+01    0.3471224    0.1740664 -82.65  0.001283179    2.346    0.574
       190 -10.1105    113.6483    152.4034   1.2228705415e+02   2.9161306034e+01    0.2642262    0.2267077  67.99 0.0006205618    1.261    0.207
       191 -10.4311     95.3013    153.1231   1.2729379758e+02   3.2000813672e+01    0.2351926    0.1747099  28.11 0.0002180774    1.346    0.257
       192 -13.2620      3.1704    141.3909   1.5180523878e+02   4.4669496557e+01    0.9417798    0.5341968  89.13  0.005607951    1.517    0.341
       193 -10.9980    223.2092    244.6053   1.1359551117e+02  -1.2531311423e+00    0.2617982    0.1134772  14.87   0.00135109    2.687    0.628
       194 -11.7680      1.7258     89.7176   1.4977860338e+02   5.6881757776e+01    0.7537899    0.1956955 -82.40  0.002350317    3.243    0.692
       195 -11.5174    246.1548    232.8013   1.0821416928e+02  -2.9858175015e+00    0.2867862     0.182074  46.27  0.001773617    2.887    0.654
       196 -12.4947     32.8255    141.1781   1.4350785729e+02   4.2493971566e+01    0.4441853    0.3805483  11.39  0.002884278    1.415    0.293
       197 -10.4123     89.2880    176.3130   1.3197272090e+02   2.8064067317e+01     0.219233    0.1887352 -33.66 0.0002125213    1.477    0.323
       198 -12.4352     66.3270    127.9812   1.3190044019e+02   4.1927362363e+01    0.8391333    0.4285373 -87.44  0.003314764    2.782    0.641
       199 -10.4052     60.9721    137.4640   1.3485165352e+02   4.0362538373e+01     0.251544    0.2251534  29.16 0.0005280356    1.199    0.166
       200 -11.7660     59.0413    133.5150   1.3492150788e+02   4.1529483997e+01    0.3220443     0.305487  23.96  0.001119028    1.184    0.156
       201 -12.3870     74.2132    138.5352   1.3107208945e+02   3.8379300796e+01    0.6561293    0.4675954  83.35 0.0006203097    1.565    0.361
       202  -9.4541    142.3283    147.3158   1.1404874404e+02   2.5004314040e+01    0.1479798    0.1091849   5.72 0.0007045168    1.676    0.403
       203 -10.2007    236.2814    145.9612   9.4642498192e+01   7.7773535126e+00    0.2690739    0.1387748  27.93  0.001323377    1.981    0.495
       204  -9.8415     46.6756    146.3499   1.4001415385e+02   3.9936859467e+01    0.2076264   0.09503412  74.79 0.0008462322    2.789    0.641
       205 -11.1701     48.4063    143.3975   1.3922399433e+02   4.0431473874e+01    0.3500564    0.1596716  22.66  0.001543883    2.463    0.594
       206 -11.6436    248.3006    141.2558   9.1785617988e+01   6.3816553465e+00    0.8046551    0.2738123  36.69  0.003368278    3.057    0.673
       207 -12.4969    248.2896    134.6473   9.0414634428e+01   7.1830302624e+00    0.7585348    0.4820819 -10.46  0.004328369    1.446    0.308
       208 -11.3644    133.4865    142.9545   1.1539860432e+02   2.7524633992e+01    0.8203618    0.3214836 -53.31  0.002933168    3.157    0.683
       209 -11.0993     27.6013    142.2215   1.4507865011e+02   4.2711948390e+01    0.2309922    0.1789211 -78.55 0.0008537277    1.245    0.197
       210 -10.5450     26.3138    139.3719   1.4523949377e+02   4.3477300429e+01    0.1992061    0.1761567   2.41  0.001111378    1.419    0.295
       211 -10.3736     53.5286    140.4305   1.3741282441e+02   4.0551481810e+01    0.2060384    0.1799714  73.08 0.0001185077    1.039    0.037
       212 -10.1818     46.5229    139.4389   1.3936300641e+02   4.1554138182e+01    0.2039945    0.1649856 -72.12 0.0001141611    1.242    0.195
       213 -11.1586     50.6015    138.1725   1.3802189295e+02   4.1408944207e+01    0.3551123    0.1708056  37.65  0.001545776    1.869    0.465
       214  -9.6765     19.2869    140.6708   1.4732428589e+02   4.3736835377e+01    0.1310927   0.07249466  61.00 0.0002346782    1.615    0.381
       215  -8.8112    164.2757    139.6712   1.0726448124e+02   2.2154305396e+01    0.1344567     0.117284  85.02 0.0004012985    1.592    0.372
       216 -10.1076    119.5173    138.1028   1.1810940087e+02   3.1118049679e+01    0.3647942    0.2487658  -6.43  0.001462003    2.375    0.579
       217 -11.0800    113.0354    136.3342   1.1953681831e+02   3.2669481652e+01    0.4039594    0.2985871  35.17  0.001282777    1.265    0.210
       218  -8.7992     82.4546    136.3910   1.2831428448e+02   3.7691255534e+01    0.1389827    0.1266684  50.73 0.0001259534    1.025    0.024
       219 -10.4703     87.7271    133.3220   1.2624688457e+02   3.7595645486e+01    0.2746313    0.2166112 -46.46 0.0001937614    1.403    0.287
       220  -8.9064    136.6694    134.2776   1.1279934308e+02   2.8650897765e+01    0.1466919      0.11406  66.79 0.0002406698    1.599    0.375
       221 -12.5329     45.2370    130.6727   1.3880392694e+02   4.3761834915e+01    0.5553445    0.4114442  87.32  0.002005997    1.291    0.225
       222  -9.3609    106.9846    129.9977   1.2000164830e+02   3.5136223667e+01     0.398552    0.1482134  52.77  0.001144298    4.183    0.761
       223  -9.8099    118.3540    128.8044   1.1654187164e+02   3.3317561576e+01    0.2077456    0.1360514 -39.28 0.0006514024    1.728    0.421
       224  -8.5299    122.3283    144.2639   1.1854470558e+02   2.9320187741e+01    0.1421053    0.1100835   7.76 0.0003129141    1.570    0.363
       225 -11.4993     66.3683    135.6166   1.3299001299e+02   4.0113405165e+01    0.6103574    0.2483599  55.57  0.002215326    3.128    0.680
       226 -10.3488    209.7481    125.8960   9.4848504834e+01   1.5321257041e+01     0.262957    0.2096251  -6.41 0.0005106566    1.173    0.148
       227  -8.8016     93.4161    127.5463   1.2351218580e+02   3.8013912413e+01     0.143705    0.1341986  57.43  0.000114295    1.021    0.020
       228  -9.7585     85.9684    126.7757   1.2562553601e+02   3.9387505159e+01     0.264693    0.2067542 -11.68   0.00119645    1.717    0.418
       229 -11.3005     38.1958    126.2178   1.4050996805e+02   4.5531014499e+01    0.3909513    0.1610943  59.82   0.00156115    2.833    0.647
       230 -10.9122    103.0103    151.0170   1.2488351554e+02   3.1225986785e+01    0.3122201     0.303226 -15.91  0.001075041    1.166    0.143
       231 -10.5454    250.3354    125.0438   8.8075476599e+01   8.0125537142e+00    0.3552305     0.171695 -33.10  0.001775627    1.901    0.474
       232 -11.0923    244.7794    121.3241   8.8080298521e+01   9.4284415756e+00    0.4211556    0.3695534  78.63  0.001933816    1.772    0.436
       233 -11.7728    248.3163    112.8875   8.5709009428e+01   9.8609698332e+00    0.4873495    0.3751403   6.17  0.002994377    1.217    0.178
       234  -9.5552    159.6798    126.3331   1.0534640564e+02   2.5512384505e+01    0.1457671    0.1212391  85.01 0.0004763485    1.698    0.411
       235  -9.5281    124.9659    125.6895   1.1404579350e+02   3.2715193148e+01    0.2152764    0.1792678  40.25 0.0002774581    1.117    0.104
       236 -11.6593     32.7822    126.9388   1.4227332566e+02   4.5853272438e+01    0.3475013    0.2077774  58.37  0.001120463    1.601    0.375
       237 -12.0177     17.8782    124.4818   1.4668425383e+02   4.7615899676e+01    0.4935573    0.1770179  49.16  0.001875368    2.557    0.609
       238  -9.4540     50.5714    122.8255   1.3617027206e+02   4.5079932480e+01    0.1910901    0.1204567  89.68 0.0007897067    1.677    0.404
       239 -10.2189    249.5172    117.9041   8.6645224153e+01   9.0292062695e+00    0.2362475    0.1835151   6.47 0.0007284896    1.176    0.150
       240  -9.4698    143.5801    121.0381   1.0805021652e+02   2.9898212853e+01    0.3099207    0.2040939 -62.56  0.001311195    2.132    0.531
       241 -13.3425     67.4671    144.2336   1.3382072993e+02   3.7970133763e+01    0.9191207    0.5319088  57.83  0.004444887    1.783    0.439
       242 -11.5479     20.7890    120.4194   1.4547373323e+02   4.8379474651e+01    0.3688214     0.196215 -46.41   0.00184023    2.213    0.548
       243  -8.7906    130.6830    119.2931   1.1103327447e+02   3.2919818127e+01    0.1505544     0.119717  73.63 0.0002475811    1.602    0.376
       244 -11.8482     31.5018    116.7003   1.4166998618e+02   4.8441506090e+01    0.4275742    0.2589507 -43.44  0.002195738    1.945    0.486
       245  -9.7848     28.0026    114.7023   1.4262546360e+02   4.9217719624e+01    0.1959156    0.1523468  65.16  0.000240927    1.201    0.167
       246 -10.7846    168.1815    113.4209   1.0026701096e+02   2.6044471175e+01    0.3470137    0.2980437 -89.96  0.001125166    1.575    0.365
       247 -10.2082     72.9354    115.0458   1.2763210556e+02   4.4136044359e+01    0.2069621    0.1979659  66.96  0.001208355    1.017    0.017
       248 -10.5115     70.0564    111.0878   1.2786307634e+02   4.5506445112e+01    0.2333085    0.2020444  87.41 0.0003059748    1.167    0.143
       249 -11.6425     57.5837    111.6124   1.3219721343e+02   4.7012017668e+01    0.6639564     0.268536  36.47  0.002311555    2.312    0.568
       250  -9.1788    114.5423    123.0199   1.1638247300e+02   3.5294053520e+01    0.2083719     0.149809 -51.94 -9.17515e-06    1.486    0.327
       251 -10.4758     62.2358    107.3193   1.2985651046e+02   4.7486915370e+01    0.2121937    0.1848416  -1.17  0.001183851    1.350    0.259
       252 -10.3618    134.5456    105.2285   1.0650062004e+02   3.5026026772e+01    0.3695987    0.1536974 -40.95  0.001286626    2.564    0.610
       253 -11.6944    247.9927    100.6823   8.3004384550e+01   1.1440235915e+01    0.6627201     0.347278 -16.51  0.003173513    1.940    0.485
       254 -10.0680    105.8247    146.2563   1.2332710909e+02   3.1780442515e+01    0.3242306    0.2535649  -0.61  0.001096481    1.672    0.402
       255  -9.5687    112.4732    104.5027   1.1265907281e+02   3.9796064022e+01    0.1530948    0.1470712  42.05 0.0008100522    1.011    0.011
       256  -9.8674     63.2691     99.3414   1.2797934666e+02   4.9323649331e+01    0.3204335    0.1455318 -51.51  0.001298071    2.154    0.536
       257  -9.0441    136.6845     94.2906   1.0295252883e+02   3.6777520872e+01    0.1541721    0.1264231  85.93 0.0003630545    1.594    0.373
       258  -8.9172    119.5710    151.4864   1.2058321210e+02   2.8327731647e+01    0.1424075    0.1277709  40.03  4.46689e-05    1.013    0.012
       259  -9.0900     45.2986     90.2986   1.3303308791e+02   5.3720416108e+01    0.1389308   0.09812369 -37.25 0.0006994196    1.576    0.365
       260  -9.5243    101.9737     88.0001   1.1158474208e+02   4.5588432632e+01    0.2187061     0.214636  50.28            0    1.027    0.026
       261  -9.3911    154.5178     76.4944   9.3167930288e+01   3.5898040839e+01    0.1569439    0.1514098  26.68 4.740818e-05    1.004    0.004
       262  -8.5885     64.3120     76.7187   1.2238080410e+02   5.4747844689e+01    0.1437124    0.1104467  68.07 0.0003979437    1.569    0.363
       263 -11.0426    107.9105    240.3253   1.3433729079e+02   1.4537281028e+01    0.2549627    0.2151651  56.67 0.0001307104    1.285    0.222
       264 -10.5884    104.3337    238.2879   1.3486599943e+02   1.5294510470e+01    0.1883632    0.1523635  15.28 0.0008830585    1.436    0.303
       265  -9.3469    166.0010    241.8106   1.2333502759e+02   6.5348881593e+00     0.197069    0.1033682  18.16  0.001093854    2.057    0.514
