#   1 NUMBER                 Running object number                                     
#   2 MAG_AUTO               Kron-like elliptical aperture magnitude                    [mag]
#   3 X_IMAGE                Object position along x                                    [pixel]
#   4 Y_IMAGE                Object position along y                                    [pixel]
#   5 X_WORLD                Barycenter position along world x axis                     [deg]
#   6 Y_WORLD                Barycenter position along world y axis                     [deg]
#   7 A_WORLD                Profile RMS along major axis (world units)                 [deg]
#   8 B_WORLD                Profile RMS along minor axis (world units)                 [deg]
#   9 THETA_WORLD            Position angle (CCW/world-x)                               [deg]
#  10 FWHM_WORLD             FWHM assuming a gaussian core                              [deg]
#  11 ELONGATION             A_IMAGE/B_IMAGE                                           
#  12 ELLIPTICITY            1 - B_IMAGE/A_IMAGE                                       
         1 -13.7905    221.5188     27.2087   8.1035765270e+00   2.9467002327e+01    0.8093549    0.6129236 -38.92  0.004008088    1.232    0.188
         2 -12.4081    226.8569      9.6355   4.2334425475e+00   3.0354610518e+01    0.2753995    0.2154048 -70.97   0.00112488    1.207    0.171
         3 -12.5514     41.9421      2.3196   2.6363524424e+01   7.2827889448e+01    0.9158803     0.191945  62.33  0.002602641    5.032    0.801
         4 -10.2690     24.4906    245.3137   8.8795759878e+01   1.8354841373e+01    0.1182443   0.09272163  19.00  0.000775508    1.165    0.142
         5 -19.4882     13.4825    141.8593   8.5967464040e+01   4.4014433384e+01     20.09135       6.6839 -84.43   0.06579355    3.287    0.696
         6  -9.6573     51.0708    200.5361   7.8986753541e+01   2.5466937613e+01    0.2850921    0.1465543 -62.47  0.001199542    2.084    0.520
         7  -9.8874    210.9594    198.8525   4.2466776594e+01   7.0660784518e+00     0.169715    0.1251841 -13.99 0.0005268538    1.048    0.045
         8  -8.5611     69.0319    195.5116   7.3421750314e+01   2.4668038989e+01    0.3530795    0.1628702 -54.35  0.001525153    2.267    0.559
         9 -11.3175     57.5299    194.4342   7.6562391042e+01   2.6203104266e+01    0.3890498    0.2362104  63.99  0.001524258    1.998    0.500
        10 -11.5758     53.3548    189.7784   7.7295599947e+01   2.7756348295e+01    0.3289766    0.2394698 -88.00 0.0006095565    1.577    0.366
        11 -15.8056     70.3141    143.3890   6.5642141177e+01   3.7325702536e+01      3.10023     2.528859  64.14    0.0155128    1.348    0.258
        12  -9.8261     48.1607    193.5024   7.9172810269e+01   2.7413546302e+01    0.2011406    0.1267341  21.25 0.0009864819    1.462    0.316
        13 -12.1993     52.8966    231.8679   8.1057981134e+01   1.8520016076e+01    0.2617227    0.1640066 -58.07  0.001046871    1.855    0.461
        14 -10.1456     43.7429    186.8636   7.9858872866e+01   2.9465509674e+01    0.2277974    0.1660684  77.53 0.0007413435    1.516    0.341
        15 -12.1238     54.8006    180.4124   7.5865338351e+01   2.9873425069e+01    0.5212305    0.3747529 -20.91  0.001701902    1.655    0.396
        16 -11.4380    179.5162    169.0976   4.2830191375e+01   1.5357194912e+01    0.5217237    0.3612697 -32.26   0.00314096    1.256    0.204
        17  -9.6552     90.4980    246.4583   7.3232120471e+01   1.2084575833e+01     0.153656     0.106889 -37.16 0.0005898174    1.623    0.384
        18 -13.7806    110.7604    167.1112   5.7794877402e+01   2.5618096184e+01     1.214774    0.8485819 -60.55  0.005200377    1.613    0.380
        19 -12.4188    125.0023    172.7573   5.5152975374e+01   2.2325630660e+01    0.4618196    0.2595305  36.11  0.002173817    1.751    0.429
        20 -11.8318    172.5604    174.6812   4.5133433563e+01   1.5324164527e+01    0.5616832    0.3591089 -24.71  0.001417108    1.509    0.337
        21  -9.8801     86.0000    241.0050   7.3766123367e+01   1.3506567682e+01    0.1558075   0.07202297 -62.46 0.0004867354    2.661    0.624
        22 -10.9325     93.2440    157.1535   6.0910875257e+01   3.0517632765e+01    0.2492687    0.2200558  63.88 0.0003786529    1.270    0.213
        23 -11.5989    133.6044    145.2860   4.7855359609e+01   2.6732815176e+01     1.105649    0.2735192 -53.50  0.002776008    5.974    0.833
        24 -10.3376    112.2804    150.4135   5.4303905114e+01   2.9114977405e+01    0.2059589     0.132759  42.55 0.0009485974    1.599    0.374
        25 -11.0970     88.2321    149.0283   6.0939551951e+01   3.3238152446e+01    0.2823137    0.2639223 -23.73 0.0003086188    1.088    0.081
        26 -12.9981     94.0496    143.8195   5.8192303718e+01   3.3590632335e+01     0.847627    0.6078756 -25.55  0.001889761    1.656    0.396
        27 -11.7761    109.1491    145.1998   5.4123838104e+01   3.0807796926e+01     0.406139    0.3319714 -12.53  0.001677894    1.358    0.263
        28  -8.7766    164.7785    138.9963   3.9811704208e+01   2.2847288059e+01    0.1704825   0.09939867 -41.88 0.0003108023    1.552    0.356
        29  -9.4326    128.8107    138.6358   4.7627406754e+01   2.8939823274e+01    0.2042159    0.1701064 -38.68  0.001019632    1.158    0.137
        30 -12.3623    105.7000    131.7208   5.2264767656e+01   3.4498082124e+01    0.6748177    0.4243971 -41.05  0.002275666    1.646    0.393
        31 -11.9761     94.3821    131.0466   5.5468159597e+01   3.6617084331e+01    0.4062687    0.2957081 -51.83 0.0004195686    1.378    0.274
        32 -10.6927    135.7750    130.2392   4.4126746390e+01   2.9479430511e+01    0.4291538    0.1145085 -48.80  0.001294242    3.793    0.736
        33 -10.1335    160.9847    127.9899   3.8221114166e+01   2.5509043912e+01     0.211836    0.1679543 -77.36  0.001142259    1.722    0.419
        34 -11.1601    114.0461    125.3606   4.8509685810e+01   3.4452491623e+01    0.3179372     0.257915  -0.64   0.00104991    1.478    0.324
        35 -10.5225    101.4092    120.6317   5.0999482858e+01   3.7843929653e+01    0.2875667    0.2455488 -11.32 0.0003844505    1.338    0.252
        36 -10.6771     86.1158    118.6795   5.5325652628e+01   4.1060579028e+01    0.4767443    0.2263982 -58.60  0.001236791    2.265    0.559
        37  -8.9455    162.2768    119.6653   3.6136804532e+01   2.6817435831e+01    0.1329463    0.1021298 -67.97 0.0003309973    1.606    0.378
        38 -10.1113    109.3604    115.9137   4.7571067504e+01   3.7440316497e+01    0.2119001    0.1847771 -42.88 0.0004264559    1.138    0.121
        39 -11.3421     54.6725    239.5921   8.1175477291e+01   1.6829896481e+01    0.1897587     0.156564  73.79 0.0007964886    1.427    0.299
        40  -9.7297    157.9084    113.7898   3.5641537126e+01   2.8680871636e+01    0.2542858      0.16573 -64.13 0.0009919439    2.008    0.502
        41 -10.6470     47.2259    233.4687   8.2589984587e+01   1.8728684507e+01    0.1604029    0.1401939 -68.35  0.001003318    1.370    0.270
        42 -11.6820    116.3997    108.8242   4.3881774187e+01   3.7636402524e+01    0.4684412    0.2857191  55.48  0.001868601    1.884    0.469
        43 -10.5970     81.7685    109.6411   5.4621094625e+01   4.4050292779e+01    0.2803075    0.1915384  45.18 0.0006844536    1.469    0.319
        44 -10.2207    151.0325    105.6928   3.5082703908e+01   3.1469642637e+01    0.2538736    0.1819997 -64.54 0.0008240546    1.635    0.388
        45 -11.9444    118.8191    103.6068   4.1906105418e+01   3.8262657716e+01      0.37472    0.3013322  65.23 0.0008821193    1.388    0.280
        46 -11.2238    121.2949     98.9176   4.0039369136e+01   3.8731081641e+01    0.2871821    0.2229675  38.29 0.0009088424    1.378    0.274
        47 -10.6692     47.1215    229.0072   8.2310667571e+01   1.9644119187e+01    0.2771835    0.1440769  56.66  0.001359058    2.128    0.530
        48  -9.8070     69.8316     98.6013   5.6124383653e+01   4.8901691838e+01    0.2306092    0.1367361  46.66 0.0009434556    1.734    0.423
        49 -11.7409     58.9820    231.5942   7.9513285546e+01   1.7990338713e+01    0.1881491    0.1694182 -47.07 0.0004772187    1.308    0.235
        50 -11.7739     88.1337    218.9119   7.0992222358e+01   1.7492894928e+01    0.4170121     0.351697  10.90  0.001687233    1.056    0.053
        51 -10.9446     61.7450     86.4748   5.6001893358e+01   5.3310160748e+01    0.5134785    0.2396961  48.82  0.001452529    2.426    0.588
        52  -9.3535     67.8923    214.6316   7.5739899838e+01   2.0578926474e+01    0.1644089    0.1313164  27.18  0.000462813    1.075    0.070
        53  -9.7532     99.0579     75.1682   3.9191330825e+01   4.8304316507e+01    0.2789738    0.2046868  71.09 0.0009434896    1.576    0.365
        54 -12.6886    177.7855     66.0582   2.0907414087e+01   3.2763173738e+01    0.4192517    0.3765109 -58.80 0.0008611178    1.065    0.061
        55 -10.3507    153.1731    210.8635   5.4916272646e+01   1.1506169159e+01    0.2126787    0.1505404 -70.08 0.0008708349    2.623    0.619
        56 -13.4978    193.8691     53.6058   1.6088136799e+01   3.1354548293e+01    0.8644245    0.8070384  29.39  0.003583643    1.443    0.307
        57 -12.2090    200.3581     48.0802   1.4199827347e+01   3.0841485772e+01     0.397847      0.35151  50.62  0.001535446    1.490    0.329
        58 -10.8520     63.2421     60.8191   4.6885685424e+01   5.8879661766e+01    0.3849591    0.2047514  48.77 0.0009579776    1.881    0.468
        59 -11.4102     55.8225     59.5817   4.9706691911e+01   6.0592101682e+01    0.5050321     0.247831  47.25  0.001997759    2.067    0.516
        60 -11.2964     57.4588     55.9615   4.7560671856e+01   6.1038288070e+01    0.5182617    0.2194765  50.82  0.001624343    2.655    0.623
        61 -10.7191     72.7975     53.1346   4.0098244682e+01   5.8393416002e+01    0.4329929    0.2322096  62.97   0.00166306    2.419    0.587
        62  -9.7009    164.4318    206.1877   5.1927675962e+01   1.0997413821e+01    0.2613683    0.1174023 -54.65  0.001138728    3.297    0.697
        63  -9.0920     91.9430    237.9203   7.2068191681e+01   1.3461850695e+01    0.1337635    0.1135207  11.75            0    1.054    0.051
        64 -12.2908    248.6509    246.6362   4.3769070961e+01  -2.0525366343e+00     0.348769     0.235553 -40.17  0.002790722    2.118    0.528
        65 -10.9416     60.7542     21.3185   3.0141605678e+01   6.6263744302e+01    0.2880853    0.1976308  58.81 0.0008371737    1.326    0.246
        66 -10.8903     59.9605    245.3401   8.0311570308e+01   1.5243489884e+01    0.1228065   0.07690122 -54.11 0.0004134583    1.901    0.474
        67 -10.0461     45.1171     33.3231   4.3496562020e+01   6.7820371075e+01    0.2204508    0.1916007 -16.30 0.0003964226    1.259    0.205
