#   1 NUMBER                 Running object number                                     
#   2 MAG_AUTO               Kron-like elliptical aperture magnitude                    [mag]
#   3 X_IMAGE                Object position along x                                    [pixel]
#   4 Y_IMAGE                Object position along y                                    [pixel]
#   5 X_WORLD                Barycenter position along world x axis                     [deg]
#   6 Y_WORLD                Barycenter position along world y axis                     [deg]
#   7 A_WORLD                Profile RMS along major axis (world units)                 [deg]
#   8 B_WORLD                Profile RMS along minor axis (world units)                 [deg]
#   9 THETA_WORLD            Position angle (CCW/world-x)                               [deg]
#  10 FWHM_WORLD             FWHM assuming a gaussian core                              [deg]
#  11 ELONGATION             A_IMAGE/B_IMAGE                                           
#  12 ELLIPTICITY            1 - B_IMAGE/A_IMAGE                                       
         1  99.0000     77.9924     61.4911   2.8969236950e+01   5.6159663739e+01     3.627482     1.971246  31.74   0.01382621    2.317    0.568
         2 -15.2086     13.6305     36.0141   5.4198363071e+01   7.2037724015e+01     6.399014     1.959284 -55.68   0.02473285    2.768    0.639
         3 -14.0391     70.0476     39.4166   2.2968190612e+01   6.2070599064e+01     4.370449     2.064459  45.71   0.01773127    1.991    0.498
         4 -13.5551    118.9862     81.3372   2.2591612146e+01   4.2737170166e+01     1.932619     1.573566 -15.28  0.007687749    1.556    0.358
         5 -12.2784     65.2918     17.3450   1.3797369276e+01   6.6436070228e+01    0.7793816    0.3365454  52.62  0.001619364    2.006    0.502
         6 -14.4350     90.8423      5.4966   5.0785838957e-01   6.1320146637e+01      4.00817     1.231207  73.37    0.0134616    3.299    0.697
         7 -13.6709     47.4257     41.2920   3.4438546176e+01   6.6307432860e+01     1.971236     1.297618 -14.81  0.008796138    2.147    0.534
         8 -12.2569    241.9261     23.0531   3.5036125788e+02   2.4204389866e+01    0.5045095    0.2533441 -59.30  0.001645224    1.647    0.393
         9  -9.0730    166.2873      2.6137   3.5014079862e+02   4.2288464956e+01    0.7882084    0.2642638  74.83  0.003295812    2.639    0.621
        10 -10.0049    177.7042      8.1478   3.5084036205e+02   3.9059645640e+01     0.261953    0.1437321 -76.24  0.001287336    1.687    0.407
        11 -11.6568    172.2672     11.8714   3.5227149987e+02   3.9960667596e+01     1.140484    0.4713564 -82.04  0.004681626    2.750    0.636
        12 -11.3834    185.2273     11.2956   3.5113203970e+02   3.7011346660e+01    0.5242683    0.3062057 -69.64  0.002395683    1.524    0.344
        13 -11.2323    178.9620      3.6430   3.4955281641e+02   3.9205581974e+01    0.5688376    0.3255699 -81.07  0.002768613    1.566    0.361
        14 -11.5363    167.1863     15.6742   3.5377826029e+02   4.0777487147e+01    0.6703624    0.3184991 -85.77  0.002706318    2.220    0.549
        15 -11.6172    151.4386     19.7865   3.5662546534e+02   4.4204831290e+01    0.4321312    0.3234571  87.43  0.000989722    1.204    0.169
        16 -11.2250    208.0660     17.7729   3.5118388076e+02   3.1344991300e+01    0.4037983    0.2311364 -53.99  0.001520304    1.398    0.285
        17 -12.3123     75.8367     13.1799   8.0408402119e+00   6.4376993822e+01    0.4330441    0.2603428  61.96   0.00102133    1.477    0.323
        18 -12.0507    245.4634     14.0113   3.4836368462e+02   2.4544152384e+01    0.3643063       0.2556  63.06  0.002583135    1.881    0.468
        19 -10.5215    229.2450     10.7562   3.4844222450e+02   2.7863708459e+01    0.2706262    0.2084001  27.84  0.001625739    2.227    0.551
        20 -10.2891    201.6649     11.4502   3.5008864617e+02   3.3369623739e+01    0.2397251    0.1838659  72.30  0.000838294    1.442    0.307
        21 -10.0054    150.2472      7.6334   3.5297041773e+02   4.5754308212e+01    0.2348196    0.1549228 -84.92  0.001141647    1.355    0.262
        22  -9.8301    147.0187      5.4433   3.5259052710e+02   4.6770135452e+01    0.2265678    0.1375856  87.78 0.0005695309    1.472    0.321
        23 -11.3524    137.4898      4.2776   3.5315886886e+02   4.9294881338e+01    0.4854371     0.291562 -81.75  0.001528506    1.557    0.358
        24 -10.6832    215.6003      2.3255   3.4724424844e+02   3.1390997970e+01    0.2045329    0.1526881 -64.10 0.0005224202    1.045    0.043
        25 -10.2948     73.0484      1.4986   2.6274214372e+00   6.6192259359e+01    0.1976671    0.1383962  64.44 0.0005310244    1.230    0.187
        26 -10.4441    164.3243     20.2540   3.5536962507e+02   4.0971608123e+01    0.5037983    0.3337368  62.71  0.002126856    1.552    0.355
        27 -10.6452     54.6750     95.5959   4.9349288287e+01   5.2360182930e+01    0.3548071    0.2893499 -49.14  0.001066714    1.231    0.188
        28 -10.5584    246.7408     93.4067   4.3057476897e+00   1.4559041728e+01    0.1387137    0.1092746  39.79 0.0007831754    1.680    0.405
        29  -9.8481    163.6517     92.3456   1.5659340837e+01   3.0384091996e+01    0.2729283    0.1762925  51.86  0.001062669    1.632    0.387
        30 -10.3437    144.7201     91.9102   1.9409142803e+01   3.4689677411e+01    0.2808838    0.2162853  66.14 0.0007088056    1.390    0.281
        31  -9.7185    157.8037     88.3855   1.5737966187e+01   3.2397581290e+01    0.2673895      0.14246  59.14  0.001114724    2.039    0.510
        32  -9.6758    152.9107     87.8037   1.6554216886e+01   3.3607515967e+01    0.2126007    0.2004807  41.53 0.0006589468    1.160    0.138
        33 -11.9535    248.7186     84.6180   2.3596092025e+00   1.5441375680e+01     0.450561    0.2620831 -51.11   0.00202021    1.535    0.348
        34 -11.0562    244.9471     79.7597   1.7398630720e+00   1.6694814014e+01    0.3189227    0.1963085  49.71  0.001299815    2.136    0.532
        35  -9.4313    204.7950     93.4006   9.2739839050e+00   2.1775885403e+01    0.2612044    0.1671913 -21.42  0.001319534    1.860    0.462
        36 -10.8811    242.3527     85.1807   3.0916410985e+00   1.6380736668e+01    0.2348031    0.1365332 -53.35 0.0008340313    1.632    0.387
        37  -9.8679    201.4696     92.4851   9.5259089452e+00   2.2554794208e+01    0.1940259     0.129732  75.41 2.352728e-06    1.942    0.485
        38 -11.0353    174.9820     81.4093   1.0831187392e+01   2.9805792243e+01    0.3526654    0.2376538 -44.12 0.0006142397    1.352    0.260
        39 -10.9484    178.6699     78.7733   9.5654305446e+00   2.9437883913e+01    0.4098664    0.3056915  89.15 0.0008601144    1.547    0.353
        40  -9.8020    144.7118     80.9807   1.6351337577e+01   3.6754842239e+01    0.2952588    0.2248337  67.58  0.001302311    1.372    0.271
        41 -10.9864     59.9044    145.3251   5.7062968834e+01   3.8286586626e+01    0.4398554    0.2871229  48.49  0.001998643    1.497    0.332
        42 -11.6006    234.9621     75.1958   1.7559330878e+00   1.8980878954e+01    0.3162765    0.2535221 -51.61  0.001118184    1.080    0.074
        43  -9.8985    205.8930     76.0140   5.1217540249e+00   2.4225847478e+01    0.4210842    0.1803779 -56.39  0.001668531    2.945    0.660
        44 -12.0745    214.9354     60.6535   5.6409893061e-01   2.4647628564e+01    0.4076469    0.3317462 -88.26  0.001022001    1.301    0.231
        45 -10.7883    202.3666     68.8860   3.8706830137e+00   2.5981760348e+01    0.4088347    0.3580427 -41.73  0.002609406    1.118    0.106
        46 -11.5310    205.6927     62.2407   1.9110145057e+00   2.6262129067e+01    0.5033814    0.3722395 -34.03  0.002349611    1.296    0.228
        47  -9.0837     96.4644     76.5744   2.7730614792e+01   4.8918521846e+01    0.1548133    0.1493807  56.25 0.0001392734    1.027    0.026
        48 -10.6535    250.1463     74.1997   1.5115715908e-01   1.6593825402e+01    0.1973883    0.1310598 -38.36 0.0005701614    1.168    0.144
        49 -10.8989    164.1333     70.7089   9.7820349176e+00   3.4016994962e+01    0.4601736    0.3851562  14.87  0.002169391    1.610    0.379
        50  -9.3143    143.9689     73.3156   1.4284432571e+01   3.8315665044e+01     0.196473    0.1773574  77.92  0.000302723    1.090    0.083
        51  -9.5470    218.7779     71.4247   2.5957729999e+00   2.2414576666e+01    0.2001626    0.1228727  72.62 0.0007264179    1.950    0.487
        52 -10.2805     98.4179     70.4718   2.5063646511e+01   4.9741703642e+01    0.4575289    0.2386298  40.38  0.001395373    2.069    0.517
        53 -10.9160    138.9551     80.0263   1.7324464382e+01   3.8284003548e+01    0.3409949    0.2715846 -45.04 0.0004976684    1.234    0.189
        54  -9.7979    180.3101     68.4849   6.6676184440e+00   3.0716129299e+01    0.3826114    0.1707399 -60.83  0.001337461    3.403    0.706
        55 -11.2592    125.0090     57.4510   1.3423648811e+01   4.5705035938e+01     1.056035    0.6105437  62.98  0.003255971    1.720    0.419
        56 -11.0960    126.0038     62.2571   1.4781086336e+01   4.4635296105e+01    0.5116034    0.3888327 -65.75  0.001824328    1.414    0.293
        57  -9.5408    149.4607     63.8061   1.0402908653e+01   3.8620202497e+01     0.222023    0.1390191 -38.88  0.001021186    1.565    0.361
        58 -10.7225    108.9916     60.0077   1.8309760722e+01   4.9228892701e+01    0.4823807    0.4074029   4.84  0.002403694    1.526    0.345
        59 -10.2129    169.5456     61.0966   6.2798584174e+00   3.4290534355e+01    0.3633915    0.2360929 -67.58   0.00143839    1.690    0.408
        60 -12.2942     14.3160    142.5079   7.2509538672e+01   4.3967848291e+01    0.5011858    0.2220651  79.25  0.001952863    2.460    0.593
        61 -10.2260    173.9606     56.4070   4.3644553842e+00   3.3975874246e+01    0.2581305    0.2267914  18.68  0.001034745    1.512    0.338
        62 -11.4382    248.1191     54.4094   3.5634006491e+02   1.9448252412e+01    0.3367081    0.1692644  73.63  0.001953316    2.452    0.592
        63 -10.7401    209.3242     54.6584   3.5974400647e+02   2.6574721798e+01    0.3417732    0.1967379  61.72  0.001852769    1.946    0.486
        64 -11.3223    133.8021     51.4063   9.5504021644e+00   4.4477520731e+01    0.4702225    0.3117032 -31.95  0.000517516    1.631    0.387
        65 -10.6733    138.4727     45.0569   6.5968512649e+00   4.4256382274e+01     0.476679    0.3518866 -19.66  0.002076044    1.676    0.403
        66 -10.6429    241.1822     50.0119   3.5595766399e+02   2.1181615529e+01    0.2131103   0.08874632 -51.74  0.001091128    2.025    0.506
        67  -9.8165    213.6336     50.1618   3.5828366684e+02   2.6309563618e+01    0.1944658    0.1485797 -73.48 0.0005317876    1.253    0.202
        68  -8.8668    126.5656     50.4696   1.0731524337e+01   4.6450500826e+01     0.147007    0.1381954  84.60 9.350669e-05    1.037    0.036
        69 -10.9499    249.8725     47.1130   3.5474816617e+02   2.0045142230e+01    0.2683032    0.1484886 -47.27  0.001350567    1.341    0.254
        70 -11.3165    246.8965     43.0111   3.5412208002e+02   2.1042271376e+01    0.2606098    0.1750688 -34.77 0.0009413682    1.320    0.242
        71 -12.3719    121.2484     44.3956   9.7735032047e+00   4.8737926440e+01    0.4505646     0.370514 -65.85  0.001090951    1.229    0.186
        72 -11.2224    157.0709     42.6455   2.8501095063e+00   3.9961065817e+01    0.2833931     0.225725  84.66 0.0005680858    1.193    0.162
        73 -10.8404    235.7707     41.9479   3.5466716430e+02   2.3133462112e+01    0.2181585      0.16061  75.92  0.001044731    1.558    0.358
        74 -11.5938    229.0255     40.4862   3.5484380227e+02   2.4555061935e+01    0.2519144    0.2447846 -32.51 0.0007997934    1.359    0.264
        75 -11.4402    225.5419     39.4656   3.5488036988e+02   2.5338274594e+01    0.2428407    0.1870323 -63.32 8.162938e-05    1.114    0.102
        76 -13.0260    213.7244     39.0577   3.5571601553e+02   2.7705268086e+01    0.3470036    0.2781437  79.43 0.0006929367    1.353    0.261
        77  -9.3865    203.9282     42.5084   3.5738383935e+02   2.9282486068e+01      0.17224    0.1188393  74.83 0.0006951535    1.531    0.347
        78 -11.6424    177.0031     38.0368   3.5899447369e+02   3.5810604583e+01     0.606527    0.4632996 -53.34  0.002357268    1.150    0.130
        79  -9.8735    130.1770     37.4094   5.5497015377e+00   4.7453104286e+01    0.2581269    0.1846088 -47.16 0.0006085731    1.390    0.280
        80 -10.6285    248.3080     37.3367   3.5288795896e+02   2.1468090023e+01    0.2659304    0.1280599 -60.29  0.001525816    1.897    0.473
        81 -11.9726    240.1130     34.1656   3.5274999869e+02   2.3273482330e+01    0.3512267    0.2719588  82.03 0.0007723542    1.462    0.316
        82 -11.2761    248.1747     31.4376   3.5171252000e+02   2.2168451782e+01    0.3783671    0.2363125  82.23  0.002034222    1.792    0.442
        83  -9.7532    170.3238     39.3262   1.3285465341e-01   3.7210750363e+01    0.3307593    0.1724878 -45.45    0.0015602    1.716    0.417
        84 -10.8034    159.8640     35.9132   4.7092171360e-01   4.0176557992e+01    0.2170344    0.1902126 -79.33 0.0003828406    1.027    0.026
        85 -11.4895    151.2225     31.7521   3.6476051168e-01   4.2845930608e+01    0.3945485    0.2903356  57.01  0.001096099    1.433    0.302
        86  -9.7830    103.3283     30.2280   8.4862689817e+00   5.5351003201e+01    0.3052739    0.1615667  48.33  0.001020937    1.887    0.470
        87 -11.6374     76.5135    141.0122   5.0812777840e+01   3.6956954527e+01    0.3963976    0.2775516  87.11  0.001740029    1.775    0.437
        88 -10.4046    217.4168     28.0410   3.5292072815e+02   2.8282365556e+01     0.331496    0.1648748 -65.76  0.001647213    1.943    0.485
        89 -10.6041    168.6127     27.2164   3.5691688709e+02   3.9135246108e+01    0.3300305    0.2238954  78.70  0.001121023    1.402    0.287
        90  -9.0748    180.3072     27.2910   3.5575457882e+02   3.6372674437e+01     0.119008   0.09953095  41.59 0.0004751023    1.578    0.366
        91 -10.5904    230.0097     17.5125   3.4984033001e+02   2.7004950201e+01    0.3636409    0.1205275 -55.23  0.001517301    2.477    0.596
        92 -11.0942     70.3126    137.9259   5.2316878804e+01   3.8729482256e+01    0.3221516    0.2551656  51.22  0.001382113    1.240    0.194
        93 -11.4178    234.9674     20.5093   3.5020739106e+02   2.5750646844e+01    0.3302538    0.1826058  62.91  0.001998373    2.215    0.549
        94 -10.0626    128.3387     22.4328   6.2992514007e-01   4.9815942986e+01    0.2465862    0.1868681  66.80 0.0007013727    1.227    0.185
        95  -9.8978     51.5112    143.5017   5.9648090881e+01   3.9887471998e+01    0.1507478    0.1406878  63.62 7.287742e-05    1.005    0.005
        96 -12.5634     65.8148    128.9686   5.2222552648e+01   4.1788055619e+01    0.6354551    0.4214805  63.27  0.002480262    1.755    0.430
        97 -10.1493    114.3122    130.3465   3.6969973138e+01   3.2868245086e+01    0.1600148     0.122783 -12.25 0.0004428628    1.712    0.416
        98 -13.6671     61.7569    109.2865   4.9682976478e+01   4.7657887094e+01     2.753115     1.881931  -6.24   0.01135364    2.129    0.530
        99 -13.2539     73.0784    107.9261   4.5056681594e+01   4.6146009319e+01     1.313133    0.8635393  56.11  0.004794369    1.709    0.415
       100 -13.2132     76.6224    103.0890   4.2536097320e+01   4.6752115892e+01      1.23178    0.9322664  41.87  0.004852824    1.297    0.229
       101  -8.7592    167.6545    119.2868   2.1533716097e+01   2.4542925927e+01    0.1413023    0.1125961 -82.48 0.0007021308    1.650    0.394
       102 -10.5794    249.7651    107.9863   6.8561770881e+00   1.2098488950e+01    0.1725651    0.1234454 -35.92  0.001167883    1.073    0.068
       103  -9.8205    178.9529     18.4810   3.5351570930e+02   3.7690011145e+01    0.2025446    0.1869002  -5.47 0.0009355616    1.436    0.304
       104 -10.4732    172.0785    101.8384   1.6491701550e+01   2.6872000162e+01    0.4152219    0.2383697  64.91  0.001798429    2.245    0.555
       105 -11.2903    119.1097    105.9462   2.9601559150e+01   3.7471205601e+01    0.5184799    0.3972335 -45.58  0.002458875    1.314    0.239
       106 -13.4362     16.4044    101.6725   6.7506295422e+01   5.5016828824e+01    0.8609866    0.5104445 -67.79  0.003036384    1.542    0.351
       107  -9.3190    201.1635     16.2022   3.5126255470e+02   3.2974306932e+01    0.1735082    0.1111914 -62.56 0.0004748909    1.295    0.228
       108 -13.2358     32.6403     96.3355   5.9269882022e+01   5.5013965849e+01     1.476077     0.967995  41.92  0.006618983    1.556    0.357
       109 -12.5728    190.5301    248.4591   4.0223180871e+01  -2.1707938676e-01    0.7604417     0.212406  27.97  0.003453239    3.053    0.672
       110 -10.9631    200.5003    236.0231   3.6724145911e+01   3.2326861263e-01    0.2305097    0.1247222  23.70  0.001436418    1.589    0.371
       111 -10.2693    227.2904    178.8658   2.3106571446e+01   5.0630292390e+00    0.2352837    0.2057166 -20.09  0.001323162    1.253    0.202
       112 -12.2535    102.7679     94.2204   3.1151065361e+01   4.3641390792e+01    0.9848403    0.5937204 -41.72 0.0005514404    1.751    0.429
       113 -12.6316    113.1155     96.3825   2.8667360709e+01   4.0895050076e+01    0.6975468    0.6180659  13.70  0.002721161    1.316    0.240
       114 -12.9723      4.1638    140.9726   7.5921808908e+01   4.5090550672e+01     1.066168    0.4864848  78.41  0.004475232    2.179    0.541
