#   1 NUMBER                 Running object number                                     
#   2 MAG_AUTO               Kron-like elliptical aperture magnitude                    [mag]
#   3 X_IMAGE                Object position along x                                    [pixel]
#   4 Y_IMAGE                Object position along y                                    [pixel]
#   5 X_WORLD                Barycenter position along world x axis                     [deg]
#   6 Y_WORLD                Barycenter position along world y axis                     [deg]
#   7 A_WORLD                Profile RMS along major axis (world units)                 [deg]
#   8 B_WORLD                Profile RMS along minor axis (world units)                 [deg]
#   9 THETA_WORLD            Position angle (CCW/world-x)                               [deg]
#  10 FWHM_WORLD             FWHM assuming a gaussian core                              [deg]
#  11 ELONGATION             A_IMAGE/B_IMAGE                                           
#  12 ELLIPTICITY            1 - B_IMAGE/A_IMAGE                                       
         1 -14.2337    212.0908     18.9703   3.2165181284e+01   3.0921202412e+01     1.041798    0.9737393 -64.26  0.004699981    1.264    0.209
         2 -12.5080     53.8272     12.7018   6.0755871816e+01   6.6425116946e+01     0.493066    0.2067092  30.89  0.002216927    2.508    0.601
         3 -10.7187     77.2638     18.5583   5.5101386092e+01   6.1427027562e+01    0.3625064    0.1153256  53.96  0.001400847    2.978    0.664
         4 -14.1816    245.2036    235.0952   7.1897912739e+01  -9.4825050630e+00     2.464727    0.7698486 -35.48   0.01102441    2.836    0.647
         5  -9.6818    167.2107    245.3941   8.8669755476e+01  -7.9945418424e-01    0.2049711    0.1634475 -34.03   0.00062571    1.356    0.263
         6 -15.2816    121.6643    236.0531   9.7188576681e+01   7.6654127280e+00     15.10932     8.628111 -88.64   0.05550453    4.314    0.768
         7 -11.5412     61.4900    198.9252   1.0661663498e+02   2.4528648711e+01    0.2203508    0.1758324 -53.18 0.0008615499    1.351    0.260
         8  -9.6392    229.9796    198.2937   6.8033849426e+01  -1.8768197935e+00    0.1767276    0.1489786  -2.59 0.0004156201    1.097    0.089
         9 -10.0933     51.3492    198.7341   1.0908936834e+02   2.5841081669e+01    0.1182029    0.1155828  60.05            0    1.172    0.147
        10 -10.2157     83.2721    194.9700   1.0063311281e+02   2.2486601625e+01    0.2581097    0.2297776  27.35 0.0007764429    1.195    0.163
        11 -10.1824    191.0591    191.5030   7.4306873196e+01   5.3142040004e+00    0.5729118    0.3055916 -64.87  0.001656171    5.876    0.830
        12 -10.2195    164.5485    249.3568   8.9811926185e+01  -1.0790507077e+00    0.2209099    0.1818273  -2.43 0.0005524193    1.172    0.147
        13  -9.3661     66.7879    194.4859   1.0474673497e+02   2.4910492693e+01     0.164908    0.1374335  21.78  0.000293244    1.362    0.266
        14 -10.8731      1.6698    193.8466   1.2037043305e+02   3.1971896156e+01    0.1477421   0.08027026  -6.99 0.0006470196    3.742    0.733
        15  -8.7769     72.5573    188.5474   1.0248166691e+02   2.5583746916e+01    0.1455688    0.1269871  72.67 0.0003003423    1.108    0.097
        16  99.0000     46.9257    235.0340   1.1352043641e+02   1.8113622893e+01    0.1881199    0.1386936 -32.63  0.001077272    2.060    0.515
        17 -10.7191     62.3837    185.6594   1.0473521750e+02   2.7669819953e+01    0.4372719    0.2332172 -40.94  0.001522094    2.439    0.590
        18 -11.5747     78.6963    183.4347   1.0013974369e+02   2.5983200544e+01    0.4514917    0.4413802  31.26  0.001698494    1.109    0.098
        19  -9.4897     71.1063    185.3777   1.0241829133e+02   2.6570974326e+01    0.1691072    0.1244749  50.49 0.0002127132    1.342    0.255
        20 -12.2645    144.6728    182.3139   8.2987783508e+01   1.5305027409e+01    0.5994575    0.3457059  62.56  0.002133641    3.104    0.678
        21 -12.6554    147.8000    180.3924   8.1856131046e+01   1.5173009337e+01    0.7660465    0.4847884 -80.48  0.002734099    3.297    0.697
        22  -9.6951     90.3458    226.0265   1.0299294237e+02   1.4353017282e+01    0.1723509    0.1531734  89.31 0.0003401848    1.163    0.140
        23  -9.6461     72.7213    226.1631   1.0702809403e+02   1.6771893348e+01    0.1228158   0.07908618  50.16 0.0002326793    1.409    0.291
        24 -11.0026    181.3634    177.6406   7.3606022203e+01   9.7240102714e+00    0.5155734    0.3104482 -39.45  0.001674508    1.587    0.370
        25 -10.4669    179.3411    173.6962   7.3234523430e+01   1.0896109790e+01    0.2779028    0.1421924 -48.24  0.001014233    1.981    0.495
        26 -10.4296     85.4390    179.2578   9.7700137886e+01   2.6029602644e+01    0.2470868    0.2177794  69.80 0.0003722404    1.145    0.127
        27  99.0000     40.7823    223.9344   1.1392969860e+02   2.1239367987e+01     2.772311     1.994436  54.23   0.01696104    1.215    0.177
        28  -9.0587    199.7937    174.0067   6.9013711608e+01   7.2305829286e+00    0.1916564    0.1054998 -41.31 0.0004644603    1.682    0.405
        29  -9.3993    156.3190    173.6595   7.8465941933e+01   1.5114419488e+01    0.1511596    0.1227974  83.56 0.0007049561    1.714    0.416
        30 -10.2316    187.5040    169.3894   7.0585241737e+01   1.0308387803e+01    0.4944143    0.2193638 -49.35  0.001879603    2.386    0.581
        31 -11.2288    230.0234    169.9849   6.2520051393e+01   3.0169125146e+00    0.2229478    0.1507767  -9.88  0.001006551    1.720    0.419
        32 -11.5644    247.0412    164.8728   5.8662278631e+01   1.3256466069e+00    0.3455586     0.155844 -40.10  0.001625784    1.838    0.456
        33 -10.8822    120.5056    165.3161   8.5757629380e+01   2.3648240567e+01    0.3550446    0.2926303  86.96 0.0009635399    1.478    0.323
        34 -11.3706     92.5519    152.1166   9.0855951000e+01   3.1794850876e+01    0.4112167    0.2830217  25.75 0.0003346829    1.607    0.378
        35 -12.5104     97.6187    146.8905   8.8316458029e+01   3.2273339622e+01    0.8762434    0.6374487 -12.63  0.001819084    1.866    0.464
        36 -11.1961    133.7545    145.4615   7.7978214508e+01   2.5921693978e+01      1.27622    0.3376117 -54.79  0.002896764    5.718    0.825
        37 -10.6869    111.9077    150.2829   8.4969292696e+01   2.8899123808e+01     0.526131    0.3223954  78.63  0.001711934    3.491    0.714
        38 -10.0492     56.9316    212.3450   1.0920239826e+02   2.1935819621e+01    0.1836401     0.147661  72.91 0.0006159649    1.144    0.126
        39 -19.0011     22.1682     97.5941   1.0316427042e+02   5.4416384533e+01     16.24483     1.437768 -64.91   0.03103869   10.602    0.906
        40  -9.5805    145.0517    138.8437   7.3536363509e+01   2.5198623496e+01    0.2643742    0.1893575  75.03  0.001083363    2.084    0.520
        41 -11.2189    117.8722    134.6257   7.9757008681e+01   3.1618696013e+01     0.848033    0.5299097 -85.17  0.002274744    3.419    0.708
        42  -9.4586    113.3370    129.6797   7.9856911305e+01   3.3687026266e+01    0.2305009    0.1897921  87.74 0.0007337197    1.521    0.342
        43  -9.8752    115.4253    126.8072   7.8556612821e+01   3.3972775287e+01    0.3061363    0.2484512 -16.26 0.0006851907    1.427    0.299
        44 -11.6400    108.5148    134.3430   8.2358674275e+01   3.3462516926e+01     0.624795     0.392812 -44.10     0.002657    1.568    0.362
        45 -11.6205    105.6650    130.6053   8.2308587009e+01   3.4908299571e+01    0.6263769    0.4353624 -62.57  0.001569722    1.571    0.364
        46 -11.7621     97.3551    133.1715   8.5379292714e+01   3.5771855090e+01    0.3061336    0.2776249  -7.53 0.0004292984    1.185    0.156
        47 -11.4732     92.2022    134.4092   8.7215106871e+01   3.6351325984e+01    0.4859968    0.2721856  55.59   0.00182648    2.404    0.584
        48  -9.9279    133.8464    134.8792   7.5471204902e+01   2.8393139183e+01    0.2344668    0.2105407  -9.57 0.0002619293    1.196    0.164
        49 -10.6500     46.5997    207.2538   1.1110934688e+02   2.4376962819e+01    0.1637922    0.1026964  76.64 0.0006650382    1.641    0.391
        50 -10.4365    103.4310    121.8679   8.0844064243e+01   3.7449030055e+01     0.281353    0.2380503  -1.98 0.0006812083    1.344    0.256
        51  -9.8797    135.0000    119.9897   7.1465584960e+01   3.1576062180e+01    0.2644114   0.08850426 -45.86 0.0007990487    2.919    0.657
        52  -9.4218     73.5686    205.4830   1.0444493636e+02   2.1354082149e+01    0.1384894    0.1236363  70.06 0.0001099424    1.036    0.034
        53  -9.4158    183.7781    116.1884   5.9292533487e+01   2.1907467010e+01    0.2036996    0.1777901   1.83  0.000738589    1.344    0.256
        54  -9.3071    110.5339    116.5289   7.7372350642e+01   3.7361995961e+01    0.1568769    0.1507877 -25.17 0.0001245565    1.018    0.017
        55 -11.6667    118.9447    109.9564   7.3203952755e+01   3.7184046288e+01    0.5173267    0.4067162 -89.35  0.001862015    1.739    0.425
        56 -10.1897    205.3073    110.2541   5.3912637203e+01   1.8559013506e+01    0.2667842    0.2318831  62.72  0.000784858    1.270    0.212
        57 -10.6528    134.5712    105.3058   6.7696884377e+01   3.4893205080e+01    0.4845779    0.1491876 -45.57  0.001444609    3.232    0.691
        58  -9.7484    108.3027    106.6793   7.5412019355e+01   4.0072263680e+01    0.1546486    0.1257267  88.21 0.0002928638    1.630    0.386
        59  -9.3949     90.0463    105.0438   8.0654740553e+01   4.3885163177e+01    0.2334749    0.1890281  77.72 0.0005046277    1.649    0.394
        60 -10.8378     68.9683    240.6623   1.0931810885e+02   1.4189200804e+01    0.1471883    0.1306586  72.70 0.0009684889    1.088    0.081
        61 -10.4679    105.5333     89.4052   7.1320702635e+01   4.4391652162e+01    0.2734016    0.2520653  83.38 0.0003402391    1.270    0.213
        62  -9.2442     65.4672     80.4700   8.2178387053e+01   5.3460070892e+01    0.1440074    0.1301225 -18.72  0.000186916    1.002    0.002
        63 -13.4600    171.4478     62.0911   4.7782603066e+01   3.4392096995e+01     1.590016      1.00182  28.62   0.00522233    2.534    0.605
        64 -13.5735    187.2920     48.7172   4.1870535757e+01   3.2687461131e+01     0.900647    0.8281546  67.85  0.003390998    1.164    0.141
        65 -12.5980    193.1431     42.4454   3.9554152223e+01   3.2210844201e+01    0.4705316    0.4480651 -81.26  0.001417814    1.156    0.135
        66 -10.9736     73.9197     57.7751   7.1526843029e+01   5.6515319109e+01    0.5114915    0.2533424  50.95  0.001217275    2.619    0.618
        67 -11.1838     59.1943    246.6887   1.1191780778e+02   1.4204758041e+01    0.1561518    0.1271121  15.27 0.0009775985    1.569    0.363
        68 -10.4349     60.2889     21.0156   6.2024962457e+01   6.4355968624e+01    0.2149362    0.1582866  33.73   0.00045309    1.187    0.157
        69 -11.5518     53.9915    241.9092   1.1260018647e+02   1.5822584631e+01    0.1805297    0.1581655  67.32  0.001227473    1.078    0.073
