#   1 NUMBER                 Running object number                                     
#   2 MAG_AUTO               Kron-like elliptical aperture magnitude                    [mag]
#   3 X_IMAGE                Object position along x                                    [pixel]
#   4 Y_IMAGE                Object position along y                                    [pixel]
#   5 X_WORLD                Barycenter position along world x axis                     [deg]
#   6 Y_WORLD                Barycenter position along world y axis                     [deg]
#   7 A_WORLD                Profile RMS along major axis (world units)                 [deg]
#   8 B_WORLD                Profile RMS along minor axis (world units)                 [deg]
#   9 THETA_WORLD            Position angle (CCW/world-x)                               [deg]
#  10 FWHM_WORLD             FWHM assuming a gaussian core                              [deg]
#  11 ELONGATION             A_IMAGE/B_IMAGE                                           
#  12 ELLIPTICITY            1 - B_IMAGE/A_IMAGE                                       
         1 -12.3625    104.5023     13.7025   1.9159302078e+01   5.6046455528e+01    0.4876563    0.3577055   0.15  0.002870632    1.575    0.365
         2 -12.9918    105.6884     20.1928   2.1235370769e+01   5.5163904651e+01    0.3275225    0.3069108  84.87 0.0004478575    1.245    0.196
         3 -12.2800    163.2568     28.1979   1.2878238416e+01   4.0638022394e+01    0.5509354    0.3620555  42.76 0.0006873208    1.699    0.412
         4 -12.0803     48.2319     13.0408   3.6576409886e+01   6.7185564100e+01    0.7693122    0.2406785  43.11   0.00330357    2.857    0.650
         5 -11.8670     35.2951     19.2244   4.5272689001e+01   6.8347044394e+01     0.443011    0.2281129 -30.10  0.001275907    1.848    0.459
         6 -11.6396     20.3566     21.9057   5.4009613263e+01   6.9741296763e+01    0.5794926    0.3011104 -27.35  0.002586678    1.716    0.417
         7 -12.1601    135.6987     22.3938   1.5713555839e+01   4.7933477606e+01    0.5418195    0.3986045  65.46  0.002970813    1.197    0.165
         8 -11.7079    128.1714     11.9883   1.3779532488e+01   5.0721660441e+01    0.3385616     0.238543 -71.73  0.001314371    1.761    0.432
         9 -12.1654    135.1907     14.8565   1.3460226412e+01   4.8792635756e+01    0.6671804    0.2348351  60.60  0.002782339    2.253    0.556
        10 -11.3638     67.5255     19.3541   3.2029915261e+01   6.3150558568e+01    0.3721178    0.3439772 -76.87  0.001357706    1.657    0.396
        11 -12.2190    164.9551     18.0962   9.8919781156e+00   4.1315277791e+01    0.5305162    0.2752218  45.01  0.002510377    2.183    0.542
        12 -12.0062      6.1725     11.5470   5.7200240936e+01   7.2581737685e+01    0.6500984    0.5102801 -42.45   0.00473988    1.655    0.396
        13 -10.7378     12.8815      8.7533   5.1936793375e+01   7.2354377236e+01    0.2726959     0.169725 -43.13  0.001269584    1.989    0.497
        14 -12.2760     16.1423     13.9171   5.2616966810e+01   7.1322643092e+01    0.6526127    0.2845485 -20.94  0.003160171    2.646    0.622
        15 -12.2222     22.5841     10.8695   4.7645326045e+01   7.1024209543e+01    0.4969141    0.3088886  16.05  0.002289703    1.384    0.277
        16 -11.4741     85.9610     14.2587   2.4090023327e+01   6.0023235735e+01    0.6300625     0.347815  14.31  0.003013783    2.366    0.577
        17 -10.6431     89.5137      8.5532   2.0863119064e+01   5.9779840239e+01    0.2805182    0.1767353 -15.91 0.0009875363    1.801    0.445
        18 -12.0092    239.8891     16.3438   2.0213336774e+00   2.4657428524e+01    0.4363608     0.164351  61.73  0.002140905    2.714    0.631
        19 -11.4386    228.7035     15.9507   2.7980844474e+00   2.7011054801e+01    0.2653673    0.1844873  82.20 0.0003667192    1.286    0.222
        20 -11.1879    225.5467     13.5396   2.5590778453e+00   2.7945181214e+01    0.2524039    0.1724631 -53.68 0.0008630056    1.294    0.227
        21 -11.9652    192.0260      9.2882   4.5800030462e+00   3.5817402033e+01    0.6263704    0.3486255 -11.09  0.003006665    3.100    0.677
        22 -11.0667    223.7416      2.7077   5.0927216734e-01   2.9470261593e+01    0.2214235    0.1684519 -79.75 0.0004096415    1.025    0.025
        23 -11.1869    218.5592      3.8090   1.1106059796e+00   3.0461948431e+01     0.276175    0.1797819  70.31 0.0007268381    1.450    0.310
        24 -11.9562    211.7590     10.4022   3.0331704993e+00   3.1261157801e+01    0.3249993    0.2956774 -38.27  0.001452717    1.381    0.276
        25 -10.8964    214.4826      5.5178   1.7772582753e+00   3.1169280851e+01    0.2015379   0.09936586  75.99 0.0007944201    1.766    0.434
        26 -10.7483    121.0377     11.7209   1.5005506471e+01   5.2423786948e+01    0.3176471    0.1422624  69.36  0.001200179    2.195    0.544
        27  -9.7880     98.4944     12.0221   1.9953611867e+01   5.7533057861e+01    0.1743197    0.1260743 -16.05  0.001026579    1.571    0.363
        28 -11.0726    169.2239      9.4614   7.0756323836e+00   4.1139219878e+01    0.4328205    0.1596586  57.01  0.001552158    2.348    0.574
        29 -11.3477    163.5603      9.0907   7.6646104696e+00   4.2522095921e+01    0.6270498    0.2974508 -10.92  0.002665331    3.600    0.722
        30  -9.7525    145.2036      9.8349   1.0357353113e+01   4.6850054010e+01    0.1807242    0.1321688  46.08 0.0006953316    1.368    0.269
        31 -11.7717    242.7883      3.8808   3.5945862876e+02   2.5441536076e+01    0.6929395    0.2423902 -65.41  0.003085868    3.100    0.677
        32 -10.3016    245.9244      1.4148   3.5881127409e+02   2.5080347948e+01    0.2029632    0.0913809  78.23 0.0004222885    1.998    0.499
        33 -10.3477      1.3448      7.2741   5.8081198127e+01   7.3582603678e+01     0.282883   0.07463963 -42.05  0.001312827    3.084    0.676
        34 -10.6388      2.2090      2.0811   5.4939158397e+01   7.4226126224e+01     0.233036    0.1340854 -13.00  0.001388854    1.438    0.305
        35 -11.6693    184.6314      6.2008   4.5840474837e+00   3.7824899928e+01    0.4087577     0.194853 -51.49  0.002054922    2.123    0.529
        36 -11.1286    187.8512      2.3940   3.3730700378e+00   3.7436188453e+01    0.3569924    0.1531954 -89.23  0.001568862    2.585    0.613
        37 -11.8243    152.2408      7.6846   8.7465678217e+00   4.5353839063e+01    0.3529156    0.2636836  71.16  0.001019008    1.120    0.107
        38 -11.1609    231.6869      6.3200   6.6170725963e-01   2.7436376435e+01    0.2369369    0.1224624 -61.56 0.0009407684    1.681    0.405
        39 -11.7653    233.2516      2.5728   3.5982870230e+02   2.7504727022e+01    0.3918177    0.2029339 -75.94 0.0002716016    1.746    0.427
        40 -12.0101    177.1289      5.9251   5.2925779398e+00   3.9601289970e+01    0.3194167    0.2064158 -89.26 0.0004982014    1.412    0.292
        41  -9.7061     77.8525      7.3264   2.3568174553e+01   6.2310678950e+01       0.1834    0.1459417  64.45 0.0007306415    1.445    0.308
        42 -10.1659     62.9730      6.8195   2.8069757542e+01   6.5246397915e+01    0.2034266    0.1560986   7.81  0.001029378    1.215    0.177
        43 -10.8497    105.5580      2.3136   1.4811743737e+01   5.6737770089e+01    0.4286782    0.2469652  80.32  0.001642182    2.115    0.527
        44 -10.9069     73.5288      3.4343   2.3184005407e+01   6.3499152967e+01    0.4388458    0.1626904  44.23  0.002049395    2.110    0.526
        45 -12.0950    133.9479      2.6172   9.8905222725e+00   5.0129104517e+01    0.4794567    0.2682774  75.55  0.002170652    1.644    0.392
        46 -11.5875    141.4894      3.6558   9.0863763881e+00   4.8257879338e+01    0.3536776    0.1959911  63.67  0.001739499    1.462    0.316
        47 -10.6191     41.7537      3.5217   3.4685408213e+01   6.9202110001e+01    0.2645809     0.158861  22.91 0.0009552564    1.419    0.295
        48 -10.5135    158.6131      2.4931   6.5062614916e+00   4.4278071757e+01    0.3779032    0.1260406  46.95  0.001451966    3.474    0.712
        49  -9.8113     21.9962      3.0202   4.3930969697e+01   7.2041976237e+01     0.144876    0.1320227   4.74 0.0006594062    1.583    0.368
        50 -10.2631     13.4448      2.4795   4.8379899721e+01   7.3094622521e+01    0.1927367    0.1350326  22.23 0.0007218064    1.395    0.283
        51 -11.9188    114.1981      2.7992   1.3290662391e+01   5.4732440498e+01    0.5432011    0.2898525  76.77   0.00266247    2.030    0.507
        52  -9.2693     29.6151      2.2837   3.9642351134e+01   7.1123935334e+01   0.09738363   0.08851166  38.36 0.0007008401    1.737    0.424
        53  -9.8352    152.0529      1.4482   7.0317865020e+00   4.5922322832e+01    0.1934662    0.1041895  71.16 0.0004970692    1.536    0.349
        54  -9.9970    123.0536      1.0000   1.1123220481e+01   5.2812031740e+01     0.215655   0.06039414  66.45  0.000683391    2.937    0.660
        55 -11.3564    207.7844      2.6149   1.6956945787e+00   3.2924168825e+01    0.3291609    0.1717901 -81.10  0.001649565    1.837    0.456
        56 -11.3369      3.5131    142.1696   8.8594274623e+01   4.4973245103e+01    0.4399713    0.2766117  46.42  0.002525641    1.758    0.431
        57 -11.1792    247.9019    248.6470   4.7173135306e+01  -1.2357052255e+01    0.3664803    0.2859052  62.10  0.001995676    3.705    0.730
        58 -10.8001     79.9991    138.4895   6.5228656480e+01   3.7641562142e+01    0.3137334    0.2647099  48.77 0.0006814831    1.249    0.200
        59  -9.7022     40.5079    138.0301   7.7236254347e+01   4.2921699797e+01    0.2136522    0.1241529 -66.46  0.000568857    1.536    0.349
        60 -11.2302     23.5914    136.8770   8.2174543170e+01   4.4808901895e+01    0.4321706    0.2261129  27.64  0.001686975    2.144    0.534
        61  -9.5217     32.0583    137.5011   7.9719219083e+01   4.3897599238e+01    0.1840862    0.1365134  25.21 0.0008184083    1.547    0.353
        62 -10.2574     12.3102    135.5829   8.5347271261e+01   4.6002162087e+01    0.3998151    0.1111778 -49.05  0.001464746    3.342    0.701
        63 -10.6021     30.2251    132.7710   7.9564500019e+01   4.5257502831e+01    0.3002723    0.2082593 -34.47  0.001078128    1.595    0.373
        64  -9.2670    103.6916    130.7319   5.6376565212e+01   3.5500238701e+01    0.1538959    0.1224204  -9.95 0.0002070017    1.539    0.350
        65 -10.5797      9.9972    127.1923   8.4987164045e+01   4.8226677814e+01    0.4339927    0.1734864 -45.24  0.001904164    2.451    0.592
        66  -9.5242     22.7836    126.8688   8.0986519569e+01   4.7372283289e+01    0.1701655    0.1397855  85.44 0.0003917211    1.262    0.207
        67  -9.7531      2.0433    126.0169   8.7247743860e+01   4.8998710511e+01    0.2014701    0.1317412  71.64  0.001130138    1.700    0.412
        68 -11.0609    104.7486    122.4806   5.4047517259e+01   3.7282934145e+01    0.3625034    0.3566165  73.23  0.001650636    1.069    0.064
        69  -9.7964     56.1943    121.8536   6.9285886781e+01   4.5190138276e+01    0.2084935    0.1887921  83.42  0.000496218    1.217    0.178
        70 -10.4382     44.6221    119.8251   7.2702280166e+01   4.7058177258e+01    0.2569986    0.1690904 -71.45 0.0006296148    1.540    0.351
        71 -10.7115      7.8897    114.8562   8.3988204143e+01   5.1367768334e+01    0.2937489    0.2198344 -45.55 0.0003807587    1.247    0.198
        72 -12.0105      2.4795    111.8440   8.5326755173e+01   5.2397861978e+01    0.4135049    0.2690414 -70.66 0.0009418941    1.264    0.209
        73 -11.4757      4.3050    105.5201   8.3825056512e+01   5.3811983070e+01    0.3874387    0.3255012 -20.62  0.002581115    1.328    0.247
        74 -11.5001     24.8549    107.6283   7.7110002312e+01   5.1932933115e+01    0.7399753    0.3606565 -30.99  0.003236919    2.473    0.596
        75 -11.5993     22.6311    114.2602   7.9035390834e+01   5.0496131504e+01    0.5128407    0.2852125  -3.16  0.002039477    2.478    0.596
        76 -11.3653     28.5091    113.0415   7.6840805982e+01   5.0310145429e+01    0.3345872    0.3005244  13.56  0.002095548    1.274    0.215
        77 -10.8339    249.5093    111.9729   2.0543962076e+01   8.9795267733e+00     0.212979    0.1117807 -39.88  0.001038976    1.608    0.378
        78 -10.0244     48.7483    112.1654   6.9740842214e+01   4.8481811722e+01    0.2395989    0.1854068  39.31   0.00128974    1.443    0.307
        79 -12.3378     80.0787    107.9292   5.8093034829e+01   4.5115763622e+01    0.3291546    0.2928169  -1.64 0.0004349257    1.167    0.143
        80 -10.8206     15.4341    109.2452   8.0630262542e+01   5.2243081739e+01    0.3285979    0.2543557  -9.43    0.0019924    1.495    0.331
        81  -9.0179    182.5249    104.4878   2.9834739618e+01   2.4142377007e+01    0.1512321    0.1429763 -64.41 9.544285e-06    1.040    0.038
        82  -9.5333     85.8045    103.6397   5.5066869361e+01   4.5145960486e+01    0.2246576    0.1844347   6.23 0.0006247977    1.338    0.252
        83 -10.4894     36.1507    102.8664   7.2171925719e+01   5.2074501322e+01    0.4979715    0.2514997  -4.55  0.001938645    3.283    0.695
        84 -11.6856     17.4322    100.7012   7.8457597107e+01   5.4153163377e+01    0.2595082    0.2112197 -63.26 0.0004315922    1.100    0.091
        85 -11.0149     52.0004     99.5428   6.5697937469e+01   5.1121181092e+01    0.5432801    0.2247434 -42.22  0.001117721    2.360    0.576
        86 -11.8759      9.3482     97.1727   8.0728797486e+01   5.5505271940e+01    0.4589022    0.3811196  89.11  0.001151976    1.346    0.257
        87 -11.8047    247.8531     98.6224   1.7976561051e+01   1.1485981506e+01    0.3373269    0.2429576   0.69  0.001706422    2.383    0.580
        88 -11.5034     68.2493     95.7732   5.8909087672e+01   4.9780191333e+01    0.5140198    0.3355695  10.25  0.001964573    1.912    0.477
        89 -10.7429     31.3698     96.7325   7.2592647274e+01   5.3978334310e+01    0.4064826    0.2306631  59.89   0.00172582    3.011    0.668
        90  -9.3952     77.6670     96.7056   5.5890358350e+01   4.8092820615e+01    0.1529242    0.1113117 -12.83 0.0003219079    1.639    0.390
        91 -12.2805     21.9512     94.0533   7.5522249442e+01   5.5390634837e+01    0.5251634    0.3516989  54.11  0.001108565    2.018    0.504
        92 -10.1166     17.0056     87.0831   7.5952286591e+01   5.7361089364e+01    0.3124295    0.2455317   5.27   0.00195098    1.422    0.297
        93 -11.7370    125.8274     94.8148   4.0445250913e+01   3.9074540667e+01    0.2563339    0.2480167   8.78 0.0002322333    1.024    0.024
        94  -9.3544     39.7193     89.6958   6.7821567579e+01   5.4797366485e+01    0.1700176    0.1578179 -52.92 0.0001814831    1.146    0.128
        95 -10.4194     43.4632     94.4755   6.7586609277e+01   5.3296047611e+01    0.2697428    0.2372496 -27.79  0.001011204    1.067    0.062
        96  -9.8226     42.7880     90.9840   6.6978710030e+01   5.4174486157e+01    0.2047965    0.1747143 -39.16  0.000315825    1.021    0.020
        97 -10.8878     79.7929     92.4480   5.3956383008e+01   4.8685135574e+01    0.5653312    0.4687913  52.61  0.002953323    1.411    0.291
        98 -10.4344     79.8520     84.4285   5.1562988107e+01   5.0395397787e+01    0.3585099    0.2687015 -24.44   0.00180035    1.374    0.272
        99 -11.6207     75.0224     78.8415   5.1539308989e+01   5.2368337559e+01    0.5154408     0.482339  35.01  0.001415452    1.190    0.159
       100 -10.4841     35.1332     92.3461   7.0198649703e+01   5.4649766859e+01    0.2949278    0.1898252 -68.89  0.001129345    1.685    0.406
       101 -11.8807     98.3860     91.0521   4.7416796016e+01   4.5598214756e+01    0.2850014    0.2440165  37.54 0.0001060574    1.174    0.148
       102  -9.2153     91.0360     85.2635   4.8040964725e+01   4.8210499686e+01    0.4753292    0.2508952  54.17  0.001799835    2.612    0.617
       103  -9.9994     49.5668     91.5227   6.4570389156e+01   5.3272381974e+01    0.2831278    0.1362254  27.43  0.001227766    2.230    0.552
       104 -11.7782      6.9589     88.2855   8.0022322503e+01   5.7703857491e+01    0.5142136    0.3538785  -4.65   0.00276813    1.655    0.396
       105 -11.2100     26.9647     86.3947   7.1941084634e+01   5.6755170143e+01    0.5191458    0.3954396 -42.88  0.002260141    1.102    0.093
       106  -9.6413    104.0312     86.6783   4.4344061499e+01   4.5376617435e+01     0.208059    0.1933777  26.27 0.0009212046    1.053    0.050
       107 -10.1107     52.0235     86.9850   6.2439795905e+01   5.3992251817e+01    0.2043005    0.1805331 -35.36  0.001196034    1.039    0.038
       108 -11.6081     44.4650     84.7292   6.4719410682e+01   5.5399086746e+01    0.5104403    0.3207382  15.31  0.002577957    1.766    0.434
       109 -10.1666     37.1576     86.1294   6.7914578408e+01   5.5870057414e+01    0.2808665    0.1951862  19.78 0.0008409947    1.561    0.360
       110 -11.0689    143.1862     84.6131   3.3037892409e+01   3.7094468082e+01    0.2556428    0.2450317 -37.41 0.0002796268    1.067    0.063
       111  -9.6756    113.3063     83.0281   4.0462383661e+01   4.4158893969e+01    0.2139869    0.2038682 -30.16  0.000937804    1.074    0.069
       112 -10.3583     67.2318     81.5169   5.5183688093e+01   5.3058545405e+01    0.3261633    0.2360912  -8.13  0.001477227    1.569    0.362
       113 -10.9580     58.0421     78.0872   5.7590320824e+01   5.5122710744e+01    0.2750026    0.2052909 -35.97 0.0006628757    1.223    0.182
       114 -11.8024     53.1285     74.0145   5.8256117374e+01   5.6638232956e+01    0.5454534    0.2746668 -51.69 0.0008932076    1.971    0.493
       115 -10.3311     88.8490     77.4866   4.6336624982e+01   5.0186493815e+01    0.4352511    0.2152555  43.41  0.001782777    2.053    0.513
       116  -9.5506     94.2540     76.5423   4.4261337399e+01   4.9334022360e+01    0.2722416    0.2086966   5.03  0.001270946    1.492    0.330
       117 -11.6592    248.2851     76.6509   1.3359475885e+01   1.4879169382e+01    0.2320539    0.2123053  65.52  0.001557268    1.303    0.233
       118 -11.3756     14.0928     74.7508   7.4389066743e+01   6.0319276117e+01    0.3246066    0.2378377 -67.17  0.001214887    1.402    0.287
       119  -9.8437    103.1224     74.9309   4.0956618188e+01   4.7853373106e+01    0.2110994    0.2039062 -87.03 0.0004654256    1.207    0.172
       120 -10.9936      2.0748     71.5626   7.8656952673e+01   6.1692221414e+01    0.3816358    0.1705376 -57.67  0.001804929    1.697    0.411
       121  -9.8170     24.6005     73.7246   6.9780232998e+01   5.9764239369e+01    0.2526397   0.09968448 -53.36  0.001124754    2.056    0.514
       122 -11.0418     34.9856     71.8444   6.4951478123e+01   5.9210550419e+01    0.4323575      0.19989  32.92  0.001994277    2.373    0.579
       123  -9.9087     41.2181     72.7985   6.2664302769e+01   5.8345504643e+01    0.2976578    0.2027859 -27.26  0.001099272    1.386    0.279
       124 -10.6851     39.9933     69.0679   6.2057075451e+01   5.9257852528e+01    0.2543467     0.203901  11.37 0.0007136655    1.265    0.209
       125  -9.3516     92.6463     72.3136   4.3413771494e+01   5.0451797500e+01    0.1432621    0.1192852  84.22 0.0007045359    1.734    0.423
       126 -10.5804    122.8670     68.7744   3.3371064855e+01   4.4643732498e+01    0.4452988    0.2289903  41.63  0.001809535    1.945    0.486
       127 -10.5318     13.7479     67.6139   7.2805671074e+01   6.1882407299e+01    0.3937312     0.217654   3.53  0.002111297    2.037    0.509
       128 -10.0439     77.8502     67.5623   4.6866418537e+01   5.4089524292e+01    0.2535022    0.1964113 -86.14  0.001192875    2.305    0.566
       129 -10.1400     96.4995     65.4934   3.9914870369e+01   5.0921647581e+01    0.2459443    0.2262208  21.83  0.001395287    1.031    0.030
       130 -11.0712     92.3319     62.8541   4.0349455429e+01   5.2218193171e+01    0.3827462    0.2618843  54.22  0.001139835    1.675    0.403
       131 -11.9872      9.8524     62.8311   7.3290072339e+01   6.3137170933e+01    0.5976349    0.2732527 -48.95  0.001171972    1.665    0.399
       132 -12.4157      4.1759     61.4844   7.5467875046e+01   6.3737900278e+01    0.7342206    0.2822302 -43.94  0.001155346    1.952    0.488
       133 -10.8573    201.7446     64.7938   1.6654338253e+01   2.6552197398e+01       0.2398    0.2004009 -80.88 0.0002264259    1.145    0.127
       134 -10.7040     40.4581     56.9876   5.7990769425e+01   6.1596002906e+01    0.3046001    0.1740919  29.26  0.001032969    1.807    0.446
       135 -11.3777     43.0378     61.0057   5.8231551982e+01   6.0518890121e+01    0.3647119     0.211388 -47.73  0.001869115    1.651    0.394
       136 -11.7623     46.4552     59.5008   5.6288172486e+01   6.0385473272e+01    0.6881056    0.2887655  43.05  0.002746866    3.256    0.693
       137 -10.2685     64.9717     61.3078   4.9473635940e+01   5.7401334183e+01    0.3104093    0.2875516  37.09  0.001886197    1.289    0.224
       138  -9.9084    123.4472     60.7442   3.0667424105e+01   4.5837902494e+01    0.2520483    0.1752446  64.76  0.001188486    1.602    0.376
       139 -10.6236     31.3105     53.0474   6.0703456169e+01   6.3348897604e+01    0.4618903     0.190361  18.13   0.00161149    2.815    0.645
       140  -9.8579     29.6536     60.2996   6.3792302040e+01   6.2105703170e+01    0.2791579    0.2299892 -41.08  0.001326056    1.168    0.144
       141 -11.3951     24.9590     56.8975   6.4827671133e+01   6.3214885672e+01     0.503069    0.3996972 -21.41  0.002155877    1.061    0.058
       142  -9.2172    106.5192     58.4744   3.4517283352e+01   4.9995853900e+01    0.1434156    0.1339565  29.97 6.370981e-05    1.036    0.035
       143 -10.1153     87.7636     56.7733   3.9727001931e+01   5.4145914270e+01    0.3284372    0.1587862 -30.98  0.001075723    2.263    0.558
       144 -12.2730     74.9649     53.0128   4.2789118654e+01   5.7160662771e+01    0.4559957      0.42878 -19.10  0.001412141    1.193    0.162
       145 -12.4566     73.1546     47.5787   4.1425174462e+01   5.8357816722e+01     0.374883    0.2703422 -46.05  0.001237554    1.673    0.402
       146 -10.4493    118.0038     55.5489   3.0384324918e+01   4.7897445789e+01    0.9348027    0.4341278 -56.30  0.002859441    4.651    0.785
       147 -10.3833    122.7415     44.5839   2.5581746606e+01   4.8382233466e+01    0.3132884    0.2200209  68.90  0.001536611    1.558    0.358
       148 -10.4593    112.4127     50.7748   3.0267709084e+01   4.9878249023e+01    0.4134671    0.2575221 -14.64   0.00186453    2.083    0.520
       149 -10.8702    112.2466     42.5612   2.7505007967e+01   5.1068927543e+01    0.5470514    0.2396332  55.59  0.001627198    2.162    0.537
       150 -10.4460    110.3762     38.7559   2.6669131388e+01   5.1990613225e+01    0.3054635    0.2012918  -6.31  0.001338102    1.946    0.486
       151 -11.5518    117.4197     45.0910   2.7050422064e+01   4.9546295257e+01    0.5576326    0.4168609 -22.32   0.00289738    1.480    0.324
       152 -12.0843    119.6999     37.8690   2.4067923451e+01   4.9965949844e+01    0.6461884    0.3415938 -43.89  0.002115466    2.224    0.550
       153 -10.0453     50.9727     56.3139   5.3302135842e+01   6.0384007032e+01    0.2449593    0.1946359  -4.77   0.00145209    1.145    0.127
       154  -9.8725    157.1248     54.5346   2.1329788716e+01   3.8729465612e+01    0.3382783    0.1872531 -45.16  0.001504891    1.907    0.476
       155  -9.9597    124.6046     56.2694   2.8937861364e+01   4.6267306300e+01    0.1877205    0.1402779 -18.08 0.0006287819    1.537    0.349
       156  -9.2839     33.9289     57.0000   6.0850036596e+01   6.2321700364e+01    0.1978608   0.06965129  25.91 0.0008050454    2.961    0.662
       157  -9.3842     67.0233     54.9910   4.6447620039e+01   5.8192640334e+01    0.1658571    0.1427475 -11.84 0.0005693375    1.064    0.060
       158  -9.0488    201.3196     53.3263   1.3951941767e+01   2.8341632838e+01    0.1299502    0.1050895  30.39 0.0004552369    1.681    0.405
       159 -10.4614     60.5050     52.0086   4.7882249552e+01   5.9750424488e+01    0.2938063    0.1247622 -41.05  0.001255247    2.322    0.569
       160 -11.0316     60.8686     46.9815   4.5852877850e+01   6.0531082962e+01    0.4733018    0.2886425 -14.59  0.001952808    1.907    0.476
       161 -10.6134     10.8208     51.2383   6.9648177744e+01   6.5424999028e+01    0.3198563    0.1526769 -51.69 0.0009562686    1.722    0.419
       162 -10.2370     13.2309     46.7903   6.7120376938e+01   6.6116868903e+01    0.2752116    0.1191956 -41.90  0.001177014    1.817    0.450
       163 -10.4035    239.9736     50.7364   8.8997620044e+00   2.0306256891e+01    0.1733059    0.1437194 -76.10 0.0005499813    1.071    0.066
       164  -9.9691    144.8721     50.4910   2.2556002623e+01   4.2287424516e+01    0.2545283    0.1853164  -6.06  0.000679151    1.829    0.453
       165  -9.4848     55.4803     50.4742   4.9332881875e+01   6.0776660094e+01     0.167271    0.1211354  36.35 0.0001274848    1.469    0.319
       166 -10.6582     51.7387     48.4255   5.0112918307e+01   6.1670531527e+01    0.5634553    0.2129515  30.16   0.00229241    2.766    0.638
       167 -12.1359     44.4164     44.2474   5.1661092191e+01   6.3383262547e+01    0.5175325       0.3581 -38.92 0.0008014554    1.434    0.303
       168 -10.4476     39.3203     44.3156   5.3950480778e+01   6.4021151973e+01    0.2313102    0.1734449 -12.93 0.0008243889    1.157    0.136
       169 -10.0619      2.1641     48.8372   7.3090879184e+01   6.6407135754e+01     0.206195    0.1628067 -35.35 0.0007827167    1.050    0.048
       170 -11.2208     20.6457     46.2998   6.3381060319e+01   6.5620134752e+01    0.4027937    0.2238138 -36.42   0.00218029    1.491    0.329
       171  -9.7027     82.5376     46.9571   3.7909734905e+01   5.6711313177e+01    0.1900921    0.1131851  -6.55 0.0008077598    2.417    0.586
       172 -10.7251     23.1994     37.3593   5.8913100593e+01   6.6981850479e+01    0.4339277    0.1863068  35.03  0.002098356    2.739    0.635
       173 -10.7316     29.8643     45.2566   5.8643396856e+01   6.4930540859e+01    0.2803625    0.1643505 -23.04  0.001484339    1.631    0.387
       174 -10.8344     26.4960     42.8536   5.9361354968e+01   6.5701433331e+01    0.2302334    0.1919602 -17.59 0.0008026413    1.092    0.084
       175 -10.4269    155.9474     42.1246   1.7985731910e+01   4.0725414219e+01    0.2601478    0.2076374 -24.15 0.0007297002    1.446    0.309
       176  -9.3191    139.6725     43.6792   2.1547823320e+01   4.4476031502e+01     0.146639    0.1017632  31.02 0.0007047778    1.686    0.407
       177 -10.8877     10.2413     32.0322   6.3524644686e+01   6.9010513384e+01    0.4478585    0.1779319 -33.77  0.002198904    2.175    0.540
       178 -10.6257      7.0100     30.8009   6.4785604401e+01   6.9456929479e+01    0.5055547    0.2067665 -11.06    0.0021487    3.529    0.717
       179  -9.9337      2.0075     39.0000   7.0233471721e+01   6.8298290630e+01    0.2435642    0.1229561  22.17  0.001004507    2.181    0.542
       180 -11.2418      4.6619     35.7360   6.7783555075e+01   6.8740035036e+01    0.5052304     0.296669 -48.13  0.003132665    1.462    0.316
       181  -9.2595     77.2999     41.3060   3.7560595661e+01   5.8540697456e+01    0.2795781    0.1507536  11.37 0.0004071806    3.313    0.698
       182 -10.3224     80.2635     39.0301   3.5669736948e+01   5.8297653341e+01    0.3665349    0.2625948  79.45  0.001690682    2.788    0.641
       183 -11.0827     78.3555     34.1156   3.4391931197e+01   5.9327516851e+01    0.5159642    0.2839847  28.86  0.002457161    1.893    0.472
       184 -11.0707     61.2069     36.1161   4.1436300462e+01   6.2138749862e+01    0.4847546    0.2983091  -0.77  0.001656655    1.979    0.495
       185 -10.3625     68.6815     32.7279   3.7226856739e+01   6.1313179409e+01    0.3652501    0.1979664  53.06  0.001715814    2.270    0.559
       186  -9.5027    194.9412     37.5468   1.0973578874e+01   3.1946536501e+01    0.1866196    0.1184871  70.41 0.0003094766    1.458    0.314
       187 -12.3399    152.9730     35.9466   1.6722844507e+01   4.2227906407e+01    0.2724171    0.2455606  56.85 0.0003769324    1.086    0.079
       188 -11.2844    175.4930     34.1871   1.2708648096e+01   3.6977677326e+01    0.3858312    0.2243129 -50.32 0.0002481308    1.785    0.440
       189  -9.3745    219.1933    248.5792   5.2412580068e+01  -8.7355170433e+00    0.1705065   0.09583668  19.59 0.0006481424    1.619    0.382
       190 -11.8448    105.5471     32.7387   2.5792037234e+01   5.3819555013e+01    0.6652226    0.3048375  36.43  0.002740813    2.406    0.584
       191 -12.5924    113.5793     25.3582   2.1217149332e+01   5.2835149171e+01    0.7552258    0.3129038  49.70  0.002332731    2.024    0.506
       192 -10.0202    239.4976    250.4762   4.8972286105e+01  -1.1584208132e+01    0.1203242   0.08814992   0.97 0.0001465526    1.034    0.033
       193 -11.1849     49.7484    245.4525   8.7024862323e+01   1.6555880370e+01    0.2377192   0.09159241  40.16  0.001057635    2.119    0.528
       194 -10.3533    240.6163     31.8614   5.0124023218e+00   2.2658019002e+01    0.2139438    0.1491227  51.29  0.001298616    1.897    0.473
       195 -11.7768     57.6936     30.2337   4.0386461605e+01   6.3539276708e+01    0.3864785      0.27456   3.69  0.001911302    1.355    0.262
       196 -11.7097     49.2422     30.4259   4.3961249905e+01   6.4841637371e+01    0.6476562    0.2542505  34.05  0.002683449    2.419    0.587
       197 -10.4662     32.8130     31.1410   5.1726828956e+01   6.6955222434e+01    0.1878059    0.1560726 -32.74 0.0003270107    1.370    0.270
       198  -9.4072    197.6870    244.6263   5.5949214870e+01  -5.1656558393e+00     0.135049   0.08539331  -1.65 0.0007032193    1.786    0.440
       199 -11.9241     26.5067     28.6414   5.3764331034e+01   6.8064554656e+01     0.478424    0.3335893   0.35  0.002243315    1.247    0.198
       200 -10.7176     38.6971     22.3049   4.5087014103e+01   6.7476023240e+01    0.2153651    0.1530862 -16.44 0.0005402174    1.251    0.201
       201 -11.5258    126.4923    241.5840   7.0441619976e+01   6.3421074931e+00    0.3305866    0.1432282  42.56  0.001458575    2.002    0.500
       202 -11.9361    125.9582     28.1817   1.9461457503e+01   4.9638857223e+01    0.4720957    0.3497933  69.74  0.001767949    1.324    0.245
       203  -9.5584    196.9592     29.0149   8.6910054015e+00   3.2526555606e+01    0.1578882    0.1332007 -86.45 0.0005219624    1.013    0.013
       204 -10.9947    189.1078     27.6672   9.2841282160e+00   3.4515115104e+01    0.3200079    0.2420099  47.89  0.001868046    1.522    0.343
       205 -10.5053    231.0118     27.2853   4.9137979643e+00   2.5204473177e+01     0.325825    0.1829976 -86.37  0.001668663    1.778    0.437
       206  -9.1788     66.0000     27.8893   3.6209689032e+01   6.2420863693e+01    0.1899415   0.06998046 -31.61 0.0007865583    2.833    0.647
       207 -11.7058    144.5726     25.5531   1.5110430163e+01   4.5462124982e+01    0.5022724     0.266175  82.18   0.00204799    2.379    0.580
       208 -11.2925    147.7409     22.2749   1.3609027585e+01   4.5042813033e+01    0.3644217    0.1332338  52.44  0.001420512    2.387    0.581
       209 -11.1362    183.1137     25.2742   9.4203038669e+00   3.6203501739e+01    0.2911211    0.1970431  62.53  0.001195092    1.369    0.270
       210  -9.8511    187.3204     22.9850   8.3510445026e+00   3.5468602753e+01    0.1893445    0.1629625  57.96 0.0005203129    1.269    0.212
       211  -9.9067     97.9969     26.3138   2.5440038990e+01   5.6222612588e+01    0.1957392    0.1519562  46.16 0.0005262009    1.123    0.110
       212  -9.5655    202.2002    250.3989   5.5983971242e+01  -6.6671042570e+00    0.1689316    0.1014051  36.95 0.0006043446    1.604    0.376
       213 -10.7661     13.8556     23.2765   5.8087784710e+01   7.0155200055e+01    0.2968645    0.1797754   9.42  0.001860956    1.531    0.347
       214  -9.1558    206.4953     25.5431   6.8566826662e+00   3.0756969908e+01    0.1283606    0.1048733 -79.78 8.821318e-05    1.030    0.029
       215 -11.5872    155.0668     24.3713   1.3053050558e+01   4.3046487672e+01    0.3897804    0.2383443 -77.15  0.001536942    2.056    0.514
       216 -10.1087    200.9640     24.6861   7.2382715896e+00   3.2112766674e+01    0.2108099   0.06046075  51.77 0.0007046558    4.338    0.769
       217 -11.0728    146.8718    238.1597   6.5541424994e+01   3.7386456409e+00    0.3387991    0.2700844  74.95  0.001911872    1.733    0.423
       218 -11.0190     72.7694    238.0557   8.1625924831e+01   1.5046493218e+01    0.2254752    0.1754664 -50.33  0.001372159    1.591    0.371
       219 -11.2595    127.5475     16.4493   1.5328085043e+01   5.0462519387e+01    0.3414921    0.1844938  53.88  0.001074752    1.549    0.354
       220  -9.7021    167.3966    238.2057   6.1151558221e+01   4.6665950933e-01    0.1619624    0.1296425 -56.85 0.0007290301    1.627    0.385
       221  -9.8683     90.5029     22.9809   2.6243957212e+01   5.8192175948e+01    0.2155325    0.1546897  47.12 0.0009681134    1.215    0.177
       222 -10.0176     60.0611     22.7073   3.6227296563e+01   6.4101498385e+01     0.201215    0.1601861 -22.28 0.0007502009    1.333    0.250
       223  -9.5205    223.6684     22.2856   4.5201554449e+00   2.7356472968e+01    0.1292342   0.07502195 -69.28 0.0003288086    1.618    0.382
       224 -11.0479    178.8233     20.7737   8.8148264474e+00   3.7718109523e+01    0.4676134    0.2142658  44.68  0.001995364    2.823    0.646
       225 -10.6348     48.6200    238.2141   8.6674805396e+01   1.8165555415e+01    0.1610183    0.1037239 -64.45 0.0009455538    1.670    0.401
       226  -9.6136      4.9482     21.9970   6.2495614021e+01   7.1074965791e+01    0.1459063    0.1313524  24.05 0.0008254853    1.621    0.383
       227  -9.8166    216.4939     20.0798   4.6913388617e+00   2.9164626580e+01    0.1708561    0.1117827 -40.62 0.0005660556    1.532    0.347
       228 -10.6373    238.6614    234.9900   4.6508716571e+01  -9.3874836476e+00    0.2078008    0.1174616  28.05  0.001188591    1.652    0.395
       229 -10.0034     74.5419     19.6989   2.9793811784e+01   6.1781741243e+01    0.2205078    0.1549194  11.13 0.0008850596    1.436    0.304
       230  -9.7794     46.6011     20.2088   4.0594489958e+01   6.6599693347e+01    0.1649587     0.102505 -15.94 0.0006156872    1.577    0.366
       231  -9.5808     15.5102    233.9625   9.2950230801e+01   2.2767482254e+01    0.1716573   0.09702647 -80.94  0.001031601    1.592    0.372
       232 -10.0883    229.3359    232.3228   4.7758490197e+01  -7.7774965103e+00    0.1322511   0.08084428  -1.71 0.0007050692    1.712    0.416
       233  -9.2700    218.4993    231.4979   4.9663860946e+01  -6.1582515917e+00    0.1294782     0.102418   1.65 -7.781171e-06    1.031    0.030
       234  -9.9664    246.4720    230.5147   4.4332545285e+01  -9.7558006885e+00    0.1221597   0.09363595  -5.04 0.0003436718    1.009    0.009
       235  -9.1402    240.6556    225.6613   4.4514168720e+01  -8.3175472549e+00    0.1330721   0.07938918  -3.70 0.0007048594    1.776    0.437
       236  -9.7348    218.0000    225.0443   4.8626586248e+01  -5.0968807126e+00    0.1987495   0.06763183 -39.78 0.0007992039    2.920    0.658
       237 -10.2885    199.2314     17.3075   5.7191619678e+00   3.3333779563e+01     0.199017    0.1685703  71.11 0.0004930809    1.208    0.172
       238 -11.2136     67.4156    241.1762   8.3053520668e+01   1.5138426763e+01    0.2089165    0.1948479   2.69 0.0006246061    1.442    0.306
       239 -11.3865    247.9742    222.9721   4.2735021756e+01  -8.8800076398e+00    0.3427444    0.2724176 -48.73  0.002173457    1.907    0.476
       240 -10.4825    249.8758    214.7047   4.0913123839e+01  -7.9258734107e+00     0.239228    0.1329747 -41.55  0.001294768    1.904    0.475
       241 -10.5323    147.9084     16.2648   1.1824971754e+01   4.5605296051e+01     0.374382    0.1374169  52.45   0.00136081    2.378    0.579
       242  -9.9737    120.3888     15.7773   1.6485949119e+01   5.2210488159e+01    0.1682802    0.1230104   3.32 0.0005031566    1.674    0.403
       243 -10.6767    186.8764     15.0330   6.4704146195e+00   3.6427590655e+01    0.2090996    0.1582068  80.73 0.0003403671    1.129    0.114
       244  -9.5421    221.3433     14.2722   3.0486158830e+00   2.8761789554e+01    0.1109138   0.08494434  54.29 0.0003489155    1.615    0.381
       245  -9.6113     75.5088    224.4847   7.9605315251e+01   1.7519581624e+01    0.1324589    0.1147263  61.62 -2.898314e-05    1.004    0.004
       246  -9.3689    164.4666    211.5236   5.7348026344e+01   5.8137640971e+00    0.1415003    0.1281042  18.72 0.0002041868    1.020    0.020
       247  -9.9615    152.1841    206.1483   5.9178523723e+01   9.0164370323e+00    0.1956299    0.1725079  66.56 0.0009888492    1.348    0.258
       248  -9.3163     61.4994    206.5352   8.0811187922e+01   2.3456206840e+01    0.1349802     0.116985  71.24 0.0001968685    1.015    0.014
       249 -10.2627     79.0123    204.3652   7.6380517258e+01   2.1520093647e+01    0.2885149    0.1774875  88.25  0.001103407    2.029    0.507
       250 -10.7867    138.9674    198.9552   6.1001661678e+01   1.2864468270e+01    0.2362548    0.1805819  71.61  0.001137396    1.718    0.418
       251 -10.5560    229.7524    198.4299   4.1473957554e+01  -2.5552535117e+00    0.1803115    0.1148455  20.12  0.000945742    1.641    0.391
       252  -9.2127    232.6900    190.6557   3.9429868296e+01  -1.7092319339e+00    0.1399035   0.09154312  -7.68   0.00070451    1.701    0.412
       253  -9.3749    223.6810    190.6444   4.1092934126e+01  -3.0062385013e-01    0.1444081   0.09478822  -6.79 0.0007045864    1.753    0.430
       254  -9.4143    243.5194    186.4846   3.6696437663e+01  -2.6512968933e+00    0.1323464    0.1073176 -15.84 0.0003986118    1.026    0.025
       255  -9.5976     65.9887     10.4912   2.8685106985e+01   6.4344684852e+01    0.1884606     0.104907  47.47 0.0006499075    1.572    0.364
       256 -10.7093      4.7591    185.7531   9.2043736541e+01   3.4414193311e+01    0.3408228    0.2068781  38.99  0.002024896    1.703    0.413
       257  -9.4170     86.1539    185.6190   7.1946968759e+01   2.4893031642e+01    0.1956907    0.1388428  22.95 0.0006820844    1.627    0.386
       258  -9.2827    248.0000    183.9927   3.5445262953e+01  -2.9049496554e+00    0.2108384   0.06340372 -38.91 0.0007937908    2.883    0.653
       259  -9.4296    175.7605    180.0176   4.8798280464e+01   1.0080464539e+01    0.1972605    0.1228861 -43.30 0.0008809756    1.608    0.378
       260 -10.1246    249.6788    177.0018   3.3796179681e+01  -2.0120429147e+00    0.2045348   0.09159615 -53.28 0.0007045856    4.252    0.765
       261  -9.3030    113.4952    175.5349   6.3101196374e+01   2.2773307604e+01    0.1523282    0.1439419  -8.33 0.0008058624    1.142    0.125
       262  -9.7856    206.6909    172.6673   4.0732247548e+01   5.8232924826e+00     0.149032    0.1056555  -6.07 0.0007041945    1.671    0.402
       263  -9.3936     69.3113    169.3094   7.3887589001e+01   3.1417932288e+01    0.1439087    0.1092637 -31.46  0.000462333    1.624    0.384
       264 -10.5572    244.1951    166.9792   3.2711898732e+01   4.9989457542e-01     0.371484   0.08071009 -44.89  0.001035425    5.223    0.809
       265 -10.7245    205.0959    163.3896   3.9084127878e+01   7.8838151461e+00    0.2742637    0.2020694 -43.78 0.0006704672    1.331    0.249
       266 -10.0688     14.3811    159.3936   8.7426365149e+01   3.9965653733e+01    0.2465197    0.1366683 -77.31 0.0006927458    1.537    0.349
       267  -9.7286    215.9318    156.7793   3.5576803643e+01   7.1386051183e+00    0.1818939     0.116616  40.14 0.0008740731    1.684    0.406
       268 -10.0646    104.3171    154.8908   6.1541921495e+01   2.9446727169e+01    0.2802322    0.2549041 -45.69  0.001456723    1.103    0.094
       269  -9.8226    240.5058    152.5136   3.0364433337e+01   3.5901137493e+00    0.1360376    0.1159213 -29.19 0.0001324401    1.006    0.006
       270  -9.1941    142.6902    152.6635   5.0787328954e+01   2.2585463100e+01    0.1631644    0.1246025  -8.88 0.0007043835    1.682    0.405
       271  -9.6490     61.4628    151.9631   7.3288913094e+01   3.6886061701e+01    0.2136851    0.1334307 -63.40 4.117158e-05    1.487    0.328
       272  -9.1432    151.7063    151.7255   4.8322738276e+01   2.0952955935e+01    0.1542141    0.1230612  -2.33 0.0004925472    1.522    0.343
       273 -12.3143     23.0660    148.7840   8.3876605797e+01   4.1873959934e+01    0.4783591    0.2457734 -41.38  0.001686603    2.258    0.557
       274 -10.7027     46.3964    146.7877   7.6860854027e+01   4.0054580530e+01    0.5781967    0.1875129 -51.96  0.002084812    2.766    0.638
       275  -9.8151     49.7822    146.1703   7.5762073678e+01   3.9820860228e+01    0.2182748    0.1955731 -25.40 0.0006728639    1.259    0.206
       276  -9.7521     16.6662    147.9066   8.5564903156e+01   4.2621998283e+01    0.1855551    0.1393923 -77.04 0.0004042705    1.124    0.110
       277  -9.3784      8.4286    148.4642   8.7894616580e+01   4.3101508678e+01    0.1286561    0.1036246 -71.78 0.0001000997    1.058    0.055
       278 -10.0356    104.1158    147.1395   5.9969470449e+01   3.1399019390e+01    0.2244846    0.2060279 -15.15            0    1.177    0.150
       279 -10.3697     33.0961    144.3171   8.0402328493e+01   4.2078836213e+01    0.2555098    0.1802339 -76.18 0.0007963976    1.290    0.225
