#   1 NUMBER                 Running object number                                     
#   2 MAG_AUTO               Kron-like elliptical aperture magnitude                    [mag]
#   3 X_IMAGE                Object position along x                                    [pixel]
#   4 Y_IMAGE                Object position along y                                    [pixel]
#   5 X_WORLD                Barycenter position along world x axis                     [deg]
#   6 Y_WORLD                Barycenter position along world y axis                     [deg]
#   7 A_WORLD                Profile RMS along major axis (world units)                 [deg]
#   8 B_WORLD                Profile RMS along minor axis (world units)                 [deg]
#   9 THETA_WORLD            Position angle (CCW/world-x)                               [deg]
#  10 FWHM_WORLD             FWHM assuming a gaussian core                              [deg]
#  11 ELONGATION             A_IMAGE/B_IMAGE                                           
#  12 ELLIPTICITY            1 - B_IMAGE/A_IMAGE                                       
         1 -12.8845     38.2034     49.6876   6.6872920342e+01   6.4684494163e+01    0.8358794    0.6987432 -56.22  0.004485499    1.305    0.234
         2 -11.9919     28.6029     19.6974   5.8868657849e+01   7.1555987509e+01    0.2769337    0.2502798  16.76  0.000169753    1.217    0.178
         3 -11.2911     31.8821     14.0418   5.3769269417e+01   7.1969585123e+01    0.4099505    0.3373978  30.78  0.002402142    1.255    0.203
         4 -11.6253    112.6662     26.0634   2.9707822396e+01   5.3373416770e+01    0.4692067    0.2863205 -15.66  0.002169117    2.029    0.507
         5 -11.5839      3.7303     16.4597   7.4328925798e+01   7.4750714159e+01    0.3755877    0.3227674  78.20  0.001559487    1.814    0.449
         6 -12.6546    132.8829     18.9144   2.3190478901e+01   4.9044571180e+01    0.4142987    0.2802481  60.00 0.0004364111    1.338    0.253
         7 -13.1065    237.9000     17.7625   1.2083897362e+01   2.4474163142e+01    0.3798394     0.285684 -60.41 0.0007011424    1.050    0.048
         8 -11.6398    234.7865     10.1401   1.0654063375e+01   2.5912867968e+01    0.2668412    0.2247162  83.07  0.001274061    1.298    0.230
         9 -10.6504    130.3682     13.6480   2.1759371156e+01   5.0223928238e+01     0.273733    0.2466758  15.30 0.0007690517    1.297    0.229
        10 -11.2568     77.5007      9.8278   3.1771840748e+01   6.3604180566e+01     0.596866    0.2914057  36.50  0.002079932    2.156    0.536
        11 -10.7952     73.0057     10.5212   3.3511675092e+01   6.4548699913e+01    0.4734965     0.261532  24.00   0.00214997    2.271    0.560
        12 -10.9910     72.9622     16.2691   3.6371020135e+01   6.3928677771e+01    0.3965698    0.2349305  51.99  0.001890944    1.521    0.342
        13 -11.5247    169.2690     15.6314   1.7252919627e+01   4.0173877110e+01    0.3579595    0.3011405   1.40   0.00212427    1.548    0.354
        14 -10.9937    164.9487     13.2750   1.7045813453e+01   4.1486773801e+01     0.244395    0.1897084 -56.03  0.001421924    1.232    0.188
        15 -10.8124     19.3924     16.5895   6.3102970701e+01   7.3237193889e+01    0.3175925    0.2728022 -11.97  0.002161046    1.079    0.074
        16 -10.4568     50.4833     16.6718   4.5512159662e+01   6.8460995771e+01    0.3422498     0.238716 -37.93  0.001371124    1.593    0.372
        17 -11.0006     11.2091     14.7500   6.7882819244e+01   7.4426246676e+01    0.4128425    0.2094256 -17.70  0.001527761    2.432    0.589
        18 -11.1045     60.8468     13.9212   3.9605889342e+01   6.6780158143e+01    0.3788863    0.3473714  42.52  0.002426609    1.152    0.132
        19 -11.2135    159.8076      8.6802   1.6253495219e+01   4.3218637292e+01    0.3654863    0.2654309  63.38  0.001212572    1.316    0.240
        20 -11.4841    154.3720      8.0380   1.6665130594e+01   4.4644467971e+01    0.6698413    0.2590021 -38.84  0.002867837    2.457    0.593
        21 -10.5570     98.8476     12.2976   2.7284771573e+01   5.8293137117e+01    0.2648263    0.2285834 -50.51 0.0007440223    1.306    0.234
        22 -11.0146    176.3867     11.1295   1.5259813660e+01   3.8884546643e+01    0.3475785    0.2623004  83.84  0.001382103    1.188    0.158
        23 -10.5684    118.4058     12.0608   2.3207338975e+01   5.3426081265e+01     0.259165    0.1614603  56.03  0.001252178    1.427    0.299
        24 -11.5574    145.6685      7.4592   1.7518423152e+01   4.6900936753e+01    0.4943358    0.3057847 -25.31  0.002565198    1.804    0.446
        25 -11.0628      9.1446      8.1439   6.5782750528e+01   7.5755540558e+01    0.2782886    0.2224828   2.42  0.001072624    1.125    0.111
        26 -11.7195     11.4004      2.4288   6.0466650092e+01   7.6418016596e+01     0.303942     0.240004  -0.28  0.001822159    1.049    0.047
        27 -11.9708     28.4996      2.1497   4.8428349566e+01   7.4112370680e+01     1.142087    0.1982138  40.78  0.003584436    5.252    0.810
        28 -11.1627     36.7192      7.7672   4.7291066176e+01   7.2062821225e+01    0.3656645    0.2179758  45.87 0.0007858517    1.713    0.416
        29 -11.1666    212.8568      4.7864   1.0801181732e+01   3.1069620968e+01    0.5872455     0.180794 -56.33  0.002371687    3.110    0.678
        30  -9.3956     91.4197      6.8374   2.6643294103e+01   6.0611113600e+01     0.164936    0.1241531  10.26 0.0003965189    1.516    0.340
        31 -10.3737    223.0518      5.0327   1.0233370342e+01   2.8856681070e+01    0.2355467    0.1599174 -28.36  0.001237233    1.595    0.373
        32  -9.6070    101.3704      6.1528   2.4137669965e+01   5.8237550534e+01    0.1826317    0.1162156 -38.04 0.0009383156    1.747    0.428
        33 -10.9030    228.4298      4.5365   9.8163551543e+00   2.7784109199e+01    0.2696873    0.1428645  88.52  0.001530905    1.803    0.445
        34 -10.0884    229.9587      1.4497   9.0704940514e+00   2.7775491663e+01     0.166894    0.1487667 -60.31 0.0004711685    1.211    0.175
        35 -10.1296    171.9947      5.0521   1.3988160511e+01   4.0539974090e+01    0.1985578    0.1674833 -79.66 0.0004534692    1.013    0.013
        36 -10.6224    164.6615      4.7249   1.4589396021e+01   4.2375534508e+01    0.2389986    0.1853589 -68.02  0.000453133    1.182    0.154
        37 -10.7583    126.2086      2.6179   1.8471596714e+01   5.2274230270e+01    0.4164922    0.2458014  42.68  0.001582362    1.812    0.448
        38  -9.8097     65.0291      8.5254   3.5183964279e+01   6.6501987598e+01    0.1924465    0.1164983  53.28 -9.791107e-05    1.495    0.331
        39 -11.8765    240.9012      2.6582   8.7647737680e+00   2.5457771457e+01    0.6153394    0.2045657  88.20  0.002735748    3.352    0.702
        40 -11.0732    178.9779      3.7195   1.3010694837e+01   3.8968760160e+01     0.217589    0.1783077 -44.70 0.0001877449    1.237    0.191
        41 -10.8881     73.8757      2.0383   2.8959977117e+01   6.5151764109e+01    0.3266198    0.2392493 -87.42  0.001636565    1.807    0.447
        42  -9.2520    114.2174      3.0521   2.0494574490e+01   5.5281054614e+01    0.1569009    0.1119613 -17.49 0.0003928905    1.627    0.385
        43  -9.2703     97.7289      3.6551   2.3833072005e+01   5.9346593072e+01    0.1379255   0.08882161  35.35 0.0006019392    1.617    0.381
        44 -10.7446     90.9480      2.0950   2.4619260300e+01   6.1127545455e+01    0.1923029    0.1769004  35.15  0.001224098    1.108    0.097
        45  -9.8074    168.1284      1.8984   1.3453777415e+01   4.1773083551e+01    0.1943659    0.1457844 -70.50 0.0002885509    1.200    0.167
        46  -9.8186    138.2966     10.8245   1.9599477076e+01   4.8468308740e+01    0.2164776    0.1545579 -55.25 0.0007827012    1.452    0.311
        47 -10.8921     19.9103    200.4396   9.7762120321e+01   2.9839085329e+01    0.4836825    0.1671996 -69.01   0.00216842    2.752    0.637
        48 -11.3824    247.3875    249.8890   5.6089405204e+01  -8.0990779208e+00    0.2990668    0.1717636   5.88  0.002072895    1.446    0.308
        49 -12.1392    225.9984    245.5524   5.8941796886e+01  -5.2967397919e+00    0.5442764    0.2781595 -11.82  0.003119018    2.166    0.538
        50 -12.2280    231.2977    245.9007   5.8106347921e+01  -5.9341168575e+00    0.4489945    0.2541709  -9.92  0.002888744    1.671    0.402
        51  -9.9774    109.7065    250.0557   8.1866294760e+01   9.1503891175e+00    0.1631596    0.1404452  38.53   0.00100399    1.101    0.092
        52 -11.1223     90.1237    249.2500   8.5862724460e+01   1.1868985657e+01    0.2693081    0.2292332  28.01  0.001167658    1.181    0.153
        53 -12.2082     21.4019    248.4258   9.9855595171e+01   2.0014481079e+01    0.6606056    0.1544176  40.56  0.003118836    2.539    0.606
        54 -11.2320     14.4058    245.1998   1.0109721747e+02   2.1295885820e+01    0.2465423    0.1368125  75.36  0.001076073    1.635    0.389
        55  -9.5841     12.1935    250.6597   1.0172966512e+02   2.0510349917e+01    0.1377275   0.08908982  27.34 0.0004380035    1.621    0.383
        56 -10.7241    175.2532    202.2677   6.1521491430e+01   7.5737017102e+00    0.2256559     0.196025  23.66 0.0004499251    1.120    0.107
        57  -9.9168     67.2760    202.9846   8.6532767629e+01   2.3873035310e+01    0.1792197    0.1609745  69.98 0.0004155497    1.087    0.080
        58  -9.0011     53.2591    202.3430   8.9890982830e+01   2.5786660141e+01    0.1189734   0.09734339 -38.70 0.0004044453    1.591    0.371
        59  -9.3711    196.6840    201.3126   5.7129374709e+01   4.4779786009e+00    0.1112997      0.10269  64.62 0.0003253108    1.641    0.391
        60 -12.0017     11.8976    209.8779   1.0010353716e+02   2.8548406671e+01    0.5027673    0.2089946  80.25  0.002423075    2.423    0.587
        61  -8.9030     41.0000    198.0074   9.2513649219e+01   2.8183289548e+01    0.1999017   0.06927355 -73.53 0.0008030706    2.947    0.661
        62  -9.0772     64.6444    196.3237   8.6483849598e+01   2.5683100903e+01    0.1483171   0.08559722  59.11 0.0007046004    1.766    0.434
        63 -12.0308     15.6943    192.2025   9.8282886013e+01   3.2071676773e+01    0.3989321    0.3631994 -27.75  0.002013055    1.475    0.322
        64 -10.7057    186.8896    191.8501   5.7364132679e+01   7.4830490184e+00    0.4115386    0.1473589 -32.14  0.001476905    3.621    0.724
        65  -9.0746    145.3015    190.3299   6.5955585603e+01   1.4550761411e+01    0.1407376    0.1036868  -4.46 0.0007033024    1.647    0.393
        66 -10.3028    244.8465    188.1274   4.6453088548e+01  -3.3712607066e-01    0.1693412    0.1431517 -16.26 0.0005145785    1.209    0.173
        67  -9.5998    163.4893    188.5058   6.1605062392e+01   1.1857065141e+01    0.1373553    0.1220329  12.90 0.0008105692    1.004    0.004
        68  -9.9085     61.8448    184.3897   8.5887180959e+01   2.8766838009e+01     0.236562    0.1760012  89.82  0.001296598    1.385    0.278
        69 -12.5082     17.5361    181.7528   9.7172678097e+01   3.4301698449e+01    0.5459483    0.3324751  26.20  0.002475031    1.730    0.422
        70  -9.7966      1.7659    180.1796   1.0104540123e+02   3.5989033286e+01    0.1560035    0.1344068 -62.12 0.0008538426    1.356    0.263
        71  -9.8984    244.2286    178.5362   4.4815230924e+01   1.0564757957e+00    0.2583546   0.07767327 -27.83 0.0008782463    4.434    0.774
        72 -10.9108     22.9388    179.9388   9.5658814747e+01   3.4223034265e+01    0.4153274    0.1487272  57.97  0.001200585    2.919    0.657
        73 -11.0798     17.8619    172.2698   9.6430754248e+01   3.6512360835e+01    0.3832894    0.1859803  56.18  0.001855602    1.918    0.479
        74  -9.1067    156.6422    172.2679   6.0114290438e+01   1.6091707515e+01    0.1387752    0.1106207  64.87 0.0004882901    1.638    0.390
        75  -9.9309     25.4653    169.5195   9.4168086783e+01   3.6469063756e+01    0.1289244    0.1152316  81.84 4.670446e-05    1.068    0.063
        76  -9.3248    177.2586    168.6615   5.4952772911e+01   1.3116387718e+01    0.1275884    0.1117646 -77.85 0.0002572661    1.581    0.367
        77 -11.0036      5.3619    167.8987   9.9460105421e+01   3.8592631795e+01     0.216132    0.1510224  49.82 0.0008225541    1.302    0.232
        78  -9.3478     18.3709    167.2489   9.5920279697e+01   3.7675458419e+01    0.1204441   0.09512334 -34.55 0.0006951013    1.630    0.386
        79  -9.0368     93.3127    166.7422   7.4965362610e+01   2.8321942982e+01    0.1472577    0.1049833  60.90 0.0002421245    1.530    0.346
        80 -11.2213     51.3026    162.4375   8.6177795743e+01   3.5383343430e+01    0.6124218    0.2893158 -65.70  0.001614816    2.038    0.509
        81 -10.2715     36.6120    165.7942   9.0735688053e+01   3.6244435592e+01    0.2592221    0.1785653  44.14 0.0006308676    1.357    0.263
        82 -10.1637     33.1922    166.1982   9.1734465524e+01   3.6506064705e+01      0.20469     0.175685  48.71 0.0002600895    1.132    0.117
        83  -9.7656     67.5223    165.4945   8.1952955528e+01   3.2505467393e+01    0.1429394    0.1298237  65.37 8.358481e-05    1.018    0.018
        84 -10.0914      9.5447    162.9248   9.8019185490e+01   3.9463465690e+01    0.2251282    0.1808927 -16.63  0.001373607    1.665    0.399
        85  -8.9300    132.3143    161.6657   6.3816819644e+01   2.2682765542e+01    0.1493926    0.1166711  74.98 0.0003902349    1.687    0.407
        86  -9.3582     35.4756    161.4586   9.0613545551e+01   3.7435192811e+01    0.1344529     0.120473  77.40 1.136053e-05    1.020    0.019
        87  -8.6586    116.0383    159.0000   6.7474732028e+01   2.6232368434e+01    0.2569701   0.08177846  37.27 0.0008106043    2.999    0.667
        88 -11.0380     20.6779    156.8337   9.4422822126e+01   4.0023842263e+01    0.3389066    0.2991217 -86.60  0.001955481    1.078    0.073
        89 -10.4443    247.3888    157.2308   4.0341488250e+01   3.6230274527e+00    0.1754291   0.09601792 -40.46 0.0009531248    1.704    0.413
        90  -9.5028      1.5209    157.5509   9.9880533327e+01   4.1361176256e+01    0.1252089    0.1058579  82.35 0.0001048737    1.030    0.029
        91  -9.9635    235.6257    154.1898   4.1514396045e+01   5.8128418775e+00    0.1840843    0.1011742 -26.26 0.0009452125    1.700    0.412
        92  -9.7637    216.4786    154.5157   4.4682911708e+01   8.8116112989e+00    0.1315117    0.1139231 -15.88 4.050136e-07    1.007    0.007
        93 -10.6396     10.9604    153.1947   9.6923193266e+01   4.1734744620e+01    0.3266766    0.2050076  37.39  0.001011569    1.569    0.362
        94  -9.3968    158.7118    153.2752   5.5821883116e+01   1.9461051307e+01    0.2382675    0.1197678  29.79  0.000904784    2.400    0.583
        95  -9.5506     41.0086    153.0911   8.8057795427e+01   3.8926982066e+01    0.1725315     0.134884 -78.39 0.0007044523    1.207    0.172
        96  -9.5887    176.8443    150.1113   5.1221486005e+01   1.6626764331e+01    0.2051807    0.1980532 -74.31 0.0006187082    1.220    0.181
        97 -10.6718     14.0342    148.0737   9.5611689260e+01   4.2766757546e+01    0.2191305    0.1636169  77.44 0.0003468421    1.208    0.172
        98  -9.7031    144.0392    147.7906   5.8080313724e+01   2.3424015631e+01    0.2072282    0.1954928  24.22 0.0007154864    1.029    0.028
        99 -10.7621      7.8401    145.5106   9.7247281419e+01   4.3876236647e+01    0.3286815    0.2280082  26.08  0.001895825    1.577    0.366
       100 -10.4279    217.0500    145.1773   4.2668136953e+01   1.0225095295e+01    0.2069725    0.1636705  -3.90  0.000637128    1.299    0.230
       101 -10.2511    187.7368    144.0571   4.7724351007e+01   1.5689279497e+01    0.2311953    0.1958647  33.74 0.0004994219    1.208    0.172
       102 -10.0544     13.8791    140.1282   9.4958616266e+01   4.4777071102e+01    0.1757485    0.1436672 -53.32 0.0003456739    1.298    0.230
       103 -10.4960     24.8983    142.7686   9.1798738760e+01   4.3179216245e+01    0.1932326    0.1688764 -59.23 0.0004800783    1.192    0.161
       104  -9.2464     65.3353    139.2643   7.8539193985e+01   3.9358416996e+01    0.1430961    0.1134413 -21.24 0.0002568829    1.584    0.369
       105 -10.2571    236.5316    137.9487   3.8118608602e+01   8.1253102655e+00    0.1818911    0.1639587  17.75 0.0007117782    1.215    0.177
       106 -11.0375      2.9655    135.9037   9.7988026351e+01   4.6607969286e+01    0.4146663    0.1575878 -73.79  0.001810285    2.201    0.546
       107  -9.8852    144.2389    136.9840   5.5635319551e+01   2.5672785947e+01    0.2124946    0.1957216 -30.15 0.0004462474    1.096    0.087
       108  -9.2531      9.4725    136.4450   9.6002847083e+01   4.6034594189e+01     0.130187    0.1130737 -89.38 4.195545e-05    1.015    0.014
       109 -10.8340    241.3513    134.2991   3.6678785565e+01   7.9024218949e+00    0.2226632    0.1870201 -36.38 0.0004630045    1.138    0.121
       110 -10.1753     20.5450    134.5119   9.2287275175e+01   4.5667212233e+01    0.2422469      0.11635  89.57  0.001022793    2.241    0.554
       111 -10.8437     53.8580    132.2255   8.1041018497e+01   4.2716375918e+01    0.3894602    0.2566171  34.46  0.001301381    1.531    0.347
       112 -10.3913     58.9956    131.5048   7.9228330623e+01   4.2221019366e+01     0.232041    0.1911793 -66.05 0.0006042694    1.172    0.147
       113 -11.9223     36.5283    130.7559   8.6564069359e+01   4.5123252491e+01    0.6216726    0.2944164 -48.64 0.0006883438    2.210    0.548
       114 -10.8203     73.7569    128.9776   7.3939417583e+01   4.0707437845e+01    0.3394927       0.2999  64.65  0.001158236    1.151    0.131
       115 -10.7524      4.1787    130.0289   9.7133195844e+01   4.8008490637e+01    0.2041062    0.1902428  41.43 0.0006052169    1.203    0.169
       116 -11.1944     56.8846    126.4897   7.9034798023e+01   4.3792196937e+01    0.3472281    0.2266877 -47.51 0.0006118618    1.575    0.365
       117 -10.6848      7.4834    118.4848   9.4959761152e+01   5.0727331841e+01    0.2075743    0.1848091 -87.06 0.0009312379    1.034    0.033
       118 -10.9486     15.4425    125.3309   9.2966827107e+01   4.8425411080e+01    0.3825966    0.1861435  27.26  0.001795531    2.143    0.533
       119 -11.4839     10.6932    122.5718   9.4280061509e+01   4.9473594904e+01    0.4464554    0.2355266 -84.50  0.002139357    1.771    0.435
       120  -9.3998     30.2861    124.6563   8.7821688081e+01   4.7326833633e+01    0.1453371   0.09604985  67.78 0.0004929025    1.645    0.392
       121 -10.6468    243.6896    122.0816   3.3853110522e+01   9.3476530066e+00    0.1841759    0.1369983 -31.25 0.0006637394    1.123    0.110
       122 -10.4632     19.8589    121.4436   9.1001753819e+01   4.9077754765e+01    0.2603614     0.170254 -66.74 0.0008507383    1.359    0.264
       123  -9.3243      4.5481    122.4789   9.6348455108e+01   4.9894893623e+01    0.1303357    0.1115296 -79.38  8.19202e-05    1.032    0.031
       124 -10.9739     24.6856    119.2935   8.9033162929e+01   4.9225490367e+01    0.3695002    0.2577915 -73.86  0.001973447    1.299    0.230
       125 -10.6161      1.3922    118.5649   9.7062053171e+01   5.1068874327e+01    0.2378358    0.1075703 -77.10 0.0002193123    1.882    0.469
       126 -11.9407     52.5051    115.9111   7.8566233161e+01   4.7085220515e+01    0.3265277    0.2575067 -74.18 -0.0001804107    1.255    0.203
       127  -9.7666     42.3168    116.9251   8.2387741907e+01   4.8065089866e+01    0.2880453    0.1299552 -75.48  0.001082433    2.522    0.603
       128 -11.1565    181.9085    114.6446   4.2106343870e+01   2.2231891638e+01    0.4337942    0.2996751  30.53  0.001087664    1.723    0.419
       129  -9.9535     86.0929    116.1392   6.7137934412e+01   4.1847260002e+01    0.2200248    0.2048777 -20.54 0.0002489155    1.155    0.134
       130 -10.7272     72.5289    114.9337   7.1373431222e+01   4.4431890660e+01    0.4384927    0.2475609 -39.92  0.001784725    2.035    0.509
       131 -11.9216     15.7769    114.5381   9.1584971322e+01   5.1167943099e+01    0.5865268    0.3533189  83.08  0.000913272    1.749    0.428
       132 -11.4755     14.5373    108.0111   9.1201338593e+01   5.2929688042e+01    0.4366242     0.283123 -84.30  0.002207651    1.466    0.318
       133 -11.5266     25.3556    106.0954   8.6837863677e+01   5.2565064693e+01    0.7922902    0.3930591 -12.45  0.002990218    3.449    0.710
       134 -11.5558     23.7235     99.4026   8.6371168528e+01   5.4416561068e+01    0.5390919    0.2964413  34.11  0.002589418    1.915    0.478
       135 -10.4867    105.6298    114.6519   6.0677978947e+01   3.8521574444e+01    0.2932425    0.2477024 -44.31  0.001011425    1.200    0.167
       136 -11.0055    249.6667    112.0421   3.1012928930e+01   9.8416741396e+00    0.2243657    0.1835455 -48.88 0.0007274001    1.218    0.179
       137 -10.9269     93.3238    111.9890   6.3805182644e+01   4.1531124530e+01    0.4765002     0.328124  57.89  0.001514931    1.672    0.402
       138  -9.9202     77.8844    111.2335   6.8695873148e+01   4.4471189130e+01    0.2167748    0.2010609  78.83 0.0003636781    1.123    0.110
       139 -12.0371     37.6832    109.3253   8.2734869967e+01   5.0535056069e+01    0.6362159    0.3413021  26.49  0.002403379    1.978    0.495
       140 -10.8706     55.0856    109.6311   7.6366898154e+01   4.8346767663e+01    0.3018942    0.2244501 -63.69 0.0006234868    1.295    0.228
       141 -10.3218     53.0383    104.9862   7.6125731144e+01   4.9798734179e+01    0.3666901    0.1707856  46.93  0.001411168    2.463    0.594
       142 -10.9084      2.8367    105.8068   9.5294794488e+01   5.4217425339e+01    0.3669407    0.2026287 -73.33  0.001657254    1.533    0.348
       143 -10.2588    111.4619    105.8674   5.6664262731e+01   3.9342990150e+01    0.3283781    0.1994113  42.31 0.0007796952    1.638    0.390
       144 -10.3564    119.1174    102.9383   5.3676555902e+01   3.8360762003e+01     0.399104    0.2250022 -40.13  0.001600155    1.854    0.461
       145 -11.4970     41.2981     96.6038   7.8832820628e+01   5.3373663599e+01    0.3664432    0.2249529 -54.79  0.000343645    1.488    0.328
       146 -10.9943     37.6524    102.4960   8.1470143010e+01   5.2286834741e+01    0.4187978    0.2836941  68.46  0.002015499    1.803    0.445
       147 -10.5246     32.7000     96.7482   8.2301246256e+01   5.4262561111e+01    0.4858928    0.2725791  73.68  0.001424857    2.714    0.632
       148  -9.6833     57.4754     96.4371   7.2467114679e+01   5.1323076461e+01    0.2089137    0.1431346  17.81 0.0006194279    1.685    0.407
       149 -11.9976     62.0283     98.6395   7.1286112956e+01   5.0111806625e+01    0.6360979    0.3413244 -54.02  0.002111762    1.768    0.434
       150 -10.2488     66.6696     97.7268   6.9331293431e+01   4.9620531118e+01    0.2527722    0.2047061  17.00   0.00051443    1.362    0.266
       151  -9.7219     48.0186    100.5726   7.7064762174e+01   5.1563385261e+01    0.2359934    0.1897495 -78.07  0.000542118    1.293    0.226
       152 -10.3314     75.5314     98.8409   6.6410279437e+01   4.7890956706e+01    0.3663942    0.2569585 -26.34  0.001637487    1.772    0.436
       153  -9.7849    144.4908     99.1577   4.6086106079e+01   3.3474287616e+01    0.2339633    0.1504857 -42.27  0.001018034    1.547    0.354
       154  -9.8136      9.7928     99.1189   9.1830994848e+01   5.5509685187e+01    0.1883933    0.1554348  82.52 0.0003389315    1.208    0.172
       155  -9.2865    107.3046     98.6720   5.5920950297e+01   4.1822837676e+01    0.1581169    0.1245266  88.08 0.0005119669    1.650    0.394
       156  -9.5003    240.7013     96.3711   2.8823389204e+01   1.3668857984e+01    0.1334524   0.08401507 -56.72 0.0007029822    1.740    0.425
       157 -10.3828     15.9658     96.4981   8.8997437522e+01   5.5761033395e+01    0.1883318     0.133149  19.12 0.0006810332    1.583    0.368
       158 -10.8752     55.9703     91.1535   7.1724237420e+01   5.2834578734e+01    0.5571278    0.3198999 -22.83  0.002037093    2.761    0.638
       159  -9.0796      1.6697     93.3027   9.4308197138e+01   5.7424975862e+01    0.1311388   0.08772043  61.37 0.0003547448    1.651    0.394
       160 -11.4861    157.7702     90.3245   4.0690973543e+01   3.2100539071e+01    0.5914987    0.4059888  65.55   0.00177146    1.629    0.386
       161 -10.7757    156.8632     84.1699   3.9171855673e+01   3.3437561644e+01    0.4477215     0.368692 -49.67  0.002293708    1.202    0.168
       162  -9.4219    249.6945     91.2914   2.6700268731e+01   1.2818892693e+01    0.1227046   0.08200415 -57.62 0.0002705737    1.575    0.365
       163  -9.7625    231.5422     91.4871   2.8891930917e+01   1.6071260003e+01    0.1306879    0.1102201 -43.88 5.594263e-05    1.028    0.027
       164  -9.9709     73.6178     90.8107   6.4918571634e+01   5.0130330572e+01    0.3038608    0.1336102 -47.66  0.001130512    2.220    0.549
       165 -10.6933     10.7066     90.7627   9.0262281396e+01   5.7560999054e+01    0.2069425    0.1989525 -28.04 0.0005065036    1.140    0.123
       166  -8.9316    128.3088     89.2678   4.7305322019e+01   3.9172410292e+01    0.1514413      0.12232  14.29 0.0002162819    1.539    0.350
       167 -10.2365     97.3813     89.2147   5.6271714211e+01   4.5980202390e+01    0.2121321    0.1959971  23.07 0.0005941532    1.115    0.103
       168 -10.3401     84.5429     88.7995   6.0440473333e+01   4.8615364308e+01    0.3108544    0.2184447  46.60  0.001438783    1.459    0.315
       169 -10.6645     77.9343     87.0845   6.2277471158e+01   5.0232752116e+01    0.4533307    0.2812221  63.53  0.001789111    2.414    0.586
       170 -11.3823     76.5924     82.4005   6.1364840082e+01   5.1541070165e+01    0.3532231    0.2830873  58.32  0.001761024    1.414    0.293
       171 -11.3037     66.4282     85.2417   6.6035429249e+01   5.2645128474e+01    0.5862695     0.342126 -36.59   0.00248893    1.918    0.479
       172 -11.6404     21.9019     84.3768   8.4369738963e+01   5.8350702795e+01    0.6491507    0.1849118 -63.46  0.001712607    2.848    0.649
       173  -9.8099     38.8270     86.2004   7.7492903957e+01   5.6246888779e+01    0.1931555    0.1515079 -30.54 0.0004088292    1.321    0.243
       174  -9.7842      9.3821     85.8884   9.0061718434e+01   5.8861068699e+01    0.2662312    0.1598999  59.23 0.0009356756    2.017    0.504
       175 -10.5518      7.0143     81.7680   9.0431854513e+01   6.0020050477e+01    0.4022374    0.1971536 -47.67   0.00194567    1.818    0.450
       176  -9.3077    184.5649     85.4247   3.4305623567e+01   2.6794184877e+01    0.1428593    0.1322411 -58.90 6.360572e-05    1.031    0.030
       177 -11.2853    107.2899     84.5816   5.1785518257e+01   4.4869042537e+01    0.2728357    0.2616636  78.21 0.0002606767    1.081    0.075
       178  -9.9836     34.3188     84.8905   7.9105073147e+01   5.7061778638e+01    0.2002778    0.1651558 -58.00 0.0009059805    1.117    0.105
       179 -11.5042     30.4341     81.3706   7.9981638249e+01   5.8322291551e+01    0.4097131    0.3266977 -70.87  0.002236197    1.247    0.198
       180 -10.6490    167.6497     82.9910   3.6699642452e+01   3.1104212213e+01    0.4549967    0.2548433  64.27  0.001899299    2.021    0.505
       181  -9.5026    117.0092     83.9534   4.8769453426e+01   4.2830324744e+01    0.1866933    0.1806798  52.34 0.0006136736    1.019    0.018
       182 -10.8439     42.7478     82.0313   7.4793854540e+01   5.6802859114e+01    0.3509113    0.1870061 -69.31  0.001471508    2.164    0.538
       183  -9.2810     86.5060     82.5705   5.7880185693e+01   4.9628450527e+01    0.1505663    0.1454257   4.85  7.46743e-05    1.039    0.038
       184 -11.5232     99.7696     76.7094   5.1623831675e+01   4.8133528170e+01    0.3738815    0.3390543 -36.19  0.000456498    1.122    0.109
       185  -9.7709     84.0789     79.5048   5.7768588273e+01   5.0772718099e+01    0.2149084    0.1476911  39.56  0.000311624    1.454    0.312
       186 -11.6519     21.2531     76.0258   8.2909342190e+01   6.0456267576e+01    0.4856401    0.2705528 -41.72  0.002055232    1.713    0.416
       187 -14.0411     16.6461     67.4242   8.3146327004e+01   6.2885562012e+01    0.6240529     0.396528 -42.90 0.0009929285    1.422    0.297
       188 -12.3673    167.7505     73.2192   3.3983670716e+01   3.2740265774e+01    0.3633039    0.2496448 -39.18 0.0004934882    1.419    0.295
       189 -10.2246     51.8617     62.2461   6.4857804078e+01   6.0113207970e+01    0.3262479    0.2399834 -19.88  0.001663418    1.507    0.337
       190 -11.2770     57.6738     58.7398   6.1056593295e+01   5.9941763462e+01    0.4513473    0.3201863  -6.60  0.001488401    1.777    0.437
       191 -11.8323     50.4034     68.4201   6.7544834599e+01   5.8968323401e+01    0.4062501    0.2703425 -48.02 0.0007434593    1.425    0.298
       192 -11.0304     56.8521     74.5177   6.6685404327e+01   5.6635772131e+01    0.7036635    0.2793835  24.87  0.002336682    3.471    0.712
       193  -9.7566     54.0404     71.9971   6.7092811939e+01   5.7631196867e+01     0.195165    0.1867058 -34.16 -0.003769674    1.039    0.038
       194 -11.1052     44.5857     74.7965   7.2032521367e+01   5.8295556576e+01    0.2555089    0.2224351  29.47 0.0003637439    1.207    0.172
       195 -10.1445      1.5925     73.2577   9.1511083020e+01   6.2378525694e+01     0.263153    0.1625355 -61.06 0.0009983095    1.338    0.253
       196 -10.7243      7.3253     73.2111   8.8823481145e+01   6.2099590204e+01    0.3701996    0.2606488 -26.42  0.001633428    1.471    0.320
       197  -9.8272      6.4935     68.4555   8.8327504802e+01   6.3293361726e+01    0.2613545    0.1683457 -84.75 0.0009335051    1.663    0.399
       198  -9.9540    102.9557     72.2408   4.9166823401e+01   4.8332292469e+01     0.257125    0.1769778  18.25  0.001077748    2.030    0.507
       199  -9.6163      3.0177     77.9098   9.1599554456e+01   6.1177125066e+01    0.1641499    0.1173222 -68.94 0.0005180853    1.208    0.172
       200  -9.4076    114.5914     70.8179   4.5290279766e+01   4.5956429217e+01    0.2258683    0.1403751 -51.67 0.0009533619    1.781    0.439
       201 -11.0110     37.1116     69.6401   7.3933078305e+01   6.0413716865e+01      1.56711    0.7744502  53.91  0.005853527    3.406    0.706
       202 -11.0828     32.5433     63.5836   7.4334112806e+01   6.2324307698e+01    0.6178519    0.2068683 -48.48 0.0004966132    2.589    0.614
       203 -11.1318     29.0009     61.0113   7.5313949643e+01   6.3286273325e+01    0.4449782    0.1998532  21.31  0.001384412    2.430    0.588
       204 -11.4830     88.1791     77.4039   5.5670598163e+01   5.0411986706e+01    0.2835895    0.2589135 -48.22 0.0001303666    1.115    0.103
       205  -9.8782    186.8612     68.8817   2.9623682217e+01   2.8937767204e+01     0.189153    0.1856475  39.67 0.0002478981    1.152    0.132
       206 -11.6302    122.7226     67.3478   4.1974050667e+01   4.4672054145e+01    0.3032503    0.2639168 -47.84  0.000251897    1.179    0.152
       207  -9.4208     61.8420     68.2964   6.2614995077e+01   5.7228762316e+01    0.2047841    0.1284122  25.29 0.0007859744    1.759    0.432
       208 -10.8633    147.0689     65.0422   3.5609921150e+01   3.9125680454e+01    0.3429389    0.2143472 -48.72  0.000979647    1.654    0.396
       209 -10.2412    140.1965     66.1122   3.7408170674e+01   4.0637479100e+01    0.2171453     0.202573  33.32 0.0008124838    1.150    0.130
       210  -9.8199    111.4159     65.5339   4.4422225439e+01   4.7677524298e+01    0.2928353    0.2076642 -89.90 0.0006943899    2.110    0.526
       211 -12.0673      3.2023     61.9565   8.8689873555e+01   6.5009435925e+01      1.28315    0.2568765 -55.35  0.004775542    3.055    0.673
       212 -11.0678     11.6163     58.9552   8.3669771836e+01   6.5229769029e+01    0.6113473    0.2523729 -58.42  0.001688597    1.971    0.493
       213 -10.1351     13.0615     52.9823   8.1344960435e+01   6.6499185037e+01    0.2528272    0.1635653 -18.82 0.0005272571    1.617    0.382
       214 -12.7868     12.4682     47.4251   8.0083550019e+01   6.7783730709e+01    0.4022208     0.357328 -86.43 0.0006781751    1.359    0.264
       215 -10.8757      6.8444     42.6646   8.1959191742e+01   6.9206605025e+01    0.4916521    0.1553336 -54.76  0.002120487    2.375    0.579
       216 -11.1201      1.8060     53.3330   8.7605705838e+01   6.7084569159e+01    0.3717633    0.1961487 -44.04  0.001969894    1.604    0.377
       217 -11.2078      3.5049     48.6281   8.5541095409e+01   6.8071761757e+01     0.351886    0.3422102 -51.37    0.0017996    1.178    0.151
       218 -11.5921    155.5853     63.4370   3.3434796562e+01   3.7289588482e+01    0.4294204    0.3814101 -29.38 0.0005299796    1.203    0.169
       219 -10.1264     81.2079     64.8968   5.3910296352e+01   5.4393397801e+01    0.2222911    0.2075217  81.06 0.0005869463    1.224    0.183
       220  -9.9760    106.1944     63.8669   4.5357533238e+01   4.9192584627e+01    0.2013275    0.1746599   9.56  0.001028433    1.301    0.232
       221 -10.4153    202.1636     62.4836   2.5831411367e+01   2.6423741772e+01    0.2263219    0.1727046 -39.24 0.0003020757    1.224    0.183
       222  -9.6373     97.3075     63.3003   4.7875306651e+01   5.1304691940e+01    0.1508855    0.1172533  11.15            0    1.597    0.374
       223  -9.5931    161.9542     61.7531   3.1763768097e+01   3.5992243342e+01    0.1982242    0.1801756  87.51  0.000218962    1.069    0.064
       224 -10.6732    120.4462     60.2592   4.0205847453e+01   4.6462210854e+01    0.4454031    0.3429121  64.38  0.002192839    1.325    0.246
       225 -10.8467    114.5713     60.3827   4.1793433441e+01   4.7851992069e+01    0.3180643    0.2168251  36.59  0.001034723    1.595    0.373
       226 -11.1466     90.2505     60.8810   4.9315093655e+01   5.3298358235e+01    0.4171293    0.2349527  50.96  0.001380386    1.805    0.446
       227 -10.5805     83.4894     60.8523   5.1640607160e+01   5.4724780882e+01    0.3586793    0.2193716  46.34  0.001612309    1.619    0.382
       228 -11.3665     80.3824     56.5050   5.1149745642e+01   5.6187126630e+01    0.4643749    0.3084693 -13.58  0.001415667    2.105    0.525
       229  -9.4404     69.2871     61.6798   5.7290120862e+01   5.7324377699e+01    0.1392915    0.1171598  88.16 0.0003008542    1.596    0.374
       230 -11.1659     46.5405     60.3637   6.6635371269e+01   6.1293221230e+01     0.344693    0.2619899 -23.57 0.0007466019    1.359    0.264
       231  -9.6549    138.2926     60.2677   3.5987570777e+01   4.2080514126e+01    0.2084053    0.1917719 -55.25 0.0001737874    1.098    0.089
       232 -10.1404    134.8304     58.1406   3.6067301353e+01   4.3284623670e+01    0.2619187     0.201457  82.65 0.0004623894    1.457    0.314
       233 -10.0717     98.2538     59.9559   4.6389205477e+01   5.1711813100e+01    0.2510758    0.1982516  58.67 0.0006313551    1.316    0.240
       234  -9.4101    131.1286     64.8092   3.9071531028e+01   4.3082775966e+01    0.2000187    0.1734458  27.73 0.0003415926    1.282    0.220
       235 -10.6058    146.7439     56.7721   3.3129514290e+01   4.0535757047e+01    0.3333763    0.2742077 -24.13  0.001190551    1.352    0.260
       236  -9.9136    127.2236     58.6200   3.7979273324e+01   4.5084867031e+01    0.2095395    0.1327185  47.02 0.0002416418    1.563    0.360
       237 -10.3689     68.2267     57.0264   5.6003071362e+01   5.8449482227e+01    0.3113436    0.2584853 -77.13   0.00093934    1.608    0.378
       238  -9.7164    112.0210     56.6538   4.1190020252e+01   4.9100268952e+01    0.2112796    0.1844496  51.69  0.001111509    1.099    0.090
       239  -9.6524     82.5857     47.2444   4.6769314927e+01   5.7386068789e+01    0.2439237    0.2026628  32.71  0.001310298    1.166    0.142
       240 -11.3302     76.3053     50.7046   5.0422810879e+01   5.8082318809e+01    0.6780239    0.4215185 -28.59  0.003105367    1.798    0.444
       241 -11.3252     78.5329     47.3997   4.8282769079e+01   5.8211521137e+01    0.3349315    0.2555799 -46.78  0.001010976    1.429    0.300
       242 -12.6660    105.0044     52.4877   4.1658430775e+01   5.1461607994e+01    0.3841677    0.3331661  38.43 0.0003468507    1.134    0.118
       243 -10.0314    104.2169     46.4176   3.9630399108e+01   5.2629459824e+01    0.2502177     0.210907  -4.14  0.000751475    1.353    0.261
       244 -11.4319     52.0238     47.1687   5.9165394789e+01   6.3172470728e+01    0.7307192    0.3220504 -39.47  0.003015728    2.296    0.564
       245 -10.3219     83.4520    248.0185   8.7147351406e+01   1.2941848083e+01    0.2509531    0.1231394  45.40  0.001060992    1.649    0.394
       246 -11.5367     44.8109     44.3190   6.1460316911e+01   6.4841265240e+01    0.5401297    0.3378314 -63.38   0.00249118    2.334    0.572
       247 -11.8784     45.4197     38.5194   5.8703926133e+01   6.5842357886e+01    0.3750986    0.2891682  63.20  0.001993763    1.933    0.483
       248 -10.0514    151.7864     53.8156   3.1248389986e+01   3.9729787515e+01    0.3062235    0.1824751  48.37 0.0005850731    1.737    0.424
       249 -10.8431     89.1655     51.9708   4.6365857816e+01   5.5150070027e+01    0.5009195    0.1972035 -42.11  0.001830192    2.644    0.622
       250 -10.2968     28.3061     53.3931   7.3285969130e+01   6.5059368472e+01     0.410814    0.2362451   2.26  0.001144169    2.194    0.544
       251 -10.1209     27.3385     49.2526   7.2403724849e+01   6.6058685439e+01    0.2370464     0.175573  13.58  0.001352453    1.389    0.280
       252 -11.1609    133.4106     50.4633   3.3859540795e+01   4.4842902422e+01    0.4686345    0.3296354 -73.50  0.001734258    1.781    0.438
       253 -11.0996    128.4994     50.4104   3.4926834537e+01   4.6078420010e+01    0.4306864    0.3193671  -5.00   0.00170479    1.792    0.442
       254  -9.2013    120.2857     52.3165   3.7524439003e+01   4.7812940261e+01    0.1482194    0.1145576  21.32 0.0006997029    1.586    0.370
       255 -10.0503     62.1219     47.5821   5.4842086466e+01   6.1367915216e+01    0.1973534    0.1706431  15.82 0.0005183567    1.119    0.107
       256  -9.9264    142.8519     45.6359   3.0360601066e+01   4.3175667552e+01    0.2493274    0.1796349  73.76 0.0006282996    1.394    0.282
       257 -11.3961    112.3128     45.4568   3.7090931088e+01   5.0830234011e+01    0.2632225    0.2423582  34.54 0.0002839056    1.100    0.091
       258 -10.0114    151.6271     44.4311   2.8379641217e+01   4.1129320637e+01     0.467791    0.2426449 -85.43  0.001357375    3.502    0.714
       259 -10.0694     91.5172     45.4965   4.3084061816e+01   5.5717017165e+01    0.2011741    0.1384001 -46.67 0.0006359126    1.605    0.377
       260 -11.8500     89.1439     41.4737   4.2237547446e+01   5.6890771679e+01    0.2771082    0.2515832  42.21  0.001572132    1.041    0.039
       261 -11.0347     23.8694     41.8846   7.1680220391e+01   6.7972417293e+01    0.3904477    0.2322275 -50.90  0.001035404    1.552    0.356
       262 -13.1748     27.2895     37.4144   6.7967597637e+01   6.8504363334e+01    0.4111529    0.3444645  54.73  0.001542026    1.617    0.382
       263 -10.4151    165.0079     44.5420   2.6223017168e+01   3.7762921780e+01    0.2201612    0.1331899  66.15  0.001031507    1.597    0.374
       264 -10.9993     96.6295     42.1928   4.0203771233e+01   5.5067320923e+01    0.3897545    0.2579482  21.55  0.001174551    1.996    0.499
       265 -11.1431     72.3210     42.9094   4.8769035454e+01   6.0249970510e+01    0.3695666    0.2938142  51.22 0.0009044564    1.315    0.240
       266  -9.8228     67.4819     41.4847   5.0073370969e+01   6.1448911895e+01    0.2077885    0.1330048  53.50 0.0008062151    1.756    0.431
       267  -9.9144     17.3762     42.8946   7.5793814943e+01   6.8375889608e+01    0.3093907    0.1648678   4.46  0.001003333    2.211    0.548
       268  -9.5760    130.6548     41.5391   3.1433943726e+01   4.6837547176e+01    0.2396242    0.1378194 -31.65  0.001059455    1.846    0.458
       269 -10.6792    122.0627     41.7471   3.3382630039e+01   4.8967697555e+01    0.4643357    0.2649597  78.24  0.001858759    2.335    0.572
       270  -9.8209     80.3911     41.5188   4.5209330427e+01   5.8804726778e+01    0.3651679    0.1704685  46.85  0.001504595    2.021    0.505
       271  -9.8348     73.4112     31.7023   4.3478250564e+01   6.1801525591e+01    0.2371359    0.2113146  -6.19 0.0008583044    1.131    0.116
       272 -11.0279     83.5272     35.9693   4.1796251600e+01   5.8983769019e+01    0.5536696    0.3061094  26.74  0.001914336    2.527    0.604
       273 -11.8070     75.4769     35.4296   4.4376298909e+01   6.0806445843e+01    0.4771584    0.3845376  50.28  0.001953997    1.234    0.190
       274  -9.7667     60.9782     40.3976   5.2314064816e+01   6.2866050286e+01    0.3185107    0.1979287  24.04 0.0009564889    1.838    0.456
       275  -9.4836    235.8492     40.1549   1.7064319524e+01   2.2279800943e+01    0.1443257     0.139828 -43.35 0.0003449616    1.276    0.217
       276 -10.5899    225.0532     38.9548   1.7720978621e+01   2.4631577216e+01    0.3771973    0.1941602 -75.23  0.001789367    2.353    0.575
       277 -10.4467    115.3509     39.1016   3.3996737750e+01   5.1011938639e+01    0.2444808     0.220011  73.82 0.0001971193    1.099    0.090
       278 -12.1536     57.3879     34.6153   5.1307453567e+01   6.4502573155e+01    0.4973792    0.3750885   4.46  0.002696159    1.450    0.310
       279  -9.3297    159.8000     38.3553   2.5184736924e+01   3.9889614218e+01    0.1915964    0.1203513  58.31 0.0003472187    1.535    0.349
       280 -11.0658    248.2492     36.2468   1.5267436744e+01   2.0342842353e+01    0.2050766    0.1521792 -55.61 0.0002843376    1.075    0.070
       281  -9.9134    202.1366     37.1713   1.9498941282e+01   2.9852884775e+01    0.1828009    0.1317232 -62.48 0.0003220587    1.271    0.213
       282 -10.8584     66.0158     36.5584   4.8520540142e+01   6.2554005543e+01    0.3379611    0.2098788  41.41  9.27909e-05    1.531    0.347
       283  -9.9607      1.5871     37.0352   8.3526899200e+01   7.0725360950e+01    0.1788293    0.1292847 -49.18   0.00101562    1.153    0.133
       284 -10.4175    192.9810     34.5010   1.9797682706e+01   3.2296428877e+01    0.3273938      0.19899 -58.21  0.001416056    1.585    0.369
       285 -10.7973    129.1273     35.9545   2.9819394382e+01   4.7981948434e+01    0.2529123    0.2039834  48.41  0.001348383    1.226    0.185
       286  -9.9265    129.2043     31.9197   2.8394591302e+01   4.8481313012e+01    0.2108235    0.1819532 -77.42 0.0003806583    1.196    0.164
       287 -10.9593     97.0772     35.8439   3.7542171142e+01   5.5899365248e+01     0.288712    0.1982807 -33.63  0.001026422    1.545    0.353
       288 -10.8035    178.2139     30.7676   2.0489805215e+01   3.6278910014e+01    0.5486101    0.2836093  -7.92  0.002019022    3.845    0.740
       289 -11.4902    111.2885     34.7082   3.3335453308e+01   5.2619873339e+01    0.2854134    0.2290165  62.43 0.0004309257    1.176    0.150
       290  -9.8614     39.2338     35.4756   6.0531783423e+01   6.7325510645e+01    0.2300366    0.1239023  27.51 0.0006818957    1.905    0.475
       291  -9.6141     11.8663     29.3566   7.4165919650e+01   7.1628239509e+01    0.1664586    0.1319952 -14.84 0.0001522112    1.131    0.116
       292 -10.0790      9.4685     34.4854   7.7671561721e+01   7.0773288125e+01    0.2383943    0.1501738 -21.04   0.00134627    1.551    0.355
       293 -11.1951      7.2926     30.4833   7.7629437781e+01   7.1751994845e+01    0.3113824    0.2566501  59.18   0.00164339    1.710    0.415
       294  -9.9076    140.9025     33.9315   2.6899391187e+01   4.5247217719e+01    0.2087194    0.1898178  89.72 0.0003905298    1.042    0.040
       295  -9.4689    134.7417     34.5876   2.8247268807e+01   4.6733216557e+01    0.2002725    0.1312953  79.27 0.0008745469    1.621    0.383
       296 -11.3031    122.5595     33.4323   3.0292261911e+01   4.9972202375e+01    0.3319849    0.2494028  60.00 0.0006872339    1.226    0.185
       297 -11.7034     18.2108     31.0025   7.0759616141e+01   7.0729542617e+01    0.4900019    0.2958045  -9.65 0.0009530137    1.864    0.464
       298  -8.8069     16.0484     26.3440   7.0131826935e+01   7.1838198403e+01    0.2047984    0.1495489  24.64 0.0008885525    1.435    0.303
       299 -10.8520     22.4334     24.2998   6.5051741563e+01   7.1539178976e+01    0.2781729    0.2135862  -8.70 0.0005435146    1.191    0.160
       300  -9.8775     24.3616     20.2038   6.1768844158e+01   7.2024768206e+01    0.2090121    0.1744325  26.92 0.0007759808    1.296    0.228
       301 -11.6764      6.6341    244.7832   1.0259603235e+02   2.2106425419e+01    0.3909699    0.2745397  80.51  0.001687343    1.313    0.239
       302 -10.9302     28.1700    245.3184   9.8369611888e+01   1.9895143967e+01    0.2997145    0.1726885 -85.83  0.001893929    1.819    0.450
       303 -10.0377     32.4479     32.8918   6.3078964802e+01   6.8736050459e+01    0.3920188    0.2123205  40.87  0.001918131    2.092    0.522
       304 -10.7114    207.8327     31.4817   1.7531804970e+01   2.9266190400e+01    0.1949792    0.1780326 -10.88  0.001103325    1.388    0.279
       305 -10.2645      1.3809     31.2408   8.1840228977e+01   7.1964530364e+01    0.1994364   0.09545132 -56.56 0.0002556914    1.747    0.427
       306 -10.3287    166.9049     30.9298   2.1966189661e+01   3.9044493411e+01    0.2083949    0.1865616 -79.93 0.0004618918    1.011    0.011
       307 -11.9415    145.3231     29.1015   2.4571603517e+01   4.4714736957e+01    0.4228987    0.3153439   2.91 0.0009639166    1.808    0.447
       308 -11.3582    100.7185     28.6246   3.3616711011e+01   5.5999656099e+01    0.4783232    0.3408715  50.29  0.001164153    1.280    0.219
       309 -10.1704     50.1199     28.1417   5.1590675217e+01   6.6846186005e+01    0.3892348    0.2182584 -16.85   0.00170489    2.463    0.594
       310 -10.5016    234.5455     28.6797   1.4660628007e+01   2.3916352146e+01    0.2213592    0.1101841 -28.66  0.001133732    2.044    0.511
       311 -12.0858    156.7233     28.1968   2.2554094400e+01   4.1925997833e+01     0.282423    0.2245847  85.33 0.0002762105    1.177    0.151
       312 -10.4006     82.3578     22.1116   3.6071596354e+01   6.1129991057e+01    0.4035264    0.2542374  47.74  0.001341241    1.424    0.298
       313 -10.6769     87.1316     20.1221   3.3737504534e+01   6.0266687072e+01    0.2530416     0.194624  52.06  0.001401143    1.172    0.147
       314 -10.8783    238.8011     27.4245   1.4082454280e+01   2.3210462314e+01    0.2570671    0.1599041 -19.65  0.001440278    2.046    0.511
       315 -10.9791    197.6513     27.9600   1.7634661121e+01   3.1997244627e+01    0.2531075    0.1744101 -88.52 0.0007401162    1.400    0.286
       316 -11.2635    135.1683     27.0755   2.5609663307e+01   4.7548950625e+01    0.2665404    0.1937199  62.49 0.0003557475    1.259    0.206
       317 -10.9699     72.8791    244.8472   8.9101330859e+01   1.4842448911e+01    0.2928956    0.2036206  37.59   0.00128571    1.166    0.143
       318  -9.8668     62.0601     28.4307   4.6404422972e+01   6.4592271804e+01    0.2666773    0.1715297  58.03  0.001300969    1.885    0.470
       319  -9.7037    118.7479     27.5790   2.8958422046e+01   5.1664685118e+01    0.2696424    0.1206491  58.25  0.001105218    1.967    0.492
       320 -11.3905    225.6259     23.5554   1.4189323601e+01   2.6338758061e+01    0.4383865    0.2462343 -46.83  0.002301176    1.467    0.318
       321 -12.3916    216.5478     25.2063   1.5273861662e+01   2.8084547943e+01     0.298871    0.2137299  75.34 0.0002787346    1.413    0.292
       322 -12.8256     75.0328    238.9249   8.8147524269e+01   1.5648997754e+01    0.5789233    0.5302443  31.03  0.003682384    1.215    0.177
       323 -11.0784      2.3066     24.9467   7.8960535182e+01   7.3199668519e+01    0.3819197    0.2344968 -28.41  0.001908352    1.442    0.306
       324 -10.1495      9.9813     24.4802   7.3398252061e+01   7.2739397355e+01    0.3788457     0.201727  -0.91  0.001275349    2.160    0.537
       325 -10.6819    160.4484     24.5176   2.0924872302e+01   4.1412299053e+01     0.267629     0.211096 -58.74 0.0009849626    1.229    0.187
       326 -10.8046    161.5726     20.2997   1.9516637901e+01   4.1597602646e+01    0.2875654    0.2062195   7.13  0.001392975    2.007    0.502
       327  -9.2401     71.5965     25.6042   4.1336976179e+01   6.3048853579e+01    0.2917088   0.09056167  40.93  0.000952739    3.493    0.714
       328 -11.0609    193.7389     22.9062   1.6724776706e+01   3.3487472790e+01     0.402528    0.1538993 -38.13 0.0009461366    2.270    0.559
       329 -10.0769     79.9051     28.5855   3.9790785485e+01   6.0841094760e+01     0.351081    0.3060606 -43.89  0.001727645    1.296    0.228
       330 -10.5176    128.1431     23.9858   2.5797901765e+01   4.9700166168e+01    0.2431437    0.2078488  66.43 0.0003894789    1.065    0.061
       331  -9.6141     45.0056    244.4848   9.4895812544e+01   1.8227382728e+01    0.1718534   0.09391493  34.87 0.0004216444    1.510    0.338
       332 -10.1856     54.2141     23.0833   4.7168168073e+01   6.6874995014e+01    0.2293352    0.2078282  72.57 0.0009261469    1.474    0.322
       333 -10.7619     62.7471     23.3954   4.3679922621e+01   6.5178531897e+01    0.3251175    0.2331086   5.35  0.001595761    1.589    0.371
       334 -11.2086     58.8938     21.3108   4.4229095644e+01   6.6228720612e+01    0.4562369    0.2484897  35.94  0.002186237    1.785    0.440
       335  -9.4467    108.3064     23.3364   2.9631896040e+01   5.4779739204e+01    0.1471071    0.0993727  31.97 0.0007040983    1.673    0.402
       336 -10.4167     34.5000     22.1510   5.6696860119e+01   7.0320581428e+01    0.2675382    0.2202865 -12.93  0.001232762    1.094    0.086
       337 -10.8597     88.8458    240.7241   8.5342428116e+01   1.3529183736e+01     0.184752    0.1659962 -48.35 0.0009279721    1.399    0.285
       338  -9.4777    115.6843    240.3182   7.9564856915e+01   9.9595866917e+00    0.1252799   0.08230437  54.58 0.0006093654    1.653    0.395
       339  -9.8713    186.0000     19.0278   1.6461238241e+01   3.5744356114e+01    0.2918938   0.07158937 -27.43 0.0009655327    4.187    0.761
       340  -9.6118     93.9953     22.4519   3.2835116184e+01   5.8372711129e+01    0.2124907    0.1263057  58.35 0.0003724071    1.538    0.350
       341  -9.3106    155.6884     21.7087   2.0705357758e+01   4.2926830588e+01    0.1360085   0.09868123  42.25 0.0003667662    1.587    0.370
       342 -10.3407     60.4968    240.6987   9.1397394611e+01   1.7123503645e+01    0.2135298    0.0889867  33.17  0.000767327    1.962    0.490
       343  -9.9113     74.6040     21.0700   3.8126269477e+01   6.2991273936e+01    0.3651827    0.1597525 -32.92  0.001456461    2.402    0.584
       344 -10.1952    195.3686    238.4476   6.3309410362e+01  -6.8703371283e-01    0.2086169    0.1592697  -7.36 0.0009347998    1.195    0.163
       345 -10.8307     35.1771    237.8817   9.6545865478e+01   2.0552121321e+01    0.1911692    0.1233715  57.74 0.0009825408    1.255    0.203
       346 -10.7418     18.0621    236.4339   1.0000415791e+02   2.2592383869e+01    0.4394292    0.1284317  48.53  0.001708816    2.386    0.581
       347 -10.2692     76.5056     15.5370   3.4847823733e+01   6.3224637883e+01    0.2678949    0.2304624  50.62 8.647599e-05    1.096    0.087
       348 -10.3659    248.7206     20.4112   1.1968484430e+01   2.2073790199e+01    0.1934777   0.09810492 -59.10  0.000530932    1.685    0.407
       349  -9.5237     99.3687     20.2175   3.0496853861e+01   5.7333858666e+01    0.1752837    0.1252375 -40.56 9.127657e-05    1.545    0.353
       350 -10.3166     41.1649     19.2402   5.1504419305e+01   6.9733531396e+01    0.2069835    0.1749307   5.87 0.0004112213    1.034    0.033
       351  -9.7792    102.1888    243.6397   8.2785051762e+01   1.1236858851e+01    0.1680566    0.1382811  47.81  0.001018209    1.127    0.113
       352 -10.9545    183.3084    234.2818   6.4969646527e+01   1.4788416283e+00    0.3307968    0.1827906  34.23  0.001363814    1.578    0.366
       353 -10.0304    140.3698     18.2176   2.1770338020e+01   4.7202229689e+01    0.2549645    0.1732365  48.02 0.0006319087    1.518    0.341
       354  -9.7567    143.4817     16.5038   2.0746636264e+01   4.6584568376e+01    0.2502788    0.1753115 -72.02   0.00130334    1.492    0.330
       355 -10.1849    107.9531     17.6245   2.7440564926e+01   5.5499407251e+01    0.2395481    0.1983299 -31.59 0.0007526729    1.327    0.246
       356 -11.4394    184.9706    228.2790   6.3754492550e+01   2.1114491296e+00    0.4877335    0.2576394 -19.24  0.002400898    2.497    0.600
       357 -10.0262     91.6689    235.6932   8.4242313358e+01   1.4061863198e+01    0.1181095   0.09255854  -0.21 0.0002688135    1.662    0.398
       358  -8.8860     53.9438     14.0000   4.2508892369e+01   6.8148897104e+01    0.2400857    0.1515236  45.52 0.0008711025    1.463    0.316
       359 -11.4235     30.5843    233.8483   9.7283911739e+01   2.1818917460e+01     0.373787     0.227074  53.55  0.002350564    1.293    0.227
       360  -9.7125     15.4023     13.4707   6.4162167406e+01   7.4213564650e+01    0.1533741    0.1072121 -46.34 0.0001430322    1.529    0.346
       361 -10.0161    193.2487     16.3357   1.5086214856e+01   3.4322284680e+01     0.213619    0.1396744 -87.84 0.0006424956    1.434    0.303
       362 -10.4780     39.6537    229.4416   9.5089421530e+01   2.1703959358e+01    0.2797524     0.180461  62.95  0.001732634    1.354    0.261
       363  -9.3191    159.3224     15.6957   1.8412193819e+01   4.2648955883e+01    0.1435434   0.09034909 -66.32 0.0003448911    1.637    0.389
       364  -9.8430    137.1193     14.8987   2.1145541653e+01   4.8373418603e+01    0.2045443    0.1678788 -68.47 0.0003527774    1.227    0.185
       365 -10.3247    127.4090    232.3021   7.6108268307e+01   9.6710104667e+00    0.2189132     0.119471 -47.44  0.001150345    2.173    0.540
       366  -9.5905     88.2853    233.6770   8.4781364831e+01   1.4886720023e+01    0.1272735   0.08067807  57.63  0.000438346    1.599    0.375
       367 -10.6582     38.6836    233.6429   9.5558776955e+01   2.0987059170e+01    0.1962532    0.1349667 -66.03  0.001256399    1.699    0.411
       368  -9.1319     59.3088    229.3075   9.0779228607e+01   1.9442476754e+01    0.1098854   0.09436606 -12.68 0.0003787286    1.615    0.381
       369  -9.4543    169.5066    228.5501   6.6832894449e+01   4.2325581169e+00    0.1247584    0.1016531  19.39 0.0003230559    1.033    0.032
       370  -9.6741    151.5343    228.0851   7.0438969825e+01   6.8861878423e+00    0.1643738    0.1252061 -43.43 0.0006594604    1.545    0.353
       371 -10.6574    221.6503     31.9306   1.6407490720e+01   2.6202724899e+01    0.2446261    0.1242498 -41.35 0.0006396173    1.652    0.395
       372  -9.0552    206.3497     10.7507   1.2647415407e+01   3.1908215386e+01    0.1310963   0.07552186 -66.61  0.000278895    1.587    0.370
       373 -10.8352    160.2848    235.1987   6.9637125115e+01   4.5191591661e+00    0.2422726     0.140994  14.17 0.0009654327    1.896    0.473
       374  -9.9614      3.8391    226.0572   1.0250469452e+02   2.5950165937e+01    0.1891891    0.1367331 -88.44 0.0008857552    1.357    0.263
       375  -9.6948    131.3111    226.6587   7.4542762373e+01   1.0077069800e+01    0.1273832   0.09124507  57.95 0.0006760234    1.696    0.410
       376  -9.1522    120.3355    225.6521   7.6809657381e+01   1.1857442192e+01    0.1333291    0.0891604  58.17 0.0001094721    1.777    0.437
       377  -9.3204     77.2816    220.3381   8.5926577787e+01   1.8927819967e+01    0.1177359   0.09779725 -17.99 0.0003116755    1.623    0.384
       378  -9.4265     42.4855    220.5126   9.3868916104e+01   2.3186984470e+01    0.1265434   0.09744317  56.12 0.0002275578    1.054    0.051
       379  -9.8037     21.3288    219.9922   9.8527274140e+01   2.5537017926e+01    0.1668132    0.1313198  70.35 0.0006489643    1.097    0.089
       380  -9.7611    211.8409    219.0889   5.7309817536e+01  -2.2234820347e-01    0.1672306    0.1465158   0.25 0.0006477892    1.245    0.197
       381  -9.4896    120.8092    219.4085   7.5900606611e+01   1.2922916104e+01      0.18076    0.1116657  23.89 0.0005299941    1.596    0.374
       382  -9.4035    176.3241    218.7090   6.3977294960e+01   4.7688214262e+00    0.1156754   0.09499118  51.43 0.0003122456    1.612    0.380
       383 -11.8174      8.7011    216.2952   1.0109563842e+02   2.7494629936e+01    0.4173357    0.1355135  42.88  0.002049416    2.203    0.546
       384 -12.2330      5.6424    208.5423   1.0143429606e+02   2.9389010205e+01    0.5135702    0.1982472 -80.02  0.002523219    2.439    0.590
       385 -11.0749      1.9767    205.8118   1.0213454976e+02   3.0281960775e+01    0.2719227    0.1494391 -61.89  0.001466068    2.073    0.518
       386  -9.7185    136.0138    216.2438   7.2088013967e+01   1.1211927259e+01    0.1792132   0.09725637  33.65 0.0007172714    1.581    0.368
       387 -10.6304     29.3761    215.6251   9.6496478308e+01   2.5624876745e+01    0.2190979    0.1959276  42.38  0.001097358    1.224    0.183
       388 -10.0590     24.0043    216.0084   9.7721638587e+01   2.6094782026e+01    0.1836206      0.14252  61.79 0.0003832613    1.032    0.031
       389  -9.3029    169.6722    212.6808   6.4372610756e+01   6.7109533054e+00    0.1336863    0.0903205   1.05 0.0007047083    1.683    0.406
       390  -9.9389    110.1646    211.8412   7.7332467037e+01   1.5947773390e+01    0.1769928    0.1526806   0.62  0.001065402    1.318    0.241
       391 -10.5928    237.0002    209.0099   5.1329776399e+01  -2.1057885562e+00    0.1867287    0.1127904  -3.63 0.0006172506    1.643    0.391
       392  -9.8991    217.2201    208.7713   5.4646417536e+01   4.8542652671e-01    0.1882142   0.08110386 -27.61 0.0008428948    2.457    0.593
       393 -10.6543     28.0289    205.3754   9.6161465413e+01   2.7951570581e+01    0.2100629    0.1619527  84.94 0.0002755117    1.211    0.174
