#   1 NUMBER                 Running object number                                     
#   2 MAG_AUTO               Kron-like elliptical aperture magnitude                    [mag]
#   3 X_IMAGE                Object position along x                                    [pixel]
#   4 Y_IMAGE                Object position along y                                    [pixel]
#   5 X_WORLD                Barycenter position along world x axis                     [deg]
#   6 Y_WORLD                Barycenter position along world y axis                     [deg]
#   7 A_WORLD                Profile RMS along major axis (world units)                 [deg]
#   8 B_WORLD                Profile RMS along minor axis (world units)                 [deg]
#   9 THETA_WORLD            Position angle (CCW/world-x)                               [deg]
#  10 FWHM_WORLD             FWHM assuming a gaussian core                              [deg]
#  11 ELONGATION             A_IMAGE/B_IMAGE                                           
#  12 ELLIPTICITY            1 - B_IMAGE/A_IMAGE                                       
         1 -12.2032    198.4890     31.8792   5.3167703258e+01   3.1222319017e+01     1.247879    0.8696554  22.29   0.00576159    1.708    0.415
         2 -10.8066    207.0601     22.1404   4.9237806480e+01   3.0159588534e+01    0.4728912    0.3394335  31.84  0.001216511    1.604    0.377
         3 -11.8861    211.9429     16.2687   4.7017399950e+01   2.9557133508e+01    0.7951101    0.7216887 -40.58  0.003108328    1.020    0.019
         4  -9.7165     21.7900     25.1358   1.0387811314e+02   7.0470084517e+01    0.2912991    0.1007319 -65.17  0.001047269    3.414    0.707
         5  -9.7975     33.0000     15.6343   9.2855500052e+01   7.1263571595e+01    0.4400697   0.06462616 -49.22  0.001151153    5.883    0.830
         6  -8.4981     32.7016      1.6620   8.4596118571e+01   7.3841176808e+01    0.1334982   0.08759628 -12.16 0.0007033509    1.659    0.397
         7 -10.3867     94.5041    225.8500   1.1515916772e+02   1.9154294940e+01    0.2528595    0.2003447  22.34  0.001918995    1.462    0.316
         8 -10.4239    134.2704    246.4532   1.0998300451e+02   1.1358032730e+01    0.3019863    0.2078636  -9.61  0.002085485    2.365    0.577
         9 -11.2147    127.1427    247.7484   1.1130867444e+02   1.2100856755e+01    0.4195397    0.2003529  35.70  0.002265096    1.558    0.358
        10 -11.7321     98.6555    248.1644   1.1618093539e+02   1.5537671797e+01     0.740782    0.3396442  47.96  0.004831457    1.682    0.406
        11 -11.6831    112.2789    248.4709   1.1389049548e+02   1.3853500102e+01    0.6015587    0.3638718  36.42  0.004437096    1.247    0.198
        12 -11.4124     18.8309    192.2724   1.2751633628e+02   3.3052567541e+01    0.3515929    0.2392627  41.03 0.0004115306    1.341    0.254
        13 -12.2542     44.6818    211.0725   1.2343507766e+02   2.7239808578e+01    0.9569326    0.6804351 -25.20  0.002813101    2.822    0.646
        14 -14.5103     54.1361    201.6043   1.2101336692e+02   2.7855824448e+01     4.547728     2.508745 -80.66   0.02902277    1.932    0.482
        15 -10.4582     88.5245    159.4084   1.0939074619e+02   3.1518941984e+01    0.5130297    0.3501013  -8.79   0.00145906    2.829    0.646
        16 -11.6853     70.4575    161.9194   1.1396410366e+02   3.3444395190e+01    0.6777802    0.3778417 -47.38  0.001530491    2.289    0.563
        17 -11.7031     68.4570    144.3915   1.1233318230e+02   3.7382118159e+01    0.8907757    0.5019271  71.37  0.004288418    2.177    0.541
        18 -10.7748     28.9313    156.0518   1.2329752860e+02   3.9254724170e+01    0.3279573    0.1748807 -77.53  0.001491571    1.719    0.418
        19  -9.8817     32.5851    148.7555   1.2185554813e+02   4.0462783271e+01    0.2720917    0.1041713 -79.61  0.001261081    2.506    0.601
        20 -10.6446     90.0741    143.3399   1.0669943039e+02   3.4599713562e+01    0.3410654    0.2620031 -25.61 0.0007203522    1.803    0.445
        21  -9.3421    102.6957    142.7815   1.0346457724e+02   3.2771519030e+01    0.4330305    0.2603749 -30.34  0.001912729    2.665    0.625
        22 -10.7151     31.4327    138.6261   1.2129182640e+02   4.2789265926e+01    0.2869485    0.2223599  31.89  0.001886679    1.441    0.306
        23 -14.5567      6.7185    245.8445   1.3134354993e+02   2.5331754143e+01     2.419734     1.022799  30.02    0.0164589    2.311    0.567
        24 -10.2544     32.7432    157.3575   1.2248709485e+02   3.8619327631e+01       0.3341    0.1464429 -83.24  0.001701906    2.210    0.548
        25  -9.4227     99.1247    128.6001   1.0185759795e+02   3.6332109679e+01    0.2677388    0.2293511 -17.73 0.0006875592    1.454    0.312
        26  -8.4370    111.4909    132.4958   9.9425261389e+01   3.3443290264e+01    0.2424452    0.1313719  28.65 0.0009637444    2.259    0.557
        27  -7.5406    108.3937    120.4968   9.7816741615e+01   3.6500719933e+01    0.1364312    0.1332611 -81.11 -0.0002432149    1.027    0.026
        28  -9.4385    162.7003    226.9983   1.0301286680e+02   9.9408017553e+00    0.2248201    0.1112722  52.55  0.001181744    2.688    0.628
        29  -7.8940    168.2068    112.7849   8.1798092263e+01   2.6267678451e+01    0.2353629    0.1638558 -79.35 0.0009543234    2.798    0.643
        30 -15.5399      5.7697    212.8135   1.3069270616e+02   3.0575997615e+01     15.22793     1.130496 -81.60   0.04373331   11.876    0.916
        31  -7.6268    205.6763    109.7038   7.3905509518e+01   1.8986434807e+01      0.14487   0.09996492  13.26 0.0004866516    1.622    0.384
        32  -9.8370     43.6600    109.0165   1.1442810132e+02   4.8410282078e+01    0.3782821    0.1960937  39.08  0.001884587    1.946    0.486
        33 -11.1280     99.2043    228.2480   1.1450361369e+02   1.8217271691e+01    0.3899667    0.1635579  39.88  0.002265725    1.769    0.435
        34  -9.4715    194.9352    195.6689   9.3014516976e+01   9.0899953456e+00    0.2954978    0.1530878 -25.66  0.001621726    2.259    0.557
        35  -9.2433    155.2910     57.8453   6.8651242287e+01   3.8599119069e+01    0.3136181    0.2540627 -88.04 0.0006878228    1.542    0.351
        36  -8.3346    151.7101     55.3154   6.8544890444e+01   3.9890946437e+01    0.2372705    0.2139508 -78.27 0.0007252695    1.261    0.207
        37 -10.0320     69.3518    181.9848   1.1627903030e+02   2.9652670290e+01    0.3251528    0.2412163 -30.30  0.001955681    2.125    0.529
        38 -10.1397     73.8103    176.3888   1.1475362897e+02   3.0159612291e+01    0.2404707     0.219481 -49.33 0.0006653064    1.378    0.274
        39  -7.9570    104.6568    173.6617   1.0761041960e+02   2.6443030666e+01    0.1206197    0.0961394  -5.27 0.0003948889    1.772    0.436
        40 -10.7176    189.5630     38.1832   5.6304604528e+01   3.2712755775e+01    0.3829512    0.3437786   0.28  0.001206998    1.131    0.116
        41 -10.8455    140.5073    243.5051   1.0864059018e+02   1.0913915393e+01    0.2313715    0.1644987  34.91  0.001794833    1.044    0.042
        42 -10.2272    120.0944    248.3389   1.1255418365e+02   1.2907365677e+01    0.2355855    0.1784438  51.75   0.00169321    1.235    0.190
        43  -9.6723     84.3778    234.2010   1.1763835918e+02   1.9159362923e+01    0.2152315    0.1255884 -66.48  0.001516958    2.139    0.532
        44  -8.8681    136.6361    231.6955   1.0811359938e+02   1.2888523562e+01    0.1067811   0.07252021  15.65 5.261962e-05    1.737    0.424
        45 -11.7401    116.3042    230.2250   1.1159058563e+02   1.5758527455e+01    0.5286303    0.2025617  41.64  0.002924121    1.935    0.483
        46 -10.5058     82.6826    165.3027   1.1150582153e+02   3.1155717042e+01    0.5615637    0.2857514 -65.22  0.001190957    2.096    0.523
