#   1 NUMBER                 Running object number                                     
#   2 MAG_AUTO               Kron-like elliptical aperture magnitude                    [mag]
#   3 X_IMAGE                Object position along x                                    [pixel]
#   4 Y_IMAGE                Object position along y                                    [pixel]
#   5 X_WORLD                Barycenter position along world x axis                     [deg]
#   6 Y_WORLD                Barycenter position along world y axis                     [deg]
#   7 A_WORLD                Profile RMS along major axis (world units)                 [deg]
#   8 B_WORLD                Profile RMS along minor axis (world units)                 [deg]
#   9 THETA_WORLD            Position angle (CCW/world-x)                               [deg]
#  10 FWHM_WORLD             FWHM assuming a gaussian core                              [deg]
#  11 ELONGATION             A_IMAGE/B_IMAGE                                           
#  12 ELLIPTICITY            1 - B_IMAGE/A_IMAGE                                       
         1 -11.4252    241.4629     25.3248   3.3968280053e+01   2.3239702185e+01    0.5623873    0.4152294  33.12  0.002525811    2.355    0.575
         2 -14.5232    233.4593     79.8251   4.6517582340e+01   1.7156951708e+01     3.496883     1.288127 -47.96   0.01391302    2.470    0.595
         3 -14.0138    239.1883     62.8359   4.2103277178e+01   1.8608342248e+01     4.561547      1.77529  43.02  0.001811476    6.426    0.844
         4 -11.8881    161.4834     64.0282   5.3727849260e+01   3.6193789823e+01    0.7265164    0.3552726 -21.12  0.002481846    3.410    0.707
         5 -11.8997    196.8513     40.0558   4.1747151762e+01   3.1193841545e+01     0.569521    0.3431244 -12.56  0.002510212    2.793    0.642
         6 -14.8789    247.5057     35.3198   3.5516825286e+01   2.0753328689e+01     4.461879     2.194669  45.37  0.003233189    3.712    0.731
         7 -14.0182    243.5448     53.3765   3.9623953579e+01   1.9097868238e+01     2.903648     1.220853  79.74  0.002645138    3.338    0.700
         8  -9.3650    230.6440     17.1822   3.3131370306e+01   2.6466329771e+01    0.3379786     0.177003  43.88   0.00155763    3.389    0.705
         9  -8.8762    247.7095     10.4612   3.0561805138e+01   2.3727181647e+01    0.1670024    0.1444218 -11.77  0.001012673    1.786    0.440
        10  -9.2524    243.0143      8.6260   3.0508606278e+01   2.4874992060e+01    0.1751726    0.1583958 -27.50 0.0005520307    1.540    0.351
        11  -9.0196    249.8247      5.0943   2.9400478919e+01   2.3904293756e+01    0.1992892    0.1255061  53.85  0.001217701    2.205    0.546
        12 -11.3820    221.1803    109.5464   5.5007093327e+01   1.4628141861e+01    0.4070081    0.2905219 -83.36  0.001982006    1.922    0.480
        13 -12.3541    236.1272    242.1774   7.8863931280e+01  -9.7977689089e+00    0.6636917    0.2871213  19.43  0.003079837    2.790    0.642
        14 -12.2018    229.4288    248.5574   8.1083816435e+01  -9.7820276431e+00    0.6417693    0.3651797  23.16  0.003877155    1.533    0.348
        15  -9.8852    218.3842    105.2120   5.4448661715e+01   1.5974475319e+01    0.2630166    0.1542888 -52.83 0.0006463964    1.708    0.415
        16  -9.5441    120.7240    247.5274   1.0218626014e+02   6.1780202709e+00    0.2058367    0.1103791  30.14 0.0006930873    1.832    0.454
        17 -12.3282    247.9608    246.4168   7.7511037738e+01  -1.1784030867e+01    0.8644007    0.4902691 -35.12    0.0054084    1.813    0.449
        18 -10.7730    198.6808    100.6081   5.6616718223e+01   2.1037633009e+01    0.3609286    0.2325801 -55.22  0.001537269    1.605    0.377
        19 -10.3102    190.2558    100.8873   5.8196110837e+01   2.2869725824e+01    0.3712671    0.2167751 -57.89  0.001533226    1.996    0.499
        20 -10.8648    215.3401     92.6961   5.1993016080e+01   1.8815061488e+01    0.3421776    0.2233325 -50.75  0.001692278    1.422    0.297
        21 -10.5909    194.6396     94.3705   5.5776397075e+01   2.3082991783e+01     0.335048    0.2312827 -69.52  0.001537053    1.757    0.431
        22 -10.4049    186.7421     94.0738   5.7115984481e+01   2.4937573271e+01    0.3289346    0.1894159 -49.97  0.001017375    1.727    0.421
        23 -11.8242    210.4108     90.3563   5.2193730248e+01   2.0286880040e+01      0.64205    0.2668432 -42.72  0.002545359    2.151    0.535
        24 -10.5828    204.4517     92.6810   5.3703179680e+01   2.1189995263e+01    0.5065725    0.1212963 -40.31  0.001513357    3.657    0.727
        25 -10.5632    204.3802     86.6199   5.2234734698e+01   2.2266495819e+01    0.3136888    0.2497914  53.81  0.001243107    1.362    0.266
        26  -9.8733    162.8259     91.9982   6.1295485797e+01   3.0908372102e+01    0.2692772     0.173284 -67.05    0.0010857    2.095    0.523
        27 -11.4255    194.1009     87.0830   5.4037835267e+01   2.4511294077e+01    0.4809586    0.3071002 -60.29  0.002140009    1.736    0.424
        28 -10.5303    187.2837     88.1450   5.5496849179e+01   2.5892074341e+01    0.4530429    0.1288093 -40.79  0.001415096    3.220    0.689
        29 -10.9358    184.9759     82.4319   5.4427888132e+01   2.7444825898e+01      0.43444    0.2110137 -51.70  0.001490739    2.217    0.549
        30 -11.0300    181.4668     77.4938   5.3752431234e+01   2.9130256004e+01    0.3975451    0.2579776 -84.98  0.001687175    2.150    0.535
        31 -11.3169    176.2641     72.5010   5.3344610003e+01   3.1220135672e+01    0.4507546    0.2404539 -48.92  0.001893966    1.899    0.473
        32 -10.9051    193.0102     78.7240   5.2100037636e+01   2.6212566442e+01     0.286696    0.2184261 -15.84    0.0008536    1.697    0.411
        33 -10.3381    181.8661     85.8632   5.5885227066e+01   2.7564145515e+01    0.2829161    0.1952831 -46.55  0.001055568    1.386    0.279
        34 -11.0545    173.8249     82.8315   5.6586112930e+01   3.0005401179e+01    0.4231284    0.2846828 -14.01  0.001783583    2.208    0.547
        35 -10.2616    150.9967     82.0018   6.1071695840e+01   3.5597277631e+01    0.3619744    0.1943174 -58.87  0.001314232    2.573    0.611
        36 -11.1552    187.5461     77.3693   5.2665143358e+01   2.7718060347e+01     0.360643    0.2039125 -38.84  0.001593194    1.706    0.414
        37  -8.7154    144.3038     75.3214   6.0631127540e+01   3.8410258251e+01    0.1517878    0.1197984  14.44 0.0007029611    1.634    0.388
        38 -10.2468    138.5005     73.5153   6.1437491983e+01   4.0110445546e+01    0.4192421    0.1544405 -33.91  0.001362468    3.088    0.676
        39 -11.5180    192.6084     69.7910   4.9882042066e+01   2.7792125740e+01    0.3851626    0.3061211 -36.90  0.002022956    1.278    0.218
        40 -12.0338    168.4881     67.9454   5.3513350273e+01   3.3853130947e+01    0.6313792    0.3672155 -28.66  0.002716067    1.976    0.494
        41 -10.9995    152.0096     69.5188   5.7226647530e+01   3.7578637723e+01    0.4356554    0.2151172 -42.25   0.00163344    2.023    0.506
        42  -9.9475    145.0000     68.9903   5.8586063406e+01   3.9356241337e+01    0.4146291   0.08501457 -36.68  0.001055895    4.976    0.799
        43 -10.5916    183.9365     67.0837   5.0575272787e+01   3.0279489669e+01    0.3085209    0.2157609  73.17  0.001517241    1.493    0.330
        44 -11.8829    240.0573    248.0010   7.9125562210e+01  -1.1033026372e+01    0.6158021    0.3879662  12.37  0.003991983    1.370    0.270
        45 -10.5899    172.7196     58.5188   5.0144698345e+01   3.4330648710e+01    0.3383934    0.2115348 -23.49  0.001522122    1.985    0.496
        46 -11.9692    188.0820     55.0484   4.6766094056e+01   3.1156872894e+01    0.5568097    0.3988956  -9.91   0.00270073    2.041    0.510
        47 -10.3479    161.8043     53.1090   5.0530663548e+01   3.7810733330e+01    0.4801806    0.2136954 -20.07  0.001524034    4.175    0.760
        48  -9.8952    154.4427     53.2458   5.1933497814e+01   3.9591377928e+01    0.2691521    0.1464354 -28.10   0.00113962    2.109    0.526
        49  -9.1824    136.3055     65.3450   5.9450804210e+01   4.2052762605e+01    0.1522042    0.1161875  16.00  0.000704198    1.692    0.409
        50 -10.1096    180.9728     50.2882   4.6577904976e+01   3.3557863738e+01    0.2045002    0.1795968  82.42 0.0008843532    1.069    0.065
        51 -10.7147    198.3666     46.4262   4.3141792034e+01   2.9970240636e+01     0.244029    0.2164419 -48.86  0.001047965    1.157    0.136
        52 -14.6883    247.5554     96.7394   4.8423981818e+01   1.1646291928e+01     3.716134     1.829525  67.25   0.01674362    2.780    0.640
        53 -10.2708    190.3245     42.7156   4.3260872211e+01   3.2376847946e+01    0.3786011    0.1138142 -34.83  0.001358579    3.170    0.685
        54  -9.6658    211.4109    110.2061   5.6746326451e+01   1.6527182155e+01    0.2154152    0.1215769 -49.13 0.0008338777    1.700    0.412
        55 -11.1723    219.4543     34.5492   3.7912088327e+01   2.6764354153e+01    0.4994933    0.2899238 -15.60  0.002261158    2.977    0.664
        56 -11.5658    205.4940     99.2593   5.5127067551e+01   1.9785098656e+01    0.4096828    0.2863173 -53.23   0.00202506    1.384    0.278
        57 -10.0501    223.7744    102.9367   5.3093512640e+01   1.5266670153e+01    0.2804145    0.1745818 -53.85  0.001351033    1.588    0.370
        58 -12.8532    248.5064     68.1361   4.2229894884e+01   1.5955002044e+01     1.896375    0.6407525 -36.05  0.007678148    2.706    0.630
        59  -9.0257    133.3081     51.3757   5.5726988444e+01   4.4993579504e+01    0.1512031    0.1095071  20.59 0.0007029875    1.778    0.437
        60 -10.0050    224.1055     23.7509   3.5077948703e+01   2.7092377190e+01    0.3300276    0.1964333 -25.63  0.001034089    2.106    0.525
        61  -9.4194    215.7300    116.1284   5.7403575847e+01   1.4549132966e+01    0.2463741    0.1486746 -71.17 0.0009537146    2.845    0.649
        62  -9.6172    236.0110     21.2680   3.3562432515e+01   2.4857549729e+01    0.1772987    0.1363486 -75.98  0.001171997    1.076    0.071
        63  -9.5147    190.6227    115.3892   6.1719850672e+01   2.0009316553e+01    0.3404374    0.2135849 -76.29  0.001263562    2.845    0.648
        64 -10.0895    243.9845     15.5813   3.1817052425e+01   2.3889265730e+01    0.2520524    0.1789652  50.59  0.001067036    1.980    0.495
        65 -10.8452    247.3372    114.4759   5.2239466925e+01   8.7449195087e+00    0.3910678    0.2444626  81.52   0.00180792    2.753    0.637
        66 -10.7268    235.0407    112.8234   5.3633446083e+01   1.1315740292e+01    0.3782614     0.156392 -48.11  0.001517173    2.318    0.569
