#   1 NUMBER                 Running object number                                     
#   2 MAG_AUTO               Kron-like elliptical aperture magnitude                    [mag]
#   3 X_IMAGE                Object position along x                                    [pixel]
#   4 Y_IMAGE                Object position along y                                    [pixel]
#   5 X_WORLD                Barycenter position along world x axis                     [deg]
#   6 Y_WORLD                Barycenter position along world y axis                     [deg]
#   7 A_WORLD                Profile RMS along major axis (world units)                 [deg]
#   8 B_WORLD                Profile RMS along minor axis (world units)                 [deg]
#   9 THETA_WORLD            Position angle (CCW/world-x)                               [deg]
#  10 FWHM_WORLD             FWHM assuming a gaussian core                              [deg]
#  11 ELONGATION             A_IMAGE/B_IMAGE                                           
#  12 ELLIPTICITY            1 - B_IMAGE/A_IMAGE                                       
         1 -13.9842    119.5339     80.2810   2.2363969130e+01   4.2915310352e+01     1.938051     1.422921 -37.75  0.006711696    1.409    0.290
         2 -14.7947     15.1622     25.0510   4.6082214383e+01   7.3911325756e+01     3.273721     2.149096 -33.45   0.01805759    1.484    0.326
         3 -12.0235     65.2315     17.3933   1.3722450896e+01   6.6182958588e+01    0.7055689    0.3913417  53.08  0.001791136    1.638    0.389
         4 -14.8882     94.7805      7.8812   1.0908540283e+00   6.0087173667e+01     3.705401     1.164761  69.22   0.01356186    2.881    0.653
         5 -13.0087     48.3832     40.1294   3.2637402190e+01   6.6023677758e+01      2.20374     1.331101 -20.25  0.009280079    2.499    0.600
         6 -14.6082     69.6991     38.8130   2.2618153028e+01   6.2008974530e+01      3.81817     2.121765  39.48   0.01674192    1.912    0.477
         7 -12.4116    171.6841     11.3215   3.5263898894e+02   4.0791724224e+01     1.069433    0.5248924 -75.40  0.004945964    2.076    0.518
         8 -10.8092    166.3890      2.5731   3.5057635059e+02   4.2883841643e+01    0.8228627    0.3132769  81.68  0.003616173    2.496    0.599
         9 -11.0619    163.5764     20.8853   3.5611098060e+02   4.1647497728e+01    0.4414566    0.3109141 -36.24  0.002209572    1.389    0.280
        10 -11.9465    166.5143     15.8270   3.5436076750e+02   4.1517511904e+01    0.7234495    0.4170519 -71.39  0.002590133    1.668    0.400
        11 -11.5972    184.1800     10.6844   3.5152208687e+02   3.8025400345e+01    0.5383048    0.3995129 -39.49  0.001617612    1.279    0.218
        12 -12.2276    241.9205     23.0404   3.5085774514e+02   2.5115399344e+01    0.5203362    0.2439425 -57.02  0.001708688    1.716    0.417
        13 -11.7850    150.3083     20.1929   3.5734913931e+02   4.4910734189e+01    0.5863276    0.4039375  70.85  0.002743202    1.398    0.285
        14 -11.5873    208.0704     17.6783   3.5165257684e+02   3.2170547992e+01    0.4252621    0.2327545 -53.20  0.001279575    1.445    0.308
        15 -11.8781    179.0860      3.7839   3.5004112948e+02   3.9858178516e+01     0.640281    0.4401516 -84.65  0.003916365    1.296    0.228
        16 -12.0235    244.7733     14.5605   3.4898026448e+02   2.5539958402e+01    0.3282283    0.2664272  29.89  0.002344979    2.098    0.523
        17 -10.7152    201.6123     11.5073   3.5058240395e+02   3.4174391582e+01    0.2869165    0.2016707  74.46  0.001010673    1.524    0.344
        18  -8.8008    210.3956      9.2671   3.4954370067e+02   3.2599728451e+01    0.1059949   0.08597621  50.47 0.0006979736    1.723    0.420
        19 -10.7456    150.2079      7.6271   3.5342546621e+02   4.6254770478e+01    0.2979122    0.2069969 -83.80  0.001055709    1.293    0.227
        20 -10.7087    147.3253      5.3009   3.5296439115e+02   4.7177708417e+01     0.332223    0.2286635  43.89  0.001820288    1.825    0.452
        21 -11.7438    137.8313      4.4007   3.5360147074e+02   4.9592600450e+01    0.3774299    0.2864681 -64.84 0.0007652183    1.186    0.157
        22 -10.2936    244.4211      3.6872   3.4679887614e+02   2.6729833114e+01    0.1588849    0.1225134  63.65 0.0009681672    1.787    0.440
        23 -10.7917    215.6413      2.3443   3.4769775840e+02   3.2251268740e+01    0.2158025    0.1497854 -59.75 0.0004706614    1.088    0.081
        24 -12.6685     77.7870     60.0464   2.8315411751e+01   5.6302571304e+01     3.241578     1.552555  40.67   0.01259364    2.202    0.546
        25 -10.0176    192.1219      1.6821   3.4871693249e+02   3.7186534649e+01    0.2083639    0.1307998 -82.69  0.001203375    1.426    0.299
        26 -11.1714    246.6808    107.3249   7.7148297821e+00   1.3322065410e+01    0.4406678    0.1318824 -49.69  0.001530179    4.650    0.785
        27  -8.8572    213.6572    107.3301   1.1754423120e+01   1.8574308837e+01    0.1317929   0.08914714 -62.02 0.0007051051    1.749    0.428
        28 -11.0544    118.8535    105.9398   2.9834477250e+01   3.7579803412e+01    0.4301701    0.3272607 -48.12  0.002067358    1.277    0.217
        29 -10.8992    171.8443    101.9381   1.7062890481e+01   2.7324016763e+01    0.5252463    0.2901468  66.88  0.002094691    2.569    0.611
        30 -11.0097    101.4166     99.7766   3.3147342875e+01   4.2593543127e+01    0.4571681    0.3191754  48.94  0.001462224    1.461    0.316
        31 -11.6050      2.3647     97.0590   7.1760209310e+01   5.6982607625e+01    0.7365298    0.4514804 -75.14  0.002688297    1.436    0.303
        32 -11.7272      6.8179     91.4267   6.9076141197e+01   5.8267595873e+01    0.5656251    0.3516684   9.07  0.002781666    1.828    0.453
        33 -11.8478      5.3115     85.2046   6.8961025689e+01   6.0035788699e+01    0.6650036    0.5100725 -60.99  0.003489469    1.175    0.149
        34 -11.6747    149.9266     95.5720   1.9682162986e+01   3.3111143399e+01    0.7312831    0.4203752  52.48  0.003231909    1.851    0.460
        35 -11.4982    154.1328     89.8670   1.7308589668e+01   3.3289335990e+01     1.032676    0.8354687 -64.88  0.005447041    1.253    0.202
        36 -11.7709    113.7861     95.9911   2.8507020307e+01   4.0861238879e+01    0.5079384    0.4471526  10.87  0.002025998    1.380    0.275
        37 -11.4489    193.4946    248.9969   4.0142505078e+01  -4.5696476690e-01    0.3499813    0.1599776  13.37  0.001897632    2.326    0.570
        38 -10.8744    204.5194     93.4657   9.9194432318e+00   2.2424714720e+01    0.3942714    0.3037841 -83.01  0.002084384    1.583    0.368
        39 -10.4373    201.0003     92.5073   1.0183285932e+01   2.3237237125e+01    0.2705318    0.2532984  62.20  0.001069684    1.254    0.202
        40 -10.8663    100.7580     94.2739   3.1805970255e+01   4.4000162329e+01    0.4547621    0.2530985  30.04  0.001632526    2.452    0.592
        41 -11.0162    125.5127    128.8552   3.3720839235e+01   3.1076131387e+01    0.3402474    0.2026112  35.15  0.001449404    1.824    0.452
        42  -9.2753    191.6830     93.8840   1.1851267537e+01   2.4795489539e+01    0.2129312    0.1799087  44.61 0.0006800714    1.401    0.286
        43 -10.5016    163.1407     92.5711   1.6294296774e+01   3.0848228037e+01    0.3162691    0.2711516  42.29   0.00101348    1.328    0.247
        44  -9.6423    187.0611     92.0512   1.2114830521e+01   2.6012932098e+01    0.2504803    0.1856684 -27.26  0.001351785    1.421    0.296
        45  -9.5237     54.2391     95.6870   4.8846548362e+01   5.2135016881e+01    0.2597294     0.215632 -58.40  0.001064069    1.158    0.137
        46 -10.3287    171.6867     87.0436   1.3351595145e+01   3.0029139970e+01    0.3418237    0.3032898 -23.08  0.001963755    1.252    0.201
        47 -11.1753    174.5471     81.2257   1.1381831997e+01   3.0426208313e+01    0.3926699    0.2612637 -58.03  0.001474358    1.511    0.338
        48  -9.9374    177.9575     78.2719   1.0084764383e+01   3.0197538645e+01    0.2404635    0.2022288  88.44 0.0003919971    1.267    0.210
        49 -12.0583    248.8187     84.2862   2.9081782627e+00   1.6227074329e+01    0.4872056    0.2489883 -44.47  0.001960192    1.492    0.330
        50 -11.2700    245.7472     79.5365   2.2358462766e+00   1.7362070701e+01    0.3838651    0.1996092  58.12  0.001699607    2.453    0.592
        51 -12.0437    124.4993     59.9590   1.4708596355e+01   4.5576294871e+01     1.050541    0.7573806 -73.67  0.004175639    1.600    0.375
        52  -9.1319    102.9933     84.2550   2.8167958487e+01   4.5764145202e+01    0.2079396    0.1937617  57.16 0.0003239005    1.084    0.077
        53 -10.8926    138.8336     80.2704   1.7801961381e+01   3.8514837402e+01    0.4356147    0.2489152 -42.40 0.0007596578    1.667    0.400
        54 -10.3179     32.5286     78.3040   5.4203368359e+01   5.9556544673e+01     0.381509    0.2741071  77.67  0.001829407    1.698    0.411
        55 -11.6013    234.9357     75.1653   2.3579779804e+00   1.9747931909e+01    0.3343821    0.2566255 -56.33  0.001105811    1.176    0.150
        56 -10.0836    205.9578     75.4766   5.5732139590e+00   2.4960348605e+01    0.3241672    0.1959591 -70.27  0.001617131    2.076    0.518
        57  -9.8633     63.2367     75.6762   3.9485927376e+01   5.5682261630e+01    0.3060223    0.2430222 -87.30  0.001480397    1.524    0.344
        58 -11.1134    249.7769     74.1677   7.8533827102e-01   1.7447362158e+01    0.2473543     0.192888 -57.86 0.0009660192    1.208    0.172
        59  -8.9412    176.5039     73.4951   9.0706008267e+00   3.1294507247e+01    0.1374103    0.1254797 -47.32  0.000108871    1.096    0.088
        60  -9.5074    143.9728     73.3367   1.4708928835e+01   3.8613792367e+01    0.1941922    0.1759335  79.08 0.0003299186    1.112    0.100
        61 -12.9363     97.0329     70.6915   2.5624372811e+01   4.9946357239e+01    0.9770558    0.4371476  43.08  0.001141577    2.378    0.580
        62 -12.1116    103.8989     63.4796   2.1123637085e+01   4.9812910373e+01     1.040217    0.7873563  21.72  0.004837982    1.804    0.446
        63  -9.7188    218.5994     71.4696   3.2169287305e+00   2.3166320856e+01    0.2125359    0.1245552  66.40 0.0007328347    2.036    0.509
        64  -9.7029     29.1083     70.3421   5.3855333576e+01   6.1984567746e+01    0.1936636     0.181892  26.17 0.0006459838    1.121    0.108
        65  -9.4547    196.1441     74.1478   6.4846579894e+00   2.7097548193e+01    0.1885691    0.1350869 -60.32 0.0004311468    1.338    0.253
        66 -10.8330    200.8995    235.8468   3.7065509579e+01   4.8868635804e-01    0.2282466     0.125653  12.72  0.001280486    1.710    0.415
        67  -9.8268    214.5110    232.5066   3.4305092465e+01  -4.7485972763e-01     0.108652   0.08122651  -4.90 0.0004812717    1.016    0.016
        68  -9.7809    244.0248    181.5017   2.1729592491e+01   3.1462609645e+00    0.1469063    0.1027915  25.63  0.001037751    1.605    0.377
        69 -10.6775    227.6531    179.1518   2.3714621191e+01   5.3783078310e+00    0.2989326    0.2456802 -53.60  0.001737023    1.743    0.426
        70 -12.1620    214.4669     60.7315   1.2044529567e+00   2.5469576771e+01    0.4381864    0.3856319  79.34  0.001172682    1.309    0.236
        71 -11.6526    208.9688     54.3775   2.7645519251e-01   2.7422371895e+01    0.2871521    0.2180631  76.84  0.000712874    1.457    0.314
        72 -10.7308    170.0574     61.3240   6.7838877415e+00   3.4656220606e+01    0.2897142    0.2469122  79.38 0.0009326584    1.208    0.172
        73 -11.3141     15.6528     59.7261   5.8470246597e+01   6.5973429560e+01    0.3704206    0.3250732 -76.23  0.001827575    1.165    0.141
        74 -12.1577      3.0687    170.7411   7.6669980095e+01   3.7184526511e+01    0.5227001    0.2992192  84.70  0.002665094    1.589    0.371
        75 -10.0183    191.0522     56.6286   2.7734426137e+00   3.0775978573e+01    0.3441965    0.1591729  77.46  0.001456578    2.821    0.645
        76 -10.1863    174.0993     56.2650   4.8322774565e+00   3.4522012654e+01    0.2344307    0.2143875 -26.13  0.001297551    1.270    0.213
        77 -11.3558    248.0593     54.3693   3.5690724040e+02   2.0308255808e+01    0.3336301    0.1788753  75.95  0.001994436    2.335    0.572
        78  -9.0755    178.6154     54.2154   3.6815018280e+00   3.3819911901e+01    0.1756094    0.1226235 -30.45 0.0007538561    1.488    0.328
        79  -8.8936    146.7073     54.7045   8.6162048703e+00   4.1112866707e+01    0.1339731    0.1135395  23.64 0.0003227574    1.558    0.358
        80  -9.8028    161.3353     52.2610   5.5323208729e+00   3.8036580465e+01     0.257499    0.2149076 -74.17 0.0007726713    1.119    0.107
        81 -11.4556    133.7536     51.5356   1.0005074593e+01   4.4735695153e+01    0.4787877    0.3193433 -34.42 0.0005127034    1.544    0.352
        82 -10.7376    138.4946     45.0445   7.0201255568e+00   4.4572360698e+01    0.5702721    0.3615373 -25.50  0.002672089    1.842    0.457
        83  -9.8577    213.4858     50.2202   3.5886890421e+02   2.7097014145e+01    0.1957293    0.1607922 -89.26 0.0004819065    1.290    0.225
        84  -9.3248    126.5446     50.4749   1.1105120676e+01   4.6661364535e+01    0.1440968    0.1366089 -83.86 5.815205e-05    1.047    0.045
        85 -11.0703    249.9895     46.8497   3.5524187184e+02   2.0925430461e+01    0.3546344    0.1746656 -35.43  0.001631077    1.597    0.374
        86 -11.2391    246.9224     43.0115   3.5466658729e+02   2.1910575212e+01    0.2842379    0.1959084 -36.59 0.0009083744    1.257    0.204
        87 -12.4850    121.3273     44.4153   1.0113500561e+01   4.8887147668e+01    0.4616027    0.3723415 -61.84  0.001031554    1.226    0.184
        88  -9.8731    107.6735     48.0833   1.4591404597e+01   5.1648920556e+01    0.2527545    0.1986863  78.60 0.0006674201    1.323    0.244
        89 -11.4257    157.5102     42.5997   3.2613349959e+00   4.0335433344e+01    0.4089738    0.2503907  60.58  0.001300315    1.677    0.404
        90 -11.7626    228.3260     40.5586   3.5545340260e+02   2.5514359976e+01      0.37108    0.2593535 -74.65 0.0008774163    1.398    0.284
        91  -9.5851    203.8199     42.6941   3.5797994438e+02   3.0027531438e+01    0.1746175    0.1544654  53.06 0.0007882415    1.461    0.315
        92 -10.5061    235.4845     41.4251   3.5512094264e+02   2.4101617801e+01    0.1967682    0.1869591  53.92 0.0007928515    1.475    0.322
        93 -13.0207    213.6613     39.0066   3.5624702607e+02   2.8517866395e+01    0.3309276    0.2745783  79.37 0.0006369291    1.355    0.262
        94  -9.5552    180.5700     41.0070   3.5991406459e+02   3.5233410068e+01    0.2584174    0.1613345 -86.31  0.001330226    1.717    0.418
        95 -12.0364    240.2655     34.1341   3.5326045857e+02   2.4130834107e+01    0.4529141    0.2854544  65.75 0.0007150923    1.953    0.488
        96 -12.2847    248.3834     31.2924   3.5218954747e+02   2.3052208348e+01    0.6253806    0.3117927 -36.27  0.003161803    1.562    0.360
        97  -9.7059    130.1855     36.9941   5.8125634015e+00   4.7772940902e+01    0.2110154    0.1684612 -63.39 0.0004125955    1.206    0.171
        98 -10.8461    160.1464     35.8001   8.9142994753e-01   4.0631865778e+01    0.2333155    0.2010439  81.75 0.0003616756    1.154    0.134
        99 -11.5731    149.7894     32.1469   1.1539071606e+00   4.3594200780e+01    0.6766154     0.331112  60.82    0.0030582    2.007    0.502
       100 -10.6070    217.2614     28.0509   3.5344841582e+02   2.9142650288e+01    0.3289947    0.1748976 -63.22  0.001338862    1.707    0.414
       101 -10.5245    178.7789     18.4781   3.5401791823e+02   3.8398780840e+01    0.2669768    0.2124032 -78.44 0.0009604759    1.116    0.104
       102 -10.3485    168.4498     26.9410   3.5735003730e+02   3.9793130508e+01    0.3672006    0.1842795  72.70  0.001280822    1.963    0.491
       103 -11.6232      3.5048    161.5918   7.6095406793e+01   3.9491758916e+01    0.3696808    0.2385891 -16.67  0.001848601    2.149    0.535
       104 -12.7160     17.3572    150.8120   7.1056851764e+01   4.1256531163e+01     0.623419    0.3115014  59.85  0.002712793    1.984    0.496
       105 -13.3512      5.0877    142.5125   7.4487102747e+01   4.4416910414e+01     1.353247    0.5440021  80.12  0.005217576    2.578    0.612
       106  -9.5246    175.4879    144.9295   2.6118698759e+01   1.8603164995e+01    0.2139341    0.1240308 -42.59  0.000874611    1.581    0.368
       107 -12.0550    163.7642    142.2366   2.7886342237e+01   2.1147930085e+01    0.5411146    0.4724275 -80.28   0.00305873    1.423    0.297
       108  -9.4950    107.4938     27.6060   6.7828338960e+00   5.4695947228e+01    0.3597935    0.1372264  70.53  0.001263901    2.933    0.659
       109  -9.3367    200.8741     67.6125   4.3175973225e+00   2.7140543306e+01    0.1817189    0.1184146  87.67 0.0009558799    1.866    0.464
       110 -10.1323    230.0161     17.5201   3.5032911135e+02   2.7893512697e+01    0.2952181    0.1296569 -61.16 0.0009565887    1.982    0.496
       111  -9.5790    239.4771    142.5076   1.5382725124e+01   9.2268447562e+00     0.119166   0.09178083 -29.10 0.0008101916    1.007    0.007
       112 -11.4835    234.6927     20.3282   3.5067787099e+02   2.6718777532e+01    0.3452244    0.2360639  59.70  0.001745508    1.943    0.485
       113 -13.1330     12.3510    135.2210   7.1449519804e+01   4.5873437243e+01    0.7062756    0.4636795 -75.11  0.003272334    1.390    0.280
       114  -9.3552    140.3759     18.8943   3.5814182558e+02   4.7495822606e+01    0.4484515    0.2662285 -76.17  0.002173847    1.761    0.432
       115 -12.1852      8.9952    128.2189   7.2052452502e+01   4.8031595524e+01    0.8789564    0.2990115  37.17  0.003370688    2.660    0.624
       116  -8.9391    223.2990     19.6664   3.5117455689e+02   2.8929656331e+01    0.1290386    0.0625669 -55.77 0.0002558264    1.650    0.394
       117 -13.6258     65.8235    115.1867   4.8906914129e+01   4.5218266371e+01     1.746593     1.388321 -72.83  0.007771075    1.261    0.207
       118 -13.8012     74.7947    107.1945   4.3863859247e+01   4.5826488383e+01     1.926527     1.597587 -43.01  0.008134065    1.256    0.204
       119 -11.9368     20.3531    123.7898   6.7392311660e+01   4.8374880428e+01     0.875551     0.401511  34.35   0.00367784    2.097    0.523
       120  -9.5672    201.0783     16.2730   3.5177333450e+02   3.3773811887e+01     0.168679     0.129829 -70.62 0.0005057321    1.112    0.100
       121 -11.7351     19.8992    116.4688   6.6687881792e+01   5.0439095079e+01    0.8946355    0.3753544  31.63  0.003608389    2.297    0.565
       122  -9.5047    167.8880    119.3232   2.1961079033e+01   2.4840478222e+01    0.1890128    0.1838671  12.82 0.0008120579    1.115    0.103
       123 -10.0397    188.4438    117.5330   1.7835275950e+01   2.1320844124e+01    0.2817783    0.2172126  11.87  0.001525506    1.710    0.415
       124 -12.2095     99.4718    111.8760   3.6918112770e+01   4.0108296772e+01    0.5937142    0.5398306  82.22   0.00307753    1.139    0.122
       125 -12.0149     24.3963    108.6901   6.3810863876e+01   5.2195325630e+01    0.7596075    0.4113421 -86.05  0.003201712    1.950    0.487
       126 -13.1839     32.1000     97.4843   5.8628256853e+01   5.4502103921e+01     1.603946     1.270618  57.52  0.006501589    1.328    0.247
       127 -12.2691     16.8089    100.6177   6.5843472148e+01   5.5066810698e+01    0.5545285    0.4843093 -49.47  0.002020594    1.154    0.133
