#   1 NUMBER                 Running object number                                     
#   2 MAG_AUTO               Kron-like elliptical aperture magnitude                    [mag]
#   3 X_IMAGE                Object position along x                                    [pixel]
#   4 Y_IMAGE                Object position along y                                    [pixel]
#   5 X_WORLD                Barycenter position along world x axis                     [deg]
#   6 Y_WORLD                Barycenter position along world y axis                     [deg]
#   7 A_WORLD                Profile RMS along major axis (world units)                 [deg]
#   8 B_WORLD                Profile RMS along minor axis (world units)                 [deg]
#   9 THETA_WORLD            Position angle (CCW/world-x)                               [deg]
#  10 FWHM_WORLD             FWHM assuming a gaussian core                              [deg]
#  11 ELONGATION             A_IMAGE/B_IMAGE                                           
#  12 ELLIPTICITY            1 - B_IMAGE/A_IMAGE                                       
         1  -9.8996    184.7144     28.3487   6.3255182751e+01   3.5490070165e+01    0.2934156    0.2666767  26.24  0.001042801    1.202    0.168
         2  -7.9995    220.5992     23.1623   5.6873454908e+01   2.7019883413e+01    0.1861022     0.135628 -11.00 0.0009572279    1.782    0.439
         3  -9.3203    145.6160     16.0570   6.6354160814e+01   4.6612938720e+01     0.385598    0.2103815  36.14  0.001228671    1.932    0.482
         4 -10.2026    131.7420     12.1521   6.7839646152e+01   5.0261310671e+01    0.2681277    0.2432239  26.39 0.0005925072    1.058    0.055
         5  -8.1092    201.4751     12.0426   5.6376269917e+01   3.3080357285e+01    0.1873943    0.1145314  16.34   0.00080988    2.640    0.621
         6  -9.7802    246.3590     10.3220   5.1100295743e+01   2.2286977588e+01    0.2707502    0.2448907  76.27 0.0006304202    1.173    0.147
         7  -8.3034    241.4995      8.4859   5.1141194424e+01   2.3632525281e+01    0.1904176     0.112612  88.87 0.0009661854    1.669    0.401
         8  -8.7001    166.8111     10.1319   6.0752845731e+01   4.2025353584e+01    0.1930348    0.1744563  89.76 0.0002972478    1.153    0.132
         9  -9.5251    186.5104      8.4140   5.7352739033e+01   3.7239815969e+01    0.2348903    0.2079512  52.67 0.0009557429    1.120    0.107
        10  -9.2483    111.4547      8.6279   7.1136331203e+01   5.5066010593e+01    0.2358029    0.1891419  26.48 0.0004540716    1.100    0.091
        11  -9.1243    163.9348      5.7947   5.9894847658e+01   4.3157158458e+01    0.2108124    0.1945402   0.50 0.0006252099    1.213    0.175
        12 -10.9352    245.2107      3.6036   4.9713578526e+01   2.3294931876e+01    0.2533225    0.2223472 -89.43 0.0002923469    1.085    0.079
        13  -7.9494    223.4818      5.4786   5.2211539875e+01   2.8291649031e+01    0.1320682    0.1156322  84.20 0.0001630656    1.045    0.043
        14  -8.4874    193.5137      4.7515   5.5433886214e+01   3.5833406434e+01    0.3349664    0.1676847 -73.90  0.001296968    2.996    0.666
        15  -9.6971    183.4609      3.1103   5.6283581764e+01   3.8522439000e+01    0.2965142    0.2196203  56.99 0.0004802702    1.214    0.176
        16  -8.6904    176.7850      4.0171   5.7455163866e+01   4.0115376674e+01    0.1978623    0.1713949 -73.56 0.0006012672    1.224    0.183
        17 -10.4980    125.7087      5.0358   6.6617005983e+01   5.2308144110e+01    0.4070114    0.2940125 -66.85  0.001649298    2.044    0.511
        18  -8.7654    216.6413    223.2435   1.0317828250e+02  -3.4958954495e+00    0.3003834    0.1533998 -41.54   0.00153425    2.383    0.580
        19  -9.6291    249.1589    230.0279   9.8663261153e+01  -9.8143615130e+00    0.2937543    0.2049404  30.55  0.001224506    1.159    0.137
        20  -8.3056    232.6029    246.8145   1.0418323963e+02  -9.0436542978e+00    0.2240626    0.2030874 -78.88  0.001604222    1.857    0.462
        21 -10.7853    242.8404    247.1852   1.0252290223e+02  -1.0702310105e+01    0.5132304    0.4076472  24.50  0.002476679    1.080    0.074
        22 -10.3873    248.8645    241.8281   1.0066447422e+02  -1.1069113303e+01    0.5626549    0.3048004 -36.24  0.003320938    2.273    0.560
        23  -9.5600    241.9275    239.4111   1.0143793460e+02  -9.7136832808e+00    0.3343841    0.2459113  48.45  0.002196662    1.552    0.356
        24 -10.1699    240.3009    221.5595   9.8729689141e+01  -7.3620813744e+00    0.4378098    0.3397069  53.82  0.002423914    1.626    0.385
        25 -10.8088    226.5275    219.7199   1.0082521971e+02  -4.7691316185e+00    0.5232224     0.412567  88.97   0.00292785    2.422    0.587
        26  -7.9038    172.6763    222.3264   1.1104282143e+02   4.5775752150e+00    0.1275639   0.09261173  70.62 0.0004306822    1.690    0.408
        27 -10.7713    248.5323    216.1612   9.6363722007e+01  -8.0774425024e+00    0.6236802    0.3576492 -41.43  0.003282905    2.223    0.550
        28  -8.9781    192.2543    220.6509   1.0717376147e+02   1.2538316744e+00     0.258698     0.194416  66.66  0.001283399    1.656    0.396
        29  -9.9955    232.4641    213.6803   9.8722730742e+01  -5.0190963917e+00    0.3619805    0.2677052 -42.02  0.001460842    1.695    0.410
        30  -9.3178    240.5664    214.3429   9.7417498240e+01  -6.5073004040e+00    0.2497704    0.1881585  16.03  0.001515412    1.193    0.162
        31  -9.7471    131.6845    213.2620   1.1742245671e+02   1.3441687347e+01    0.4125363    0.1503984 -56.89  0.001720107    3.237    0.691
        32  -9.2905    185.6010    212.9970   1.0717231586e+02   3.6343339021e+00    0.2777575    0.2500012 -38.52   0.00113601    1.308    0.236
        33  -8.1844     23.5243    214.5511   1.3675977672e+02   2.8417955648e+01    0.1052807   0.07542453  79.66 0.0008078467    1.022    0.021
        34 -11.2609    215.4471    209.2244   1.0099562906e+02  -1.3553281453e+00    0.4810993    0.3910559  20.55  0.002985732    1.143    0.125
        35  -9.2555    204.6906    211.8335   1.0342404586e+02   2.5330327894e-01    0.3030442    0.2111408 -87.63  0.001368043    3.214    0.689
        36  -9.4701    204.4975    206.9919   1.0262285408e+02   1.0034733749e+00    0.2408042    0.1206751 -23.72 0.0009128295    3.180    0.686
        37  -8.3463    143.6938    212.3275   1.1501218520e+02   1.1480930610e+01    0.1317061   0.09141522  73.24 0.0002613189    1.653    0.395
        38  -9.3481    231.5699    194.4881   9.5361570770e+01  -2.2279542998e+00    0.2927839    0.2420227  32.60  0.001161484    1.096    0.088
        39 -10.4682    231.7100    187.1340   9.3918959372e+01  -1.1873515354e+00    0.4443235    0.3512104 -45.28  0.002567373    1.532    0.347
        40  -9.2852    236.2893    207.7754   9.6987901291e+01  -4.9122682729e+00    0.3431757    0.2565364 -47.70  0.001718919    1.809    0.447
        41 -11.1534    237.0889    199.1359   9.5251092247e+01  -3.8869498549e+00    0.7025433    0.4626243 -27.21  0.003938869    1.603    0.376
        42 -11.2273    238.6183    180.1598   9.1294711032e+01  -1.4641398097e+00    0.7142181    0.4468088  46.86   0.00368867    1.597    0.374
        43 -10.5407    237.9667    188.6413   9.3087686371e+01  -2.5742441885e+00    0.5674984    0.3754276 -25.46  0.002720691    1.573    0.364
        44 -10.3563    243.8724    202.2747   9.4642074799e+01  -5.5149796979e+00    0.4500972    0.2855234 -42.47  0.002164411    1.946    0.486
        45  -9.6394    242.8807    197.9934   9.4012345446e+01  -4.7668198285e+00    0.3037513    0.2254619 -15.71   0.00112581    1.365    0.267
        46 -11.9284    247.8471    193.9274   9.2369037597e+01  -5.0967497847e+00     1.460737    0.5225925 -39.91  0.005969001    3.152    0.683
        47 -10.6182    249.2964    185.6622   9.0508081360e+01  -4.2209184789e+00    0.4859445    0.4483096  11.75  0.002033818    1.152    0.132
        48 -10.4864    249.5688    178.6730   8.9067319309e+01  -3.2855802050e+00    0.6280534    0.2600929 -35.73  0.002721663    2.438    0.590
        49  -8.5503    175.0235    210.2027   1.0871651765e+02   6.0590270348e+00    0.1834861    0.1469171 -86.87  0.001052189    1.648    0.393
        50  -8.3072    168.6352    215.8331   1.1081019543e+02   6.3409718862e+00    0.1690198    0.1222153 -63.45 0.0009523029    1.763    0.433
        51  -8.6380    191.9309    208.8302   1.0529087199e+02   3.0897982515e+00    0.2095805    0.1923033 -27.53 0.0008354833    1.254    0.203
        52  -7.5750    126.9824    206.5029   1.1739251696e+02   1.5478376916e+01    0.1743234    0.1100771  24.82 0.0008102986    2.547    0.607
        53 -10.5265    227.0963    200.0591   9.7216842524e+01  -2.1962507488e+00    0.4911022    0.3278485  37.59  0.001293538    1.315    0.239
        54  -9.3165    225.2246    195.3915   9.6684531258e+01  -1.1774948651e+00    0.3311505    0.2300806  60.02  0.001568027    1.871    0.466
        55 -10.5089    224.8822    191.5718   9.6021865929e+01  -5.5193408257e-01      0.41377    0.3508829  73.83  0.002052721    1.645    0.392
        56  -9.3199    196.7946    204.8833   1.0369798561e+02   2.7784096520e+00    0.2359236    0.1817014  49.40 0.0008886299    1.223    0.183
        57 -10.4338    211.3005    201.0872   1.0030593957e+02   6.0354555868e-01    0.3293014     0.246975  39.93  0.001106135    1.170    0.145
        58  -9.7464    210.7221    196.5990   9.9592817586e+01   1.3910404335e+00    0.2725905    0.2430608 -71.15 0.0004576662    1.495    0.331
        59  -7.8678    139.6549    203.6802   1.1452762376e+02   1.3743279121e+01    0.1262016    0.1031023  13.49 0.0007049464    1.728    0.421
        60 -10.4690    216.9032    194.7671   9.8099489581e+01   4.8732728179e-01    0.3689423    0.2914713  19.10  0.002146305    1.233    0.189
        61  -9.5489     13.5195    190.9461   1.3679881251e+02   3.3850963898e+01    0.2185989    0.1509312   1.11  0.001301769    3.702    0.730
        62  -8.8843    210.4754    190.5235   9.8503228882e+01   2.3766611115e+00     0.136745    0.1206235  29.73 0.0001469799    1.007    0.007
        63  -8.2895     73.1560    188.6206   1.2558645117e+02   2.7453878000e+01    0.1495133    0.1123255  36.88 0.0003696288    1.609    0.378
        64  -7.8449    184.4887    201.4708   1.0545033303e+02   5.6756596799e+00    0.1363222    0.1171201  35.54 0.0001220309    1.065    0.061
        65  -8.3625     34.5169    186.4834   1.3271050689e+02   3.2625211190e+01    0.1128021   0.08605103  86.05 7.056982e-05    1.018    0.017
        66  -9.5608     12.1678    184.1276   1.3654106250e+02   3.5298460534e+01    0.1914897    0.1272357 -57.90 0.0009307446    1.771    0.435
        67  -9.6527     23.3704    182.1628   1.3438046378e+02   3.4630155195e+01    0.2740014    0.1438948  76.38  0.001126722    1.783    0.439
        68  -7.6526    211.6711    175.7184   9.5384358028e+01   4.5103239868e+00    0.1430228    0.1027266  16.75 0.0006223252    1.604    0.376
        69  -9.7108    241.1689    171.3732   8.9053564969e+01  -6.4112961119e-01    0.2340846    0.2006894 -39.11 0.0004973426    1.317    0.241
        70  -8.0794    237.2816    168.3233   8.9115389313e+01   5.7553566988e-01    0.1396531   0.09982821   7.79 0.0002147909    1.592    0.372
        71  -9.4891    237.1817    163.0470   8.8026114447e+01   1.4130358465e+00     0.389153    0.2122386  48.26  0.001459408    1.848    0.459
        72  -9.2537    250.1836    156.7151   8.4398839617e+01  -1.6044930847e-01    0.3229631     0.168849 -47.26  0.001398533    2.375    0.579
        73  -9.5888    234.8958    154.0108   8.6499353118e+01   3.3059461584e+00    0.2612232      0.21462  22.49 0.0003561499    1.196    0.164
        74  -9.2114    241.0806    149.1429   8.4337614292e+01   2.8250773026e+00    0.2672253    0.2612695 -69.77 0.0009280939    1.220    0.180
        75  -7.9509     59.6952    152.3939   1.2379271379e+02   3.6844510166e+01    0.1342037   0.08305618  79.71 0.0007007666    1.820    0.451
        76  -8.8487    232.7966    146.3866   8.5202405130e+01   4.9801338901e+00    0.2057101    0.1260356  37.46  0.000574505    1.659    0.397
        77 -10.4914    247.0350    144.3020   8.2241003933e+01   2.3864995400e+00    0.5084101    0.3934199  62.84  0.002710985    1.594    0.373
        78  -8.2031      3.2263    142.0087   1.3477007878e+02   4.4501710322e+01    0.1495706   0.06781232 -74.16 0.0006263867    1.654    0.395
        79 -10.4966    235.3253    128.3738   8.0666497715e+01   7.4263015394e+00    0.5424904    0.4301811  11.84  0.002807758    1.426    0.299
        80  -9.7768    226.3142    129.2241   8.2467752022e+01   9.2582783112e+00    0.2686424    0.2448469  26.93 0.0004135721    1.088    0.081
        81  -8.6249    186.6727    128.4423   9.0012083355e+01   1.8421417238e+01    0.2711621    0.1423884 -39.62  0.001076467    1.955    0.489
        82  -8.8515    201.2224    126.7074   8.6635187730e+01   1.5391850016e+01    0.3685225    0.2201358 -60.17  0.001427641    2.418    0.586
        83  -9.9183    232.4513    122.2302   7.9736675419e+01   9.0853893550e+00    0.4570065    0.3266216  40.45  0.001509075    1.435    0.303
        84  -9.3070    239.9341    127.9965   7.9781814882e+01   6.4947567307e+00     0.208863    0.2002396 -10.02 0.0003552148    1.026    0.026
        85  -9.1814    214.1620    123.8989   8.3457885454e+01   1.2922751777e+01    0.2290525    0.2085357 -70.36  0.001219683    1.236    0.191
        86  -8.1991    249.9082    123.0000   7.6967685623e+01   5.1886747165e+00    0.2221994    0.0802679  51.95 0.0007971777    2.906    0.656
        87  -8.1624    203.0077    121.9763   8.5143007456e+01   1.5843737360e+01    0.2239393    0.1827264 -82.61            0    1.555    0.357
        88  -8.0857    193.0320    117.4827   8.6036125317e+01   1.9008427058e+01    0.2385586    0.1235347  31.62 0.0008089598    2.809    0.644
        89  -9.3301    209.8249    111.9462   8.1370680924e+01   1.6054359986e+01    0.4586787    0.2733619 -26.86  0.001914386    1.900    0.474
        90  -8.5543    224.1575    111.7390   7.8693506421e+01   1.2745327668e+01    0.2364226    0.1917221  76.04  0.001182677    1.455    0.313
        91  -8.4190     25.7524    111.4140   1.2594283140e+02   4.9211858527e+01    0.1334028    0.1117324 -10.18 0.0009417167    1.598    0.374
        92  -7.9761    197.4765    106.9573   8.2505698611e+01   1.9892298404e+01     0.228876    0.1513912 -37.17 0.0005520431    1.527    0.345
        93  -8.1122    249.3633    105.2915   7.2953125607e+01   8.1474750033e+00     0.145726    0.1079622  17.90 0.0007027586    1.703    0.413
        94  -8.7409    214.5950    104.9315   7.8741530741e+01   1.6161371912e+01    0.2399134    0.2090879  31.13 0.0006316829    1.204    0.170
        95  -8.5705    228.5657    103.9876   7.6037959535e+01   1.3044031672e+01    0.2328841    0.1941499  56.86 0.0008335634    1.237    0.192
        96  -9.6112    244.4500    102.1282   7.2978395991e+01   9.7391748495e+00    0.4164432    0.2331172  51.85  0.001867813    1.846    0.458
        97  -8.6484    242.8963     98.3243   7.2317870109e+01   1.0702056864e+01    0.2622445    0.1917861 -37.00 0.0004309865    1.301    0.232
        98  -7.8459    213.6540    100.7002   7.7852850887e+01   1.7121444548e+01    0.1565348     0.117076  19.96 0.0007037019    1.681    0.405
        99  -9.1798    206.2767     97.9338   7.8510299483e+01   1.9381388946e+01    0.2722808     0.220427  53.66  0.001107058    1.230    0.187
       100  -8.7981    244.3296     93.6032   7.0967247872e+01   1.1137954212e+01    0.2420693    0.2062691 -62.47 0.0006939293    1.243    0.195
       101  -8.2632    249.9636     93.1096   6.9997283803e+01   9.9546040108e+00    0.1921726    0.1556681  35.41 0.0007698247    1.375    0.273
       102  -8.4521    238.2381     92.7827   7.1718533378e+01   1.2659368969e+01    0.1941844    0.1689493   8.14 0.0005194304    1.310    0.236
       103  -8.2312    150.5044     92.4989   8.8828688200e+01   3.3765386052e+01    0.1503796     0.149254  39.96 -5.206381e-05    1.009    0.009
       104  -9.4739    207.5451     87.5252   7.5589167412e+01   2.0870372213e+01      0.29585    0.2477397  70.74  0.001206423    1.254    0.203
       105  -9.7138    205.2606     85.0202   7.5349190242e+01   2.1858614418e+01    0.2779202    0.2416421  30.71 0.0007010251    1.241    0.194
       106  -8.4552    221.4861     87.1132   7.3047751715e+01   1.7541444554e+01    0.2160942    0.1441514 -36.09 0.0003681727    1.477    0.323
       107  -8.3841     20.9804     86.7458   1.2316342197e+02   5.4760876265e+01    0.1649471    0.1118543 -84.60  0.001034561    1.645    0.392
       108  -8.9406    239.6805     84.9254   6.9588108709e+01   1.3586280238e+01    0.2073941    0.1815578 -39.85 0.0006421831    1.097    0.089
       109  -9.3778    172.0342     84.0668   8.1647002415e+01   3.0235819034e+01    0.3676106    0.1831539 -50.58  0.001341893    2.399    0.583
       110  -8.5683    244.3653     79.9422   6.7685885109e+01   1.3287166783e+01    0.3425823    0.1471719 -44.23  0.001338133    2.265    0.559
       111  -8.4722    217.2677     81.6181   7.2360021515e+01   1.9471535294e+01    0.2136638    0.1342124  47.79 0.0009445974    1.625    0.385
       112  -9.1237    212.4794     77.7046   7.2162320011e+01   2.1289568442e+01    0.3397042    0.2373879 -36.43  0.001142165    1.429    0.300
       113 -10.4742    223.5546     75.9848   6.9886664739e+01   1.8847031569e+01    0.4076591    0.2576787 -38.20  0.000731214    1.544    0.353
       114  -8.2179    250.3221     76.6624   6.6055291165e+01   1.2431651794e+01    0.1495755    0.1017632 -64.68 0.0007050571    1.714    0.417
       115  -8.7566    235.2700     75.3325   6.7907890005e+01   1.6131875082e+01    0.2371627    0.2131402  28.24 0.0008500136    1.252    0.201
       116  -8.5372    188.9717     74.9880   7.5695425834e+01   2.7610880322e+01    0.2536457    0.1864151 -73.57  0.001134509    1.742    0.426
       117  -9.2392    241.4424     73.6518   6.6590273896e+01   1.4937857818e+01    0.2586128    0.1760445  58.06 0.0006636906    1.503    0.335
       118  -9.7646    231.9261     69.6288   6.6994838070e+01   1.7814188192e+01    0.3681772    0.2951124  42.44  0.001482135    1.363    0.267
       119  -8.3200    215.2178     71.0330   6.9966284785e+01   2.1682784280e+01     0.203303    0.1205042 -33.43  0.000877806    1.708    0.415
       120  -8.5715    250.4581     67.1142   6.3778171623e+01   1.3839197836e+01    0.3118957    0.1395635 -26.60  0.001200693    2.616    0.618
       121  -8.5949    239.0692     68.0523   6.5567432366e+01   1.6349984759e+01    0.2232772    0.2041887 -63.53 0.0006923368    1.048    0.046
       122  -7.7735    176.4939     67.5011   7.6042116183e+01   3.1976808335e+01    0.1511828    0.1463232  76.98 0.0008103065    1.042    0.040
       123  -8.8879    245.0979     65.8545   6.4198176336e+01   1.5264435160e+01    0.2137461    0.1781747 -63.26 0.0005475091    1.185    0.156
       124 -10.7536    218.5949     60.7892   6.6770792320e+01   2.2424651167e+01    0.4988277    0.3608426 -55.50 0.0005151081    1.445    0.308
       125  -9.4426    214.5014     59.4801   6.7066192356e+01   2.3642991646e+01    0.2517294    0.2312262  31.52 0.0008447872    1.200    0.167
       126  -7.8365    174.4654     59.4947   7.4134843949e+01   3.3765625044e+01     0.149356    0.1442052  58.86 0.0008096227    1.011    0.010
       127  -9.8431    203.8801     56.0946   6.7869734558e+01   2.6827042961e+01    0.3570059    0.2463905 -51.39  0.001435518    1.530    0.346
       128  -9.0429    114.7114     54.4256   8.6462897109e+01   4.8358274759e+01    0.2413856    0.2079977 -34.31 0.0005474727    1.176    0.150
       129  -8.9283    207.9590     53.4337   6.6498276270e+01   2.6185656566e+01    0.2944973    0.1938577 -50.04  0.001371286    1.589    0.370
       130 -10.0078    191.8890     51.7894   6.8705595835e+01   3.0513548908e+01    0.3574999    0.2861084  24.64 0.0009049485    1.468    0.319
       131  -9.4989    148.2866     51.3528   7.7182699801e+01   4.1431017551e+01    0.2434792    0.2404718 -41.43 0.0003211146    1.086    0.079
       132  -8.4318    244.7650     51.0056   6.0691638044e+01   1.7494735933e+01    0.2666276    0.1704337 -23.92  0.001172343    1.791    0.442
       133 -10.1256    247.1468     46.5907   5.9353709973e+01   1.7550000434e+01    0.3366329    0.2510674  73.34  0.001842974    1.337    0.252
       134  -9.0276    229.5382     49.0909   6.2211979839e+01   2.1423766815e+01    0.2898708    0.1854222  57.48 0.0005770856    1.541    0.351
       135  -9.9648    201.5041     45.1225   6.5277280595e+01   2.9010291760e+01    0.3208049    0.2838436  38.29 0.0006985329    1.213    0.176
       136  -9.6620    205.2850     44.2966   6.4466855105e+01   2.8162103342e+01    0.2459611    0.2028438  36.63 0.0002125766    1.346    0.257
       137  -8.4405    220.5467     45.4788   6.2539864893e+01   2.4151117761e+01     0.140748    0.1341657  80.39 9.031728e-05    1.053    0.050
       138  -7.9450    180.6609     44.3079   6.8546061727e+01   3.4442861634e+01    0.1525418     0.111715 -73.32 0.0007042994    1.683    0.406
       139  -7.5177    224.3186     43.6325   6.1549853879e+01   2.3467493545e+01    0.1555614   0.09964094 -65.05 0.0007037693    1.784    0.440
       140  -8.0682    163.6736     42.7014   7.1258738036e+01   3.8942920052e+01    0.1529043    0.1067951  29.35 0.0003247008    1.633    0.388
       141  -9.8821    241.4708     45.9024   5.9883919648e+01   1.8984858734e+01    0.3103944    0.2497979  82.25  0.001172668    1.224    0.183
       142 -10.0279    249.0708     38.1228   5.7151859177e+01   1.8243212567e+01    0.3421469    0.2758389 -64.12  0.001031646    1.154    0.134
       143 -10.0734    205.7730     35.8149   6.2120121533e+01   2.9175254749e+01    0.4847031    0.3133844   6.35  0.001528069    2.492    0.599
       144  -9.6907    202.2915     35.3046   6.2493208864e+01   3.0127659874e+01    0.2158416     0.195528  53.28 0.0002363891    1.118    0.106
       145  -8.6943    228.8890     37.1002   5.9317059700e+01   2.3216478276e+01    0.2944292    0.1774327  73.03  0.001399783    1.655    0.396
       146  -8.6622    214.2933     37.3237   6.1308386634e+01   2.6821033657e+01    0.1411999     0.107386  31.26 0.0007017455    1.616    0.381
       147  -8.4605    150.4916     37.3802   7.2280469813e+01   4.2895345184e+01    0.2325469    0.1305269  56.41  0.001029319    1.675    0.403
       148  -8.7025    104.5976     33.7474   8.2159156376e+01   5.3490316521e+01    0.2345665     0.165107 -36.46  0.001272263    1.491    0.329
       149  -8.8052    218.2915     33.6626   5.9822836868e+01   2.6293180278e+01    0.1482494   0.09903908 -65.07 0.0007024518    1.642    0.391
       150 -10.1640    192.6703     32.7070   6.3237091441e+01   3.2917114482e+01    0.2538795    0.2324196  62.13 0.0002680462    1.044    0.042
       151  -9.7141    126.1163     30.5657   7.5484693748e+01   4.9427252765e+01    0.3139243    0.2551289  62.25  0.000947117    1.347    0.258
       152  -8.0371    203.4717     31.4391   6.1279767901e+01   3.0320548610e+01    0.1418348    0.1301756  73.34 0.0001889617    1.026    0.025
       153  -9.5142    214.6987     28.2904   5.8916609239e+01   2.7871923579e+01    0.3293699    0.1861369 -48.44  0.001386268    1.823    0.451
       154  -8.7050    224.5935    245.1132   1.0528040977e+02  -7.5539318160e+00    0.2122315    0.1771789 -52.93   0.00146678    1.807    0.447
       155  -9.1179    168.4276     20.2463   6.3542865977e+01   4.0558834674e+01    0.3372959    0.2094756  23.52 0.0007582144    2.109    0.526
       156  -7.8242    214.4439    241.5084   1.0647350019e+02  -5.4400841662e+00    0.1208033   0.09550982  33.87 0.0002968083    1.027    0.026
       157  -9.5220    138.5549     21.7386   6.9672560080e+01   4.7661212855e+01     0.397736    0.1833261  41.91 0.0005909721    2.109    0.526
       158  -9.7914    116.6612     21.5999   7.4623437864e+01   5.2572634950e+01    0.3156799    0.2210877  37.15 0.0007028168    1.304    0.233
       159  -7.5998    164.2951     32.6922   6.8073154374e+01   4.0115156546e+01    0.1421705    0.1094892 -70.28 0.0002971351    1.587    0.370
       160  -7.8426    206.2927     20.6327   5.8021702983e+01   3.0908557962e+01    0.1481361   0.09628344 -64.05 0.0007027353    1.716    0.417
       161  -7.6264    215.0060     19.0513   5.6515463436e+01   2.8898209702e+01    0.1600157    0.1460667 -86.00 0.0003524488    1.033    0.032
       162 -11.0937    175.6565     18.2402   6.1762265470e+01   3.8959096101e+01    0.3321081    0.2646993  65.85 0.0005675772    1.141    0.123
       163  -8.8049    195.4822     23.4868   6.0266184739e+01   3.3322817559e+01    0.1411366    0.1282554  78.10 0.0005549027    1.013    0.013
       164  -9.0627    232.4127    238.0669   1.0283942312e+02  -8.0217520393e+00    0.3019563     0.209986  54.03  0.001846856    1.763    0.433
       165  -8.3878    238.2831     12.8962   5.2459575664e+01   2.3901740603e+01    0.2254615   0.05284623 -47.07 0.0007006217    4.303    0.768
       166  -7.9937    219.4989    239.5200   1.0529217921e+02  -6.0492825905e+00    0.1213753   0.09595725  33.06  0.000263453    1.039    0.037
       167  -8.7306    204.2022    235.3053   1.0731593844e+02  -2.9037887985e+00    0.2220446    0.1799712 -52.77  0.001457516    1.675    0.403
       168  -8.9690    216.4759    234.6807   1.0506006750e+02  -4.9414972017e+00    0.2324528     0.192153  80.19  0.001465072    1.925    0.480
       169  -8.1248     49.7190    235.6362   1.3406279315e+02   2.1665534780e+01   0.09027489   0.07763906 -66.24 0.0007014859    1.680    0.405
       170  -7.7616    158.2878     16.3702   6.4104661153e+01   4.3501729832e+01     0.146936   0.09606005  29.99 0.0006981794    1.711    0.415
       171  -7.7537    232.6685     10.3562   5.2431954909e+01   2.5533462828e+01    0.1461179   0.08561951 -65.03 0.0004381458    1.789    0.441
       172  -7.7747     15.3300    234.6830   1.3922432353e+02   2.5701029699e+01    0.1078559   0.05031551  69.13 0.0003454912    1.683    0.406
       173  -8.5357    195.2106    232.7803   1.0852759086e+02  -9.9109748654e-01    0.3246462    0.1690488  59.43  0.001472897    2.697    0.629
       174  -9.0087    186.1179    230.4522   1.0980823073e+02   9.4774919129e-01    0.2323593    0.1856403  71.78  0.001097117    1.560    0.359
       175  -8.7938    157.2396    231.0154   1.1511154421e+02   5.9992062635e+00     0.169658    0.1492298  58.47 0.0006689276    1.103    0.093
       176  -8.5448    230.9452    228.4834   1.0152857063e+02  -6.6346268662e+00    0.1909206    0.1004521  40.28  0.001026337    1.573    0.364
       177  -8.8106    223.1328    226.7941   1.0261584447e+02  -5.0897551696e+00    0.1890634    0.1712168 -38.47  0.001304338    1.432    0.302
       178  -8.2428    149.6463    226.8316   1.1592394901e+02   7.9962402137e+00    0.1599682    0.1145285 -71.79 0.0009029239    1.751    0.429
       179  -8.5570    199.9646    224.6870   1.0641266476e+02  -7.2017874744e-01    0.2440793    0.1700235 -48.52  0.001430911    1.839    0.456
       180  -8.2195    161.5163    226.5196   1.1370873391e+02   5.9399657548e+00    0.1278774    0.1044845  50.16 0.0008101199    1.010    0.010
