#   1 NUMBER                 Running object number                                     
#   2 MAG_AUTO               Kron-like elliptical aperture magnitude                    [mag]
#   3 X_IMAGE                Object position along x                                    [pixel]
#   4 Y_IMAGE                Object position along y                                    [pixel]
#   5 X_WORLD                Barycenter position along world x axis                     [deg]
#   6 Y_WORLD                Barycenter position along world y axis                     [deg]
#   7 A_WORLD                Profile RMS along major axis (world units)                 [deg]
#   8 B_WORLD                Profile RMS along minor axis (world units)                 [deg]
#   9 THETA_WORLD            Position angle (CCW/world-x)                               [deg]
#  10 FWHM_WORLD             FWHM assuming a gaussian core                              [deg]
#  11 ELONGATION             A_IMAGE/B_IMAGE                                           
#  12 ELLIPTICITY            1 - B_IMAGE/A_IMAGE                                       
         1 -15.0117    135.5255     77.4208   7.6503733956e+01   4.0001179610e+01     3.146949     2.227818   7.71   0.01303664    2.090    0.522
         2 -15.5838    139.1943    101.3334   8.2704173748e+01   3.4280474908e+01     3.848764      2.49627  73.28   0.01507838    2.351    0.575
         3 -15.8385     33.1732     88.9245   1.1129314223e+02   5.4582416787e+01     3.851186     2.454335 -80.55   0.02081079    1.530    0.346
         4 -15.0209     66.4305     48.1580   8.7437279827e+01   5.9682402501e+01     2.699319     2.045635  39.00   0.01494177    1.486    0.327
         5 -12.6033    249.7809     49.1146   4.8855495020e+01   1.6719302637e+01     1.669329    0.2923036 -28.47  0.004532063    5.043    0.802
         6 -15.2468    141.7957    122.9274   8.7670948345e+01   2.9146935023e+01     3.183664     2.209382  84.70    0.0131861    2.266    0.559
         7 -13.7186     17.3471     10.8177   9.3549098869e+01   7.2797993358e+01     1.329095    0.8926297 -11.94  0.008486708    1.482    0.325
         8 -14.7128    187.4979      8.6797   4.4164006531e+01   3.6699436339e+01     2.525905     1.059078  60.92   0.01030199    2.210    0.548
         9 -13.9789    164.1369      5.5723   4.5884557380e+01   4.3145727775e+01      1.63918    0.9225657  79.59  0.007337658    1.831    0.454
        10 -11.7562     55.7877     12.6199   7.5343574881e+01   6.7481092167e+01    0.4513371    0.3833997   7.97  0.002015183    1.101    0.091
        11 -12.4362     56.1694      4.9440   7.0879989781e+01   6.8423876796e+01    0.8785587    0.5141385  33.44  0.004737523    1.696    0.410
        12 -11.5070     89.7917      3.0779   5.8679421768e+01   6.1938647679e+01    0.5823237     0.300659  46.84   0.00277226    1.764    0.433
        13 -11.4322     64.7432      9.3567   7.0016165887e+01   6.6348166553e+01     0.530107    0.4101179   6.22   0.00317707    1.187    0.158
        14 -13.8191     73.9110    182.9961   1.1411942678e+02   2.7894406966e+01     1.381983    0.7235873  45.75   0.00733505    1.706    0.414
        15 -10.0901    241.6077    249.7760   9.2049499546e+01  -7.7003329634e+00    0.1618787    0.1249194 -18.22  0.001290925    1.518    0.341
        16 -12.0962    220.3542    207.7970   8.8971532412e+01  -1.7839357278e-01    0.7342759    0.2746095  44.35  0.003345188    2.583    0.613
        17 -12.8095    220.9245    220.5241   9.0961507519e+01  -1.7867046561e+00     1.000812     0.488276 -13.50  0.004715223    3.173    0.685
        18 -13.9199    181.4911    241.1843   1.0067109533e+02   1.7042655663e+00     1.330072    0.6686717  21.08  0.006523166    2.838    0.648
        19 -11.5437    147.7536    210.0198   1.0255803248e+02   1.1404278415e+01    0.4220008    0.2959833  23.28  0.002457296    1.625    0.385
        20 -13.7824    186.8429    248.0336   1.0065159968e+02   1.0317915348e-01     1.341859    0.5027165  34.16  0.006703182    2.298    0.565
        21 -10.5223    191.9966    191.2269   9.1170065606e+01   6.7832260018e+00    0.3244358    0.2268687 -58.78  0.001732153    2.160    0.537
        22  -9.4859    249.6988    189.6576   8.0879010686e+01  -2.5441204584e+00    0.1275283   0.07784291   6.51 0.0007037772    1.675    0.403
        23 -11.6540      8.2161    187.6167   1.2788350580e+02   3.4341314717e+01    0.2073897    0.1520458 -83.02  0.001283211    1.280    0.219
        24  -9.8125    207.5107    166.4563   8.3592478050e+01   7.7559364730e+00     0.136454    0.1187297  10.62 9.927622e-05    1.028    0.027
        25 -12.1539     18.5441    154.3307   1.2359688594e+02   4.0476453607e+01    0.5550789     0.316777  78.57  0.003274598    1.515    0.340
        26 -10.4926    198.6772    149.9791   8.1779288539e+01   1.2103531852e+01    0.2660367    0.1895319  18.79   0.00132574    1.563    0.360
        27 -11.9380    104.1088    143.3231   1.0130806898e+02   3.1895346872e+01    0.8570977    0.5237209 -78.59  0.003748565    2.141    0.533
        28 -11.5341    108.7009    141.7081   9.9868004495e+01   3.1457797134e+01    0.6329013    0.4136513 -84.20  0.002827688    2.054    0.513
        29 -12.4607    200.4151    238.6644   9.7121664726e+01  -8.1382992765e-01    0.5034185    0.2741355 -31.32  0.003082347    2.215    0.549
        30 -11.6526    237.7959    244.6558   9.1902372324e+01  -6.7198315228e+00    0.5409309    0.1905437  35.98  0.002895082    2.222    0.550
        31 -10.2416    182.4396    129.2597   8.0233340204e+01   1.9128113834e+01    0.2035706    0.1392556 -47.73 0.0006058944    1.551    0.355
        32 -12.1276    185.3396    118.8751   7.7090952310e+01   2.0403940259e+01    0.5596478    0.4008954   7.20  0.002494846    1.857    0.462
        33 -14.2585    185.8239    111.2115   7.5031001780e+01   2.1699122778e+01     1.627658     1.109282  25.57  0.007175479    1.805    0.446
        34 -10.0115    207.9633    240.9856   9.6187345933e+01  -2.1782081754e+00    0.1773964    0.1357164  23.81  0.001240564    1.024    0.024
        35 -11.6864    164.8888    131.3131   8.4418654109e+01   2.2515920198e+01    0.7093576    0.2017877 -42.42  0.002147742    3.511    0.715
        36 -10.1257    177.3259     88.3255   7.0454941427e+01   2.7880757537e+01    0.1621659    0.1221355  12.66 0.0003427733    1.694    0.410
        37 -12.1065    104.0138     76.6084   8.4856010351e+01   4.7036955190e+01    0.6953626    0.6127814 -65.80  0.003382932    1.212    0.175
        38 -11.5690     95.0631     76.0055   8.7376169087e+01   4.8906777479e+01    0.6837922    0.5040734  55.88  0.003339172    1.574    0.365
        39 -11.7406    105.3806     69.0124   8.1954985266e+01   4.8342545816e+01     0.763746    0.5601059 -81.37  0.003369676    2.060    0.515
        40 -11.7519     99.0953     69.5953   8.4045259479e+01   4.9490200326e+01    0.6661153    0.4332107  46.22  0.002670028    1.658    0.397
        41 -12.3627    177.5689     71.6871   6.5477156479e+01   3.0741846480e+01    0.8432696    0.4792106  58.47  0.003456412    1.852    0.460
        42 -11.6815    177.5671     65.0632   6.3444483249e+01   3.1846163195e+01    0.8984749     0.558539  73.70  0.003687401    2.012    0.503
        43 -13.8274    205.7625    229.0631   9.4835784809e+01  -4.9653386063e-01     1.261978    0.5747882  27.61  0.006394232    2.234    0.552
        44 -12.9093     82.7571     49.9981   8.2272203637e+01   5.6528782443e+01    0.8299392    0.6212184 -24.24   0.00429973    1.331    0.249
        45 -10.4713    240.8134    238.0992   9.0455253205e+01  -6.4959266290e+00     0.249112      0.14935   8.12  0.001638391    1.590    0.371
        46 -12.1847      2.4859     53.5975   1.1570706422e+02   6.5010978534e+01    0.9440451    0.3222743 -72.23  0.004143816    2.553    0.608
        47 -12.2757     10.2205     47.2924   1.1088272319e+02   6.5995778549e+01    0.8878438    0.4047178 -52.42  0.004739698    1.617    0.382
        48  -9.8093    193.9648     55.4542   5.7710290039e+01   2.9169123830e+01    0.2159805    0.1298564 -82.05 0.0008086736    2.558    0.609
        49 -10.8273    131.9552    241.0044   1.0926076828e+02   9.1490458530e+00    0.1820225    0.1422767  46.38  0.001320594    1.013    0.013
        50 -11.3543    124.9089     42.2099   6.6792683379e+01   4.8805816731e+01    0.5783222    0.4493815  78.77  0.002795042    1.592    0.372
        51 -11.4458     10.3661    229.1124   1.2934487976e+02   2.6383790063e+01    0.2049493    0.1078412  51.82  0.001367184    1.412    0.292
        52 -10.6278    164.4943    227.9861   1.0190651738e+02   6.0285869612e+00    0.2379587    0.1390896  30.35   0.00101327    1.620    0.383
        53 -11.1228    151.2357    211.7587   1.0213796501e+02   1.0557064070e+01    0.4354255    0.3106637  -9.96  0.002436033    2.171    0.539
        54 -10.5696    198.0326    217.5230   9.4421832437e+01   2.1229086150e+00    0.1885282   0.09886637  38.59  0.001019578    1.589    0.371
        55 -13.8287     94.0964    192.3530   1.1095867787e+02   2.3106382884e+01      1.65107     1.006525 -85.55  0.008801711    1.945    0.486
        56 -15.0010     71.3844    197.8331   1.1619054649e+02   2.5246915835e+01     2.658183     1.097284  55.41   0.01268874    2.296    0.564
