#   1 NUMBER                 Running object number                                     
#   2 MAG_AUTO               Kron-like elliptical aperture magnitude                    [mag]
#   3 X_IMAGE                Object position along x                                    [pixel]
#   4 Y_IMAGE                Object position along y                                    [pixel]
#   5 X_WORLD                Barycenter position along world x axis                     [deg]
#   6 Y_WORLD                Barycenter position along world y axis                     [deg]
#   7 A_WORLD                Profile RMS along major axis (world units)                 [deg]
#   8 B_WORLD                Profile RMS along minor axis (world units)                 [deg]
#   9 THETA_WORLD            Position angle (CCW/world-x)                               [deg]
#  10 FWHM_WORLD             FWHM assuming a gaussian core                              [deg]
#  11 ELONGATION             A_IMAGE/B_IMAGE                                           
#  12 ELLIPTICITY            1 - B_IMAGE/A_IMAGE                                       
         1 -12.5449     43.1673     45.7709   7.6696783547e+01   6.4004194278e+01    0.9871129    0.8208882  84.16  0.002001658    2.058    0.514
         2 -12.7382    164.1216     18.6572   3.4245155687e+01   4.1254705297e+01    0.6387143    0.3722609  30.29  0.001468723    2.779    0.640
         3 -11.3787    105.9847     20.4344   4.4417919071e+01   5.5069660112e+01    0.4306744    0.3364857 -56.27  0.001543608    1.510    0.338
         4 -11.8661     27.4419     28.0186   7.7102132568e+01   6.9209339318e+01    0.5651314    0.4475547   1.81  0.002460341    1.087    0.080
         5 -11.8762     35.9830     17.8019   6.7515464032e+01   6.9565827208e+01    0.7442689    0.3546611 -28.99  0.003683081    2.147    0.534
         6 -12.2062     20.1685     21.8269   7.8335110106e+01   7.1096173289e+01    0.6376143    0.2498321 -39.82  0.002391586    2.352    0.575
         7 -11.1189     13.8863      8.6929   7.5358942002e+01   7.3819638349e+01    0.3404952    0.2355208  -2.65 0.0009223531    1.241    0.195
         8 -12.8439     16.8386     13.3272   7.6024520291e+01   7.2800822065e+01    0.9325404    0.4612972  -6.12 0.0008086751    3.227    0.690
         9 -12.1083     23.1678     11.1717   7.0990097041e+01   7.2314169428e+01     0.472646    0.2998891  17.69  0.001832891    1.428    0.300
        10 -11.0551    148.0246     16.2872   3.5631480757e+01   4.5356447030e+01    0.5705157    0.2362464  41.47   0.00217755    3.412    0.707
        11 -11.4457    146.4042     23.8189   3.8126570837e+01   4.4962272710e+01    0.7553851    0.2586265  49.52  0.002833539    3.035    0.670
        12 -10.2879    121.0294     11.6635   3.8295157686e+01   5.2330457463e+01     0.749198    0.2039344  64.89  0.002425745    3.031    0.670
        13 -11.5108    136.2672     22.6980   3.9377262543e+01   4.7545847280e+01    0.7897242    0.3315161  54.17  0.003409951    2.128    0.530
        14 -11.5779    134.9180     15.3965   3.7264063974e+01   4.8618972464e+01    0.6549941    0.4195759  75.10  0.003494917    1.444    0.307
        15 -11.3023    127.5626     16.2598   3.8735149896e+01   5.0318395784e+01    0.5324301    0.3260988  -5.79  0.001967489    2.254    0.556
        16 -10.7263     90.4423     19.8742   4.7999406135e+01   5.8719432731e+01    0.6313199    0.3205681 -38.24  0.002972827    2.228    0.551
        17 -11.3794     86.0614     13.9700   4.6718121565e+01   6.0307337886e+01    0.4391387    0.2863778  -5.00  0.001921653    1.834    0.455
        18 -11.7752     68.2076     18.0573   5.3972712854e+01   6.3712902547e+01    0.4448572    0.3743761  27.82  0.001513707    1.027    0.027
        19 -11.9931    228.3035     15.8449   2.7737378322e+01   2.7420098462e+01    0.3415553    0.1992406 -73.33 0.0007060103    1.556    0.357
        20 -10.9667    187.7935     15.6437   3.0940169550e+01   3.6075180666e+01    0.4459597    0.2207011 -81.43   0.00209906    2.269    0.559
        21 -11.6898    191.9701      8.8854   2.8938517399e+01   3.5828934668e+01    0.5025924    0.3317758  -1.69  0.001863042    2.527    0.604
        22 -10.4624    188.6890      4.2999   2.8114790106e+01   3.7005567709e+01    0.3559995    0.1517484 -63.47  0.001636559    2.485    0.598
        23 -12.1385    104.8170     13.1721   4.1936106296e+01   5.6062850699e+01    0.4041739    0.3312484 -17.11   0.00112915    1.387    0.279
        24 -12.0552     48.7020     12.9673   5.9015846973e+01   6.8047744688e+01    0.5448749    0.2594272  47.56  0.002681919    1.985    0.496
        25  -9.7999      5.3732      9.2358   8.1457224290e+01   7.4630988513e+01    0.2480681    0.1371298 -29.32   0.00107238    1.567    0.362
        26 -11.4497    211.5161     10.1224   2.7702380419e+01   3.1469588173e+01    0.4656358    0.3137478  -0.31   0.00257057    2.694    0.629
        27 -10.6814    163.0469      8.8976   3.1690374589e+01   4.2477774778e+01     0.462114    0.2201739 -17.84  0.002121884    2.831    0.647
        28 -10.6113    168.7520      9.6625   3.1292786877e+01   4.1063088664e+01    0.4068374    0.1558399  56.10  0.001790833    2.526    0.604
        29  -9.9015    145.2181      9.7231   3.4042813834e+01   4.6660781515e+01    0.2148127    0.1482024  31.62  0.000682801    1.839    0.456
        30 -10.0306     88.8302      7.5110   4.3298800122e+01   6.0273318026e+01    0.2658445    0.1793688  29.55 0.0008351856    1.524    0.344
        31 -10.0528     84.7219      8.4730   4.4731970001e+01   6.1117314712e+01    0.2808522    0.2567072 -25.03  0.001348069    1.261    0.207
        32  -9.5788    232.7826      7.5893   2.5778271230e+01   2.7417768826e+01    0.1559185   0.08755355 -81.78  0.000942826    1.626    0.385
        33 -11.3165    183.9122      5.6039   2.8827738267e+01   3.7956342808e+01    0.3702939    0.2157221 -60.50  0.001497637    1.602    0.376
        34 -10.6087    158.1147      6.8222   3.1656286204e+01   4.3837222826e+01    0.4310454    0.2312535  -7.30  0.002001996    2.955    0.662
        35 -10.2699    156.6311      1.7266   3.0394498659e+01   4.4634819901e+01     0.292882    0.2023484  86.90 0.0009613931    1.275    0.215
        36  -9.5242     78.1890      7.3856   4.6004629424e+01   6.2660996379e+01     0.243347    0.1675969  72.10  0.001067489    1.638    0.389
        37 -10.4012     74.7577      3.3578   4.5137089253e+01   6.3750644114e+01     0.458785    0.2307141  60.03  0.002302227    1.778    0.437
        38  -9.6112     62.9110      6.4980   5.0282916506e+01   6.5977846424e+01    0.2125614    0.1493495  24.07  0.001257997    1.346    0.257
        39 -11.2056    176.9870      5.9200   2.9519485024e+01   3.9506163256e+01    0.3302313     0.171115  83.61 0.0008736673    1.787    0.440
        40  -9.7587    248.1112      5.1381   2.4455526627e+01   2.4765290467e+01    0.1536657    0.1353351 -71.15  0.001230773    1.271    0.213
        41 -10.6349    237.1599      4.5045   2.4919475065e+01   2.6888928658e+01    0.2291247   0.07696983 -51.09  0.001155939    2.277    0.561
        42 -10.6092    137.5619      4.4729   3.3442668407e+01   4.8964542709e+01    0.2389918    0.2162123 -83.61 8.244854e-05    1.094    0.086
        43 -11.5621    134.0101      2.3279   3.3240913987e+01   4.9994989916e+01    0.3695852     0.223331  61.38  0.001631719    1.423    0.297
        44 -10.0484     41.6290      3.9225   5.7270352619e+01   7.0290427205e+01    0.3541736    0.1880998   0.56  0.001714033    2.504    0.601
        45 -10.4456    218.7857      3.5368   2.5804544856e+01   3.0629384860e+01    0.2369668    0.1700492  72.33 0.0009367032    1.439    0.305
        46 -10.8018    223.6479      2.2633   2.5245183331e+01   2.9769860005e+01    0.2383572    0.1718742 -83.10 0.0008849161    1.180    0.152
        47 -10.9388    142.5225      3.9524   3.2648653272e+01   4.7814679880e+01    0.5566999    0.2040797  74.74  0.002309371    2.516    0.603
        48 -10.2514    233.4014      2.7004   2.4774275445e+01   2.7797917340e+01    0.1364401    0.0997224 -31.96 0.0008066057    1.554    0.356
        49 -10.9861    205.9022      2.1422   2.6344549666e+01   3.3454935670e+01    0.4237062    0.1694407 -84.49  0.001651707    2.765    0.638
        50 -11.2832    115.8287      2.3885   3.5940448482e+01   5.4358001914e+01    0.3728194    0.1956347  69.00  0.001880988    1.640    0.390
        51 -11.1208      2.6008      1.9211   7.9301407215e+01   7.5986503735e+01    0.3210675    0.1673227  10.30  0.001778453    1.888    0.470
        52 -10.8915    105.4093      1.7735   3.7519817605e+01   5.6881925526e+01    0.2797949    0.1682428  77.97  0.001025187    1.660    0.397
        53 -10.0440     12.9288      1.8784   7.1956859267e+01   7.4862254996e+01    0.2855346     0.131243  23.13  0.001492543    2.127    0.530
        54  -9.6396    152.3002      1.3970   3.0762963590e+01   4.5689930861e+01    0.2338876    0.1010195  69.88 0.0007919023    1.943    0.485
        55  -9.6527    123.1849      1.1687   3.4379327000e+01   5.2688751816e+01     0.329524   0.09040327  73.16  0.001120563    3.634    0.725
        56  -9.8136     82.0310      1.1600   4.2244446278e+01   6.2318722689e+01    0.1671402   0.07845813  60.81 0.0003178156    1.809    0.447
        57  -9.6831     32.6006    137.7934   1.0391673311e+02   4.3364915150e+01    0.3069881    0.2086125  65.07  0.001382836    1.644    0.392
        58  -9.7741     89.9990    250.4903   1.0227174802e+02   1.0075797678e+01    0.1682358    0.1021563   7.78 0.0008097994    2.487    0.598
        59 -11.7615     22.5831    135.8835   1.0688769990e+02   4.4775904586e+01     0.533935    0.4464525  31.35  0.002516837    1.322    0.243
        60 -11.4141     30.0602    133.1131   1.0407390816e+02   4.4833404051e+01    0.4134282    0.2733664 -49.15    0.0004919    1.458    0.314
        61  -9.6649     47.4757    135.0007   9.8638099661e+01   4.2500330230e+01    0.2258626    0.1352394 -66.42 0.0009492757    1.566    0.362
        62  -9.1354     73.6570    133.3256   8.9801566012e+01   3.9407345421e+01    0.1599014    0.1158806  69.54 0.0007050901    1.737    0.424
        63  -9.6610     38.4468    133.2058   1.0131910086e+02   4.3974928260e+01    0.2004679    0.1299395 -83.87 0.0008410111    1.644    0.392
        64  -9.3071    103.6856    130.7406   7.9942458298e+01   3.4969695799e+01    0.1534002    0.1222278  -7.92 0.0002226024    1.535    0.349
        65 -10.7081     10.0457    126.9768   1.0988431126e+02   4.8036333321e+01    0.4013658    0.1881317 -44.72  0.001796596    2.169    0.539
        66 -10.4163     22.8147    127.0288   1.0562191605e+02   4.7065072430e+01    0.2023193    0.1955737 -43.62 0.0003431559    1.125    0.111
        67 -10.0227      2.1496    125.9232   1.1236377897e+02   4.8794668594e+01    0.2086013    0.1577442  77.53 0.0008471598    1.310    0.237
        68 -12.9833    103.8972    122.4122   7.7878233661e+01   3.6941447108e+01    0.3642361    0.3421403 -22.27 0.0005314907    1.078    0.072
        69  -9.0454     77.4291    123.4434   8.6443963996e+01   4.1336745621e+01     0.150703    0.1457079 -65.92  1.69668e-05    1.040    0.039
        70 -10.5480     49.7454    122.8650   9.5681880867e+01   4.5397330871e+01    0.3599914    0.2152433  28.45 0.0009063281    1.777    0.437
        71 -10.3576     45.2069    120.1756   9.6748339551e+01   4.6633547567e+01    0.2929249    0.2484413  78.53  0.000985504    1.297    0.229
        72 -10.2142     43.5084    116.4950   9.6642135248e+01   4.7780633447e+01    0.3393722    0.2566195  16.90  0.001755817    1.471    0.320
        73  -9.5162     19.0401    122.5994   1.0628626011e+02   4.8521149834e+01    0.1785262    0.1684206 -75.16  0.001104716    1.077    0.072
        74  -9.3979     13.9139    118.9808   1.0756191155e+02   4.9836676636e+01    0.1570422    0.1369029 -67.00 0.0003787477    1.012    0.012
        75 -12.4420      2.8708    111.9458   1.1053688140e+02   5.2324338754e+01    0.5816094    0.3592543  59.39  0.001530098    1.879    0.468
        76 -11.3503      3.8544    105.1543   1.0930619069e+02   5.3994657155e+01    0.4095995    0.3569755   8.66  0.001699441    1.340    0.254
        77  -9.6711     67.3378    114.6607   8.7829016711e+01   4.5115445595e+01    0.3133849     0.223497  76.41  0.001379045    1.967    0.492
        78 -11.7960      9.4055     97.4299   1.0604576747e+02   5.5624463434e+01    0.5107005    0.4712763  35.26  0.001060031    1.261    0.207
        79 -11.8614     17.2224    100.8506   1.0356452476e+02   5.4241141251e+01    0.3562932    0.3019484 -22.80 0.0005005438    1.243    0.195
        80 -11.6519     35.8252     93.3402   9.4659504331e+01   5.4475554563e+01      1.18827    0.6224157 -61.93  0.005312785    1.788    0.441
        81 -11.4768     27.0232     86.2343   9.6656728207e+01   5.7073494015e+01    0.8206185    0.5907745  24.55  0.003691208    1.516    0.340
        82 -11.3917     44.4777     85.0094   8.9049584335e+01   5.5506243954e+01    0.6905159    0.4290889   3.16  0.002738606    2.039    0.510
        83 -10.4967     37.5109     86.0104   9.2197863083e+01   5.6077070737e+01    0.3594233    0.2504735  46.44 0.0008943959    1.725    0.420
        84 -12.7136     24.7984    107.1604   1.0177445301e+02   5.2038656572e+01     1.284831    0.7565985 -40.91  0.006225206    1.670    0.401
        85 -11.7172     18.0416     90.5454   1.0133213669e+02   5.6757754702e+01    0.5444561    0.3037957 -67.91 0.0008058409    1.653    0.395
        86 -11.1685     21.6047    114.4047   1.0416405013e+02   5.0440461788e+01    0.6354996    0.3051673   3.78  0.002607283    2.894    0.654
        87 -11.2298     28.1208    113.1935   1.0159944603e+02   5.0198163667e+01    0.5147966     0.258373  14.28  0.001907948    2.399    0.583
        88  -9.9636     48.6493    112.3954   9.3959433513e+01   4.8230292846e+01    0.2603617     0.230289 -71.94 0.0009856627    1.135    0.119
        89  -9.6802     93.7338    112.3759   7.8474299097e+01   4.1248636233e+01    0.2450102    0.1877557  76.03  0.001091785    1.765    0.434
        90  -9.6192    170.5876    110.2227   5.7902622446e+01   2.5653548315e+01    0.2116318      0.13836 -30.61 0.0008717994    1.620    0.383
        91  -9.2013    120.2823    109.3707   6.9757439638e+01   3.6683024946e+01    0.1621193    0.1229674 -11.52 0.0007014856    1.699    0.411
        92 -10.3556    102.0625    109.1503   7.5025524604e+01   4.0426525505e+01     0.245312    0.2124576  -3.76 0.0006250477    1.284    0.221
        93 -11.5409     79.8584    108.0318   8.1904933053e+01   4.4756526479e+01    0.5543621    0.3222681  28.91 0.0003910461    1.872    0.466
        94 -11.1354     15.0599    108.9408   1.0570297073e+02   5.2337697887e+01    0.3463802    0.1769179  42.77  0.001587422    2.255    0.556
        95  -9.1402    175.6572    106.6908   5.6004563973e+01   2.5243350248e+01    0.1490776    0.1165934   6.42 0.0007044479    1.695    0.410
        96  -9.4787    143.2073    106.1464   6.2934531504e+01   3.2437963761e+01    0.2158511    0.1834626 -75.40  0.000878209    1.362    0.266
        97 -11.4667     23.0940     94.7362   1.0010146642e+02   5.5320704756e+01    0.4890829    0.3260747 -23.45  0.001951843    1.642    0.391
        98 -10.7531     89.0143    104.6266   7.7948409076e+01   4.3954325495e+01    0.4936962    0.2867803  28.95  0.000952928    1.928    0.481
        99  -9.6020     85.7133    103.6664   7.8781413051e+01   4.4778942232e+01     0.247645     0.179764 -35.15 0.0005524259    1.426    0.299
       100 -10.9224     49.1058     90.8850   8.8734364450e+01   5.3524486891e+01    0.4662693    0.3575673  74.00  0.002312117    1.796    0.443
       101 -10.0120     47.5017    102.5348   9.2212685068e+01   5.0865912018e+01    0.3602588     0.179608 -47.05  0.001199755    1.853    0.460
       102 -10.3914     50.8517    101.1335   9.0614187745e+01   5.0795614277e+01    0.4830528    0.1849363 -48.37  0.001541153    2.367    0.577
       103 -10.0314     52.4029     96.1783   8.8804361750e+01   5.1812873687e+01    0.2664729    0.1804261 -65.49  0.001259933    1.572    0.364
       104 -10.1593    145.6033    100.0380   6.0717326305e+01   3.3150500656e+01    0.3104431    0.2239313 -21.50 0.0006951409    1.677    0.404
       105 -10.7162     79.9340     98.0834   7.9215290681e+01   4.7113628741e+01    0.4127685    0.2969117  48.28  0.001935359    1.528    0.346
       106 -10.4762     82.9907     93.4486   7.6845550219e+01   4.7639168180e+01    0.3464528     0.220695  35.05 0.0007034587    1.605    0.377
       107 -10.8264     79.1279     92.4789   7.7906768937e+01   4.8550150706e+01    0.4713686    0.3339512 -49.51  0.002234485    1.391    0.281
       108 -11.2095     68.4595     95.7218   8.2647442481e+01   4.9582924990e+01    0.4183999    0.3148944   6.64 0.0009145857    1.550    0.355
       109 -10.7535     43.0330     94.5086   9.2053608186e+01   5.3389641791e+01    0.3449585     0.314446 -24.23  0.001310831    1.073    0.068
       110 -10.1752    125.9447     94.0678   6.3953658067e+01   3.8738147330e+01    0.3124947    0.2260648  37.77 0.0007886181    1.439    0.305
       111 -10.4619    122.3192     93.6621   6.4808850650e+01   3.9619367533e+01    0.3051544     0.222609 -60.60  0.001092879    1.592    0.372
       112 -12.1023     89.2502     89.6259   7.3598937511e+01   4.7328759082e+01    0.4277092    0.3191825 -32.72 0.0005126563    1.382    0.276
       113 -12.2554      7.3271     89.1399   1.0549938056e+02   5.7807520476e+01    0.5296475    0.3831066   9.26 0.0009617824    1.574    0.365
       114 -10.1592     66.5137     88.7764   8.1417282042e+01   5.1515805684e+01    0.3470252      0.24164  -7.75  0.001122951    1.860    0.462
       115 -11.5680     98.3727     91.0525   7.1063458166e+01   4.5227113680e+01    0.2680632    0.2618625  11.70 0.0002808903    1.023    0.023
       116 -10.1354    104.2409     87.4263   6.8153713307e+01   4.4795838815e+01    0.2929828    0.1850433 -32.59  0.001248871    1.734    0.423
       117 -10.7867     80.1983     83.7597   7.4921933483e+01   5.0303446353e+01    0.4743475     0.347075 -36.37  0.002303825    1.360    0.264
       118 -11.0574     76.6995     79.1130   7.4717165041e+01   5.1938318165e+01    0.6947221    0.3765007 -56.18   0.00280603    2.200    0.545
       119 -10.5172     72.8411     78.4214   7.5911390345e+01   5.2769514272e+01    0.4180141    0.3024615 -63.33  0.001982506    1.712    0.416
       120 -10.4722    143.3855     84.4294   5.6874120855e+01   3.6676797877e+01    0.2564863    0.2421348 -73.96 0.0005425721    1.081    0.075
       121 -10.6660    113.2238     82.8893   6.4123837734e+01   4.3798665590e+01    0.4131415    0.3304636 -78.17  0.001801072    1.621    0.383
       122 -10.0579     60.3909     83.1540   8.2120772524e+01   5.3753453743e+01    0.2716239    0.2364036 -58.42  0.001179316    1.229    0.186
       123 -11.5908     53.1502     76.0237   8.2878016377e+01   5.6420367910e+01    0.6512861    0.4117484 -57.49  0.003082279    1.689    0.408
       124 -10.9811     58.2638     77.7748   8.1337535400e+01   5.5282345975e+01    0.3190925    0.2823817 -41.28 0.0008056901    1.103    0.093
       125  -9.2512    165.4918     83.5133   5.1970153741e+01   3.1751810038e+01    0.1463908     0.138471 -65.06 0.0008104205    1.018    0.018
       126 -10.1905     67.1878     81.7237   7.9066614788e+01   5.3003711464e+01    0.3637556    0.2639653 -24.81  0.001765986    1.489    0.328
       127 -11.7300     13.8861     74.5900   9.9755336732e+01   6.0910785779e+01     0.580557    0.3584799 -78.88  0.002662545    1.897    0.473
       128  -9.9427     14.2797     67.6662   9.7918965713e+01   6.2493609837e+01     0.406143    0.2492048   9.94  0.002170532    1.773    0.436
       129 -12.2502    247.3488     75.3357   3.8374259178e+01   1.6149530015e+01    0.4892271    0.2626199 -71.16  0.002343722    2.685    0.628
       130 -11.6710      2.1402     71.4365   1.0447536932e+02   6.2344137385e+01    0.6625639    0.1821324 -65.47  0.002549634    2.862    0.651
       131 -12.5751      4.5347     62.3209   1.0134824871e+02   6.4327410118e+01    0.7037125    0.3844128 -23.90  0.001840838    1.854    0.460
       132  -9.2429     46.6411     76.7293   8.5809843004e+01   5.7149403556e+01    0.1471681    0.1010239 -17.38 0.0006997807    1.646    0.393
       133 -10.2024    103.6922     74.9109   6.4396614131e+01   4.7431016146e+01    0.2916428    0.2239814  51.15  0.001161911    1.329    0.248
       134 -11.5420     85.5720     73.0165   6.9600253588e+01   5.1532368277e+01    0.5365672    0.3610959  36.64  0.001495169    1.480    0.324
       135 -10.8045     79.3465     68.1070   7.0120354268e+01   5.3704765839e+01    0.5196773    0.3464434  55.58  0.002384511    1.846    0.458
       136 -10.3965     75.9741     63.2938   6.9660070174e+01   5.5272334298e+01    0.3592995     0.252831 -33.06 0.0009085638    1.432    0.302
       137 -12.0796     74.9872     54.1167   6.6664444771e+01   5.7142240068e+01    0.6905687    0.5216149 -42.07  0.001311231    1.399    0.285
       138 -10.8401     72.7748     47.2419   6.4830005889e+01   5.8740863404e+01    0.3292895    0.2310672 -43.32  0.001508664    1.559    0.359
       139  -9.8176     24.7133     74.3729   9.4780244290e+01   6.0102673223e+01    0.2317977    0.1485357 -58.66 0.0004642325    1.437    0.304
       140 -10.3401     94.2474     75.5705   6.7555676889e+01   4.9285361300e+01    0.5256364    0.4016962 -78.21  0.002425594    1.911    0.477
       141 -11.3618    187.2935     70.7751   4.4873179808e+01   2.8935205790e+01    0.6034089    0.3187699 -41.28  0.002673841    1.745    0.427
       142 -11.9186     40.9637     71.8579   8.6801433600e+01   5.8959809677e+01    0.4792402    0.3085652 -61.63  0.001487218    1.709    0.415
       143 -11.5709     35.0439     71.9166   8.9447614754e+01   5.9634073605e+01    0.8412552    0.2382745  26.92  0.002914221    3.617    0.724
       144  -8.8446    154.3061     72.3151   5.1068987657e+01   3.6281506236e+01    0.1450949    0.1156554  17.56 0.0005186371    1.625    0.385
       145 -11.2304    122.9666     68.9875   5.7145242310e+01   4.4208700650e+01    0.4599713    0.3244065  43.35  0.001304362    1.413    0.292
       146  -8.9493     19.6179     71.7152   9.6432475659e+01   6.1153582549e+01    0.1451426   0.08424193 -29.53 0.0007011603    1.733    0.423
       147 -11.0878    220.4043     66.6895   3.9469028082e+01   2.2510694666e+01    0.4493737    0.2476916  66.57  0.002307877    2.006    0.502
       148 -11.5138     21.0740     64.8757   9.3926122722e+01   6.2591769885e+01    0.2482659    0.1838839 -54.03 0.0004869761    1.246    0.197
       149 -11.2386     92.1720     62.8619   6.3932915013e+01   5.2129832423e+01    0.5768623    0.3817336  66.36  0.002514624    2.136    0.532
       150 -10.1519     87.6927     56.3636   6.3074959704e+01   5.4211183426e+01    0.5865265    0.2028706 -34.83  0.001979021    3.246    0.692
       151  -9.7576    202.0065     64.5236   4.1242298151e+01   2.6664058745e+01    0.1959687    0.1293269  67.81 0.0005148378    1.597    0.374
       152 -10.1210    106.4931     63.7837   5.9892518376e+01   4.8868070229e+01    0.3325787    0.2293599  33.52  0.001562022    1.545    0.353
       153 -11.0104     59.1127     63.4097   7.6262312453e+01   5.8192216503e+01    0.3121267    0.2691302 -63.70 0.0006439626    1.437    0.304
       154  -9.9582     55.6800     50.9858   7.3123756562e+01   6.1135970570e+01    0.1838157    0.1607125 -12.80 0.0002728818    1.050    0.048
       155  -9.6581    218.6716    249.3064   7.6039210073e+01  -6.5176619208e+00   0.09805913   0.08699097  27.67 0.0004654955    1.655    0.396
       156 -11.1782     30.6343     44.2071   8.2262127883e+01   6.5933652284e+01    0.8392247    0.2108312  36.89  0.002842784    4.336    0.769
       157 -10.7013     23.5439     37.6804   8.3443058765e+01   6.7963701644e+01    0.5350457    0.3084806  48.99  0.002488369    2.978    0.664
       158 -11.6319     60.2719     46.8058   6.9545137225e+01   6.1108250169e+01    0.9109806    0.5470172 -40.88  0.004497991    1.704    0.413
       159 -10.4452     51.8517     48.3937   7.3773163955e+01   6.2221288903e+01    0.3249071    0.2804405  -7.88  0.001202921    1.039    0.037
       160 -11.4341     40.5008     57.0017   8.2164469886e+01   6.2191463949e+01    0.4541861    0.2462615  38.38   0.00146539    2.032    0.508
       161 -11.1390     52.1898     61.8268   7.8623068719e+01   5.9582977692e+01    0.4051602    0.2267427  41.52 0.0008113803    1.966    0.491
       162 -11.6470     43.5678     62.3655   8.2609155825e+01   6.0683710464e+01    0.2739535    0.2257963 -38.91 0.0003524774    1.144    0.126
       163 -11.2316     46.5131     58.9660   8.0110670366e+01   6.0982912351e+01    0.3568951     0.268513 -45.42 0.0008302648    1.316    0.240
       164 -11.7034    234.6365     61.0546   3.6694168759e+01   2.0522601401e+01    0.3109585    0.2857204  82.37  0.002180121    1.248    0.199
       165  -9.6496     64.9998     61.9830   7.3377575387e+01   5.7498038761e+01    0.2017889    0.1777938  88.43 0.0004387951    1.575    0.365
       166 -10.4071    121.9417     60.1914   5.4574638654e+01   4.5941280496e+01    0.3831905    0.2843696  32.11  0.001878411    1.493    0.330
       167 -10.7060    117.5273     56.0597   5.4314603668e+01   4.7639618414e+01    0.3820456    0.2822623 -65.58   0.00120912    1.713    0.416
       168 -10.3764     91.5539     57.2200   6.2129984369e+01   5.3255096204e+01    0.3760247      0.25122  55.58 0.0007889174    1.623    0.384
       169 -11.4223     32.8952     52.5724   8.4235062500e+01   6.4025848116e+01     1.630576    0.8528827   6.99   0.00707032    2.557    0.609
       170 -10.6026     24.4946     59.4883   9.0677049825e+01   6.3468771139e+01    0.6041343    0.2385903  32.73  0.002579625    2.703    0.630
       171 -10.3709     25.5028     55.9638   8.9059261453e+01   6.4124080857e+01     0.365043    0.1634575 -35.40  0.001352006    2.231    0.552
       172  -9.5387    135.5384     58.4276   5.0850605305e+01   4.3005207840e+01    0.2604246    0.1453816 -20.45  0.001031585    2.491    0.599
       173 -10.6902    106.4149     58.5778   5.8140190674e+01   4.9777271963e+01    0.4116563    0.2296973  64.46  0.001640889    2.350    0.574
       174 -10.8493     26.0969     48.1585   8.6082321890e+01   6.5668924296e+01     0.346917    0.1642776 -44.07 0.0004820828    1.851    0.460
       175 -10.7281    237.9923     55.9499   3.5290522864e+01   2.0586930558e+01    0.1802297    0.1491322 -54.00 0.0002982504    1.052    0.049
       176 -10.3019    157.5785     54.9816   4.5493158194e+01   3.8249388624e+01    0.3867643    0.2478229 -58.48  0.001828993    1.734    0.423
       177  -9.8863     66.9277     54.1327   6.9725572391e+01   5.8637097699e+01    0.3577192    0.1889897 -49.81  0.001534809    2.234    0.552
       178 -11.6883     10.3081     62.4214   9.8518945700e+01   6.3958712064e+01    0.3211836    0.2118122 -34.26 0.0006951403    1.336    0.251
       179  -9.8827     13.9548     54.0468   9.4349176329e+01   6.5546641197e+01    0.1910128    0.1588384 -31.66 0.0003000051    1.012    0.012
       180 -10.9308    248.0840     53.4194   3.3857671162e+01   1.9053438672e+01    0.2122232    0.1423848  49.24   0.00100959    2.036    0.509
       181  -9.6695    201.2841     53.0718   3.8583441789e+01   2.8471368759e+01    0.1879695    0.1495114 -48.65 0.0004789597    1.144    0.126
       182 -10.3990    240.4209     50.7669   3.3991353048e+01   2.0823235874e+01    0.1623349    0.1054809 -30.08 0.0009480984    1.639    0.390
       183 -11.0050    113.9187     38.1371   4.9032169420e+01   5.1099015300e+01    0.2904339    0.2234443 -37.23 0.0003078986    1.393    0.282
       184 -10.5055    112.5090     50.5296   5.3714732978e+01   4.9668589956e+01    0.3368451    0.2736237  29.93 0.0009718784    1.292    0.226
       185 -12.2987    118.0946     43.7833   5.0011987098e+01   4.9342245292e+01    0.9201775    0.5675787  56.64  0.003375584    1.514    0.339
       186 -12.4369    119.5451     37.0901   4.7378782205e+01   4.9897549454e+01     0.764675    0.5553049 -73.74   0.00232261    1.758    0.431
       187 -10.4465    109.2382     42.4358   5.1708223999e+01   5.1612622926e+01    0.7300945    0.2917041 -28.24  0.002724442    2.939    0.660
       188 -10.2895    175.3094     48.6195   4.0896828671e+01   3.4963360919e+01    0.3609845    0.2006008  63.52  0.001724079    1.753    0.430
       189 -10.6823     13.0612     47.4675   9.2770361641e+01   6.7005250838e+01     0.403002    0.1730842 -31.83  0.001793269    2.360    0.576
       190 -10.0377      2.4042     49.0302   9.9052620914e+01   6.7378610256e+01    0.2208133    0.1707755  14.23  0.001045361    1.432    0.302
       191 -10.4748    146.0764     47.0627   4.5233710759e+01   4.2153355629e+01    0.3054695    0.2099947 -24.10   0.00100994    1.677    0.404
       192 -11.0274     20.7715     46.0199   8.8116914058e+01   6.6632718264e+01    0.3810726    0.2292074 -41.94  0.001293129    1.436    0.304
       193  -9.5168     18.1851     41.5688   8.7906867958e+01   6.7759074387e+01    0.2300141    0.1715176  -1.39   0.00140641    1.265    0.209
       194  -9.4289     82.5099     47.0101   6.1297266854e+01   5.6834753459e+01    0.2068011    0.1375531 -30.80  0.001019835    1.568    0.362
       195 -10.5707    137.8714     44.5429   4.6015613103e+01   4.4487330335e+01    0.6371366    0.2299225  45.38  0.002201882    3.165    0.684
       196  -9.9333    199.4951     44.9831   3.6850155224e+01   2.9963373709e+01    0.3781062    0.1708056  89.09   0.00139496    3.652    0.726
       197 -10.7016    235.1107     42.6067   3.2765286008e+01   2.2899579092e+01    0.3313671    0.1507211 -31.82  0.001637824    2.220    0.550
       198 -10.2042      8.0597     30.5508   8.9588361767e+01   7.0739554520e+01    0.6032363    0.2407506   7.14  0.002575264    3.178    0.685
       199  -9.7751      6.2211     42.9723   9.5116267666e+01   6.8424044202e+01    0.2507372    0.1867632 -64.03  0.001494965    1.487    0.327
       200  -9.8602      3.9825     39.2506   9.5195197927e+01   6.9327110219e+01    0.1950578     0.157545   2.72 0.0006441051    1.269    0.212
       201 -10.9249      4.8907     36.1184   9.3591127656e+01   6.9895305663e+01     0.335341    0.2356601  16.84 0.0008784378    1.506    0.336
       202 -11.5268     79.6543     35.0482   5.7485659502e+01   5.9211342122e+01    0.6672869    0.3975394 -30.10  0.001960148    1.779    0.438
       203 -10.8416    155.6906     42.3259   4.2157336116e+01   4.0476396619e+01    0.2723163     0.266108 -23.01 0.0008573194    1.160    0.138
       204  -9.5472    183.4977     38.0286   3.7028630554e+01   3.4466440484e+01    0.1838464    0.1210721 -39.89 0.0003391779    1.470    0.320
       205 -10.9213    176.6368     36.2466   3.7429353571e+01   3.6280338297e+01    0.3426743    0.2023989 -36.49   0.00175168    1.680    0.405
       206  -9.9243    133.2637     37.2931   4.4602686349e+01   4.6564386146e+01    0.2908182    0.1852896 -71.47  0.001322288    2.106    0.525
       207 -11.0503     60.9964     36.1869   6.4829153073e+01   6.2707384566e+01    0.3990787    0.2668186 -14.12  0.001262168    1.671    0.401
       208  -9.0721    206.5052     37.4299   3.4303796913e+01   2.9412893703e+01    0.1260998    0.1073664 -69.77 0.0002663071    1.016    0.016
       209 -11.2170    153.3354     36.1917   4.0743477911e+01   4.1834435265e+01    0.5398501    0.3461457   5.06  0.000373122    2.680    0.627
       210 -11.1861    242.5553    247.7949   7.1666533249e+01  -8.9350739951e+00    0.2345242    0.1206104 -14.73  0.001384905    1.838    0.456
       211 -10.7581    157.9035     20.2629   3.5472456707e+01   4.2569632167e+01    0.3380936    0.1943575  68.68  0.001451059    1.562    0.360
       212 -11.9540    159.7669     29.9580   3.7978687428e+01   4.1040553542e+01    0.4721247    0.3367501 -59.70  0.002601943    1.420    0.296
       213 -12.1747    164.2257     27.6024   3.6707492910e+01   4.0247759869e+01    0.3317953    0.2738453  57.47 0.0008686359    1.248    0.199
       214 -10.4742     93.3572     41.4326   5.5709155665e+01   5.5361982581e+01    0.4159961    0.2250412  42.73  0.001879421    1.750    0.429
       215 -10.6387    131.2747    240.9897   9.2263648731e+01   6.1714339519e+00    0.2331685    0.1650983  28.53  0.001012559    1.203    0.169
       216 -11.6737    106.4228     32.4204   4.8776102766e+01   5.3594474404e+01    0.6085393    0.3519925  20.32  0.002536355    2.673    0.626
       217 -12.3215    114.2644     25.2164   4.4360299456e+01   5.2588642045e+01    0.7465541    0.2942444  55.65  0.001882428    2.150    0.535
       218 -10.2883    240.0103     32.9441   3.0384170834e+01   2.3161723244e+01    0.2276888    0.1569611  74.65 0.0008842977    1.534    0.348
       219 -10.1979     68.0382     32.2087   6.0371766047e+01   6.1958548818e+01    0.2433151    0.2304689 -14.57  0.001025202    1.184    0.155
       220 -12.1358     57.9350     30.1887   6.3433295909e+01   6.4151253718e+01    0.3854402    0.2715081   6.11  0.001221401    1.536    0.349
       221 -11.9356     49.4115     30.1993   6.7109586564e+01   6.5637482019e+01    0.5795867    0.2534718  37.00  0.001450923    2.163    0.538
       222  -9.5822     86.2698     30.9344   5.3702125400e+01   5.8347188246e+01    0.1899612    0.1706148  -2.41  0.001143599    1.147    0.128
       223 -11.8223    127.0304    242.1825   9.3336001570e+01   6.5548782471e+00    0.3487527     0.318948  56.40  0.001648094    1.262    0.208
       224 -11.0184     68.0996    240.7582   1.0607849842e+02   1.4731804734e+01    0.2261569    0.1674582  15.03  0.001242418    1.595    0.373
       225 -11.3747    147.1214    237.2894   8.8350512657e+01   4.5813357806e+00    0.6111896    0.2216911  41.44  0.002500064    2.705    0.630
       226  -9.2063     15.4488    233.5368   1.1679619784e+02   2.2055333908e+01     0.115245   0.09490944  64.93 0.0002711728    1.057    0.054
       227 -11.2082    247.2659    230.7672   6.8162825675e+01  -7.2795082009e+00    0.2827381    0.1304588  20.99  0.001563205    2.190    0.543
       228 -10.0926    233.4700    227.4945   6.9943540229e+01  -5.2924419678e+00    0.1182956   0.09000022  -6.63 0.0008097294    1.029    0.028
       229 -10.7784    198.8875     28.6098   3.2996696430e+01   3.2149234785e+01    0.3697258    0.1851781  54.24  0.001363139    2.239    0.553
       230 -10.8393    189.1611     27.4619   3.3715459392e+01   3.4457513765e+01     0.299423    0.2824969  36.63  0.001685648    1.350    0.259
       231 -11.4351    183.2802     25.5622   3.3872805573e+01   3.6017523895e+01    0.4723721    0.2623534  55.53  0.002423982    1.883    0.469
       232  -9.3678    152.7088    219.3333   8.4451613395e+01   6.9596202431e+00    0.1253441    0.1043794  63.06 0.0003919684    1.633    0.387
       233  -9.6858    150.2154     27.3906   3.8623691662e+01   4.3640493571e+01    0.2501801    0.1147579  62.98 0.0005362512    1.942    0.485
       234 -11.4639    154.5230     24.5112   3.7150969181e+01   4.2922828699e+01    0.5559307    0.2422196  75.57  0.002309849    2.414    0.586
       235 -10.2236    164.4922    212.1340   8.0715003329e+01   6.4949376897e+00    0.2353034    0.1761924  26.69 0.0006786609    1.221    0.181
       236 -10.1675    140.0407     28.3071   4.0520280222e+01   4.6005889891e+01    0.3456295    0.1821743 -52.18  0.001553384    2.182    0.542
       237 -10.2424    152.8755    207.2542   8.2445435162e+01   9.1995137994e+00    0.2764163    0.2071444 -66.80  0.001437487    1.868    0.465
       238  -9.0678     61.4853    206.4949   1.0426040548e+02   2.2869948836e+01    0.1338728    0.1193351  60.37 0.0008104908    1.003    0.003
       239 -10.9546      6.2826    198.4724   1.1687211770e+02   3.0549554963e+01    0.2597955    0.1156194 -65.30  0.001283248    2.134    0.531
       240  -9.3214    233.5997    196.2133   6.4476232071e+01  -7.6066579627e-01    0.1820658   0.09593058 -27.38 0.0009520493    1.693    0.409
       241 -10.1801    230.5614     26.2772   2.9733544147e+01   2.5790725310e+01    0.1489523    0.1068901 -29.90 0.0006760398    1.569    0.363
       242  -9.6793    214.2328     24.6480   3.0686408467e+01   2.9308913107e+01    0.1653489     0.100356  66.82 0.0009520615    1.680    0.405
       243  -9.9410    169.3708     23.6419   3.4970847163e+01   3.9474101104e+01     0.289391    0.1351347  62.73  0.001355463    1.947    0.486
       244 -10.2364    170.2452    191.1174   7.5746404029e+01   9.5176596290e+00     0.370456    0.1801573  19.47  0.001356205    3.068    0.674
       245 -10.0232     16.2486    191.1655   1.1401921514e+02   3.1396186540e+01    0.2056582    0.1675718  51.31  0.001304333    1.168    0.144
       246 -10.3008     59.8523     23.8266   5.9742039084e+01   6.4661907087e+01    0.2050427    0.1697288  -4.77 0.0004327848    1.173    0.147
       247 -10.2985     13.8672     23.4247   8.2930926497e+01   7.1505107593e+01    0.2062405    0.1445484 -29.78 0.0004626178    1.217    0.178
       248 -10.8465    178.5659     21.0642   3.3236049322e+01   3.7606912366e+01    0.4210995    0.2211879  42.24  0.001901601    2.686    0.628
       249  -9.0588    224.2922     22.3283   2.9380531582e+01   2.7501419123e+01    0.1028141   0.09200055  33.59 0.0003425033    1.624    0.384
       250 -10.5949    241.0360     26.0151   2.8918172561e+01   2.3790806993e+01    0.1808998    0.1384071 -64.49 0.0006290935    1.035    0.034
       251 -12.2675      4.7491    185.7820   1.1646984077e+02   3.3648205846e+01    0.5598688    0.4060223 -81.34  0.002900183    1.221    0.181
       252  -9.5547     74.5375     19.5402   5.2529805267e+01   6.2233193339e+01    0.1842987    0.1073307  41.69 0.0005150011    1.518    0.341
       253  -9.4057    216.5056     20.5019   2.9590592654e+01   2.9305787286e+01    0.1204992   0.09796526 -68.45 -0.0001702367    1.015    0.014
       254 -10.4755     47.0173     19.2716   6.2959894340e+01   6.7572310940e+01    0.2723382    0.2029582 -10.48  0.001392166    1.303    0.232
       255 -11.0476      2.6867    181.3342   1.1669775878e+02   3.4871129770e+01    0.2562501    0.2020692 -70.99  0.001220432    1.240    0.193
       256  -9.2721     86.0106    185.7349   9.5356683786e+01   2.4378984495e+01    0.1899985    0.1204308  33.48 0.0008869189    1.522    0.343
       257  -9.2769    239.7971    184.5792   6.1303994000e+01   2.0754361996e-01     0.141496    0.1167833  35.49 0.0005243318    1.531    0.347
       258  -9.3813    175.4224    180.2307   7.2549778022e+01   1.0755355379e+01    0.1895057    0.1328422 -51.18 0.0009406181    1.605    0.377
       259 -10.2905     51.8790    173.2519   1.0290377575e+02   3.2075815507e+01    0.4475885    0.2122448 -86.63  0.001659852    2.901    0.655
       260  -9.3829     39.5139    173.5225   1.0635723885e+02   3.3425473212e+01     0.138356    0.1223568  78.24 7.636431e-07    1.034    0.033
       261 -10.2795      6.2523     12.6074   8.2628454651e+01   7.4019102739e+01    0.3545557    0.1226197  24.26  0.001655872    2.798    0.643
       262  -9.4817     28.1381    175.8321   1.0968755269e+02   3.4018919185e+01    0.1778794    0.1527634 -48.32 0.0007346811    1.313    0.238
       263 -10.0247     35.3538    170.0514   1.0712290919e+02   3.4743766613e+01    0.2884752   0.09936339 -62.83  0.001112521    2.519    0.603
       264 -12.1648      9.5370    166.9073   1.1390426972e+02   3.7877658426e+01    0.4283578    0.3707493  59.93  0.001753845    1.143    0.125
       265 -12.0238     13.1599    159.6740   1.1229464960e+02   3.9411984606e+01    0.5921918    0.2248803 -62.50  0.002537153    2.245    0.555
       266  -9.4840    198.1775    167.8636   6.5431591631e+01   9.2657237076e+00    0.1932673    0.1487674 -11.89 0.0005927529    1.300    0.231
       267  -9.6754     65.7677     10.4337   5.1225457128e+01   6.5017295294e+01    0.2338172    0.1153219  57.11  0.001116446    1.977    0.494
       268  -9.6595    156.6942    166.3218   7.3918519467e+01   1.6847145824e+01    0.1430168    0.1204514  84.94 0.0005965114    1.639    0.390
       269  -9.2929    152.4415    166.5317   7.4953789141e+01   1.7575027171e+01    0.1483333    0.1389826  -8.08 0.0001094417    1.010    0.009
       270 -10.6693     18.7414    165.1143   1.1123490177e+02   3.7574017896e+01    0.3137157      0.22325 -23.24  0.001687268    1.877    0.467
       271  -8.7391     80.3134    165.3436   9.3714370048e+01   3.0227774686e+01    0.1539687    0.1124845 -27.28 0.0004390683    1.707    0.414
       272 -10.1451    205.0046    163.1358   6.3169539454e+01   8.9894076986e+00    0.2361146    0.1806033 -31.65 0.0006789095    1.162    0.139
       273 -10.2612     39.6223    162.2935   1.0501077215e+02   3.6270425106e+01     0.345795    0.1998121  56.98  0.001221744    1.867    0.464
       274  -9.3810     78.5631    159.8347   9.3286116106e+01   3.1878971963e+01    0.2093827     0.142564 -78.29 0.0007452675    1.680    0.405
       275 -10.0143     28.6802    160.6805   1.0797891734e+02   3.7798771339e+01    0.1396801   0.09559031 -41.87  0.000704292    1.665    0.399
       276  -9.7831     53.6690    156.3206   1.0007003157e+02   3.6188379316e+01    0.2873723    0.1776766  89.05  0.001261642    1.937    0.484
       277 -10.7966      9.4766    155.4940   1.1296389783e+02   4.0754147976e+01    0.2717969    0.1134779 -76.07  0.001183591    2.075    0.518
       278 -10.6430     30.7041    151.8741   1.0636273057e+02   3.9875538632e+01    0.2545297    0.2189289   2.11  0.001207124    1.387    0.279
       279 -10.0981    104.9949    154.0186   8.4623886778e+01   2.9040642577e+01    0.2465243    0.2392802 -16.59  0.001332007    1.045    0.043
       280 -12.1258     22.5299    149.3997   1.0853056153e+02   4.1267531950e+01    0.7201737    0.3482256 -34.13    0.0016675    2.961    0.662
       281 -11.5193     15.9505    148.0157   1.1035513238e+02   4.2170892486e+01    0.2895562     0.268213  81.77 0.0008697708    1.085    0.079
       282 -10.7612      3.3597    152.7403   1.1446946604e+02   4.1883041338e+01    0.3584074    0.2044058  77.21  0.001818991    1.721    0.419
       283 -11.9119    125.4124     27.8127   4.2996776679e+01   4.9614643789e+01    0.4932537    0.3844704  64.71  0.002082492    1.167    0.143
       284 -10.5110      3.4934    147.4964   1.1399127659e+02   4.3202601830e+01     0.202584    0.1888648 -73.12 0.0005987635    1.136    0.119
       285 -12.3653      2.4568    141.9282   1.1381027516e+02   4.4685544657e+01    0.7360819    0.3827917  64.81  0.001094463    2.086    0.521
       286 -10.2926     42.2976    149.2585   1.0249224287e+02   3.9356364223e+01    0.5121665    0.2288667  39.14  0.001361339    2.231    0.552
       287 -11.0277     48.5679    146.2239   1.0010157699e+02   3.9433068754e+01    0.4877362    0.3647687  12.12  0.001237984    1.577    0.366
       288  -9.7731     63.8187    150.3775   9.6065299247e+01   3.6412518722e+01    0.2065169    0.1435763  12.53 0.0009497468    1.760    0.432
       289  -9.2004     74.3848    145.8399   9.2026451755e+01   3.6079457392e+01    0.2147812    0.1304409 -49.30 0.0006048844    1.620    0.383
       290 -11.0898     33.3790    144.5345   1.0460215028e+02   4.1524864351e+01    0.3788431    0.2621187  47.58  0.001253958    1.509    0.337
       291 -12.0084     12.3541    137.0374   1.1028316780e+02   4.5276637716e+01     0.617799    0.3578602 -62.50  0.003149717    1.487    0.328
       292  -9.7700    217.0173    138.6949   5.5918888308e+01   1.1306347474e+01    0.1805641    0.1675898 -13.26 0.0005206274    1.102    0.093
       293  -9.8632     40.8605    138.8012   1.0140242806e+02   4.2250179602e+01    0.2062464    0.1612296  70.74  0.001079108    1.371    0.271
       294  -9.0725     79.6676    138.3263   8.8926688732e+01   3.7197187863e+01    0.1598485    0.1171411  70.65 0.0007051284    1.712    0.416
