#   1 NUMBER                 Running object number                                     
#   2 MAG_AUTO               Kron-like elliptical aperture magnitude                    [mag]
#   3 X_IMAGE                Object position along x                                    [pixel]
#   4 Y_IMAGE                Object position along y                                    [pixel]
#   5 X_WORLD                Barycenter position along world x axis                     [deg]
#   6 Y_WORLD                Barycenter position along world y axis                     [deg]
#   7 A_WORLD                Profile RMS along major axis (world units)                 [deg]
#   8 B_WORLD                Profile RMS along minor axis (world units)                 [deg]
#   9 THETA_WORLD            Position angle (CCW/world-x)                               [deg]
#  10 FWHM_WORLD             FWHM assuming a gaussian core                              [deg]
#  11 ELONGATION             A_IMAGE/B_IMAGE                                           
#  12 ELLIPTICITY            1 - B_IMAGE/A_IMAGE                                       
         1 -13.2597     10.9305     26.7150   1.0835943178e+02   6.9458347914e+01    0.8239921    0.4804703  31.25  0.005074775    2.127    0.530
         2 -13.5550     21.5560     22.8774   1.0167399226e+02   6.9408217346e+01    0.6558594    0.4316835 -23.34  0.004005306    1.514    0.340
         3 -12.9803    202.4529     28.1999   5.2344742968e+01   3.0423518536e+01    0.6076388    0.4773682 -15.93  0.003164134    1.370    0.270
         4 -13.1022    217.8755     10.6932   4.5651215773e+01   2.8393377119e+01    0.7077404    0.6181182 -68.42    0.0031894    1.071    0.066
         5 -11.0638      2.0830      4.1772   1.0470712297e+02   7.4298974210e+01     0.454449    0.1066343 -55.16  0.001930903    3.219    0.689
         6 -13.7935    113.9252    225.2957   1.1322477438e+02   1.5653205232e+01     1.385466      0.77548  73.95   0.00743273    2.537    0.606
         7 -13.8724    247.6098    240.8272   9.2525195086e+01  -6.5258136296e+00     1.271648    0.4695057 -25.09  0.006929694    3.182    0.686
         8 -12.5368    178.2163    249.2159   1.0476032552e+02   2.7127435418e+00      1.56948    0.2143871  43.01  0.005057011    5.426    0.816
         9 -12.2805    212.3297    246.2645   9.8825303599e+01  -2.0268322929e+00    0.4986137    0.3335246  12.15  0.003316798    1.516    0.340
        10 -13.1499    199.0243    246.6534   1.0102845832e+02  -1.0926066189e-01    0.8841324    0.6593003 -26.36  0.006706626    1.703    0.413
        11 -12.2477    207.3932    241.9557   9.9047887572e+01  -8.6261151781e-01    0.4741038     0.319555  17.04  0.002357359    1.426    0.299
        12 -14.1897    121.7486    199.3763   1.0878870200e+02   1.8658880750e+01     2.598136     1.010533 -53.66   0.01202253    2.993    0.666
        13 -13.9454    149.9920    229.5251   1.0723866295e+02   9.5035924560e+00     1.485161     1.084722  65.69  0.009957127    1.563    0.360
        14 -13.8654    166.3110    226.0722   1.0392166702e+02   7.3832399419e+00     1.168188     0.757718  37.60  0.006473046    1.228    0.186
        15 -12.1321     30.2474    238.3533   1.2852439706e+02   2.4251326141e+01    0.6442614    0.2052624  65.78 0.0006004534    3.007    0.667
        16 -14.0326     32.6031    159.5250   1.2314680219e+02   3.8548310694e+01     2.569371     1.717379  49.80   0.01702051    1.398    0.285
        17 -13.5963     45.2796    247.0389   1.2656242551e+02   2.1256257109e+01    0.7313839    0.2694678  56.93  0.004466269    2.013    0.503
        18 -15.1767     65.7173    245.3609   1.2318469092e+02   1.9105212205e+01     1.673374    0.7036776  45.94  0.008827125    1.707    0.414
        19 -13.9223     49.7246    227.2062   1.2472081420e+02   2.3901143932e+01     1.057111    0.5899134  77.86  0.006393436    1.632    0.387
        20 -11.7655     90.0348    232.3244   1.1812280558e+02   1.7964972531e+01    0.5033813    0.2260092  62.58   0.00226692    2.395    0.582
        21 -10.2021     84.1936    230.1812   1.1896667239e+02   1.9092754628e+01    0.1731963    0.1321869  70.98 0.0008204046    1.159    0.137
        22 -13.4353    128.7137    248.4627   1.1295018796e+02   1.0148694369e+01     1.894753    0.4235078  40.74  0.007770461    3.437    0.709
        23 -11.6123     70.7556    211.7769   1.1987223722e+02   2.3941897912e+01    0.4467837    0.2934469 -65.33  0.002618668    1.733    0.423
        24 -12.4219     73.2467    203.4255   1.1868119755e+02   2.5097684249e+01    0.6904945    0.3635245 -52.02  0.003845458    2.577    0.612
        25 -11.4750     77.5263    220.9903   1.1939797581e+02   2.1479445848e+01     0.583417    0.2669604  60.30  0.002950289    2.040    0.510
        26 -11.9820    236.5397    220.5378   9.1196989596e+01  -3.0241129701e+00    0.2183239    0.1871213  30.39  0.001651395    1.348    0.258
        27 -13.5757    231.7823    215.0361   9.1096230537e+01  -1.7288820960e+00    0.6983617    0.3712535  -5.93   0.00364458    2.614    0.617
        28 -10.0968     90.3896    218.7266   1.1686541399e+02   2.0106069925e+01    0.2136368    0.1044161  50.78  0.001010108    1.616    0.381
        29 -12.5809    210.6330    210.0356   9.3840446456e+01   2.1952529893e+00    0.8309453    0.5148919  26.48  0.004985873    1.436    0.304
        30 -11.4845    178.9435    213.9581   1.0000917411e+02   6.9354810177e+00    0.4443429    0.2345138  49.57  0.002388654    1.779    0.438
        31 -11.2112     93.1025    213.8189   1.1590032187e+02   2.0545612198e+01    0.5393533    0.1578243  42.18  0.002404005    2.676    0.626
        32 -10.8081     95.3006    208.7829   1.1498546048e+02   2.1089281287e+01    0.3189488    0.2085346  43.53  0.001435849    1.329    0.248
        33 -10.1376     90.5067    208.9862   1.1591599940e+02   2.1741387183e+01    0.1801394    0.1712502 -45.33  0.000963476    1.499    0.333
        34  -9.8867     51.5125    204.5410   1.2288212012e+02   2.7623508772e+01    0.1932087   0.09833369  34.82  0.001120298    2.089    0.521
        35  99.0000     40.5253    202.8141   1.2480181908e+02   2.9198990779e+01    0.6483549    0.2406228  75.54  0.002863888    3.617    0.724
        36 -12.2529     45.1605    200.1260   1.2375309691e+02   2.9170179761e+01    0.5848647    0.3067704  70.21  0.002847918    1.713    0.416
        37 -11.7954     87.6583    203.1511   1.1588034410e+02   2.3170338503e+01    0.4774396    0.3242344  34.89  0.002387051    1.593    0.372
        38 -11.0960     82.7799    200.8676   1.1659916720e+02   2.4264838278e+01    0.3230411    0.2488478  84.86  0.002230568    1.236    0.191
        39 -13.6501    202.0500    173.9688   8.9143938484e+01   8.4516217475e+00     2.007954    0.6587947  35.06  0.006812173    3.710    0.730
        40 -14.9750    218.6107    185.2308   8.8254046348e+01   3.9338299985e+00     1.760098     1.260899  -6.75   0.01056282    1.474    0.321
        41 -12.8200    199.4623    197.1089   9.3701749130e+01   5.7044610511e+00    0.6695832    0.4112238  46.59  0.003776266    1.519    0.342
        42 -13.5821     91.8662    185.8861   1.1315931584e+02   2.5737699194e+01     1.218918    0.7613609  71.75  0.006304426    1.708    0.415
        43 -12.7775    165.8116    185.7333   9.8117031923e+01   1.3341600590e+01     1.167494    0.7414564  14.65  0.005560266    2.410    0.585
        44 -12.5236    163.1056    177.9484   9.7346990757e+01   1.5097927769e+01    0.7509466    0.4698257  22.86  0.003635675    2.054    0.513
        45 -11.3331     78.5317    212.5285   1.1849435908e+02   2.2783236703e+01    0.4267139    0.3372811 -66.13  0.002551928    1.521    0.342
        46 -10.3254    135.9845    184.4063   1.0386649905e+02   1.8869518478e+01    0.2370241    0.1812942 -84.70  0.001373755    1.626    0.385
        47 -12.3093     73.5554    178.4206   1.1614122028e+02   2.9792019000e+01    0.6230517    0.5413496 -51.11  0.003336048    1.504    0.335
        48  -9.0384     66.4053    184.4937   1.1825927143e+02   2.9548991393e+01    0.1144056   0.09831375  75.01 0.0002836885    1.116    0.104
        49 -10.7231     14.8275    181.8155   1.2837170315e+02   3.5767509524e+01    0.2444024    0.1437934 -86.47  0.001294063    1.409    0.290
        50 -13.7364    111.7105    186.9402   1.0919833195e+02   2.2475709034e+01     1.111988    0.7289709  43.40  0.005738374    1.350    0.259
        51 -13.4633    154.1512    163.0753   9.6550626556e+01   1.9343908232e+01     1.015473    0.9078552  -3.91  0.006063384    1.292    0.226
        52  -9.8530     80.4557    167.7284   1.1339839366e+02   3.0982894598e+01    0.1501531    0.1135077 -60.12 0.0005348979    1.437    0.304
        53 -10.8778    104.5855    203.6067   1.1264763908e+02   2.0610705807e+01    0.4341047    0.1913662  33.82  0.002011425    2.570    0.611
        54 -12.9376     88.1854    158.5712   1.1043389874e+02   3.1738167444e+01    0.8515737    0.6400976  89.88  0.003373726    1.330    0.248
        55 -12.1258     68.2268    163.8956   1.1565725074e+02   3.3460849479e+01    0.4191204    0.2224792 -47.15   0.00205795    2.562    0.610
        56 -10.9336     77.2469    161.3892   1.1331418462e+02   3.2748113523e+01    0.3087972     0.264481 -62.73  0.002006414    1.299    0.230
        57 -11.4616    106.2290    199.8782   1.1190080903e+02   2.1011598339e+01    0.3574244    0.2686035  17.59  0.002131513    1.968    0.492
        58 -13.2115     28.9740    219.5431   1.2782613466e+02   2.7486308738e+01     1.999519    0.6808564  64.72   0.01048051    2.719    0.632
        59 -13.4688     99.3849    146.3749   1.0592390934e+02   3.2543042701e+01    0.9748107    0.6916174 -37.41  0.005084549    1.849    0.459
        60 -10.8851      2.3495    146.9295   1.2889650259e+02   4.3832100089e+01    0.3130185    0.1448258 -89.47  0.001819492    1.763    0.433
        61 -13.5967    223.3094    197.3841   8.9585058531e+01   1.6238343914e+00     1.177055    0.6771666  -4.51  0.006063019    2.331    0.571
        62 -10.9948     70.3383    144.6989   1.1269519430e+02   3.7276007224e+01    0.3064753    0.2424141 -84.91  0.001036404    1.154    0.134
        63 -11.0251     65.8214    142.0146   1.1342652373e+02   3.8470217500e+01     0.496939    0.2553859  51.16  0.002352068    1.914    0.478
        64 -12.6801      7.6533    135.7306   1.2692127632e+02   4.5809936695e+01    0.7082574    0.4369066 -76.83  0.004683462    1.318    0.241
        65 -10.1746     26.5026    198.6580   1.2713022089e+02   3.1454429547e+01     1.230389    0.3940229  56.02  0.006343323    2.537    0.606
        66 -12.3998     88.7316    144.0534   1.0811498571e+02   3.4739890492e+01    0.3827323    0.2595386 -48.64 0.0004420281    1.648    0.393
        67 -10.7280     98.3004    129.4124   1.0316257556e+02   3.6387371335e+01    0.2672487    0.2270484 -29.67 0.0008051325    1.467    0.318
        68 -13.7936     30.2496    188.0598   1.2577189537e+02   3.3064316590e+01    0.9412361    0.7289741 -79.87  0.005770787    1.320    0.242
        69 -15.9440     13.4810    240.4341   1.3122786749e+02   2.5620976179e+01     1.956374    0.6643982  62.90    0.0121042    2.194    0.544
        70 -12.2557      2.8357     74.4900   1.2204119775e+02   5.9661149302e+01    0.3682146    0.1562353 -65.12  0.001991845    1.729    0.421
        71 -12.1154    193.7128     34.6325   5.5444707640e+01   3.1922728805e+01    0.3355849    0.2764513  48.34  0.001101789    1.243    0.195
        72 -14.1155    130.4024    230.4875   1.1082258413e+02   1.2396246827e+01     1.328229    0.8995594  28.15  0.008511064    1.680    0.405
        73 -11.0310    186.8438    237.2799   1.0183558788e+02   2.7657611864e+00    0.3467632     0.229107  13.38  0.002214788    1.814    0.449
        74 -11.9137    103.9072    231.0373   1.1557373758e+02   1.6227675494e+01     0.784373     0.407745  64.73  0.004443417    2.122    0.529
        75 -12.2248    209.5514     20.4868   4.9258334545e+01   2.9471214903e+01    0.4295166    0.2734118  32.31  0.001127644    2.001    0.500
        76 -11.8497     95.0473    225.6474   1.1665442754e+02   1.8326428933e+01    0.5860868     0.293049 -76.97  0.003276121    2.636    0.621
