#   1 NUMBER                 Running object number                                     
#   2 MAG_AUTO               Kron-like elliptical aperture magnitude                    [mag]
#   3 X_IMAGE                Object position along x                                    [pixel]
#   4 Y_IMAGE                Object position along y                                    [pixel]
#   5 X_WORLD                Barycenter position along world x axis                     [deg]
#   6 Y_WORLD                Barycenter position along world y axis                     [deg]
#   7 A_WORLD                Profile RMS along major axis (world units)                 [deg]
#   8 B_WORLD                Profile RMS along minor axis (world units)                 [deg]
#   9 THETA_WORLD            Position angle (CCW/world-x)                               [deg]
#  10 FWHM_WORLD             FWHM assuming a gaussian core                              [deg]
#  11 ELONGATION             A_IMAGE/B_IMAGE                                           
#  12 ELLIPTICITY            1 - B_IMAGE/A_IMAGE                                       
         1 -15.2151    129.1833    104.5124   6.7266140647e+01   3.6368557067e+01     19.84221     10.27937  51.98   0.06081783    2.153    0.536
         2 -13.9033    197.4200     34.4573   3.4664139015e+01   3.2387183239e+01     3.511186     2.170325  25.73   0.01545275    3.131    0.681
         3 -16.2160    229.0522     91.6520   4.3745735807e+01   1.6846186921e+01     7.085881     1.872092 -48.17   0.02165258    4.110    0.757
         4 -15.3094    233.2324     40.7777   3.2077255719e+01   2.3684774610e+01     2.127126     1.417048   9.71  0.009423147    3.822    0.738
         5 -12.1490     67.2740    142.1738   9.4124260497e+01   3.8192322651e+01     3.050428     1.420011 -64.82   0.01033638    2.112    0.526
         6 -15.1554    221.3504     24.4649   2.9751232378e+01   2.8274730009e+01     2.632978     1.505517 -12.80   0.01188153    3.453    0.710
         7 -15.5546    247.5875     64.5175   3.5548184225e+01   1.7429071108e+01     2.033697    0.7066501 -42.39  0.008787588    2.357    0.576
         8 -15.1959    200.2443     58.6695   4.0191480954e+01   2.8389817850e+01     6.075668      1.56887 -32.80    0.0183424    4.527    0.779
         9 -14.7556    234.5015     64.7114   3.7082033782e+01   2.0026193010e+01     1.392663    0.8638571 -39.23  0.003922755    1.495    0.331
        10 -11.6255    134.1754     16.9502   3.9372925947e+01   4.9291844339e+01    0.5934138    0.3065611  39.74  0.002780849    2.094    0.522
        11 -15.4333    245.5421     32.3499   2.9186002126e+01   2.2264681773e+01     1.819438    0.9288418 -49.02   0.01009294    1.640    0.390
        12  -9.6728    115.9581     12.5155   4.1493222298e+01   5.3904672191e+01    0.2933417    0.1999276  55.60  0.001132036    1.253    0.202
        13 -11.4008    120.2857      9.0995   3.9446003458e+01   5.3234245335e+01    0.4760159    0.4249022 -37.36  0.002002171    1.301    0.232
        14 -16.1175    245.8517     73.9753   3.7720352593e+01   1.6341301718e+01     2.963729      1.39883  48.59   0.01106459    2.707    0.631
        15  -9.6176    153.9672     15.3366   3.5584471611e+01   4.4788309902e+01    0.4604936    0.2212242  32.83  0.001830395    3.387    0.705
        16  -9.1422    130.4789      7.4707   3.7022450966e+01   5.1035754319e+01    0.1276703    0.1097059  63.03 0.0001354207    1.024    0.024
        17  -9.9811     93.2253      5.7763   4.4268134008e+01   5.9460302070e+01    0.3114102    0.2015606  23.73  0.001131951    1.594    0.372
        18  -9.7286    243.4047      3.2630   2.3675808064e+01   2.6084783040e+01    0.1725775    0.1301225  62.56 0.0006189645    1.587    0.370
        19 -10.7532    248.5916      1.4399   2.2998970076e+01   2.5255101615e+01    0.4191841    0.1184215  68.80  0.001087902    3.159    0.683
        20  -8.7330    205.2553      3.9254   2.6731046084e+01   3.4054448052e+01    0.1894501     0.130192 -68.19  0.001090572    1.304    0.233
        21  -9.7709    182.3458      3.6645   2.8879033406e+01   3.9259488763e+01    0.2490678     0.202791 -77.85  0.001639877    1.114    0.103
        22  -8.7771    158.7474      3.0900   3.1477279882e+01   4.4804141013e+01    0.2693552    0.1484951  10.05  0.001193276    3.384    0.704
        23 -10.3866    112.9392      2.8555   3.8758362573e+01   5.5415234858e+01    0.5010648     0.131545  60.25  0.001924201    2.916    0.657
        24  -8.5358    171.7894      2.2362   2.9675183650e+01   4.1833324081e+01    0.2085963    0.1003385 -66.04 0.0009306053    2.631    0.620
        25  -8.4706    139.5293      1.5176   3.3701203923e+01   4.9431661139e+01    0.1258389    0.1065409  68.98 0.0003988564    1.019    0.018
        26 -10.2722    204.2431    236.9816   7.7888456330e+01  -4.5244217752e+00    0.2086109     0.175484  16.23 0.0002766301    1.105    0.095
        27 -10.6778    133.7568    144.6348   7.6009636825e+01   2.6316436103e+01     1.258408    0.3436906 -55.30  0.002938951    5.563    0.820
        28  -9.3288    171.2024    236.4498   8.4456499001e+01   5.1326071185e-01    0.2037261    0.1766314 -30.40  0.000284275    1.260    0.206
        29  -9.5653    172.9788    232.0397   8.3397630509e+01   9.8997914898e-01    0.1951964    0.1709533  17.20 0.0003371638    1.020    0.020
        30  -9.0391    173.1260    188.1006   7.5651675705e+01   9.2185371318e+00    0.2716423    0.1831927  61.05 0.0009378219    2.125    0.530
        31  -8.4290    219.6299    231.7028   7.4045520197e+01  -5.9072243371e+00    0.1330362   0.08304682   1.72 0.0007029477    1.734    0.423
        32 -12.1245     56.9194    136.3855   9.6155091390e+01   4.0979433071e+01    0.7126309    0.3733785 -64.42  0.001937903    1.762    0.432
        33 -10.9799    159.2699    142.4674   6.9167989770e+01   2.1647844514e+01    0.5033927    0.3302748 -61.87  0.002110254    1.881    0.468
        34 -11.9176     24.2645    136.5523   1.0582141608e+02   4.4264073295e+01    0.6286672    0.2702653 -52.25  0.002847777    2.059    0.514
        35  -9.6614    233.4916    186.7711   6.3234721756e+01  -7.4067814707e-01      0.23318    0.1736864  31.41 0.0008308911    1.418    0.295
        36 -11.3640    202.4569    127.2100   5.6344862802e+01   1.5845111295e+01     0.738034    0.4228393 -55.57   0.00113793    2.049    0.512
        37  -8.9976    209.9522    128.7984   5.5309638847e+01   1.4023073313e+01     0.313627    0.2020817 -69.60 0.0008516338    2.466    0.594
        38 -11.2191    209.9062    137.0713   5.7185419450e+01   1.2449917693e+01    0.5281316    0.4465136 -10.60  0.002383988    1.273    0.214
        39  -8.7882     27.6530    183.9680   1.1020133200e+02   3.2363555347e+01    0.1730583    0.1344616 -82.23 0.0002707461    1.102    0.093
        40 -10.8609    141.8745    135.8267   7.1885300796e+01   2.6720748175e+01    0.3346282    0.2965952 -14.26 0.0007647792    1.223    0.182
        41  -9.7312    167.1096    134.0045   6.5351825696e+01   2.1854453837e+01    0.2776577    0.2350129  18.88 0.0007239517    1.311    0.237
        42 -10.5154     34.1169    131.6765   1.0222609677e+02   4.4611527449e+01    0.2442151    0.1709937 -79.04  0.000931104    1.360    0.265
        43  -9.6870    180.7285    181.9204   7.2770114792e+01   9.0897683177e+00    0.3419611    0.1257773 -47.75  0.001196794    2.854    0.650
        44 -11.6074    160.1916    128.8023   6.5704643751e+01   2.4443942450e+01    0.5496787    0.4325309 -26.51  0.002615768    1.374    0.272
        45 -11.1918    200.3740    174.8651   6.7202127227e+01   6.9296416218e+00    0.7031148    0.4667325  13.31    0.0032638    1.898    0.473
        46  -9.0637    205.5955    136.7624   5.7930017126e+01   1.3357984746e+01    0.2897952     0.136098 -42.20 0.0006741658    1.968    0.492
        47  -9.4784    180.0227    173.0000   7.1113401471e+01   1.1027593550e+01    0.1808008    0.1690267 -12.24 0.0005603926    1.012    0.012
        48 -11.0599    136.1565    128.3663   7.1562742923e+01   2.9598373811e+01    0.6930956    0.2804061 -51.30  0.002313043    2.605    0.616
        49 -10.3619    194.2411    170.1972   6.7497605868e+01   8.9507577552e+00    0.3515565    0.2952144  69.09  0.001843301    1.589    0.371
        50  -9.0580     94.1172    123.6819   8.2266293088e+01   3.8705469338e+01    0.2574998    0.2047816 -64.22  0.000537164    1.306    0.234
        51 -10.4577    175.0585    115.3809   5.9040202763e+01   2.4035814301e+01     0.492763    0.3362292 -66.86  0.001254677    1.934    0.483
        52 -12.1208     41.0345    140.3346   1.0149482423e+02   4.1766874353e+01    0.4946887    0.4332778  60.09 0.0009769469    1.223    0.182
        53 -10.5549    215.0977    169.2898   6.3145591021e+01   5.3781958879e+00    0.4355043    0.3211848  52.32  0.001147679    1.679    0.404
        54  -8.9199    173.8194    227.3803   8.2474816915e+01   1.6664891256e+00    0.1796514    0.1131788  24.93  0.000200759    1.523    0.343
        55  -8.8835    238.9541    223.4984   6.9054538941e+01  -7.3278500521e+00    0.1756543    0.1085618  27.82 0.0007830085    1.552    0.356
        56  -7.9583    212.6060    100.6884   4.8349367482e+01   1.8687826670e+01    0.1445647    0.1118139  11.55 0.0007006166    1.841    0.457
        57 -10.3137     83.7912     99.0937   7.9350687848e+01   4.6227637716e+01     0.235668    0.2218288  17.90 0.0002319399    1.098    0.090
        58 -13.1666     49.6739    137.5208   9.8509718676e+01   4.1543657201e+01     1.086905     0.834481 -59.73  0.003528709    1.158    0.137
        59  -9.2214    214.2667     95.8007   4.6937429921e+01   1.9202164532e+01    0.2811811    0.1931272  47.04  0.001415831    1.627    0.385
        60 -10.4639    185.7064    168.2212   6.8886075466e+01   1.0935077207e+01    0.3245189    0.2369418 -36.82  0.001408785    1.325    0.245
        61 -10.0971    202.4620    165.8481   6.4904791825e+01   8.2908962921e+00    0.3854505    0.2741442 -88.11   0.00159041    2.917    0.657
        62  -9.8770    151.0815     71.3212   5.2456631572e+01   3.7892022327e+01    0.2964465    0.2186633 -51.77 0.0002354621    1.442    0.306
        63 -10.0476    155.2984     71.6541   5.1635382295e+01   3.6846026948e+01    0.3166739    0.2022224 -49.81  0.001436434    1.668    0.400
        64  -9.8677    158.8079     69.1208   5.0178539651e+01   3.6447318995e+01    0.2849483    0.2454675  20.41 0.0005401269    1.350    0.259
        65 -10.8330    156.3946     78.2027   5.3248523632e+01   3.5446858574e+01    0.4710908    0.2216302 -47.87  0.001510569    2.294    0.564
        66  -9.3214    153.0242     76.4705   5.3500160808e+01   3.6541001897e+01    0.3190795    0.2061722 -49.13 0.0005797843    1.630    0.387
        67 -10.1204    153.6176     82.9309   5.5189842320e+01   3.5236199481e+01    0.2987337    0.2527267 -64.20 0.0005268326    1.281    0.220
        68 -11.2204    133.5500     81.5119   5.9603678483e+01   4.0080046651e+01    0.4778275    0.4133469 -65.77  0.002161366    1.303    0.233
        69  -9.9239    165.0365     78.0529   5.1378481258e+01   3.3451417433e+01    0.3981826    0.2148781 -33.14  0.001341158    1.997    0.499
        70  -9.8635    140.8071     78.4478   5.6900987090e+01   3.9008857006e+01     0.372646    0.2833108  65.28  0.001276666    1.454    0.312
        71 -12.0086    134.9895     73.9702   5.7006006398e+01   4.1143725459e+01    0.8938396    0.5838997 -58.81  0.003269655    1.945    0.486
        72 -10.6091    140.0058     64.1729   5.2856910530e+01   4.1676728041e+01    0.5123935    0.2165148 -36.99  0.001949721    2.436    0.589
        73 -11.3243    135.6290     62.6751   5.3432181425e+01   4.2934016568e+01    0.6428863    0.3540397 -41.42  0.002804604    1.884    0.469
        74 -12.0116    192.1890    154.7021   6.4609753515e+01   1.2433169215e+01     0.898488    0.6224969 -68.93  0.003466261    2.176    0.540
        75 -10.4811    126.5913     71.6630   5.8448616776e+01   4.3441665364e+01    0.4266059    0.2660616 -47.95  0.001295325    1.742    0.426
        76  -9.7364    152.6427     66.2169   5.0645059033e+01   3.8382979091e+01    0.2922342    0.1755842 -39.17 0.0009519221    1.696    0.410
        77 -11.1183    153.7266     58.9040   4.8300456645e+01   3.9296932842e+01    0.7387626    0.3083323 -34.57  0.002648178    2.516    0.603
        78  -9.9975    183.4121    161.4611   6.7941690301e+01   1.2753713748e+01    0.5470506    0.3445254  78.37   0.00173859    4.436    0.775
        79 -10.0305    140.8914    220.5659   8.8495017509e+01   8.2597433210e+00    0.2250932    0.2097732 -42.67 0.0004439251    1.178    0.151
        80 -10.9183    144.0467     59.0335   5.0396944834e+01   4.1560924397e+01    0.4512294    0.3293671 -53.56  0.001374099    1.524    0.344
        81  -8.9610    159.5186    158.9961   7.2809340140e+01   1.7950651493e+01    0.2324096    0.1492144 -47.52 0.0007967082    1.553    0.356
        82 -13.3550     11.1487    149.1661   1.1091015246e+02   4.2177804839e+01    0.9496231    0.7669917 -72.17   0.00368405    1.067    0.062
        83  -8.9077    132.6826     51.5731   5.0680729948e+01   4.5348644667e+01    0.2001069    0.1340699  64.39 0.0005185783    1.584    0.369
        84  -9.8727    144.1847     49.8724   4.7607089672e+01   4.2910634591e+01    0.2180126    0.1895315 -89.83 0.0007563299    1.247    0.198
        85  -8.7835    104.4937     47.5081   5.6624616903e+01   5.2197319826e+01    0.1403911    0.1262182  22.80 -3.233142e-05    1.027    0.026
        86  -9.9539    125.7224     45.4422   5.0361758251e+01   4.7834082926e+01    0.2452908    0.1914264 -31.32 0.0007082693    1.367    0.268
        87 -10.2597    118.0926     43.8690   5.1718551215e+01   4.9775866485e+01    0.2459387    0.1897432  40.37 0.0007333164    1.212    0.175
        88  -8.0997     92.6493    214.7409   9.8540606121e+01   1.7082271658e+01    0.1262198    0.1054698  -4.04 0.0005076758    1.606    0.377
        89  -9.9085    159.2747     39.9948   4.1787661735e+01   4.0678300011e+01     0.186934    0.1792731 -66.46 0.0005672487    1.092    0.084
        90 -11.1099    205.0720    152.9025   6.1612123427e+01   1.0318894224e+01    0.5482999     0.476664  81.57  0.001842763    1.511    0.338
        91  -9.0383     91.9398     39.4862   5.7491199021e+01   5.5928495592e+01    0.1933294    0.1701032  -6.10  0.000331387    1.120    0.107
        92 -11.2128    124.3175     38.6826   4.8480025664e+01   4.9074361886e+01    0.4258232    0.2986768 -88.66   0.00203823    2.094    0.522
        93 -10.0243    171.4170     34.6093   3.8296741269e+01   3.8467344185e+01     0.268461    0.2082152 -82.42  0.001255267    1.321    0.243
        94 -10.8630    125.4615     33.6819   4.6569154067e+01   4.9449481759e+01    0.3974339    0.2541611 -81.43  0.001717548    2.698    0.629
        95 -10.0012    119.7495     33.7502   4.7908456444e+01   5.0741720471e+01    0.1825291    0.1601083 -83.82  0.001064755    1.360    0.265
        96 -10.3016    162.9406     27.1451   3.7551168702e+01   4.1383559933e+01    0.3611534    0.2347461  52.65  0.001689837    1.467    0.318
        97 -10.7900    179.3639     24.0464   3.4372228951e+01   3.7845033979e+01     0.540296    0.3470708  73.14  0.002394304    1.418    0.295
        98  -9.7336    239.2593    212.9667   6.7119761577e+01  -5.7944369958e+00    0.2238332    0.1603602  58.01   0.00117735    2.680    0.627
        99  -9.5106    233.0606    211.8054   6.8032179216e+01  -4.7492555031e+00    0.2276831    0.1615155 -13.73 0.0007020819    1.277    0.217
       100  -8.2554    247.4507    211.4530   6.5396060771e+01  -6.6766836592e+00    0.1252575   0.09846555  -9.33 8.211607e-05    1.014    0.014
       101  -8.9739    227.5273    206.9599   6.8165104429e+01  -3.1803957472e+00    0.2232451    0.1737507  44.29   0.00121405    1.632    0.387
       102 -14.8290    249.4326     44.4480   3.1260564318e+01   1.9907754042e+01     1.080167     0.556146 -29.86  0.005427354    2.306    0.566
       103  -8.7581    163.9872    206.7443   8.1108204958e+01   7.1087115207e+00    0.1883291    0.1678916  19.33 0.0002384017    1.036    0.035
       104 -10.5721    124.0040    205.9985   9.0071869032e+01   1.4040449223e+01    0.1966312    0.1831843  44.81  0.001151893    1.003    0.003
       105 -10.9599    194.4931    197.9932   7.2974375772e+01   3.5882814345e+00    0.4450358     0.349158 -64.95  0.002291483    1.815    0.449
       106 -11.5684    191.5451    192.4019   7.2519721440e+01   5.1333818530e+00    0.8950256    0.5732781 -77.56  0.002966215    4.930    0.797
       107  -9.2035     24.8336    199.6117   1.1218936845e+02   2.9003813290e+01    0.1981652    0.1404442 -71.47 0.0005564318    1.312    0.238
       108 -10.7952    241.0302    197.4937   6.3942303004e+01  -3.6255390077e+00    0.4284086    0.2084702 -38.45  0.002110275    1.870    0.465
       109 -10.7864    244.8315    193.8897   6.2593766284e+01  -3.5956922296e+00    0.3371559    0.2119077  30.86  0.001478193    1.671    0.402
       110  -9.7015    183.8391    242.9160   8.2880861521e+01  -2.4615797121e+00    0.1998733    0.1830663 -86.40 0.0008250455    1.631    0.387
       111  -8.6925    218.4246    154.7570   5.9465783745e+01   7.4929158937e+00    0.2305987    0.1755203  55.11 0.0007775374    1.615    0.381
       112  -9.8024    171.9996    154.0242   6.8838690603e+01   1.6553764159e+01    0.2461486    0.2124865 -38.02 0.0003078569    1.125    0.111
       113 -10.8977    173.9585    151.1182   6.7751503310e+01   1.6780995524e+01    0.4955517    0.4495698 -59.40  0.002627353    1.186    0.157
