#   1 NUMBER                 Running object number                                     
#   2 MAG_AUTO               Kron-like elliptical aperture magnitude                    [mag]
#   3 X_IMAGE                Object position along x                                    [pixel]
#   4 Y_IMAGE                Object position along y                                    [pixel]
#   5 X_WORLD                Barycenter position along world x axis                     [deg]
#   6 Y_WORLD                Barycenter position along world y axis                     [deg]
#   7 A_WORLD                Profile RMS along major axis (world units)                 [deg]
#   8 B_WORLD                Profile RMS along minor axis (world units)                 [deg]
#   9 THETA_WORLD            Position angle (CCW/world-x)                               [deg]
#  10 FWHM_WORLD             FWHM assuming a gaussian core                              [deg]
#  11 ELONGATION             A_IMAGE/B_IMAGE                                           
#  12 ELLIPTICITY            1 - B_IMAGE/A_IMAGE                                       
         1  -8.9638    247.2518     12.3402   3.4853993293e+02   2.4581282059e+01    0.3988318    0.1472234 -58.71  0.002116994    2.231    0.552
         2  -8.0010     99.0318     12.4742   2.7874724940e+00   5.8691607336e+01    0.1870594    0.1810174 -71.28 0.0001118856    1.116    0.104
         3  -7.0985    213.0693      1.2323   3.4770176914e+02   3.2225246483e+01    0.1320497   0.08552881  88.47            0    1.477    0.323
         4  -8.7395    245.0007    243.8232   3.1430989252e+01  -4.8801759046e+00    0.1274169    0.1000973 -25.00  0.001060416    1.621    0.383
         5  -9.3457     10.6940    201.0603   7.7262904322e+01   2.9486366427e+01    0.2396955    0.2195251  11.13 0.0002996821    1.323    0.244
         6 -12.9639      8.0031    209.7054   7.8262264455e+01   2.7777459320e+01      4.18527     1.634505  43.92   0.02043786    1.896    0.473
         7  -8.1615     77.1892    229.1983   6.2630190798e+01   1.6439282547e+01     0.184363    0.1276602  51.29  0.001079293    1.370    0.270
         8  -9.7800     65.4885    227.8674   6.5294745133e+01   1.8083216326e+01    0.2432635    0.2260228 -31.85 0.0007494142    1.330    0.248
         9  -9.1075     72.1544    227.1265   6.3641743678e+01   1.7445828306e+01    0.3629966    0.1680822  23.46  0.001169528    2.026    0.506
        10 -12.0218      5.6378    249.2093   7.9947309651e+01   1.9972898021e+01      1.74071     1.057392  -2.27  0.007773599    2.611    0.617
        11  -7.8797     40.1762    240.8403   7.2061841563e+01   1.8314717700e+01    0.1998845    0.1247701  49.59 0.0007328856    1.303    0.232
        12  -7.7441    158.1767    220.6563   4.3404101356e+01   7.5937577118e+00    0.1697285    0.1584766 -22.84 0.0004982099    1.299    0.230
        13  -9.7092     73.6629    219.4925   6.2587266199e+01   1.8793125890e+01    0.5346746    0.1982924  28.13  0.002240731    2.295    0.564
        14 -12.2381     11.7273    241.9058   7.8443331266e+01   2.0822980518e+01     1.293531    0.4500208 -84.19   0.00622709    3.162    0.684
        15  -8.5072     67.3194    216.4709   6.3874066076e+01   2.0184699865e+01    0.2763811     0.192676 -11.69  0.001449114    2.014    0.503
        16 -11.7407      3.2663    236.4831   8.0148009196e+01   2.2602331440e+01     2.030772     0.747834   8.72  0.006961602    5.907    0.831
        17  -7.9636     55.5757    215.0203   6.6680569580e+01   2.1870106946e+01    0.1670374    0.1257749 -80.78 0.0009855328    1.486    0.327
        18  -7.4951    239.3350    214.2842   2.7936284305e+01  -9.3847942580e-01    0.1104571   0.06382609  -5.28 0.0002903311    1.622    0.383
        19  -7.4676     63.5242    206.0099   6.3875155772e+01   2.2881124625e+01    0.1823902   0.09856073  68.33 0.0004549778    2.320    0.569
        20  -9.0706     21.1768    195.8139   7.4278366854e+01   2.9770792160e+01    0.3170114      0.20503  57.40  0.000983936    1.332    0.249
        21  -8.8618     40.6123    194.7021   6.8978700643e+01   2.8086871616e+01    0.2309713    0.2006296  45.88  0.001086543    1.049    0.046
        22  -9.6585     34.0233    191.2504   7.0519073419e+01   2.9594636827e+01    0.4097506    0.2903819  -3.57  0.001084148    1.873    0.466
        23  -7.3169    250.7885    190.0300   2.2389777725e+01   9.0761430885e-01     0.141047   0.06844623 -33.16 0.0004548138    1.649    0.394
        24  -7.1470    223.2206    188.0023   2.6174726396e+01   4.3138149688e+00    0.1454263   0.07970792 -33.82            0    1.571    0.363
        25  -7.9629     48.9792    235.2908   6.9719179507e+01   1.8465359756e+01    0.1728648    0.1344277  33.78 0.0004724613    1.101    0.091
        26  -9.5176     45.7311    180.3717   6.6325222096e+01   3.0959901733e+01    0.5321158    0.4715375  41.68  0.003149727    1.074    0.069
        27  -7.6316      9.6830    181.3126   7.6679651823e+01   3.4226932817e+01    0.1458723   0.07617921  54.57 0.0002890961    1.643    0.391
        28  -8.9827     25.4210    179.6091   7.2119929011e+01   3.3268039305e+01    0.2302713    0.2187787 -81.42  0.001199613    1.182    0.154
        29  -8.9894     87.2283    186.3876   5.5373621078e+01   2.4162240880e+01    0.3138846    0.2624027 -23.96 0.0009912347    1.404    0.288
        30  -7.9805     61.6068    167.8781   6.0270857116e+01   3.2133088038e+01    0.3289501    0.2183953 -24.54  0.001459304    2.147    0.534
        31  -8.3919     67.7954    164.5173   5.7961724263e+01   3.2148003747e+01    0.4379911    0.2627158  81.33  0.001831507    2.194    0.544
        32  -7.5977     76.6750    155.8847   5.3980550297e+01   3.3054550790e+01    0.2047621    0.1913784 -88.40  0.001117091    1.088    0.081
        33  -9.7822     11.6480    153.6765   7.4583810094e+01   4.1082854254e+01    0.4083933    0.2967511  50.11  0.001368029    1.248    0.199
        34  -9.2917     63.7841    150.7797   5.7246344923e+01   3.6229285214e+01    0.4064368     0.273623 -38.96  0.001062307    1.781    0.439
        35  -8.8011     69.2698    144.8315   5.4532768293e+01   3.6998841096e+01    0.6078744    0.2845993  51.90  0.002208008    2.443    0.591
        36  -8.1598    150.2102    141.9754   3.1259461690e+01   2.3479840728e+01    0.2262382     0.199908  36.11 0.0003521586    1.149    0.130
        37  -7.5517     53.6582    142.0593   5.9303926005e+01   3.9898822330e+01    0.1941859    0.1876345  82.33   0.00107664    1.050    0.048
        38  -7.3359    163.5041    141.4818   2.8232721610e+01   2.1136358743e+01    0.1420409    0.1308122 -15.36 2.117157e-05    1.040    0.039
        39 -10.2085      1.6123    137.9367   7.6975244580e+01   4.5937943675e+01    0.2782595    0.1795066 -79.10  0.001437312    1.417    0.294
        40  -8.2104     86.1535    135.5610   4.7386946325e+01   3.6719621855e+01    0.2829239    0.2376466  82.76 0.0009869259    1.304    0.233
        41  -8.6441     11.4815    143.9353   7.3985404986e+01   4.3678273585e+01     0.237836     0.190652 -14.39  0.000572529    1.524    0.344
        42  -7.6514     84.6929    128.0893   4.6327872147e+01   3.8876542088e+01    0.2094373    0.1949478 -59.06 0.0003064681    1.092    0.084
        43  -6.5774     96.3067    124.3225   4.1780145357e+01   3.7741246680e+01    0.1583769     0.124168 -16.62 0.0007033659    1.642    0.391
        44  -8.2342     79.0627    123.0490   4.7136862509e+01   4.1138837646e+01    0.2289454    0.2153898  64.15            0    1.042    0.040
        45  -6.7597    143.7211    120.2933   2.7826233222e+01   2.9244474599e+01    0.1448778    0.1181066 -84.17 0.0002140585    1.529    0.346
        46  -6.9353    122.3234    114.7484   3.1860717172e+01   3.4862575802e+01    0.1522726    0.1204915  76.82 0.0004186475    1.540    0.351
        47  -7.6146     49.7796    113.7736   5.5989771468e+01   4.8076972784e+01    0.2313006    0.1861519 -11.58 0.0004556529    1.498    0.332
        48  -7.3127     55.3093    110.3066   5.3127972890e+01   4.8253343255e+01    0.1566744    0.1165508 -28.95 0.0002976684    1.614    0.380
        49  -8.8260     55.1467    103.1312   5.1641388392e+01   5.0198848745e+01    0.3013332    0.2667655  -7.28 0.0006742761    1.275    0.216
        50  -8.0402    107.9356     94.0458   3.0390259846e+01   4.2585588470e+01    0.2224675    0.2185397  84.56            0    1.019    0.019
        51  -7.6051    229.7502     89.8922   6.1733765859e+00   1.7933520096e+01    0.1729444    0.1439187 -24.57  0.000624189    1.237    0.191
        52  -7.7364     57.9431     86.5118   4.6324327742e+01   5.4105950403e+01    0.2280722    0.1975013 -61.22 0.0003746095    1.149    0.129
        53  -8.2649    148.9152     83.0914   1.6928358653e+01   3.5510604647e+01    0.2165508    0.1992014 -66.63 0.0002832749    1.037    0.035
        54  -7.0570     59.2535     75.6389   4.2547379036e+01   5.6587476746e+01     0.151703    0.1185102  84.07 0.0002527339    1.618    0.382
        55  -8.3936    191.7413     59.9576   3.7405759896e+00   2.9670900506e+01    0.2014013    0.1783601 -83.89 0.0004068581    1.137    0.120
        56  -9.5521    218.1399     39.5948   3.5616413037e+02   2.6940642598e+01    0.3640257    0.2440248 -37.31  0.001624766    1.314    0.239
        57  -8.8752    223.2181     38.0747   3.5542103239e+02   2.6132751956e+01    0.4084707    0.1354239 -41.74  0.001884211    2.189    0.543
        58  -8.1187     77.8764     38.6707   2.0559506277e+01   6.0456897364e+01      0.22012    0.1971465 -16.89 0.0002315217    1.227    0.185
        59  -7.1608     61.4978     39.5067   2.7562143941e+01   6.3902038977e+01    0.1433039    0.1356577  30.64 -0.0001435455    1.000    0.000
        60  -7.9460    108.3468     31.1872   8.5511116819e+00   5.4072861529e+01    0.3174348    0.1888237 -56.22  0.001190576    1.926    0.481
        61  -7.9021    100.0974     28.8474   9.5636643029e+00   5.6491249473e+01    0.2060202    0.1800136 -77.63 0.0002513959    1.171    0.146
        62  -8.8178     84.0365     27.5950   1.3462263035e+01   6.0670957994e+01    0.2436903    0.2107237 -35.44 0.0001206141    1.247    0.198
        63  -6.9361     38.3565     21.2511   3.0100452423e+01   7.1522410480e+01    0.1367933   0.09689598  14.14 0.0006952431    1.604    0.376
        64  -8.7248    249.6038     18.3946   3.4964378524e+02   2.3528002479e+01    0.2707024    0.1038273 -52.49  0.001489413    1.929    0.482
        65  -8.1443    215.6640     17.9729   3.5138670728e+02   2.9966209675e+01     0.171533    0.1503295 -86.64 0.0005511359    1.256    0.204
        66  -6.9208    146.5196     14.5166   3.5624659118e+02   4.6223307846e+01    0.1370061    0.1176092 -79.71 0.0001634586    1.003    0.003
        67  -9.7359     29.3156    245.5900   7.4718397025e+01   1.8493850056e+01    0.2838283    0.1568648  48.86  0.001600768    1.405    0.288
        68  -8.4002     48.6776    243.4453   7.0289773616e+01   1.6937283575e+01    0.1861846    0.1399882 -42.39  0.001192775    1.803    0.445
