#   1 NUMBER                 Running object number                                     
#   2 MAG_AUTO               Kron-like elliptical aperture magnitude                    [mag]
#   3 X_IMAGE                Object position along x                                    [pixel]
#   4 Y_IMAGE                Object position along y                                    [pixel]
#   5 X_WORLD                Barycenter position along world x axis                     [deg]
#   6 Y_WORLD                Barycenter position along world y axis                     [deg]
#   7 A_WORLD                Profile RMS along major axis (world units)                 [deg]
#   8 B_WORLD                Profile RMS along minor axis (world units)                 [deg]
#   9 THETA_WORLD            Position angle (CCW/world-x)                               [deg]
#  10 FWHM_WORLD             FWHM assuming a gaussian core                              [deg]
#  11 ELONGATION             A_IMAGE/B_IMAGE                                           
#  12 ELLIPTICITY            1 - B_IMAGE/A_IMAGE                                       
         1 -11.1369     37.4441     18.2611   5.4303627756e+01   7.0878752469e+01    0.3991719    0.1853173 -43.40  0.001447133    2.151    0.535
         2 -11.9112     35.4473     12.0102   5.1776517909e+01   7.2163364463e+01    0.3997176    0.2964798  56.49  0.002096287    1.917    0.478
         3 -10.9421     42.2912      9.8553   4.6755290794e+01   7.1355312384e+01    0.4500283    0.2329007  47.19  0.001232891    2.029    0.507
         4 -11.2019    212.3717     23.1498   1.5561052471e+01   2.8864548999e+01    0.3767029    0.1699916 -58.30  0.001105664    2.249    0.555
         5 -10.8525     25.9304     13.1708   5.8201967401e+01   7.3342085042e+01    0.2482588    0.2127001 -35.81  0.001022678    1.232    0.188
         6 -11.5402    125.3202     17.0037   2.4473495599e+01   5.1692892895e+01    0.2453389    0.2237579  80.62 0.0002310317    1.046    0.044
         7 -10.4092     90.6386     11.1163   2.9482385749e+01   6.1049331233e+01     0.486481    0.2417913  25.41  0.001570156    2.971    0.663
         8 -10.6531    203.3795     11.8694   1.3358072501e+01   3.2217723371e+01    0.2180504    0.1945875  74.27  0.000141167    1.221    0.181
         9 -11.6884    125.6473     10.1195   2.1726571808e+01   5.2308864654e+01    0.5380648    0.2312345 -39.10  0.002207161    2.361    0.576
        10 -12.6608     55.0498      9.9395   4.0814359051e+01   6.9000633632e+01    0.4530929    0.2554621  29.65  0.001351115    1.934    0.483
        11  -9.9913     54.9262      4.5531   3.7635355633e+01   6.9658121553e+01    0.2098925    0.1618913  19.61  0.001251038    1.228    0.186
        12 -10.3675     11.5947     11.7821   6.7270734933e+01   7.5209634979e+01    0.2354003    0.2058564  83.98  0.001104209    1.791    0.442
        13 -10.3756      8.0896      8.8079   6.8254937938e+01   7.6068141411e+01    0.1902912    0.1550142 -64.46 0.0004463208    1.601    0.375
        14  -9.5269      3.4800      9.5342   7.2296961477e+01   7.6314071611e+01    0.1193772   0.09332139 -29.57 -1.803115e-06    1.035    0.034
        15 -10.7144      2.6527      6.2364   7.1166503913e+01   7.6983760091e+01    0.2671592    0.1755317  30.55 0.0009736204    1.779    0.438
        16 -10.1014    164.8881     11.0602   1.6725853303e+01   4.1930642631e+01    0.2201821    0.1609149 -64.10 0.0005142885    1.317    0.241
        17 -10.4521    133.2582     10.7070   2.0734399769e+01   5.0259092022e+01    0.2440986    0.1617208  74.98 0.0008513475    1.419    0.296
        18  -9.8563     96.8480     10.3103   2.7552392161e+01   5.9623149666e+01    0.2379511    0.1818538 -42.37  0.001291719    1.431    0.301
        19  -9.9103     85.8562     10.5931   3.0513558326e+01   6.2241813326e+01    0.2761047    0.1359025  44.88 0.0008410197    1.915    0.478
        20 -10.2478     79.0075     10.9878   3.2706532438e+01   6.3787907903e+01      0.20605    0.1760006  36.97 0.0004890024    1.078    0.072
        21 -10.4725    116.4193      8.0048   2.2475016101e+01   5.4903830978e+01    0.2369809    0.1851662 -82.46 0.0006212021    1.363    0.266
        22 -11.8340     29.2377      6.5954   5.2026651158e+01   7.3903018518e+01    0.4138783    0.2794108 -47.59  0.002381482    1.832    0.454
        23  -9.6579     22.6289      8.7468   5.7660518477e+01   7.4488722500e+01    0.1243086   0.08273602  -2.15  0.000696183    1.638    0.390
        24 -10.1754    247.1035      5.9706   9.1424627196e+00   2.3141011012e+01    0.1784574    0.1334853 -56.91  0.000332107    1.044    0.043
        25 -10.8338    222.4480      6.4846   1.0654509676e+01   2.8359629072e+01    0.1865953    0.1533165 -62.20 6.375504e-05    1.016    0.015
        26  -9.8515    223.9927      3.7630   9.9049746108e+00   2.8288162489e+01    0.1574424    0.1253755 -54.45 0.0002524232    1.053    0.050
        27  -9.4834    168.3380      6.2860   1.4866914959e+01   4.1501899186e+01    0.1377861   0.09607057  46.09 0.0003664015    1.632    0.387
        28 -10.1542    151.6908      6.0346   1.6587653255e+01   4.5854293154e+01    0.2161333    0.1705186 -70.77 0.0003967162    1.220    0.180
        29 -11.1542    148.5017      2.3701   1.5710582087e+01   4.7015126616e+01    0.2540103    0.2183724 -77.09 0.0003959924    1.086    0.079
        30 -10.7420    108.4001      5.7560   2.3019646002e+01   5.7162993897e+01    0.5993894    0.1907634  70.35  0.001487487    3.170    0.685
        31 -11.4212    104.5002      4.1926   2.3096129749e+01   5.8288612936e+01    0.2391232    0.2079275  71.09 0.0003355711    1.092    0.085
        32 -11.3012    193.9652      4.7463   1.2175352430e+01   3.5207310916e+01     0.226022    0.2059566 -71.53 0.0002767264    1.094    0.086
        33  -9.9397     70.6490      5.0526   3.2169052595e+01   6.6288412064e+01    0.2433847    0.1512762  33.80 0.0005699542    1.595    0.373
        34 -12.4563     20.1376      2.3954   5.5163241057e+01   7.5789132356e+01    0.3074642    0.2292557   8.55  0.001174585    1.255    0.203
        35  -9.5627     67.0000      3.9193   3.2742276205e+01   6.7202636257e+01     0.212327   0.07286517 -23.80 0.0003145684    3.029    0.670
        36 -10.2674     48.5340      3.8250   3.9943650929e+01   7.0985859966e+01    0.2607467    0.1946168  11.98  0.001552677    1.309    0.236
        37  -9.9784     44.0476      4.2324   4.2316410127e+01   7.1770937318e+01    0.2176918    0.1441908  40.87 0.0004891642    1.430    0.301
        38  -9.9677     34.3406      3.1438   4.6700765155e+01   7.3583259895e+01    0.2654706    0.1398787 -19.30 0.0007958575    2.103    0.524
        39 -10.9219    138.0735      2.0671   1.6866620916e+01   4.9775657570e+01    0.2155642    0.1977532  87.87 0.0003409206    1.024    0.023
        40 -10.5075     13.4504      2.9127   6.0423791165e+01   7.6527179437e+01    0.2025375    0.1761912  46.98 0.0009245453    1.657    0.396
        41  -9.9523    245.1090      1.4220   8.2423563328e+00   2.4006912050e+01    0.1560028    0.1047707  88.30 0.0004898956    1.477    0.323
        42  -9.3021    204.6581      1.3329   1.0504087610e+01   3.2963864575e+01    0.1460586   0.07522009 -58.85 0.0007051047    1.754    0.430
        43  -9.5627     84.8890      1.2906   2.6089890128e+01   6.3356564104e+01    0.1893265    0.1003969  54.69 0.0003480289    1.639    0.390
        44  -8.9749     71.3253      1.3026   2.9864900485e+01   6.6496661350e+01    0.1406747   0.08645444  31.60 0.0004668765    1.639    0.390
        45 -10.6689     30.0072      1.3331   4.7981022987e+01   7.4512604494e+01    0.2129991    0.1059204  41.80  0.000409129    2.008    0.502
        46 -10.0063    208.5676    123.3064   4.1209644958e+01   1.5020227804e+01    0.2118015    0.1715198  64.61 0.0005522957    1.508    0.337
        47  -9.3713    109.6824    250.7167   8.2340803818e+01   1.0131337734e+01    0.1066658   0.08052976  14.72 0.0002983873    1.584    0.369
        48 -12.0136     17.8524    248.4604   9.9628145494e+01   2.1529725679e+01    0.3626263    0.2161641  15.59  0.002174349    2.737    0.635
        49 -12.0739      2.0931    233.3194   1.0204041820e+02   2.5730762102e+01    0.3954599     0.273696  87.56  0.001865567    1.378    0.274
        50 -11.3794      2.4836    248.1178   1.0237957844e+02   2.3069374744e+01    0.4170955     0.251958  43.15  0.002199745    1.310    0.237
        51 -12.6674      9.8456    245.1465   1.0097172451e+02   2.2890599592e+01    0.6046103    0.2451072 -82.32  0.003310677    2.480    0.597
        52 -11.6759      4.6545    243.2523   1.0185619737e+02   2.3713971803e+01    0.4568616    0.1626182  59.04  0.002209525    2.018    0.505
        53 -11.9248      6.7419    239.9993   1.0137824442e+02   2.4094113550e+01    0.3013641    0.2073489 -83.36  0.001941121    1.546    0.353
        54 -11.3420     11.2377    120.9282   9.3714922531e+01   4.9813559009e+01    0.3473233    0.2764147 -16.35 0.0008115626    1.652    0.395
        55  -9.7541     27.4739    121.4898   8.8499087938e+01   4.8314981253e+01    0.1352087    0.1165222 -87.85 0.0008100268    1.001    0.001
        56 -11.1806     69.3133    115.3576   7.3643061333e+01   4.4703075312e+01    0.2877046    0.2484768  51.27 0.0001474272    1.170    0.145
        57 -10.2956     37.2697    116.1360   8.4486680014e+01   4.8689373718e+01    0.3633789     0.110356  37.68  0.001339044    3.063    0.674
        58 -12.9255     23.4080    113.2957   8.8801296614e+01   5.0763130143e+01     0.302512     0.275575 -61.26 0.0004383791    1.159    0.137
        59 -10.4849     40.4760    112.3426   8.2783629063e+01   4.9304138296e+01    0.2421509    0.1665565 -53.16 0.0006481832    1.424    0.298
        60  -9.3626      6.3074    112.6884   9.4539867658e+01   5.2214012194e+01    0.1314538    0.1089592 -85.04 0.0004201251    1.012    0.012
        61 -10.8494      2.8161    111.8202   9.5630564088e+01   5.2647919040e+01    0.2199988    0.1850469  82.81 0.0002974576    1.069    0.064
        62 -11.0942     13.8952    107.4084   9.1362368936e+01   5.3018271840e+01     0.374557    0.1651731 -56.25  0.001498917    2.041    0.510
        63 -10.6618     17.9233    105.3369   8.9672815080e+01   5.3236278253e+01    0.2230992     0.157706 -87.84 0.0003758473    1.284    0.221
        64 -10.5069      6.3180    106.9768   9.3966449041e+01   5.3642218780e+01    0.1845768    0.1406452 -82.83 0.0004088258    1.096    0.087
        65 -10.9327    247.7555    101.8807   3.0669504218e+01   1.0899911882e+01    0.2262884    0.1818854 -29.00 0.0009376992    1.058    0.055
        66 -10.1668    112.5315    102.4248   5.7120912965e+01   3.9853224972e+01    0.1531888    0.1496006  85.11 4.295293e-05    1.010    0.010
        67  -9.5656     45.3258    101.6553   7.9118136647e+01   5.1457548987e+01    0.1499167    0.1012404  70.88 -1.757071e-05    1.742    0.426
        68 -11.5642     18.6803     98.5807   8.8459303921e+01   5.4885870078e+01    0.6302902     0.348447  85.94  0.002813933    1.954    0.488
        69 -10.9750     20.9930     92.4690   8.6632893847e+01   5.6243121743e+01    0.2938902    0.2230483 -31.65 0.0009974644    1.505    0.335
        70 -10.1407     24.2921     90.0684   8.4927209256e+01   5.6569486698e+01    0.2038957    0.1806961 -27.07 0.0003776721    1.272    0.214
        71  -9.6335    217.7753     98.4031   3.3909409615e+01   1.7175383081e+01    0.1774327    0.1279822  41.05 0.0005071679    1.574    0.365
        72 -11.7826     58.0069     92.4598   7.2413354849e+01   5.2088481359e+01    0.4792747    0.3432803 -58.98  0.001150263    1.298    0.230
        73 -10.5503      8.5852     92.0971   9.1398978162e+01   5.7227888907e+01    0.4255805     0.195937  64.09  0.001823119    2.727    0.633
        74 -12.3770    159.5946     89.6521   4.1858952706e+01   3.1736851037e+01    0.4638417    0.3800514  19.42  0.002263471    1.489    0.328
        75 -11.1558    125.3427     93.0054   5.0942770722e+01   3.9098110674e+01    0.2708878    0.2241666  49.18 0.0002104083    1.215    0.177
        76 -10.8486    113.9397     91.9155   5.3761092692e+01   4.1873933830e+01    0.2685172    0.2375201  22.67  0.001351229    1.268    0.211
        77 -11.1476    105.2403     91.6386   5.6223373789e+01   4.3804046236e+01    0.3834455    0.2659397  56.44 0.0009331466    1.553    0.356
        78  -9.9747     66.7667     91.7728   6.9031698870e+01   5.0935800623e+01    0.2087405    0.1870686 -41.68 0.0003769799    1.137    0.120
        79  -9.6130      1.4030     90.0676   9.3927416031e+01   5.8141651568e+01    0.2621449   0.08103069 -66.61  0.001085455    2.401    0.584
        80 -13.7438     65.4961     81.9434   6.6819689566e+01   5.3496842000e+01    0.4794194    0.4600248 -86.03 0.0008464076    1.068    0.064
        81 -10.8613      9.6930     80.0099   8.9203131290e+01   6.0167575548e+01    0.2893123    0.1972417  39.53  0.001657284    1.645    0.392
        82 -11.0343     47.9359     79.3216   7.2985766892e+01   5.6680614310e+01    0.3039746    0.2265793 -62.21 0.0008679576    1.256    0.204
        83 -10.1891     85.2967     79.3243   5.8895488002e+01   5.0593036199e+01    0.3199476    0.2014273  12.38  0.001175423    2.912    0.657
        84 -10.5529    177.9190     76.7746   3.4698378987e+01   2.9618499279e+01    0.4536297    0.2074475  54.93  0.001768479    2.224    0.550
        85 -10.6520      6.3511     83.6623   9.1139741400e+01   5.9462483734e+01    0.4545897    0.1739616  30.25  0.002047069    2.759    0.638
        86 -10.2166     53.4792     75.7810   6.9754389226e+01   5.6774087143e+01    0.2598435    0.2070711  37.13  0.001399432    1.341    0.254
        87  -9.9634     43.4312     76.2793   7.4042257409e+01   5.7986403085e+01    0.1908638    0.1285609 -70.22 0.0006653075    1.518    0.341
        88  -9.5008     22.2008     76.3944   8.3172488406e+01   6.0150855997e+01    0.1796543    0.1143535  39.88 0.0007954974    1.749    0.428
        89 -10.7382     12.1898     76.2762   8.7507596072e+01   6.0928935746e+01    0.2656213    0.1415175 -13.07  0.001228494    2.632    0.620
        90  -9.6642      5.4359     74.5011   9.0160160123e+01   6.1771859294e+01    0.1281186    0.1063099 -69.40 6.347792e-05    1.009    0.009
        91  -9.5509    105.9443     71.9933   4.9870921161e+01   4.7840738863e+01    0.1904018    0.1574926  49.29 0.0005397265    1.216    0.178
        92 -10.6215     76.2203     70.0177   5.9105628011e+01   5.4367723960e+01    0.3334011    0.2871457  34.45   0.00178061    1.209    0.173
        93 -12.6174     81.0586     66.9394   5.6300037601e+01   5.4113374729e+01    0.3407978    0.2885244 -41.38 0.0004488996    1.153    0.133
        94  -9.3490    118.6320     70.7687   4.5846742655e+01   4.5165143829e+01    0.1543552    0.1176082  26.13 0.0003585876    1.595    0.373
        95  -9.2677     99.2308     70.3099   5.1360949507e+01   4.9663427174e+01    0.1448246    0.1181585 -11.39 0.0002286477    1.487    0.327
        96 -10.6550     90.3667     69.3850   5.3919957599e+01   5.1732680465e+01    0.3148777    0.2297261  86.42 0.0007737847    2.034    0.508
        97 -10.0668     39.2450     70.2131   7.4199474209e+01   5.9942825851e+01    0.2089906    0.1604293  73.15 0.0005394143    1.621    0.383
        98  -9.9212     36.3881     67.1469   7.4618205515e+01   6.0998482903e+01    0.2048612     0.190982  12.72   0.00125929    1.175    0.149
        99  -9.1603      1.2884     70.3474   9.1354809567e+01   6.2995551023e+01    0.1355573   0.07345349 -48.56 0.0006556336    1.658    0.397
       100 -10.4589    131.4978     68.8792   4.1914223678e+01   4.2425924251e+01    0.2707194    0.2275632  21.52   0.00026948    1.405    0.288
       101 -11.9157    211.9633     67.3751   2.7022638482e+01   2.3151194191e+01    0.2482138    0.2173886 -49.60 0.0003137764    1.022    0.022
       102 -10.1532     44.0850     67.2043   7.1209436615e+01   6.0058660378e+01    0.2698217    0.1852478  84.38  0.001254317    2.153    0.536
       103  -9.8969     74.8274     76.7602   6.1798092521e+01   5.3117641559e+01    0.1928383    0.1684635  80.96 0.0002316067    1.305    0.233
       104 -11.8468     17.2019     64.6921   8.2895500646e+01   6.3392287694e+01    0.3321784    0.3208454   7.37  0.000233016    1.183    0.155
       105 -13.5966     21.0113     58.4119   7.9493852074e+01   6.4575315111e+01    0.4369631    0.3074322 -54.79 0.0008281278    1.215    0.177
       106 -11.2265      7.8738     62.8889   8.6974773228e+01   6.4449954743e+01    0.2854095    0.2146309 -49.11 0.0003007855    1.184    0.156
       107 -11.8227     11.7084     59.6945   8.4422325038e+01   6.4973435370e+01    0.2348081    0.2243387 -44.00 0.0002879579    1.129    0.114
       108  -9.9340     68.4117     65.0720   6.0384689778e+01   5.6850114770e+01    0.2868878    0.1750265 -61.72  0.001245518    1.940    0.484
       109  -9.3790    166.4685     64.5448   3.3190906929e+01   3.4448415761e+01    0.1504267    0.1415606 -68.12  0.000121119    1.016    0.016
       110 -10.8574    128.3467     63.5865   4.0929707109e+01   4.4160435301e+01    0.2462696    0.2388792 -65.08 0.0001943273    1.022    0.022
       111 -10.8789     51.9572     63.7779   6.6708370254e+01   5.9771126813e+01    0.2425104     0.189603 -58.15 0.0002613754    1.252    0.201
       112 -10.0979     49.5351     59.5600   6.6356945434e+01   6.1063578989e+01    0.2353438    0.1778882  84.63 0.0008361425    1.892    0.471
       113  -9.6428    119.9316     62.6177   4.2738183332e+01   4.6387728309e+01    0.2005539    0.1878314  55.24  0.001057815    1.062    0.058
       114 -10.7185     98.0452     60.8181   4.8399542460e+01   5.1810975774e+01    0.2367048    0.2333246  85.84 0.0004208779    1.037    0.035
       115 -10.1811     38.1180     60.0495   7.1721096325e+01   6.2449313078e+01    0.2514614    0.1913209  -2.92  0.001371905    1.541    0.351
       116 -11.2703     58.4191     58.9606   6.2297383023e+01   5.9848521154e+01    0.2493633    0.2033001  32.05 0.0005205318    1.289    0.224
       117  -9.8240    107.0977     56.7260   4.4174626953e+01   5.0512515764e+01    0.4036934    0.1727966 -29.61  0.001061313    3.019    0.669
       118  -9.4102    130.7523     57.0166   3.8114022185e+01   4.4707630452e+01    0.1877972    0.1294213 -36.73 0.0004673853    1.461    0.316
       119 -10.0822     70.5593     55.7358   5.6161564769e+01   5.8429104627e+01     0.287572    0.2226581 -89.82 0.0009205564    1.881    0.468
       120  -9.8192    229.1786     56.3647   2.2264038660e+01   2.0936680638e+01    0.1754472    0.1515562 -66.09 0.0005765296    1.120    0.107
       121 -12.8915    115.2041     53.2684   4.0661422949e+01   4.9188284102e+01    0.3366727    0.3143454  35.02 0.0006043527    1.101    0.091
       122 -10.3475     86.3948     54.2477   4.9771289919e+01   5.5587538079e+01     0.434724     0.214628  30.01  0.001494828    3.148    0.682
       123 -11.2807     65.2995     52.6686   5.7084619157e+01   6.0002093126e+01     0.379454    0.2173908  41.22  0.001353954    1.807    0.446
       124 -12.3675     62.0343     49.7737   5.7298709484e+01   6.1156401280e+01    0.4333969    0.2340006 -47.08 0.0003861468    1.805    0.446
       125  -9.2878     54.3909     55.5744   6.2805909965e+01   6.1210404873e+01    0.1375142    0.1269654 -36.73 0.0001990758    1.018    0.018
       126  -9.7053    100.2950     54.6509   4.5420635533e+01   5.2460576892e+01    0.1533567    0.1177969 -73.56 0.0002442902    1.677    0.404
       127  -9.2703     34.0264     55.0000   7.2063036487e+01   6.4072057616e+01    0.2025369   0.07669067  27.61 0.0007963005    2.900    0.655
       128  -9.8486      1.4073     53.9687   8.8413633839e+01   6.6904079681e+01     0.182846    0.1013598 -68.39 -0.000275831    1.497    0.332
       129 -11.0526      5.3272     50.3282   8.5552917635e+01   6.7554406541e+01    0.3994609    0.1673971 -39.78  0.001531021    2.284    0.562
       130  -9.3479    148.7576     52.0493   3.2587372640e+01   4.0933552899e+01    0.1929522    0.1253603 -35.67  0.000471489    1.533    0.348
       131 -11.2103     13.9128     49.6604   8.0771452935e+01   6.7161041475e+01    0.3769139    0.1429601 -60.63 0.0009013648    2.137    0.532
       132 -11.0051    137.4536     50.4277   3.4344864748e+01   4.4085922364e+01    0.3981262    0.2386932  49.78  0.001048737    1.671    0.402
       133  -9.8022     97.9724     51.2640   4.4840792411e+01   5.3598637559e+01    0.1994951    0.1906311  40.51  0.001100329    1.037    0.036
       134 -10.6501     83.6730     50.3009   4.9170530771e+01   5.6899510182e+01    0.2302769    0.2141715 -71.53 0.0003835247    1.197    0.165
       135 -10.5063     78.2034     50.0135   5.1020486363e+01   5.8075575612e+01     0.233248     0.204293  42.72 0.0003641102    1.160    0.138
       136 -10.2085    159.0985     48.8332   2.9645130104e+01   3.8760967315e+01    0.2173029    0.1834863 -70.66 0.0002666768    1.192    0.161
       137  -9.9218     65.5338     46.6337   5.4568676879e+01   6.1149364815e+01     0.274743    0.2047766  81.80   0.00128819    2.172    0.540
       138 -10.0261     53.8620     46.8711   5.9691991332e+01   6.3100930764e+01    0.2232626    0.1735626 -20.51 0.0007851592    1.359    0.264
       139 -10.1406    225.6307     52.5027   2.1692409731e+01   2.2217342736e+01     0.237789    0.1139358 -32.05 0.0009194154    1.865    0.464
       140 -10.3617    129.6518     45.6808   3.4377285537e+01   4.6815836782e+01    0.2947069    0.2261385 -18.90  0.001193033    1.477    0.323
       141 -10.8010    103.3131     45.5846   4.1029582051e+01   5.3334416471e+01    0.3482944    0.2765734 -71.36  0.001720929    1.538    0.350
       142  -9.7647    230.0419     44.7202   1.9353942736e+01   2.2280558353e+01    0.1741904    0.1527467 -61.33 0.0002663862    1.066    0.061
       143  -9.7977     79.1992     45.4281   4.8783991089e+01   5.8718146482e+01    0.1821261     0.138899  57.72 0.0004413354    1.454    0.312
       144 -10.2155     15.6924     42.3694   7.7604094849e+01   6.8665922898e+01     0.256541    0.1667082 -83.77 0.0009309837    2.033    0.508
       145 -10.2409      1.9057     45.6349   8.6318763045e+01   6.8811646721e+01    0.1804108    0.1361971 -20.85  0.001144989    1.391    0.281
       146 -10.3456     27.3481     42.7699   7.1269605984e+01   6.7495577288e+01    0.2708001    0.1708684  19.32  0.001448052    1.756    0.431
       147 -11.9446    183.2942     39.9225   2.3267947079e+01   3.3844623964e+01    0.5311255    0.3167079 -85.23  0.002346479    2.007    0.502
       148 -11.9667    141.6904     40.9663   3.0213966165e+01   4.4411079912e+01    0.2612557    0.2258907  75.31 0.0002741229    1.128    0.114
       149 -11.2950     37.3887     41.2824   6.5374305838e+01   6.6624932911e+01    0.3730645    0.2731422  40.28  0.001989953    1.543    0.352
       150 -10.5346    116.3846     40.3454   3.5499065330e+01   5.0976958962e+01    0.4093806    0.2194286 -53.08  0.001109835    2.322    0.569
       151 -11.8144     91.0205     39.8443   4.2410982906e+01   5.7117296786e+01    0.2949218    0.2553338 -56.19  0.001596727    1.276    0.217
       152  -9.7902     85.8793     42.8292   4.5355065539e+01   5.7760085759e+01    0.2085317    0.1847325  14.57 0.0003090573    1.174    0.148
       153 -10.8004     81.6509     38.7131   4.5051291550e+01   5.9365148737e+01    0.3130237    0.2280286  45.29 0.0005368376    1.353    0.261
       154 -10.0120     63.4354     39.0122   5.2170135589e+01   6.2952317113e+01    0.2219855    0.1680394  40.56  0.001000579    1.345    0.256
       155 -10.7418     51.4567     38.7872   5.7378355058e+01   6.5067496442e+01    0.2486195    0.2168067  34.87  0.000728347    1.214    0.176
       156  -9.7231     44.2617     39.4557   6.1133077681e+01   6.6044942570e+01    0.1748516    0.1257491  46.08 0.0008195047    1.621    0.383
       157 -10.3018    214.6974     37.9204   1.9142858710e+01   2.6552742864e+01    0.1890089    0.1537639 -49.59 0.0004213868    1.071    0.066
       158  -9.5109    191.8858     38.1678   2.1692147391e+01   3.1942850387e+01    0.1722941    0.1556593  52.06 0.0003277043    1.255    0.203
       159 -11.5608    121.5001     36.5867   3.2845158372e+01   5.0235583747e+01    0.4735269     0.297242 -36.14  0.002119808    1.614    0.381
       160  -9.7757    117.0926     31.3297   3.1809014581e+01   5.2081009038e+01    0.2574466    0.1847053  73.69 0.0006814313    1.467    0.318
       161  -9.9629    102.8303     36.0922   3.7334867408e+01   5.4940468661e+01    0.2095539    0.1892799 -68.56            0    1.215    0.177
       162 -10.3106     45.6838     33.9303   5.7961057461e+01   6.6888858890e+01    0.3350804    0.1637075 -46.19  0.001173388    1.985    0.496
       163  -9.5717      3.2823     35.6872   8.2864734568e+01   7.0974020114e+01    0.1117202    0.0900016  74.01 0.0001441637    1.572    0.364
       164  -9.8109     27.8463     33.9278   6.7489847036e+01   6.9282148750e+01    0.1707123   0.08181435 -50.58 0.0004642038    1.874    0.466
       165 -11.9500    212.9630     31.9278   1.7769235895e+01   2.7692801492e+01    0.2469538    0.2104453 -58.03 0.0003031964    1.007    0.007
       166  -9.8010    127.9648     32.7735   2.9997512413e+01   4.9102322563e+01    0.2014651    0.1819594  67.38 0.0004171937    1.059    0.056
       167 -10.7286     78.4901     21.4932   3.8160870701e+01   6.2631875236e+01    0.2550198    0.1775348  57.47  0.001231211    1.463    0.317
       168 -11.0644     81.2326     31.4323   4.1944885891e+01   6.0613063831e+01    0.6582372    0.3191282 -57.22  0.002093568    4.406    0.773
       169 -11.0477     80.4182     26.3644   3.9861764345e+01   6.1536602005e+01    0.4364698    0.2082764 -38.90  0.001745953    2.159    0.537
       170 -10.3287     55.0847     32.9394   5.3025688705e+01   6.5526885608e+01    0.1958052    0.1754301  -7.56            0    1.042    0.040
       171 -11.2921    144.4834     31.0688   2.6262083969e+01   4.5017204878e+01    0.4210554      0.24736 -37.98 0.0008268073    1.686    0.407
       172 -10.0470    227.0171     30.4221   1.6147323010e+01   2.4703616507e+01    0.2097594    0.1457414 -37.18 0.0005325999    1.279    0.218
       173 -10.2303     88.2556     31.6296   3.9724995015e+01   5.9017642172e+01    0.3882663   0.08981675  46.17  0.001095195    4.316    0.768
       174 -12.2600     11.1242     29.8605   7.5958067660e+01   7.1712885733e+01    0.2626569    0.2224093  33.79  0.001753045    1.417    0.294
       175 -10.5355      1.3089     30.5800   8.2547055069e+01   7.2191786570e+01    0.2070348   0.09233012 -63.00 0.0006101371    1.883    0.469
       176 -11.2084    135.7749     29.1162   2.7118768246e+01   4.7545371053e+01    0.2609684    0.2151278  76.56 0.0003274682    1.177    0.150
       177 -11.1034    132.1794     26.7787   2.6927716208e+01   4.8775641220e+01    0.2528987    0.2340061 -69.21 0.0005856612    1.085    0.078
       178  -9.7740     39.0560     30.0234   5.9525042729e+01   6.8596337934e+01     0.202935     0.143221 -10.67 0.0005119403    1.602    0.376
       179 -10.3967    216.9551     25.7328   1.5829183898e+01   2.7510980751e+01     0.209101     0.163784 -44.44 0.0003179358    1.134    0.118
       180 -10.3203     31.8155    247.6993   9.7024632593e+01   2.0213497671e+01    0.1569726    0.1212059  35.77  0.000807093    1.386    0.278
       181  -9.5876    230.4244    247.4654   6.0242123666e+01  -5.4343248817e+00    0.1068625   0.07585652  10.07 0.0001269051    1.027    0.027
       182 -10.5046    131.2516    247.0050   7.7820498035e+01   7.7309842364e+00    0.1736972    0.1322996  48.19 0.0009370907    1.235    0.190
       183 -11.4264     33.2969     23.9708   5.9699856725e+01   7.0500502755e+01    0.2780474    0.2627843  75.88 0.0002908981    1.447    0.309
       184 -10.9150     32.7888     20.3960   5.8113858546e+01   7.1198110630e+01    0.2797152    0.1987168  -3.45 0.0007831528    1.532    0.347
       185 -10.6137    129.9808     22.5061   2.5733861706e+01   4.9860783433e+01    0.3141994    0.2527396  19.71  0.001093765    1.464    0.317
       186  -9.7185    103.9881     24.7579   3.2249843463e+01   5.6219807241e+01    0.2004933    0.1749834  55.45 0.0003261936    1.088    0.081
       187 -10.8349    106.6373     21.2876   3.0115307237e+01   5.5988782388e+01    0.2720547    0.2096199  38.59 0.0002808681    1.312    0.238
       188  -9.9661     59.6917     24.6636   4.6906430564e+01   6.6054297490e+01    0.3038891     0.156199 -40.84  0.001390722    1.995    0.499
       189 -11.4943     47.6687     23.5169   5.1829321157e+01   6.8388405376e+01    0.2754483    0.2174683  -8.51 0.0001807165    1.262    0.208
       190 -10.3111     25.7166     24.4389   6.4409525523e+01   7.1376687253e+01    0.3229738    0.1314611 -49.28  0.001037494    2.270    0.559
       191 -10.5263    115.9712    246.9278   8.0758709722e+01   9.8547835169e+00    0.1784716     0.143442  38.95 0.0006896742    1.049    0.046
       192  -9.5874    250.8050     23.3964   1.2773896113e+01   2.0522395436e+01    0.1298982   0.06355702 -47.49 0.0003230272    1.607    0.378
       193 -10.1973     41.4320     22.0701   5.4235142534e+01   6.9638072242e+01    0.2437332    0.1813492 -64.15  0.001149352    2.043    0.511
       194  -9.6857     21.0692     22.4566   6.6335964076e+01   7.2274532458e+01    0.2402087    0.1350091  -6.12   0.00113031    2.514    0.602
       195 -11.1649     16.6761     21.0826   6.8530153432e+01   7.2989225727e+01    0.3485929    0.2776905  -6.52  0.002279968    1.213    0.176
       196 -10.4971     14.2610     15.9886   6.7616684112e+01   7.4183938255e+01    0.2240203    0.1735744 -44.74 0.0007868613    1.222    0.182
       197 -12.2001     24.3656     18.1048   6.1988523065e+01   7.2694300422e+01    0.2417555    0.1926215  -9.77  0.000358405    1.163    0.140
       198 -10.6779     52.2774    244.0666   9.2945867341e+01   1.8545765364e+01    0.1853912    0.1597883 -52.83  0.001399959    1.664    0.399
       199  -9.9386    200.5841     21.8126   1.6256933020e+01   3.1806462365e+01    0.1880059    0.1078728 -42.83 0.0004018278    1.540    0.351
       200 -10.7555    163.1802     20.4325   1.9916532845e+01   4.1385467027e+01    0.3082869    0.2399343   7.26 0.0009813998    1.661    0.398
       201  -9.6594    100.6562     21.9043   3.1854573647e+01   5.7394583471e+01    0.2758933    0.1386647 -16.99  0.001104831    2.482    0.597
       202  -9.5035     97.1343     22.1026   3.2863151234e+01   5.8227287349e+01    0.1811039     0.161565 -79.38 0.0003884728    1.263    0.208
       203 -10.0793    124.6190     20.7362   2.6059758821e+01   5.1461330120e+01    0.2485044    0.1830142  52.45  0.000517654    1.300    0.231
       204  -9.2991    194.6063    242.8290   6.5598948037e+01  -4.2546960599e-01    0.1245543    0.1055985 -36.93 0.0009290571    1.597    0.374
       205 -10.0137     90.2079     24.1626   3.5744448563e+01   5.9611405366e+01     0.260218    0.1791934 -48.31 0.0008537337    1.660    0.398
       206  -9.9255     83.7746     21.2573   3.6335578629e+01   6.1475778501e+01    0.2004676    0.1519025  27.48  0.001057493    1.370    0.270
       207 -10.3811      2.2973     20.3489   7.8207639786e+01   7.4282463548e+01    0.2304203    0.1654117  35.43  0.001438715    1.723    0.420
       208 -10.9022     70.5997     18.7329   3.9526329110e+01   6.4707247930e+01    0.2462562    0.2232589  25.96  0.000598194    1.025    0.024
       209 -10.5582    225.5626     17.7616   1.3180415557e+01   2.6473911052e+01    0.2243563    0.1197536 -23.64 0.0008543411    2.000    0.500
       210 -10.2646     52.5019     23.3358   4.9424988581e+01   6.7582283380e+01    0.2579708    0.2040459  -4.73  0.001462244    1.284    0.221
       211  -9.7466     91.1725     17.8762   3.2548932519e+01   6.0169576541e+01    0.1972561    0.1535789  28.76 0.0004528718    1.322    0.243
       212 -10.2252     43.2800     17.9203   5.0996067462e+01   7.0008814137e+01    0.2323953    0.1578759  20.75  0.001269051    1.560    0.359
       213  -9.8398    147.9301     16.9110   2.0797968914e+01   4.5766189160e+01    0.2239049    0.1487955 -61.22 0.0004690347    1.587    0.370
       214  -9.8196    159.6848     16.0082   1.8928035801e+01   4.2777564911e+01    0.1853298    0.1729933 -54.72 0.0003527014    1.097    0.089
       215 -10.6768    239.9782     15.1578   1.1604473187e+01   2.3648323345e+01     0.184607     0.148646 -55.95 0.0005635079    1.016    0.015
       216  -9.5567    208.0000     12.9443   1.3278906017e+01   3.1009836560e+01    0.2024266   0.06928391 -26.79 0.0005165766    2.838    0.648
       217  -9.5359    153.3684     12.7308   1.8639680065e+01   4.4770061811e+01    0.1706757    0.1361659 -10.17 0.0003021205    1.476    0.322
       218  -9.7871    147.4914    243.4811   7.4317134181e+01   5.9686916056e+00    0.1180356   0.09180479  31.01 0.0002620498    1.012    0.012
       219 -10.8547     37.7905    241.4764   9.5592208680e+01   2.0650988867e+01    0.4059764     0.080317  51.91  0.001623887    3.689    0.729
       220  -9.9218    185.4684     12.4601   1.5057541016e+01   3.6537423775e+01     0.138209    0.1174836 -69.44 9.312491e-05    1.035    0.034
       221 -10.3753     26.6875    237.3025   9.7523047487e+01   2.2594299069e+01    0.1194846   0.05654825  57.27 0.0002518512    1.612    0.380
       222  -9.5245     54.3513    235.6914   9.2009451513e+01   1.9779571046e+01    0.1271186   0.06253389  56.74 0.0007043708    1.715    0.417
       223  -9.3352    239.2807    234.3298   5.6915581271e+01  -5.1127347802e+00    0.1099667    0.0643918   2.80 0.0005482451    1.604    0.376
       224 -10.6108     31.6067    232.9480   9.6359128348e+01   2.2866308197e+01    0.3021172    0.1087319  38.80  0.001226179    2.040    0.510
       225  -9.3834     55.2939    231.6447   9.1548484849e+01   2.0401036435e+01    0.1256266    0.0660461  60.34 0.0005371351    1.689    0.408
       226  -9.8072    245.8056    230.5781   5.5327044055e+01  -5.4903712293e+00    0.1303518   0.08673016  31.74 0.0006470967    1.527    0.345
       227  -9.8074    140.0028    227.8618   7.3858360635e+01   9.3852944881e+00    0.2124347    0.1213264  54.38  0.001105448    2.075    0.518
       228  -9.9677    223.4807    226.0183   5.8204616518e+01  -2.2225716496e+00    0.1550528   0.08071639  -9.23 0.0005750558    2.446    0.591
       229 -11.6767      2.8619    220.6013   1.0150278266e+02   2.8044843434e+01    0.4258554    0.1222432  68.07  0.001899195    3.185    0.686
       230 -10.9220      7.6058    221.1601   1.0058683084e+02   2.7503224167e+01    0.2371103   0.08938519 -80.13   0.00126164    2.538    0.606
       231  -9.5080     18.0054    219.7642   9.8448570236e+01   2.6773047751e+01    0.1462471   0.07833961  36.59 0.0008825926    1.630    0.387
       232  -9.5176    210.3625    215.8153   5.8835779664e+01   7.9506542561e-01    0.1575323   0.09658391 -19.99 0.0007173338    1.682    0.405
       233  -9.6405    102.3989     11.0000   2.6585582616e+01   5.8178693821e+01     0.313644   0.07412666  64.79  0.000934771    3.935    0.746
       234  -9.3152     85.5489    215.3596   8.3810636678e+01   1.9516530289e+01    0.1241118    0.1004338  46.11 -1.531171e-05    1.058    0.055
       235  -9.5386    229.7756    208.9503   5.4436120249e+01  -1.0102362601e+00    0.1461009   0.08394377 -28.03 0.0008764823    1.670    0.401
       236 -10.3278     39.1474    207.1875   9.3286691904e+01   2.7044203100e+01    0.1681603    0.1436104  58.72 0.0004419185    1.137    0.120
       237 -10.7545      5.6344    207.2150   1.0047023821e+02   3.0435142841e+01    0.1671396   0.09313498  87.10 0.0004335948    1.571    0.363
       238 -11.3433      2.7667    205.7251   1.0101211644e+02   3.0991475044e+01    0.2634932    0.1242687  86.24  0.001509586    1.862    0.463
       239  -9.7563    237.4624    186.7294   4.9351210631e+01   7.3080732205e-01    0.1634202   0.09680848 -18.21 0.0009374503    1.602    0.376
       240  -9.3859    229.4975    165.5427   4.6667033096e+01   4.8002674468e+00     0.125927     0.105404  -5.85  0.000165883    1.007    0.007
       241  -9.8258     10.4867    161.4837   9.7096392691e+01   4.0009442538e+01    0.1242566    0.1011025  78.38 3.805499e-05    1.034    0.033
       242  -9.2618     39.3071    151.6883   8.8470661793e+01   3.9553258929e+01    0.1426472   0.08632978  64.96 0.0003958508    1.620    0.383
       243 -10.5496     22.5576    149.8462   9.2985257455e+01   4.1717825310e+01    0.2075906    0.1411486  42.47 0.0008793757    1.428    0.300
       244 -11.0749      6.5284    145.6306   9.7126192610e+01   4.4088365215e+01    0.3371069    0.1791698  82.16 0.0008857727    1.666    0.400
       245 -10.1550     13.5576    145.0285   9.5113276539e+01   4.3679295037e+01    0.1777647    0.1520374  67.81 0.0001049364    1.099    0.090
       246 -11.3773     29.2927    139.0800   8.9993951937e+01   4.3718097322e+01    0.3172058    0.1824331  59.31  0.000395262    1.710    0.415
       247  -9.5662      1.8400    140.1644   9.8082319979e+01   4.5743826538e+01    0.1626042    0.1250727 -69.32 0.0003600315    1.281    0.219
       248 -10.7278     21.5626    135.7981   9.1964571432e+01   4.5262035503e+01      0.22429    0.1386827  79.31 0.0005808689    1.523    0.344
       249  -9.3763    235.6807    137.6760   4.0056735126e+01   7.8242178535e+00     0.131923   0.09134717   1.10  0.000704531    1.674    0.403
       250  -9.9426     95.7316    133.9624   6.9423399414e+01   3.5740692115e+01    0.2177835    0.1870564 -66.62  0.001143309    1.159    0.137
       251  -9.9189      2.0809    131.1708   9.7407275490e+01   4.7913270409e+01    0.1797311    0.1447521 -69.49 0.0002982818    1.223    0.182
       252 -10.5398     27.7227    129.3077   8.9373426592e+01   4.6316632024e+01    0.3694512     0.180693  73.03 0.0004381717    2.409    0.585
       253 -10.1739     14.5434    129.9805   9.3536228426e+01   4.7302081871e+01    0.1833961    0.1609148  52.69  0.000530411    1.199    0.166
       254  -9.7975     52.5172    129.5796   8.1621218818e+01   4.3478625939e+01    0.1398151    0.1268508  86.72 0.0001484944    1.016    0.016
       255 -10.3259    247.4840    126.9961   3.6118159226e+01   7.3783625448e+00    0.1730291    0.0910079 -49.50 0.0004591743    2.345    0.573
       256  -9.9999     78.3324    126.4778   7.3053817447e+01   4.0515718782e+01     0.195765     0.134388  50.19 0.0009239943    1.463    0.317
       257  -9.8506     65.0116    125.2328   7.6951413157e+01   4.2869126676e+01    0.1911487    0.1758274  66.69            0    1.066    0.062
