#   1 NUMBER                 Running object number                                     
#   2 MAG_AUTO               Kron-like elliptical aperture magnitude                    [mag]
#   3 X_IMAGE                Object position along x                                    [pixel]
#   4 Y_IMAGE                Object position along y                                    [pixel]
#   5 X_WORLD                Barycenter position along world x axis                     [deg]
#   6 Y_WORLD                Barycenter position along world y axis                     [deg]
#   7 A_WORLD                Profile RMS along major axis (world units)                 [deg]
#   8 B_WORLD                Profile RMS along minor axis (world units)                 [deg]
#   9 THETA_WORLD            Position angle (CCW/world-x)                               [deg]
#  10 FWHM_WORLD             FWHM assuming a gaussian core                              [deg]
#  11 ELONGATION             A_IMAGE/B_IMAGE                                           
#  12 ELLIPTICITY            1 - B_IMAGE/A_IMAGE                                       
         1 -11.2721     23.0564     14.1966   9.7816770191e+01   6.8656753736e+01      1.10401    0.3699664 -28.87  0.003913621    3.102    0.678
         2 -11.6518      2.9434      7.3254   1.0436717584e+02   7.1467209899e+01    0.3760279    0.1852737 -21.02  0.001287195    1.784    0.439
         3 -11.6641      5.9320     26.9488   1.1074942796e+02   6.8569000102e+01    0.7496984    0.6175338 -13.03  0.004258816    1.220    0.180
         4 -11.5269     19.7423     25.8965   1.0403332940e+02   6.7503395675e+01    0.6372909    0.4444446 -24.29  0.003211187    1.206    0.171
         5 -11.7251     29.0567     20.3490   9.7760240601e+01   6.7220323367e+01    0.9052947    0.4912578 -23.37  0.005530495    1.710    0.415
         6 -12.5995     10.1324     49.3920   1.1635108779e+02   6.4632770723e+01     1.191278    0.7034013 -41.80  0.007556815    1.357    0.263
         7 -12.3048     36.6891      4.3679   8.7851757472e+01   6.7989600607e+01    0.9513305    0.7514929 -15.46  0.006845873    1.364    0.267
         8 -10.2155     31.3897      5.5064   9.0486465970e+01   6.8592274774e+01    0.2313579    0.1686472   4.15 0.0005668715    1.074    0.069
         9 -10.6169     10.7420     10.3354   1.0184403732e+02   7.0398016471e+01    0.2870238    0.1740072  -8.28 0.0008746874    1.388    0.279
        10 -11.6771     10.2598     17.8922   1.0522294008e+02   6.9482766329e+01    0.8411977    0.3087923  33.26  0.004441976    3.019    0.669
        11 -12.2034     15.9550     11.3230   9.9811713930e+01   6.9762401346e+01    0.9383887    0.2922671 -34.40  0.002328613    2.953    0.661
        12 -10.1130     10.9813      5.9224   9.9799445184e+01   7.0894571831e+01    0.3622015    0.1635421 -21.79 0.0003405386    2.136    0.532
        13  -9.0615     47.5585     18.3359   8.9541359495e+01   6.5012006059e+01    0.3089796    0.1632352  -4.04 0.0007551842    2.484    0.597
        14  -9.8011     64.3107      5.0312   7.8515591393e+01   6.3617035324e+01    0.1950701    0.1356132  39.29 0.0003882337    1.180    0.152
        15  -9.5742     50.3818     13.5161   8.6554927439e+01   6.5102148358e+01    0.2269221    0.1598829   1.16 0.0008850832    1.295    0.228
        16  -9.9356     59.1081      3.8365   7.9662895194e+01   6.4599531902e+01    0.3554811    0.1957151   0.24  0.001754921    2.119    0.528
        17  -9.5579     62.9080      1.4267   7.7517683586e+01   6.4149510492e+01    0.2220711    0.1198313  43.48 0.0006300177    1.480    0.324
        18 -10.7826     53.6408      5.3307   8.2066758644e+01   6.5366655264e+01    0.4887627    0.2842788   7.38  0.002059809    1.843    0.457
        19  -8.7007     49.6797      3.7157   8.2756978745e+01   6.6133268694e+01    0.1701284   0.09822116  20.05 0.0002733619    1.607    0.378
        20 -10.8153     93.2354     17.0206   7.4927390455e+01   5.7187047220e+01    0.4071652    0.2842415 -23.94  0.002158361    1.613    0.380
        21 -10.2670     94.3015      4.9773   7.0544748846e+01   5.8011204953e+01    0.2861704    0.1634909  59.96   0.00140064    1.572    0.364
        22  -9.4840     56.2232     15.5503   8.5316088436e+01   6.3986032799e+01      0.30035     0.135564 -41.62  0.001454195    3.236    0.691
        23 -11.0932     73.7129      5.3476   7.5890823795e+01   6.1923625367e+01    0.4680113    0.2613928  56.36   0.00271853    1.758    0.431
        24 -10.4989     68.8604     10.0384   7.9082324639e+01   6.2393509671e+01    0.3417161     0.237593 -54.17  0.001821244    2.533    0.605
        25 -10.7251    248.9913      4.2248   5.0814100328e+01   2.4944651001e+01    0.3885099     0.228322 -45.88   0.00258781    1.628    0.386
        26 -10.3160     84.0504      6.7786   7.3654747716e+01   5.9875816858e+01    0.4027079    0.2078797  -2.01   0.00206334    2.664    0.625
        27 -10.8182    233.6559      6.4071   5.2288416903e+01   2.7729216227e+01    0.4000221    0.1650527  84.16  0.002034548    2.307    0.567
        28  -9.2261     61.6451      8.9999   8.0914284597e+01   6.3727669870e+01    0.1600321    0.1237692  10.27 0.0005431724    1.158    0.136
        29  -8.0309     89.3258      1.3127   7.0431471754e+01   5.9274504117e+01    0.1243747   0.06927612  34.36 0.0007041536    1.663    0.399
        30  -9.9932     73.2120     13.5867   7.9134263671e+01   6.1296755935e+01    0.2407162    0.1507005  24.02  0.001090127    1.529    0.346
        31 -10.3205    145.4450    231.0488   1.1511582507e+02   4.2915401685e+00    0.2941108    0.2569194  17.66 0.0005096998    1.195    0.163
        32 -10.8518    206.5563    223.1773   1.0090196541e+02  -4.4407506413e+00    0.3419468    0.2783217 -19.41 0.0004300598    1.159    0.138
        33 -13.0055    208.4526    244.5813   1.0427916313e+02  -8.3536548036e+00     1.142719    0.7796767  27.01  0.003549367    1.345    0.256
        34 -13.1039    177.0813    230.5933   1.0825860955e+02  -9.8715289624e-01     1.749721     1.211878 -18.95  0.008924006    1.748    0.428
        35 -13.1709    196.7312    197.7556   9.8102458218e+01   1.9900543919e+00     2.826849     1.510625 -29.33   0.01166135    2.264    0.558
        36 -13.9567    244.7595    115.7464   7.2537034484e+01   9.1648477033e+00     6.145542     1.379593 -39.38   0.01781771    4.628    0.784
        37 -12.6766    236.6414    143.4622   7.9486377593e+01   5.4999734809e+00     2.795548     1.663375  -1.80  0.007737655    7.092    0.859
        38 -12.8855    245.3701    242.1962   9.6938633365e+01  -1.3066877677e+01     1.205229    0.7346698 -40.26  0.006144974    1.691    0.409
        39 -11.3926    225.6506    240.1594   1.0021418210e+02  -1.0121728033e+01    0.4932975     0.449153  42.67  0.003319414    1.481    0.325
        40 -12.0578    216.4807    230.4078   1.0025235149e+02  -7.2152631494e+00    0.4190584    0.3733588  -4.30 0.0005100198    1.077    0.071
        41 -11.8500    238.4240    217.1906   9.3722622168e+01  -8.2168036032e+00    0.4623983    0.3013858 -22.06 0.0005497293    1.464    0.317
        42 -13.0329    225.0001    198.9790   9.2765460367e+01  -3.0103911392e+00     2.170548     1.191101   9.42  0.008035825    3.663    0.727
        43 -12.3554    208.2767    200.3565   9.6271241697e+01  -5.1250446359e-01     1.574042    0.4775563 -36.82  0.004402392    3.877    0.742
        44 -12.0345    210.7095    213.7464   9.8340589073e+01  -3.4094625887e+00     1.399112    0.3212556 -47.13  0.004055381    5.015    0.801
        45 -12.2056    229.5989    231.0187   9.7862618432e+01  -9.2254717408e+00    0.8696443    0.3646066 -44.50  0.002121602    2.493    0.599
        46 -13.4262    222.4526    186.0387   9.0701014157e+01  -1.7807481790e-01     1.540321      1.26599   0.23  0.008706826    1.293    0.227
        47 -11.3667    225.5245    171.0175   8.7095952361e+01   2.1769415393e+00    0.3681527    0.3049472   7.12 0.0003493935    1.369    0.269
        48 -11.8184    202.6097    214.8046   1.0015580619e+02  -2.2854916076e+00    0.5240832    0.3740241 -25.93 0.0007142149    1.411    0.291
        49 -12.0896    191.9845    214.3721   1.0225001357e+02  -4.2822671978e-01    0.8979043    0.6022372  69.25  0.003203526    2.829    0.647
        50 -11.4321    249.4938    231.9092   9.4399962014e+01  -1.2057866597e+01    0.3308811    0.2612113 -29.01 0.0006511066    1.220    0.181
        51 -12.0909    248.0961    174.9973   8.3956992215e+01  -2.3038968576e+00    0.8720918    0.5697731  -6.72  0.002309123    2.195    0.544
        52 -11.5013    233.8412    210.4634   9.3309421897e+01  -6.4128515103e+00    0.3850457    0.2771544  -9.56 0.0004447548    1.426    0.299
        53 -12.4706    245.6178    165.1278   8.2414359556e+01  -1.0702818820e-01     1.270456    0.5168383 -32.30  0.003029171    2.895    0.655
        54 -11.8465    248.2862    156.2548   8.0208310953e+01   1.0887639122e+00    0.5128095    0.4566055  55.56   0.00321705    1.359    0.264
        55 -12.5199    220.0280    221.7316   9.8000887559e+01  -6.2766408520e+00    0.8147397    0.7338735  49.59  0.003999765    1.442    0.306
        56 -12.2359    227.8841    218.0338   9.5827157637e+01  -6.8237086896e+00    0.6396084    0.4031501 -44.08  0.002604937    1.618    0.382
        57 -12.5025    248.6202    202.5001   8.9167432367e+01  -7.2067180040e+00     1.017437    0.3950497 -28.15  0.003687968    3.578    0.720
        58 -12.0878    247.7413    184.2776   8.5829843252e+01  -3.9122024528e+00    0.8783976    0.5175179  15.00  0.003900525    2.621    0.618
        59 -13.3497    240.5551    202.6474   9.0615655865e+01  -6.0596823253e+00     1.138943    0.6643963 -32.49  0.004213077    1.543    0.352
        60 -11.6161    246.3841    191.2153   8.7404109846e+01  -4.9332341502e+00    0.3614393     0.280862  -7.79 0.0004390029    1.318    0.241
        61 -11.7895    247.6796    224.2826   9.3355575107e+01  -1.0639912820e+01    0.4077005    0.2911164  -5.67 0.0004546333    1.335    0.251
        62 -12.4736    248.1115    214.2014   9.1438739437e+01  -9.0815697616e+00    0.6280755    0.3060009 -30.10  0.001480955    1.958    0.489
        63  -9.5047    184.6012    250.0740   1.0993377054e+02  -5.6462388064e+00    0.3574921    0.2356817  37.24  0.001034751    1.396    0.283
        64 -12.3423    191.6240    244.5744   1.0762002286e+02  -5.8097517595e+00    0.3664577     0.292794   1.91 0.0005608597    1.226    0.184
        65  -9.4553    186.5348    245.4849   1.0879896656e+02  -5.1722515336e+00    0.2160568    0.1784105 -40.86 9.986218e-05    1.338    0.253
        66 -10.5555    133.1312    245.3970   1.1991748184e+02   3.5192041101e+00     0.342771    0.2786233 -31.08 0.0003937396    1.491    0.329
        67  -9.7899    152.9336    233.0527   1.1381330307e+02   2.6163768010e+00    0.2830799    0.2354652  17.55 0.0003847342    1.249    0.199
        68  -9.8549    165.8135    232.4888   1.1096148635e+02   5.4444721592e-01    0.2514748     0.223377  -1.37 0.0002553682    1.155    0.135
        69 -11.0011    198.9993    224.9032   1.0273150514e+02  -3.5422421447e+00    0.4248261    0.3316086   9.22 0.0008477621    1.283    0.220
        70 -10.9092    191.1156    223.4924   1.0409032156e+02  -1.9978955849e+00    0.3002328    0.2349247 -24.16 0.0003238084    1.289    0.224
        71 -12.1954    140.4586    246.6034   1.1854336312e+02   2.0830123413e+00    0.6237916    0.4280688   8.20 0.0004728655    2.103    0.525
        72 -11.1892    169.8225    240.6559   1.1145417182e+02  -1.6438130560e+00    0.4528529    0.3235772 -37.22 0.0004409121    1.509    0.337
        73 -10.5310    148.8276    238.3069   1.1552342593e+02   2.2852334568e+00    0.3003403    0.2697054   2.76 0.0003339243    1.202    0.168
        74 -11.1306    163.8873    224.0757   1.0995523544e+02   2.5096733314e+00    0.6363151    0.4073551 -29.90   0.00238999    1.883    0.469
        75 -10.1330    158.4050    229.3554   1.1203005846e+02   2.4098854364e+00    0.2904782    0.2423425 -23.50 0.0005013552    1.322    0.243
        76 -10.9094    163.5992    244.8562   1.1342179467e+02  -1.3900670846e+00    0.3437996    0.3000244 -16.39 0.0004257595    1.229    0.186
        77 -11.6093    184.1269    236.5186   1.0779991476e+02  -3.2255594633e+00    0.5495248    0.2966729 -30.40 0.0005606549    2.229    0.551
        78 -10.3573    190.3727    231.4787   1.0565204705e+02  -3.3321979717e+00    0.4899567    0.3239506 -26.21   0.00160642    1.653    0.395
        79 -10.9004    157.0231    245.9583   1.1496671443e+02  -5.1641285074e-01    0.3546714    0.2986934   7.11 0.0003960654    1.270    0.213
        80 -11.5777    159.2402    235.7428   1.1289418847e+02   1.0294728489e+00    0.4272445    0.3030665  17.96 0.0008646319    1.579    0.367
        81 -11.5487    166.7433    250.4394   1.1363603173e+02  -2.8937493564e+00    0.4529241     0.201961  31.46 0.0003689252    2.211    0.548
        82 -11.9497    176.8335    243.8635   1.1051853302e+02  -3.3546752405e+00    0.4724767     0.340147   2.58 0.0004340138    1.636    0.389
        83 -10.7428    151.9760    250.0504   1.1663563945e+02  -4.4148052640e-01    0.5167366    0.2096356  44.07 0.0009887227    2.286    0.563
        84 -10.8318    153.1842    243.2010   1.1535153262e+02   6.2667038355e-01    0.7154714    0.4432814  -2.99  0.002125084    3.181    0.686
        85  -9.8693    108.5495    249.0373   1.2556795417e+02   6.7776524451e+00    0.4655839    0.1915204  45.91  0.002014465    2.148    0.534
        86 -10.4137    113.5455    244.2300   1.2390341119e+02   6.9440172531e+00    0.3316632    0.2761788 -19.74 0.0006937772    1.631    0.387
        87 -10.3139    117.9945    238.6055   1.2219583189e+02   7.3662333506e+00    0.3360915    0.2938029  -6.13  0.001119605    1.461    0.316
        88  -9.3380    101.6821    250.6263   1.2718383725e+02   7.5388063030e+00    0.2868476    0.1088378  39.62 0.0007364549    2.304    0.566
        89 -10.1389     87.7048    249.6642   1.2993568334e+02   9.8734903654e+00    0.3172148    0.2200483  33.55 0.0006618785    1.529    0.346
        90 -10.8226     93.4007    244.5067   1.2816909521e+02   1.0065951325e+01    0.4928468    0.3012549  21.97 0.0007744163    2.358    0.576
        91 -10.6842    104.5338    241.6196   1.2547313958e+02   8.9210039318e+00    0.3522031    0.3125958   2.35 0.0007523879    1.471    0.320
        92  -9.1086    101.5262    238.5619   1.2572187395e+02   1.0036619250e+01    0.2432836     0.186978  19.70 0.0007119526    1.651    0.394
        93  -9.6928     72.9934    250.5760   1.3299538433e+02   1.1848499838e+01    0.3013857    0.1619984  36.00  0.000873144    1.870    0.465
        94  -9.0351     75.7697    246.4052   1.3200619831e+02   1.2310417948e+01    0.2137547    0.2012113 -58.77 0.0006317862    1.348    0.258
        95 -10.7938     80.5080    244.2912   1.3081145873e+02   1.2057712527e+01    0.4438139    0.2830862  32.82 0.0005688885    1.704    0.413
        96 -10.5099     61.9657    248.7930   1.3500160347e+02   1.3765330966e+01    0.4111222    0.2662452  28.51  0.001067504    1.939    0.484
        97 -10.5127     47.2471    250.3180   1.3798419194e+02   1.5410712414e+01    0.3445379    0.1660379  32.41  0.001029906    2.405    0.584
        98  -8.8845      2.0859    250.4541   1.4613123240e+02   2.0591658506e+01    0.1970782    0.1180397  43.67  0.001300213    1.645    0.392
        99  -9.0803     24.0249    249.4547   1.4222412134e+02   1.8420686359e+01    0.2274893    0.1300358  40.42 0.0008487279    1.741    0.426
       100 -10.3103     16.6357    248.9957   1.4351649119e+02   1.9346520013e+01    0.3900575    0.2406483  30.02  0.001295216    2.112    0.527
       101 -10.1219      8.5739    248.4338   1.4489837645e+02   2.0330052400e+01    0.2777552    0.2484011  13.56 0.0006320866    1.843    0.457
       102  -9.8343    143.7548    226.3302   1.1473047915e+02   5.5428382919e+00     0.341744    0.2625393 -26.09  0.001016358    1.582    0.368
       103 -10.0626    123.4331    230.8631   1.1990762962e+02   8.0719580975e+00    0.3286576    0.2624647   6.93 0.0006423606    1.633    0.388
       104 -10.1249    100.2952    230.6085   1.2494914477e+02   1.1933603835e+01    0.2937429    0.2641968  -4.85 0.0006239777    1.458    0.314
       105 -10.8037     54.7672    230.9648   1.3470844870e+02   1.8572545417e+01    0.3207146     0.254422  21.81 0.0007232122    1.721    0.419
       106  -9.5134     10.1215    231.3673   1.4352138714e+02   2.3751057125e+01    0.2550214    0.1684362  30.62  0.001262028    1.923    0.480
       107  -9.2997     44.8796    229.3631   1.3658012258e+02   2.0212847784e+01    0.2446734    0.2154234 -30.26 0.0006689501    1.694    0.410
       108 -10.3816    113.2728    228.1235   1.2174998487e+02   1.0354652914e+01    0.2969199     0.259862  42.01 0.0003381715    1.118    0.105
       109  -9.2546    107.0585    228.1208   1.2312361709e+02   1.1379794592e+01    0.2566332    0.2177496   9.00 0.0004436514    1.517    0.341
       110  -9.3028    109.7668    224.0253   1.2194007847e+02   1.1830230266e+01    0.2770235    0.2386496  40.24 0.0005716803    1.156    0.135
       111  -9.5677     92.7395    227.9401   1.2625202078e+02   1.3716918172e+01    0.2412254    0.2198034 -36.81 0.0004555798    1.372    0.271
       112  -9.5314     78.8685    228.4127   1.2933087529e+02   1.5735436932e+01    0.2293793    0.1997758 -56.54 0.0004199625    1.327    0.246
       113  -8.8175     29.6277    228.9377   1.3960033812e+02   2.2153278853e+01     0.190478    0.1778728  10.11 0.0007990118    1.594    0.373
       114  -9.4564    152.6946    227.7121   1.1299736930e+02   3.7174079087e+00    0.2905705    0.2345985   3.77 0.0004919817    1.451    0.311
       115  -9.4952    155.3655    223.4466   1.1170322764e+02   4.1154037322e+00    0.2606099    0.2275974  -4.94 0.0005357313    1.257    0.204
       116  -9.8490     67.8141    226.9791   1.3154040199e+02   1.7666207047e+01    0.2567021    0.2262204  56.63 0.0004056426    1.154    0.134
       117  -9.3657     19.7613    227.2304   1.4139170207e+02   2.3635273396e+01    0.2275485    0.1748019 -73.69 0.0007763412    1.293    0.226
       118  -9.6652      1.8441    227.0181   1.4476504047e+02   2.5512801539e+01     0.270324    0.1747673  49.57  0.001255336    1.483    0.326
       119  -9.8796      7.6670    225.0226   1.4354405282e+02   2.5377235879e+01    0.3753262    0.3161209  31.71  0.001635217    1.604    0.377
       120  -9.6642    129.5706    223.7868   1.1747300422e+02   8.5276939519e+00    0.2858567    0.2514594  11.33 0.0005736329    1.302    0.232
       121  -9.2795    120.5765    224.8026   1.1963809655e+02   9.8465681575e+00    0.2395594     0.210678   0.20 0.0006191034    1.400    0.286
       122  -8.5375     89.4927    224.9597   1.2657860718e+02   1.4888084173e+01    0.2030689    0.1660384 -47.42 0.0006211359    1.444    0.307
       123  -8.5381     92.2483    221.7325   1.2553952706e+02   1.5182485475e+01    0.2055387     0.168334 -26.24 0.0008419082    1.690    0.408
       124  -8.9041    135.6631    223.0359   1.1599405473e+02   7.6339504826e+00     0.235383    0.2074495  -7.61 0.0004302621    1.333    0.250
       125  -9.2211    104.3392    223.9315   1.2314013556e+02   1.2745236128e+01    0.2395558    0.1981837  32.28 0.0004897742    1.294    0.227
       126  -9.7073     97.6918    222.1556   1.2437933033e+02   1.4219892406e+01    0.2586583    0.2260694 -40.13 0.0004224291    1.382    0.277
       127  -8.8726     82.6341    222.8616   1.2782371519e+02   1.6416562346e+01     0.206003    0.1860476  30.47 0.0005962834    1.309    0.236
       128  -9.1831     74.1313    222.1933   1.2961251946e+02   1.7838066094e+01    0.2153754    0.1937862  73.70 0.0003905823    1.073    0.068
       129  -9.4142     51.0139    213.1239   1.3363260543e+02   2.3136176234e+01    0.3881611    0.2717257  15.31  0.001947343    2.166    0.538
       130 -10.2870     49.6731    222.2993   1.3489237213e+02   2.1190659441e+01    0.2683221    0.2323661 -70.07 0.0004333299    1.260    0.206
       131  -9.4493     47.6423    218.0574   1.3488676497e+02   2.2423510800e+01    0.3830828    0.2040961 -89.14  0.001820717    2.004    0.501
       132  -9.4086     15.5297    221.3264   1.4176105833e+02   2.5393354603e+01    0.2688185    0.1741875 -56.89 0.0008961837    1.762    0.433
       133 -10.1880    148.5340    220.6700   1.1274104423e+02   5.8815442065e+00      0.28876    0.2453509 -18.76 0.0005792216    1.344    0.256
       134  -8.9082    114.9302    221.6681   1.2043424905e+02   1.1485965546e+01    0.2170678    0.1923979 -43.33 0.0004716554    1.276    0.216
       135  -9.7719     40.1028    221.0022   1.3676870761e+02   2.2689179186e+01    0.3112486    0.2474035 -21.01  0.001139026    2.091    0.522
       136  -9.1677     28.7055    221.9563   1.3919175280e+02   2.3816996736e+01    0.2104498     0.173797  30.42 0.0005675553    1.567    0.362
       137  -9.3902    140.6607    220.2878   1.1443110162e+02   7.3443229143e+00    0.2451922    0.2275361   7.70 0.0004028675    1.160    0.138
       138  -8.3244    124.7429    220.9931   1.1811976105e+02   9.9615977489e+00    0.1890553    0.1814831  74.68  0.000464447    1.046    0.044
       139  -8.6265     68.1130    221.1306   1.3080298702e+02   1.8950976882e+01    0.1873222    0.1746933 -54.44 0.0004687579    1.316    0.240
       140  -9.6180     58.4454    220.4507   1.3282419670e+02   2.0451623376e+01    0.4424389    0.2074687  38.19  0.002059548    2.092    0.522
       141 -10.1790     56.0083    216.5996   1.3292605053e+02   2.1668759346e+01    0.2850918    0.1679028 -72.43 0.0006073985    1.583    0.368
       142  -9.2575    109.1677    219.1610   1.2136363502e+02   1.3010829025e+01    0.2220219    0.2157932  76.92 0.0003797984    1.094    0.086
       143  -8.6141    104.0381    218.5023   1.2243090161e+02   1.4010297943e+01    0.2320161    0.1897515 -51.19   0.00047684    1.336    0.251
       144  -8.8135    107.1422    215.5778   1.2129179568e+02   1.4158284913e+01    0.2196269    0.1981448 -10.94  0.000504491    1.393    0.282
       145  -8.2884     88.1661    219.8464   1.2620080692e+02   1.6251173181e+01     0.173883    0.1634469 -36.44 0.0004003806    1.317    0.241
       146  -9.8333    158.9223    217.8104   1.0995498338e+02   4.6423547995e+00    0.2736749    0.2266783  -5.31 0.0004710817    1.385    0.278
       147  -8.5292    154.2771    218.6949   1.1113303335e+02   5.2801536807e+00     0.187506    0.1604274  -7.32 0.0006726804    1.319    0.242
       148  -8.8553    128.9132    219.0305   1.1686865126e+02   9.6675860545e+00    0.2092739    0.2002181  31.29 0.0004343702    1.089    0.081
       149  -8.6803    136.0871    218.1464   1.1510560712e+02   8.6049916657e+00    0.2114027    0.1875461   7.96 0.0004391776    1.274    0.215
       150  -9.2162    119.7794    217.0124   1.1862292052e+02   1.1691780264e+01    0.2267978    0.2193201  -6.18 0.0005027083    1.177    0.150
       151  -8.3048     95.4204    217.7926   1.2428481829e+02   1.5573286159e+01     0.184026    0.1276228 -52.25 0.0004463123    1.551    0.355
       152 -10.1002      7.9289    216.2590   1.4286634776e+02   2.7290907903e+01     0.292953    0.2029672 -45.76  0.001349799    2.020    0.505
       153  -8.4056     77.0526    217.2626   1.2835416341e+02   1.8539142301e+01    0.1869353    0.1633307  63.92 0.0003757268    1.069    0.065
       154  -8.3702     72.2053    216.7955   1.2937809163e+02   1.9361097658e+01    0.1705864    0.1594948 -45.58 0.0004535852    1.331    0.249
       155  -8.4253     21.7775    217.0112   1.4017071560e+02   2.5702566847e+01    0.1947952     0.115648 -52.78  0.001061938    2.008    0.502
       156  -9.6245    165.7020    213.9950   1.0779067418e+02   4.2242213275e+00    0.2914927    0.2298382  -5.70 0.0003807237    1.506    0.336
       157 -10.5623    171.0307    213.7273   1.0658068624e+02   3.3344937731e+00    0.3618127    0.2893355 -57.47 0.0004062069    1.404    0.288
       158  -8.5640    167.7632    207.9413   1.0623565133e+02   5.1048935333e+00    0.3105326    0.1915513 -38.31 0.0005908643    1.715    0.417
       159  -9.0758    171.3508    206.1044   1.0510742211e+02   4.8387293847e+00    0.2327577    0.2037982  36.03 0.0005399008    1.125    0.111
       160  -9.0924    173.1621    202.1551   1.0396642477e+02   5.3315583497e+00    0.2644184    0.2045506 -32.88 0.0004318215    1.332    0.249
       161  -8.7446    150.8742    215.7805   1.1138638946e+02   6.4921352145e+00    0.2662899    0.2077458  -0.85 0.0005594276    1.621    0.383
       162  -9.5921    154.6253    212.3382   1.0994592138e+02   6.5484573816e+00    0.2577899    0.2336983   1.45 0.0003408578    1.172    0.146
       163  -8.8375    124.0991    215.3945   1.1738078093e+02   1.1304691081e+01    0.2342351    0.1945718 -45.33 0.0005374348    1.307    0.235
       164  -9.4748     83.1503    215.4207   1.2674196757e+02   1.8044942222e+01    0.2526336    0.2083371 -35.59 0.0006929323    1.574    0.365
       165  -9.6016    143.3683    214.4619   1.1284488470e+02   8.1100246471e+00     0.272926    0.2353323   3.36 0.0007043694    1.333    0.250
       166  -9.0126    101.6027    214.6136   1.2241878953e+02   1.5297009298e+01    0.2689587    0.2041698 -32.07  0.000795099    1.750    0.429
       167  -8.4139     90.7671    215.4406   1.2501462125e+02   1.6854716942e+01    0.1772547    0.1351077  26.73 0.0004068413    1.543    0.352
       168  -9.3907    131.9856    213.5764   1.1528155398e+02   1.0324406744e+01    0.2639313    0.2231477   3.93 0.0004218416    1.437    0.304
       169  -9.3838     63.1182    213.0698   1.3095171718e+02   2.1523767723e+01     0.271561    0.2326178 -36.54 0.0007304107    1.548    0.354
       170  -8.7002    117.3105    212.5962   1.1849349069e+02   1.3108611281e+01    0.2267268    0.1734277  30.02 0.0004599598    1.400    0.285
       171  -8.3664    111.2985    213.1533   1.1996768190e+02   1.4010536506e+01    0.2134257    0.1683339 -43.14 0.0004508697    1.436    0.304
       172  -9.3796     96.6693    212.4981   1.2324448182e+02   1.6591039777e+01    0.2649261    0.2236733 -40.23 0.0005588192    1.412    0.292
       173  -8.4515     74.1012    212.6375   1.2842827161e+02   2.0054115996e+01    0.1839351    0.1659501  61.37 0.0005460947    1.113    0.102
       174  -8.8314     40.9738    212.8193   1.3577710417e+02   2.4468289118e+01    0.1839671    0.1627268 -63.98 0.0005955247    1.307    0.235
       175  -9.3023     25.1454    210.6363   1.3892323149e+02   2.6798623536e+01    0.2543364    0.1646055 -56.12 0.0009869186    1.687    0.407
       176  -9.3002     17.5171    211.2038   1.4055040059e+02   2.7475668489e+01    0.2576193    0.1968255 -29.02  0.001002011    2.108    0.526
       177  -8.7727    125.0091    211.0244   1.1646222831e+02   1.2122981033e+01    0.2133057    0.2077044  11.36 0.0004156521    1.124    0.110
       178  -9.1471    106.6648    210.3295   1.2060525589e+02   1.5441985202e+01    0.2482007    0.2357655 -29.57 0.0003129601    1.231    0.188
       179  -9.6847     30.9550    214.5994   1.3807185596e+02   2.5236552984e+01    0.3003973    0.1995245 -53.93 0.0009482322    1.729    0.422
       180 -10.2931    176.9339    208.5036   1.0434277070e+02   3.3457055206e+00    0.3015117    0.2544572  -3.51 0.0003807506    1.265    0.210
       181 -10.1746    161.2631    208.6936   1.0781107025e+02   6.1215962914e+00     0.286455    0.2401774 -27.69  0.000389137    1.270    0.213
       182  -8.8504    149.1933    210.1782   1.1078432244e+02   7.9877153682e+00    0.2103931    0.1926374  -5.25 0.0004055068    1.180    0.153
       183  -8.8101    146.1938    207.7706   1.1103846746e+02   9.0532035686e+00    0.2652419    0.2263387 -25.14 0.0003936075    1.311    0.237
       184  -9.4777    149.5173    205.0771   1.0979810570e+02   9.0366840038e+00     0.409575    0.2515608 -46.34  0.001861075    1.674    0.403
       185  -8.0527     56.3021    210.2972   1.3214580125e+02   2.3105172740e+01    0.1241584    0.1017458 -41.35 0.0002746315    1.580    0.367
       186  -8.1159    140.2242    209.6007   1.1272262159e+02   9.7307661809e+00    0.1906279    0.1368529  28.87   0.00041897    1.474    0.322
       187  -8.5792     93.7559    208.8922   1.2339391893e+02   1.7904020472e+01     0.205849    0.1921625 -43.18 0.0006711254    1.250    0.200
       188  -8.6923     78.1375    208.8708   1.2701082363e+02   2.0342377539e+01    0.1976368    0.1659875 -31.07 0.0005840479    1.578    0.366
       189  -8.4747    134.8168    208.1751   1.1371842851e+02   1.1018767429e+01     0.193212    0.1707198 -17.44 0.0003712833    1.312    0.238
       190  -8.7813     72.8367    207.8080   1.2809003406e+02   2.1381214857e+01    0.1937447    0.1837654 -63.58 0.0005015559    1.217    0.178
       191  -9.5766    120.1221    206.1795   1.1679845278e+02   1.4084413438e+01    0.3572778    0.2323518 -64.29  0.001295117    1.650    0.394
       192 -10.0303    124.5690    205.9140   1.1571328054e+02   1.3360077227e+01    0.3359061    0.2265338  34.74  0.001592629    1.508    0.337
       193  -9.3871    113.8679    207.0023   1.1839878348e+02   1.4984035351e+01     0.449718    0.2430945  26.26   0.00178764    2.419    0.587
       194  -8.2531     66.1429    206.8096   1.2949789482e+02   2.2581793697e+01    0.1773634     0.156139 -52.37 0.0004425131    1.317    0.241
       195  -9.9227     46.5734    206.4522   1.3387684745e+02   2.5275083253e+01    0.2364465    0.2283064 -16.99 0.0004730436    1.400    0.285
       196  -8.6717     31.8772    206.8542   1.3713808368e+02   2.6932711731e+01     0.186241    0.1564353 -64.08 0.0005641723    1.303    0.232
       197  -9.5305    183.4717    205.6681   1.0240851811e+02   2.7562675232e+00    0.2695446    0.2225909  -8.95 0.0005318386    1.295    0.228
       198 -10.0588    186.7915    201.2020   1.0084942759e+02   3.0653788443e+00    0.2508076    0.2295718  -7.90 0.0003293935    1.056    0.053
       199  -9.1990    156.5420    205.1647   1.0822228713e+02   7.7322909672e+00       0.2501    0.2214244   8.97 0.0004132921    1.207    0.172
       200  -8.8854    103.9937    205.4229   1.2046918598e+02   1.7035317207e+01    0.2452737    0.1943757 -43.19 0.0003584174    1.429    0.300
       201  -9.5261     86.4270    205.0468   1.2454910648e+02   1.9979457386e+01    0.2630006     0.216875  52.85 0.0009171626    1.167    0.143
       202  -9.2021    109.4153    203.4935   1.1888087289e+02   1.6568710638e+01    0.4191679     0.253431 -34.43  0.001580845    2.364    0.577
       203  -9.7056    139.8850    203.1402   1.1166328231e+02   1.1227675326e+01    0.3106157    0.2717482 -72.28 0.0003189102    1.221    0.181
       204  -9.3095    139.0281    199.0343   1.1112241046e+02   1.2311795012e+01    0.2570559    0.2098417  58.81 0.0004664223    1.283    0.221
       205  -8.6329    140.5134    195.5621   1.1013649530e+02   1.2827678779e+01    0.2254403    0.2132491 -44.16 0.0005290954    1.085    0.078
       206  -9.8603      6.3249    203.9586   1.4224898209e+02   3.0231372562e+01    0.2573668    0.1887238  11.36 0.0006070195    2.117    0.528
       207  -9.5609    179.1919    202.2596   1.0267664712e+02   4.2155898153e+00    0.2813303    0.2300892 -24.77 0.0003842224    1.264    0.209
       208  -7.8687     92.3982    203.2686   1.2287913474e+02   1.9455158208e+01    0.1395956    0.1142545 -11.30 0.0006979593    1.733    0.423
       209  -9.4883     55.9399    202.1779   1.3126206240e+02   2.5090020873e+01    0.2431293     0.203487 -52.60 0.0003977853    1.360    0.265
       210  -9.2127     21.0782    202.4259   1.3903487666e+02   2.9142689536e+01    0.2218935    0.1666919 -58.63 0.0007171615    1.436    0.304
       211 -10.3178    164.6901    199.8557   1.0540195758e+02   7.3742699018e+00    0.3952646     0.348368  88.02   0.00132009    1.355    0.262
       212  -8.1884    159.9693    200.9627   1.0666991975e+02   8.0088450296e+00    0.2034983    0.1719163  -0.99 0.0004518388    1.348    0.258
       213  -8.9298    144.4868    200.7645   1.1016854162e+02   1.0915147022e+01    0.2518467    0.1983485  37.76 0.0004814107    1.250    0.200
       214 -10.2112    132.0727    199.7587   1.1288484212e+02   1.3421221337e+01    0.3635184    0.2855157  -2.17   0.00174631    1.720    0.419
       215 -10.1138     98.0860    200.2561   1.2106225934e+02   1.9247081404e+01    0.3202395     0.239823 -76.51 0.0008611968    1.373    0.272
       216  -9.5650     69.2993    200.2790   1.2791146552e+02   2.3702994885e+01    0.2399295    0.2254217 -52.88 0.0003950673    1.248    0.198
       217  -8.3918     33.7584    201.4188   1.3617961044e+02   2.8003939810e+01    0.1503061    0.1291081  18.40 0.0003191243    1.577    0.366
       218  -8.4733    155.0249    200.4784   1.0769816797e+02   9.0292879426e+00    0.2161888    0.1429127  38.43 0.0003582989    1.489    0.328
       219  -8.6933     41.3048    199.7983   1.3431925764e+02   2.7510294579e+01    0.2105593    0.1633883 -28.11  0.000687988    1.906    0.475
       220  -8.7023     80.4385    199.1244   1.2511037781e+02   2.2331414339e+01    0.2081467    0.1953605  28.92 0.0004630474    1.254    0.202
       221  -8.3723     74.9068    198.8784   1.2639244973e+02   2.3224042158e+01    0.1975981    0.1828698 -53.26 0.0002993535    1.231    0.188
       222  -8.9179     49.3604    198.5072   1.3233255180e+02   2.6829176985e+01    0.2228585    0.2086926 -51.66 0.0007575709    1.304    0.233
       223  -8.5986      7.0455    197.9805   1.4161715187e+02   3.1545120265e+01     0.145787    0.1175161  83.13 0.0004123086    1.074    0.069
       224  -8.9116    149.0202    196.7609   1.0837858403e+02   1.0969827817e+01    0.2198358    0.1963257   2.87 0.0005014142    1.242    0.195
       225  -8.8943    124.6690    196.7620   1.1410833202e+02   1.5460347075e+01    0.2416029    0.1993246  25.39 0.0005754331    1.339    0.253
       226  -8.0003     27.5155    197.4590   1.3715607715e+02   2.9637858324e+01     0.129088    0.1065826 -84.52  8.67382e-05    1.061    0.057
       227  -8.0780     21.6407    197.7301   1.3847350172e+02   3.0190962595e+01    0.1180118   0.09061359 -45.35 0.0006996361    1.645    0.392
       228  -9.5177    176.3342    195.5381   1.0199702241e+02   6.1370622759e+00    0.2605037    0.2282788 -24.47  0.000460761    1.151    0.131
       229  -9.2695    169.8629    195.8960   1.0349011227e+02   7.2625300598e+00    0.2713796    0.2110894  41.74  0.000532715    1.290    0.225
       230  -8.5295     60.7235    196.0524   1.2937214834e+02   2.5932794807e+01    0.1927646    0.1614056 -72.50 0.0004260959    1.119    0.106
       231 -10.1187    184.1687    194.4059   1.0008199769e+02   4.9304605718e+00    0.3604783    0.2773594  31.36  0.001248396    1.324    0.245
       232  -9.6893    185.7707    188.9919   9.8662628289e+01   5.7608570768e+00    0.2729594    0.2523485 -40.14 0.0003485699    1.074    0.069
       233  -8.6703     16.9556    195.0525   1.3924207103e+02   3.1294847398e+01    0.1841476    0.1324351 -49.69 0.0004953708    1.640    0.390
       234  -9.8870    132.8943    193.2702   1.1151492980e+02   1.4770695040e+01    0.2545714    0.2366407 -33.52 0.0002749765    1.151    0.131
       235  -9.6274    112.3597    193.3031   1.1646845786e+02   1.8477672377e+01    0.3957236    0.2627579 -64.75  0.001004192    1.563    0.360
       236  -7.7863     74.3260    194.2519   1.2587246080e+02   2.4439901956e+01    0.1303107    0.1113959 -24.15 0.0002588086    1.545    0.353
       237  -8.4196    103.8519    198.2130   1.1935167942e+02   1.8770549704e+01    0.1866338    0.1726681 -23.72 0.0003510521    1.285    0.222
       238  -8.9810     35.9897    193.4453   1.3482151905e+02   2.9663753202e+01    0.2425988    0.1540132 -57.42 0.0006769178    1.550    0.355
       239  -8.8674     88.9200    195.9217   1.2259294009e+02   2.1784783650e+01    0.2134396     0.192008 -38.87 0.0004774591    1.299    0.230
       240  -8.0197    157.5154    192.5161   1.0561450932e+02   1.0319124659e+01    0.1485743    0.1442782  -2.69 0.0004171123    1.039    0.037
       241  -8.5055    152.1159    192.2384   1.0680263748e+02   1.1402666718e+01    0.2182944    0.1984239  -5.00 0.0005470923    1.200    0.167
       242  -9.1572    146.0449    191.1600   1.0800887001e+02   1.2795158415e+01    0.2531651    0.2144182 -52.60 0.0004900178    1.190    0.160
       243  -7.9660    124.8662    192.3717   1.1327506361e+02   1.6457045065e+01    0.2052114    0.1425486  26.56  0.000385021    1.665    0.399
       244  -8.2718     26.5901    192.1473   1.3681967848e+02   3.1007844823e+01    0.1835522   0.09704093 -60.94 0.0005650569    1.705    0.413
       245  -9.5205    161.9675    190.2702   1.0416137576e+02   9.9721411499e+00    0.2602078    0.2109668 -39.37 0.0003034355    1.245    0.197
       246  -7.8768    128.3297    191.2983   1.1224502197e+02   1.6075304568e+01    0.1502203    0.1207299 -10.35 0.0004810042    1.640    0.390
       247  -8.1391    104.7167    191.7002   1.1805854674e+02   2.0192932971e+01    0.1422525    0.1169431 -24.36 0.0002662738    1.549    0.354
       248  -9.1338     63.9206    190.1492   1.2780852130e+02   2.6943474660e+01    0.2302271    0.1876081 -56.96 0.0004452763    1.258    0.205
       249  -7.7299     49.4770    191.5036   1.3144976466e+02   2.8520738199e+01    0.1366901    0.1183088 -82.53 0.0005054087    1.049    0.047
       250  -9.2659     14.0312    190.9958   1.3950406091e+02   3.2537045020e+01     0.191764    0.1295492 -50.69 0.0005308489    1.681    0.405
       251  -9.4229    172.7352    189.1888   1.0153377684e+02   8.1646962540e+00    0.2587987    0.2292147 -33.52 0.0004406065    1.118    0.106
       252  -8.6530    139.8984    189.8450   1.0920724127e+02   1.4257705227e+01    0.2234927    0.2023341 -10.58 0.0004012099    1.245    0.197
       253  -7.7320     42.6477    190.6869   1.3295914241e+02   2.9557946700e+01     0.132539   0.09737177 -40.40 0.0007045621    1.729    0.422
       254  -8.0876     30.5703    190.4628   1.3573551617e+02   3.0988422026e+01    0.1310562     0.108431 -79.71 0.0001296251    1.070    0.066
       255  -7.7020     77.3623    189.3037   1.2440075847e+02   2.5205647441e+01    0.1425926     0.111838 -26.77 0.0007037521    1.730    0.422
       256  -9.5450    178.8843    187.6201   9.9870220683e+01   7.3392612852e+00     0.306494    0.2486569 -63.04 0.0004155167    1.398    0.285
       257  -9.1917    134.0789    187.2532   1.1010458366e+02   1.5957519522e+01    0.3225394     0.269036 -83.33  0.001560479    1.343    0.255
       258  -8.5736    134.4585    183.4388   1.0928024071e+02   1.6785021116e+01    0.2603639    0.2138088 -42.35 0.0001422424    1.259    0.206
       259  -8.4454     89.9185    188.3323   1.2114644011e+02   2.3484850240e+01    0.1911133    0.1830728  49.12 0.0003710027    1.134    0.118
       260  -8.4358      1.4160    187.8449   1.4196771076e+02   3.4398537067e+01    0.1724379   0.08738325 -65.78 0.0006401499    1.635    0.388
       261  -9.2028    156.9746    186.5588   1.0456960990e+02   1.1753865578e+01    0.2723826    0.2065025 -29.36 0.0005575701    1.481    0.325
       262  -8.8223     20.6759    186.3371   1.3756136849e+02   3.3009249343e+01     0.223976    0.1468046 -45.32 0.0005656586    1.843    0.457
       263  -9.2337    150.8852    185.6310   1.0579944456e+02   1.3134529130e+01    0.2381115    0.2034219 -35.28 0.0004098845    1.218    0.179
       264  -9.0725    128.4083    185.8260   1.1120580754e+02   1.7356031416e+01    0.2690235    0.2139501 -25.08 0.0005237598    1.537    0.349
       265 -13.1418    234.1137    174.6291   8.6285605769e+01   2.3654654341e-02     1.800729    0.8217031 -36.99  0.007720521    2.034    0.508
       266  -9.1600    166.8412    184.1272   1.0183247959e+02   1.0396120173e+01    0.2573092    0.2103599 -28.99 0.0004163844    1.293    0.226
       267  -8.9833    173.2046    183.8056   1.0034534933e+02   9.2420429750e+00    0.2384664    0.2243563 -74.43 0.0004538909    1.157    0.136
       268  -9.3415    172.1231    180.2304   9.9853864406e+01   1.0232461240e+01    0.5655583    0.2567286  28.17  0.001807022    3.462    0.711
       269  -9.1877    176.9108    179.0795   9.8558323133e+01   9.5555031473e+00    0.2678413    0.2092816 -35.76 0.0004409209    1.278    0.218
       270  -8.5193     34.4206    184.6851   1.3418765842e+02   3.1973368782e+01    0.1982352    0.1611556 -18.14 0.0008559907    1.765    0.434
       271  -8.5821    189.9339    183.8240   9.6734237313e+01   6.0638703528e+00    0.2190969    0.1873531  -8.62 0.0004704952    1.249    0.200
       272  -8.1243    103.8563    184.1440   1.1696321200e+02   2.2186982049e+01    0.1920195    0.1743989 -29.53 0.0002556336    1.268    0.212
       273  -7.9104     86.7281    184.6567   1.2134221317e+02   2.4906654616e+01    0.1456403    0.1110818 -34.93 0.0006864204    1.615    0.381
       274  -8.1343     26.6808    184.6618   1.3600105284e+02   3.2807628046e+01    0.1309971    0.0883738 -47.06 0.0006147117    1.709    0.415
       275  -8.7859    140.1333    183.2191   1.0787024188e+02   1.5755831636e+01    0.2321811    0.2036138 -12.10 0.0005677449    1.323    0.244
       276  -8.4541     95.4675    182.5688   1.1879454962e+02   2.4000624910e+01     0.265942    0.1233887 -47.56  0.001006961    2.276    0.561
       277  -8.1025     67.1947    182.8857   1.2595611780e+02   2.8289668745e+01    0.1872714    0.1614509 -41.25 0.0004596458    1.345    0.256
       278  -8.3837    154.8598    181.8867   1.0412394377e+02   1.3220238955e+01    0.2292163    0.2016655 -18.86 0.0003908426    1.248    0.199
       279  -9.1191    197.5220    180.9591   9.4570665440e+01   5.2445706246e+00    0.2432297    0.1982413  12.27 0.0004209871    1.372    0.271
       280  -9.4714    183.7430    180.8671   9.7444356737e+01   7.8569772239e+00    0.2565968    0.2284813  -1.77 0.0004760798    1.190    0.159
       281  -8.5329     54.9788    180.5455   1.2866260277e+02   3.0531340453e+01    0.3015949    0.1349437 -48.91  0.001220223    2.408    0.585
       282  -8.1161     46.7820    181.4169   1.3080454569e+02   3.1344283727e+01    0.1599351    0.1360542   7.76 0.0004456688    1.573    0.364
       283  -9.2482    160.1659    179.8318   1.0247836387e+02   1.2652080582e+01    0.2162068    0.2041963 -73.35 0.0003956296    1.108    0.098
       284  -8.1038     77.2992    180.6994   1.2307676564e+02   2.7358004337e+01    0.1489386    0.1057235  74.56 0.0002232543    1.581    0.367
       285  -8.2204    165.5131    179.2130   1.0112961469e+02   1.1745628152e+01    0.1967829    0.1425379 -34.08 0.0002581352    1.467    0.318
       286  -9.1108    145.7918    178.8810   1.0565288999e+02   1.5677069499e+01    0.2253395    0.2079518 -14.39 0.0005154543    1.181    0.153
       287  -8.2650     34.8117    179.3940   1.3346306897e+02   3.3230477174e+01    0.1561816    0.1317843   4.96 0.0004276333    1.621    0.383
       288  -8.4616     20.1874    179.5813   1.3696602085e+02   3.4689714743e+01    0.1490507    0.1264967  -5.96 0.0005490658    1.667    0.400
       289  -9.8409    190.6901    176.8135   9.5130323796e+01   7.3909790881e+00    0.2971386    0.2606576  31.10    0.0003168    1.186    0.157
       290  -9.6446    193.0355    171.4176   9.3510140520e+01   8.0785404624e+00    0.2987476    0.2051925 -41.66 0.0003337811    1.381    0.276
       291  -9.5948    134.2667    177.2795   1.0811512892e+02   1.8283770873e+01    0.3271542    0.2656043  86.26   0.00093103    1.453    0.312
       292  -7.9258     42.5926    178.7238   1.3148072890e+02   3.2513521161e+01    0.1341667   0.09851645 -34.53 0.0004304973    1.776    0.437
       293  -8.3940     26.2067    177.8373   1.3534867963e+02   3.4520600318e+01    0.1786694    0.1364842 -54.15 0.0005451158    1.359    0.264
       294  -8.8103    169.5151    176.5036   9.9665088041e+01   1.1564592552e+01    0.2694653    0.2053376 -35.00 0.0005351693    1.349    0.259
       295  -8.0892     64.9952    177.7657   1.2573875106e+02   2.9881405023e+01    0.1758376     0.119386  36.34 0.0004619434    1.588    0.370
       296  -8.5595      6.5751    177.2447   1.3987598623e+02   3.6474153619e+01    0.1772864   0.09075742 -64.36 0.0006274551    1.604    0.377
       297  -8.4770    181.4888    161.5469   9.3833631874e+01   1.2474574603e+01    0.2471814    0.1788726  -4.55 0.0001955798    2.023    0.506
       298  -8.9285    183.9080    158.3378   9.2613596056e+01   1.2683502492e+01    0.3366427    0.2094947 -50.36  0.001399805    1.577    0.366
       299 -10.6419    175.7684    172.0582   9.7339954642e+01   1.1314191593e+01    0.5676516    0.5229511 -12.27  0.002857819    1.133    0.117
       300 -10.0294    178.7187    166.6657   9.5542433146e+01   1.1911444311e+01    0.4207003    0.3526406  -0.93  0.001369942    1.409    0.290
       301  -9.7988    182.6615    173.9451   9.6236338897e+01   9.5499526588e+00    0.3751669     0.303197  -8.36 0.0009091079    1.465    0.317
       302  -9.4761    187.5241    171.0011   9.4576716155e+01   9.2344421472e+00    0.3171972    0.2531898 -40.29  0.001152958    1.197    0.165
       303  -9.3083    183.8335    169.7861   9.5104580177e+01   1.0218142790e+01    0.2794926    0.2584959 -59.15 0.0005422364    1.114    0.103
       304  -9.3094    150.0477    175.5084   1.0395295756e+02   1.5628066790e+01    0.2714847    0.2128526 -32.30 0.0004447968    1.392    0.281
       305  -9.0810    101.0159    176.0172   1.1622047578e+02   2.4688019977e+01    0.2157556    0.1994102 -87.81  0.001159558    1.039    0.038
       306  -9.4385    197.7852    174.9415   9.3271609396e+01   6.4374619450e+00     0.245653    0.2129598  18.84 0.0005003709    1.235    0.190
       307  -8.7083    139.9084    175.0481   1.0629042670e+02   1.7722641932e+01    0.2265275    0.2219238 -31.05  0.000358575    1.055    0.053
       308  -7.7341    112.3566    175.2932   1.1319304473e+02   2.2862747168e+01    0.1537947    0.1223952 -13.13 0.0007030537    1.690    0.408
       309  -7.7108     47.6479    175.6748   1.2981671640e+02   3.2669484685e+01    0.1406045   0.09874596 -38.31 0.0007047775    1.760    0.432
       310  -8.2408     38.0066    174.8031   1.3210529090e+02   3.4012297117e+01    0.2062346    0.1444889 -30.18  0.001019543    1.986    0.497
       311  -9.7287    161.3901    173.8364   1.0095523757e+02   1.3768129757e+01    0.2709161    0.2367425  16.17  0.000397591    1.262    0.207
       312  -8.9861    129.0062    172.7564   1.0850527455e+02   2.0377327374e+01    0.2493423    0.2172801 -49.68 0.0004146209    1.140    0.123
       313  -8.7998     24.1586    172.3375   1.3520592281e+02   3.6071911061e+01     0.223211    0.1746626 -39.96 0.0007901434    1.539    0.350
       314  -8.3678     89.7041    171.9505   1.1840407930e+02   2.7605624389e+01    0.2121938    0.1749861 -59.04 0.0005692959    1.158    0.136
       315  -8.7295      8.5145    171.9757   1.3890869849e+02   3.7574263674e+01     0.191492    0.1002822 -71.90 0.0004496733    1.515    0.340
       316  -7.9634    107.4637    171.4813   1.1371376773e+02   2.4684513289e+01    0.1520302    0.1459695 -61.80 0.0008086222    1.056    0.053
       317  -7.8505    102.4716    171.4833   1.1500260459e+02   2.5564896325e+01    0.1519485    0.1438996 -45.99 0.0008071703    1.117    0.105
       318  -7.9512     76.5040    171.4878   1.2176598198e+02   2.9795604470e+01    0.1468325    0.1348011 -69.14 -2.758836e-05    1.054    0.051
       319  -8.9496    201.0979    170.0086   9.1566637132e+01   6.8321932082e+00    0.2619787    0.1860887 -36.38 0.0008597806    1.350    0.259
       320  -8.3153    143.2324    169.7469   1.0438926473e+02   1.8322706000e+01    0.2066462    0.1813542 -15.27 0.0004484655    1.305    0.234
       321  -8.0400    119.4727    170.0255   1.1035422052e+02   2.2847256242e+01    0.2229653    0.1490483 -52.90 0.0003906477    1.459    0.315
       322  -7.8575     62.4774    170.5236   1.2526464810e+02   3.2052519790e+01    0.1436051    0.1278687 -62.94 0.0003001802    1.100    0.091
       323  -8.8142    197.1584    168.3506   9.2013670340e+01   7.9289022746e+00    0.2510844     0.187754 -34.29 0.0003873127    1.309    0.236
       324  -9.8154    199.5532    162.8375   9.0354074701e+01   8.6174316915e+00    0.3865614     0.252847 -44.91 0.0007325711    1.429    0.300
       325  -8.7395    158.1668    169.0937   1.0070034170e+02   1.5493143748e+01    0.2345389    0.2045909 -11.35   0.00055503    1.305    0.234
       326  -8.2792     94.6161    169.5181   1.1667820446e+02   2.7402702840e+01    0.1507142     0.138561 -69.32 0.0001070184    1.032    0.031
       327  -9.7167    205.1447    167.1565   9.0159599079e+01   6.6532444914e+00     0.261621    0.2230426 -17.66 0.0003081023    1.230    0.187
       328  -8.6371    134.8950    167.8894   1.0604383818e+02   2.0407575697e+01    0.2366081    0.2070464 -17.66 0.0004740101    1.318    0.241
       329  -8.5271      2.8253    173.3668   1.4036528048e+02   3.7702777350e+01    0.1424077    0.1194874  -6.60 0.0007187392    1.700    0.412
       330 -10.7042    218.6918    165.6691   8.7250989067e+01   4.4403127947e+00    0.2941043    0.2512806 -21.61 0.0004868081    1.174    0.148
       331  -9.2685    169.8124    166.5569   9.7490779976e+01   1.3723744126e+01    0.2640465    0.2072281 -43.87 0.0003461023    1.237    0.192
       332  -8.5122    150.2914    167.0184   1.0211470989e+02   1.7554909811e+01    0.2174456    0.1932961 -43.90 0.0003532873    1.114    0.102
       333  -8.0474     85.0008    167.5073   1.1883808863e+02   2.9483909720e+01    0.2000247    0.1501683  32.73 0.0004578939    1.463    0.316
       334  -8.5336      8.5401    167.5296   1.3844430634e+02   3.8642045038e+01     0.127679    0.1007207 -76.30 8.998721e-05    1.036    0.035
       335  -8.3820    165.0366    166.0516   9.8463784077e+01   1.4801674921e+01    0.2350977    0.1866014 -11.88 0.0004745828    1.574    0.365
       336  -8.5894    127.8202    166.1546   1.0745042602e+02   2.2203008211e+01    0.2069406    0.1808795 -23.35  0.000329512    1.300    0.231
       337  -7.9375     90.6893    166.6387   1.1717561263e+02   2.8780616013e+01    0.1563139    0.1147891 -28.94 0.0007041113    1.746    0.427
       338  -7.9149     45.0018    165.4550   1.2904604291e+02   3.5545755686e+01    0.1723478    0.1159886 -19.26  0.000483934    2.315    0.568
       339  -9.7327    192.0460    162.9605   9.1911090318e+01   1.0061646359e+01    0.3165233    0.2194016 -33.62 0.0005111589    1.477    0.323
       340  -9.2618    184.9421    163.5618   9.3531986000e+01   1.1343654149e+01    0.2695333    0.2039841 -28.40 0.0005779405    1.423    0.297
       341  -9.0583    120.2328    163.3163   1.0879231122e+02   2.4348772229e+01    0.2460424    0.2282232 -20.61 0.0004041723    1.195    0.163
       342  -8.5340    159.2325    163.3376   9.9214071655e+01   1.6597610799e+01     0.227293    0.1908446  22.17 0.0005761295    1.338    0.253
       343  -7.9662    111.2752    163.3391   1.1111717451e+02   2.6015028887e+01    0.1554943    0.1200489 -25.67 0.0002407798    1.612    0.380
       344  -7.9274     80.4982    163.5749   1.1932380682e+02   3.1185533161e+01    0.1472957    0.1374656 -66.17 0.0001043913    1.048    0.046
       345 -10.4664    213.1477    160.3507   8.7174142875e+01   6.5280785267e+00    0.3408681    0.2419385 -44.76 0.0003891444    1.289    0.224
       346  -8.4579    172.7067    162.4223   9.5947096671e+01   1.4060891121e+01    0.2022775    0.1491985  30.35  0.000478374    1.518    0.341
       347  -9.8623    221.4731    160.3159   8.5621484919e+01   4.9912963606e+00    0.2639028    0.2315205 -29.50 0.0003145387    1.084    0.078
       348  -9.0899    163.5834    160.1985   9.7521810493e+01   1.6424981271e+01    0.2694641    0.2419277   6.06 0.0003327573    1.253    0.202
       349  -8.0439    146.5928    161.4854   1.0181185518e+02   1.9596736738e+01    0.1561509    0.1492026 -38.19 0.0001105216    1.059    0.056
       350  -8.3727      9.4876    161.4856   1.3756268461e+02   4.0024184836e+01    0.1286537    0.1016755 -72.28 0.0006393001    1.055    0.052
       351  -7.9363      5.6800    161.6806   1.3851668217e+02   4.0277139436e+01    0.1276992   0.07848322 -49.15 0.0005120088    1.665    0.399
       352 -10.1639    205.4298    159.3311   8.8439177844e+01   8.2061668489e+00    0.2789348    0.2681439   8.32  0.000448261    1.107    0.097
       353  -8.3856    153.1530    160.0931   9.9934757113e+01   1.8586793015e+01    0.2309375    0.2051712 -17.88 0.0002844546    1.251    0.201
       354  -7.9985     31.4947    160.4396   1.3185453334e+02   3.8278456144e+01    0.1352146    0.1125676 -64.32 0.0004447095    1.097    0.088
       355  -8.5085    191.7306    157.9535   9.0889977877e+01   1.1189681315e+01    0.2140275    0.1898181 -42.62 0.0006058287    1.062    0.058
       356  -9.6361    176.7443    156.9773   9.3859620908e+01   1.4443070354e+01    0.2681286    0.2418035 -19.64 0.0003858964    1.181    0.153
       357  -8.7437    168.0588    157.6748   9.5945277324e+01   1.6075143875e+01    0.2113433    0.2014072  32.29 0.0004829514    1.095    0.087
       358  -8.6763    159.0039    158.1650   9.8132701442e+01   1.7830696267e+01    0.2342197    0.2066571  -8.26 0.0004585359    1.299    0.230
       359  -8.7044    136.1574    157.8480   1.0358506641e+02   2.2563541626e+01    0.2083303     0.184891 -20.02 0.0003620572    1.267    0.211
       360 -10.7073    133.2096    146.8943   1.0188190197e+02   2.5774659722e+01    0.7346544    0.4231735 -61.95   0.00227553    2.049    0.512
       361 -10.3836    131.9921    140.0937   1.0061937938e+02   2.7635193202e+01    0.5240132    0.3371294 -62.80  0.001663458    1.777    0.437
       362  -7.9021     55.4728    158.5110   1.2519233154e+02   3.6012098291e+01    0.1436418    0.1249063 -58.29 0.0002386018    1.101    0.092
       363 -10.6444     24.0325    156.1992   1.3322965015e+02   4.0054984450e+01     0.450436    0.2791956 -27.81  0.002249842    2.291    0.563
       364  -9.8747    197.1983    154.7878   8.9085558421e+01   1.0766639297e+01    0.2979158    0.2399147 -33.41 0.0004355134    1.229    0.186
       365  -9.7975    165.2363    154.2247   9.5817151180e+01   1.7437765936e+01    0.4681955    0.3816856   3.17  0.002207763    1.558    0.358
       366  -8.3418     99.0769    156.2967   1.1291976514e+02   2.9954552450e+01    0.2039894    0.1925362  36.24 0.0004974274    1.134    0.118
       367  -7.9714     61.2799    156.3272   1.2324520103e+02   3.5803136775e+01    0.1452432    0.1026227 -38.32 0.0002872279    1.597    0.374
       368  -8.2430     39.6616    156.6640   1.2916042337e+02   3.8354737180e+01    0.1432925   0.09327422 -39.74 0.0007051438    1.753    0.429
       369  -9.5581     18.0760    155.3782   1.3467120849e+02   4.0792181426e+01     0.278413    0.1517558 -88.05  0.001340618    1.936    0.483
       370  -8.9561    221.9807    154.9774   8.4409296109e+01   5.9513959806e+00    0.2083049    0.1883195 -39.51 0.0003473707    1.014    0.013
       371  -9.5424    216.1172    154.3613   8.5347768862e+01   7.1718762003e+00    0.2565415    0.2050468 -38.25 0.0002913588    1.148    0.129
       372  -8.5809    113.4699    155.0507   1.0881610575e+02   2.7657248960e+01    0.2348379    0.1479517 -50.19 0.0005008026    1.532    0.347
       373  -8.4821      5.1889    155.0292   1.3791269610e+02   4.1913598451e+01    0.2157747     0.100177 -50.81 0.0008217908    2.031    0.508
       374  -8.3795    211.7197    154.0417   8.6099283775e+01   8.0749865154e+00    0.2078449    0.1700021 -42.96 0.0003418766    1.113    0.102
       375  -9.0080    211.8701    150.1869   8.5242289254e+01   8.8268845012e+00    0.3355081     0.223967 -22.54 0.0003649788    1.898    0.473
       376  -9.7631    214.9671    146.9300   8.3967934550e+01   8.8830927777e+00    0.2595772    0.2133002 -46.16 0.0003710382    1.102    0.093
       377  -9.0645    187.8432    153.3987   9.0695102656e+01   1.2949740151e+01    0.3018119    0.2042117 -37.70 0.0006580558    1.464    0.317
       378  -9.1337    206.0918    152.4325   8.6823632718e+01   9.4962005711e+00    0.2595175    0.1916933 -29.63 0.0004033991    1.419    0.295
       379  -8.2859    192.6937    152.9058   8.9584914871e+01   1.2069401119e+01    0.2102223    0.1841113 -45.09 0.0005395945    1.072    0.067
       380  -8.5953    128.0643    155.7447   1.0517105951e+02   2.4678827405e+01     0.210421    0.2051992  32.17 0.0003729761    1.078    0.072
       381  -9.2020    143.3290    147.2390   9.9427366608e+01   2.3614454751e+01    0.2976829    0.2194098 -33.78 0.0007023757    1.488    0.328
       382  -9.5627    221.3358    150.6074   8.3601874588e+01   6.9351258153e+00    0.3001195    0.2201412 -35.96 0.0009391985    1.280    0.219
       383 -10.0187    223.6494    144.7029   8.1939989090e+01   7.6625691957e+00    0.2826405    0.2433694 -18.16 0.0004958691    1.285    0.221
       384  -9.1882    157.1898    151.0729   9.6968434647e+01   1.9834269084e+01    0.2374973    0.2102786 -18.17 0.0005222456    1.260    0.206
       385  -8.3949    151.8721    151.1688   9.8249947432e+01   2.0921918286e+01    0.2067489    0.1853004  -1.31 0.0002622616    1.283    0.221
       386  -8.3392    107.9729    151.3066   1.0947984706e+02   2.9601461966e+01    0.2063491    0.1942217  35.55 0.0003705947    1.125    0.111
       387  -7.7952     37.6821    151.6959   1.2894531584e+02   3.9809116694e+01    0.1382116   0.09337723 -40.25 0.0002459116    1.627    0.385
       388  -8.0830    176.4487    150.3965   9.2454652286e+01   1.5955104193e+01    0.1512383    0.1466311 -32.66 0.0001942577    1.045    0.043
       389  -9.7265    144.9400    151.2511   9.9945273589e+01   2.2340208258e+01    0.3074598    0.2733562 -68.19 0.0004056658    1.153    0.133
       390  -8.2377     59.6737    150.3032   1.2263382382e+02   3.7535927664e+01    0.1459337     0.105605  74.27 0.0002617658    1.643    0.391
       391  -9.0568    197.0489    148.1744   8.7661108267e+01   1.2185440434e+01    0.2457494    0.1992823 -41.66 0.0003103938    1.158    0.137
       392  -8.6852    121.9558    148.5922   1.0517155188e+02   2.7611598813e+01    0.2154935    0.1937379  41.51 0.0004288503    1.151    0.131
       393  -9.4939     67.9587    149.0056   1.2007353223e+02   3.6728999619e+01    0.2317132    0.1661655 -31.82 0.0005195843    1.663    0.399
       394  -9.1839     54.1273    149.1600   1.2398394334e+02   3.8536867142e+01    0.2270778    0.1970279 -61.86 0.0007589236    1.038    0.037
       395  -9.7360      7.6008    149.7033   1.3668362606e+02   4.3015845302e+01    0.3024089     0.084087  31.04   0.00123662    3.704    0.730
       396  -8.9591    161.9974    147.4296   9.5019873399e+01   1.9654356025e+01     0.277145    0.2109227 -31.99 0.0002361317    1.426    0.299
       397  -9.4527    190.8277    146.4218   8.8525119472e+01   1.3828713402e+01    0.2837476    0.2540122  14.57  0.001191259    1.278    0.217
       398  -8.4844    150.0480    146.9778   9.7731134275e+01   2.2273742697e+01    0.2315612    0.1909808  -9.57 0.0003304681    1.515    0.340
       399  -8.3717    202.6937    149.8263   8.6913619186e+01   1.0705867075e+01    0.2316418    0.1722878 -28.11 0.0006110231    1.453    0.312
       400  -9.2032    182.0236    148.0709   9.0730202612e+01   1.5301027759e+01    0.2263461    0.2129617 -37.15 0.0003224805    1.052    0.049
       401  -8.7989    176.1830    144.4120   9.1153763683e+01   1.7325756996e+01    0.2528684    0.2000774 -36.76 0.0005678062    1.273    0.214
       402  -9.4118    208.3990    143.1336   8.4358208089e+01   1.0942163051e+01    0.2541715    0.2282504 -11.42 0.0005268045    1.253    0.202
       403  -7.7147     81.2783    144.3681   1.1539744798e+02   3.5899743492e+01     0.156024    0.1096101 -32.00 0.0007010305    1.684    0.406
       404  -9.4204     50.7924    147.3873   1.2461257878e+02   3.9392453241e+01    0.1978472     0.142995  30.51 0.0005371293    1.574    0.365
       405  -8.4702    218.7885    142.9275   8.2417247101e+01   8.9425640577e+00    0.2087946    0.1792929 -26.39 0.0004419362    1.217    0.178
       406  -8.9290    200.2171    143.1541   8.5924070837e+01   1.2588416305e+01    0.2137272    0.1905757 -28.50  0.000320331    1.157    0.136
       407  -8.8383    171.9045    143.0571   9.1779171512e+01   1.8531355483e+01    0.2305696    0.2205544 -28.48 0.0004438294    1.082    0.076
       408  -8.2323    120.0676    143.0800   1.0442223196e+02   2.9314061650e+01    0.1837088    0.1755028 -54.48 0.0003542404    1.020    0.020
       409  -9.8152     73.5098    142.6702   1.1726544913e+02   3.7511767457e+01    0.2830732    0.2117126 -20.26  0.000768735    1.716    0.417
       410  -8.4724    194.4996    141.9664   8.6784692434e+01   1.4010955220e+01    0.2259684    0.1415391 -42.82  0.000498108    1.501    0.334
       411  -9.7759    138.8888    141.1708   9.9123749858e+01   2.5958116718e+01    0.3241504    0.2987257  54.97 0.0004045912    1.112    0.100
       412  -9.5361    137.5254    136.1058   9.8268457849e+01   2.7422690533e+01    0.3894855    0.2567737 -30.17  0.001359398    1.856    0.461
       413  -8.9123    214.0176    140.6751   8.2786854018e+01   1.0323657181e+01     0.230922    0.1858542 -32.40 0.0004303399    1.250    0.200
       414  -9.1933    155.5158    140.8693   9.5009941092e+01   2.2518658814e+01    0.2717615    0.2369048  -5.13 0.0004432259    1.366    0.268
       415  -8.4024    147.7296    141.4247   9.7002698551e+01   2.4044901953e+01    0.2112497    0.1533611  31.60 0.0007478768    1.561    0.359
       416  -8.3998      4.6602    141.6621   1.3647839516e+02   4.5157252053e+01    0.1338128   0.07453126 -46.06 0.0007050646    1.761    0.432
       417  -8.6233    203.6148    139.9472   8.4558161362e+01   1.2557773073e+01    0.2094043    0.1688649 -42.66   0.00042208    1.153    0.133
       418  -9.1903    224.5065    138.4604   8.0463105665e+01   8.7214666318e+00    0.2361372    0.2103289 -42.85 0.0001504187    1.044    0.042
       419  -8.4491    186.9057    138.8604   8.7617672904e+01   1.6256201964e+01    0.2197519    0.1999588 -20.98 0.0003099345    1.193    0.162
       420  -8.3455    181.4777    139.4838   8.8890215471e+01   1.7273527638e+01    0.1535763     0.146067 -43.43  0.000128582    1.041    0.039
       421  -8.9234    166.3062    138.4296   9.1951529997e+01   2.0753181574e+01    0.2468833    0.2264666  -3.49 0.0003638476    1.237    0.191
       422  -7.9815     33.3030    139.3250   1.2821882667e+02   4.3323703552e+01    0.1401622    0.0887237 -41.07 0.0004616343    1.640    0.390
       423  -8.5369    152.0021    137.6679   9.5088573784e+01   2.3996788296e+01    0.2124683    0.2019223  50.84 0.0004156422    1.082    0.075
       424  -7.8665    109.3098    138.3873   1.0624406840e+02   3.2515457561e+01     0.164859    0.1204321 -20.40 0.0007016523    1.816    0.449
       425  -7.5883     99.3139    138.7256   1.0909062729e+02   3.4265350075e+01    0.1516277    0.1192937  77.27 0.0002427694    1.560    0.359
       426 -11.1573     68.9500    136.2163   1.1727293760e+02   3.9779008535e+01     0.470746    0.3464206  78.71  0.001580522    1.748    0.428
       427  -9.0543    217.5691    132.3509   8.0344249847e+01   1.1274237274e+01    0.3554943    0.2564546   0.85  0.001585369    2.322    0.569
       428  -8.9527    146.9844    136.7845   9.6087700806e+01   2.5269047571e+01    0.2598531    0.2182848 -45.54 0.0003742788    1.165    0.142
       429  -9.7386    208.2506    135.7573   8.2761621451e+01   1.2468141677e+01    0.2552674    0.2530263 -85.77 0.0003606163    1.099    0.090
       430  -8.2888    143.1370    135.8200   9.6800459021e+01   2.6307196202e+01    0.2117433     0.187323 -12.99 0.0004546586    1.300    0.231
       431  -8.0968      5.6830    136.6934   1.3557161601e+02   4.6272432809e+01    0.1296612   0.07628053 -46.04 0.0004688394    1.630    0.387
       432  -8.9576    198.5930    134.5073   8.4301749666e+01   1.4711846603e+01    0.3348507    0.2608016 -77.68  0.001079445    1.535    0.349
       433  -8.0635    198.4082    130.5280   8.3436265981e+01   1.5567884205e+01    0.1494495    0.1372108 -46.82 2.909724e-05    1.046    0.044
       434  -9.6150    192.9128    134.7637   8.5469934181e+01   1.5850543995e+01     0.263924    0.2047679 -49.18 0.0003436007    1.209    0.173
       435  -8.6503    172.2826    135.0415   8.9830857027e+01   2.0208362807e+01     0.221259    0.1914106 -48.68 0.0004119989    1.108    0.098
       436  -8.3574    127.1473    134.8185   1.0062467574e+02   2.9866738802e+01    0.2103624    0.1858635  -5.22  0.000326801    1.317    0.241
       437  -8.9386    187.9882    133.5601   8.6180643887e+01   1.7147620077e+01    0.2841795    0.2057549 -29.30  0.000520714    1.558    0.358
       438  -9.1402    158.5299    126.4522   9.0859393067e+01   2.5085005634e+01    0.1555571    0.1499804 -68.02 4.113571e-05    1.006    0.006
       439  -9.0820    163.5221    133.4812   9.1411682603e+01   2.2449759885e+01    0.2665375    0.2441507 -43.15 0.0005339616    1.079    0.073
       440  -9.5666    160.8546    129.7783   9.1132107936e+01   2.3846499913e+01    0.3713865    0.2401819 -39.40  0.001590649    1.573    0.364
       441  -8.6100    155.8944    133.9899   9.3291854096e+01   2.3989831356e+01    0.2342572    0.2122645 -20.62  0.000469071    1.213    0.176
       442  -8.0470     75.2967    134.2922   1.1500807949e+02   3.9319012831e+01    0.1469837     0.109917 -27.22 0.0002684983    1.560    0.359
       443  -8.1453     21.5790    134.5098   1.3080931469e+02   4.5578769306e+01    0.1330701    0.1067258 -61.03 0.0001084041    1.042    0.040
       444  -8.5188    149.9212    133.2201   9.4524500781e+01   2.5451226884e+01    0.2369009    0.2104098  89.48 0.0005516433    1.226    0.185
       445  -9.4860    129.3967    106.7960   9.2967041223e+01   3.5682049612e+01    0.3080337    0.2280959  57.17 0.0003044772    1.451    0.311
       446 -10.1135    136.6065    130.1961   9.7074297571e+01   2.8978156374e+01    0.3842266    0.2870667 -33.94 0.0009691552    1.446    0.309
       447 -11.3200    134.2889    122.2706   9.5701853618e+01   3.1264591876e+01     1.072633     0.411043 -52.19  0.003444331    2.866    0.651
       448  -7.9596    120.2824    133.3279   1.0208297012e+02   3.1599994544e+01    0.1570474    0.1233271 -16.90  0.000327571    1.603    0.376
       449  -9.4869    226.0268    131.6525   7.8753557847e+01   9.7504098419e+00    0.3429893    0.2173055 -27.81 0.0003912853    1.900    0.474
       450 -10.5532    233.2523    126.7744   7.6548561799e+01   9.2941249982e+00    0.5084451    0.2998048 -32.03 0.0006012119    1.875    0.467
       451  -8.3399    183.3504    136.2692   8.7757347345e+01   1.7563598323e+01    0.1503659    0.1222921   6.11 0.0005781665    1.625    0.385
       452  -9.8369    179.4704    129.8953   8.7082473109e+01   1.9757067704e+01    0.2731922    0.2604451 -28.88 0.0003855669    1.111    0.100
       453  -8.6943    114.3627    131.0299   1.0313087458e+02   3.3308436892e+01    0.2224194    0.1880531 -48.02  0.000544658    1.145    0.126
       454  -8.1847     32.4635    131.5133   1.2715788834e+02   4.5315017770e+01    0.1376646    0.1119082 -52.98 0.0001253321    1.091    0.083
       455  -8.7441    125.8233    129.5751   9.9705771468e+01   3.1361129837e+01    0.3655691    0.1804605 -46.46  0.001201075    1.974    0.493
       456  -8.9237    121.4177    126.8050   1.0019574972e+02   3.2897936409e+01    0.2735408    0.2167551  28.61 0.0005685058    1.397    0.284
       457  -8.6842    124.4597    124.4857   9.8811544830e+01   3.2813230815e+01    0.2864818    0.1982932 -47.26  0.000782162    1.409    0.290
       458  -9.5164    218.9228    136.0623   8.0913315274e+01   1.0275079151e+01    0.2736984    0.2058174 -34.62 0.0004236658    1.316    0.240
       459 -10.1704     66.5641    126.4111   1.1590823475e+02   4.2514089644e+01    0.3065949    0.2178764 -80.40  0.001462526    1.737    0.424
       460 -10.1754    134.0078    113.5633   9.3555819633e+01   3.3245285979e+01    0.4555232    0.2549165 -37.16  0.001214673    1.934    0.483
       461 -10.3145    133.8668    107.6630   9.2053093574e+01   3.4538514100e+01    0.6552779    0.3174187 -35.85  0.002019259    2.381    0.580
       462  -8.7852    154.7887    128.2442   9.2164745964e+01   2.5509371867e+01    0.2120133    0.1866142 -13.78 0.0006881122    1.317    0.241
       463  -8.3235     23.5074    128.4916   1.2929322477e+02   4.6864611520e+01    0.1334445    0.1087403 -57.85 -7.835983e-06    1.037    0.036
       464  -9.0996     14.5220    128.5090   1.3192696490e+02   4.7586528868e+01    0.1307312    0.1037683 -59.46 7.029706e-05    1.045    0.043
       465  -9.8710    227.7515    123.1592   7.6657738844e+01   1.1041395586e+01    0.3139059    0.2450817  52.12 0.0004405623    1.446    0.308
       466 -10.0645    221.5686    126.4497   7.8379469346e+01   1.1631020656e+01    0.3276845    0.2728009  27.43  0.001784777    1.522    0.343
       467  -8.2744    217.9810    124.2447   7.8504741026e+01   1.2777714743e+01    0.1897936    0.1805443 -65.99 0.0004033704    1.077    0.071
       468  -8.7745    192.5482    127.0724   8.3777368870e+01   1.7522298444e+01    0.2457199    0.2083571  28.08 0.0004813342    1.404    0.288
       469  -8.7303    186.7374    127.2645   8.4973753089e+01   1.8734369965e+01    0.1975645    0.1774917   6.16 0.0004810934    1.340    0.254
       470  -8.7941    171.9867    127.0328   8.7996816111e+01   2.2002315652e+01    0.2301591    0.2242845 -14.56 0.0004121042    1.111    0.100
       471  -8.0894    165.5204    126.5433   8.9298456625e+01   2.3528869335e+01    0.1540509    0.1498252 -47.28 0.0001296385    1.049    0.046
       472  -9.1222    200.0258    124.9379   8.1858994856e+01   1.6362498899e+01    0.2182161    0.2064319 -40.30  0.000354106    1.098    0.089
       473  -9.7070    151.9858    124.3723   9.1876362661e+01   2.6975788812e+01    0.2950483    0.2234981 -38.65 0.0005759554    1.346    0.257
       474  -8.5465    107.9501    123.8785   1.0316302317e+02   3.6222705194e+01    0.2261994    0.1999304 -14.53 0.0003273038    1.252    0.201
       475  -8.5356    170.0035    122.9977   8.7455895984e+01   2.3299581073e+01    0.2328788    0.1908689  -4.17 0.0004004523    1.612    0.380
       476  -8.0962    146.4923    123.5149   9.2979090500e+01   2.8363636316e+01    0.1553686     0.152053 -37.99  0.000809959    1.049    0.047
       477  -8.3321    128.0338    122.0203   9.7253987525e+01   3.2635670411e+01    0.2355352    0.1882589 -10.82 0.0004443025    1.592    0.372
       478  -8.9135      2.0104    121.9622   1.3460281540e+02   4.9980865298e+01    0.2086056    0.1100887 -45.00 0.0009509358    1.725    0.420
       479  -9.5084    212.5953    120.4869   7.8598304055e+01   1.4610440383e+01    0.2469763    0.2263998 -38.41 0.0008589852    1.138    0.121
       480  -9.2632    187.9653    121.0096   8.3265296791e+01   1.9758294081e+01    0.2225401    0.2111428 -56.43 0.0003069484    1.038    0.036
       481  -8.5826    117.0053    120.9744   9.9935334728e+01   3.5124579065e+01    0.2466248    0.1903553 -10.12 0.0008120987    1.703    0.413
       482  -8.9169    202.8484    119.3592   8.0068985032e+01   1.6878186866e+01    0.2453476    0.2094909 -81.00 0.0004554463    1.230    0.187
       483  -9.1079    179.7622    122.1586   8.5190799163e+01   2.1320976303e+01    0.3348459    0.2122545 -31.23  0.001188464    1.845    0.458
       484  -7.7973     88.7121    120.6887   1.0793204536e+02   4.0440266606e+01    0.1506923    0.1135015 -21.45 0.0003628102    1.580    0.367
       485  -8.1746     12.6417    120.6911   1.3126585478e+02   4.9573945300e+01    0.1356385   0.07689702 -40.11 0.0007041792    1.733    0.423
       486  -9.2082    223.3937    110.7853   7.4689082395e+01   1.4242605791e+01     0.309295    0.2204963   8.79   0.00115613    2.761    0.638
       487 -10.4445    226.3414    116.0962   7.5370020595e+01   1.2654504469e+01    0.4946071    0.3130693 -53.65  0.002442414    1.462    0.316
       488 -11.0529    230.6031    114.1981   7.4303069425e+01   1.2162975485e+01    0.6747254    0.2570027 -48.52  0.002509351    2.389    0.581
       489  -8.2406    220.2600    119.0016   7.6978881403e+01   1.3327176994e+01    0.1998394     0.162606 -50.38 0.0003627739    1.095    0.087
       490  -8.9025    193.9603    118.8590   8.1603083233e+01   1.8888778745e+01    0.2113639    0.1986995 -11.70 0.0003324142    1.230    0.187
       491  -8.1157    170.2930    119.2984   8.6495827688e+01   2.4016307010e+01    0.1486181    0.1241486  -0.20 0.0002918107    1.564    0.361
       492  -8.8329    173.8990    117.7889   8.5361851349e+01   2.3528436787e+01    0.2600285    0.2051473  39.38 0.0005866864    1.396    0.284
       493 -10.4064    157.4619    117.0562   8.8787179628e+01   2.7348542265e+01    0.6564962    0.2794396 -33.20  0.002024864    3.383    0.704
       494  -8.1811    146.6575    119.7038   9.1987536550e+01   2.9164622008e+01    0.1569703     0.125938   3.89 0.0004721894    1.664    0.399
       495  -8.3613    184.2004    117.7804   8.3248948509e+01   2.1244575000e+01    0.1958629    0.1773506  -8.47 0.0003153709    1.317    0.241
       496  -7.9945    209.4840    117.4123   7.8451143673e+01   1.5857657466e+01     0.145024    0.1317592 -63.08 0.0001343329    1.019    0.018
       497  -8.7110      5.2021    124.5749   1.3404927282e+02   4.9170534919e+01    0.1512998    0.1109859 -22.02 0.0004917578    1.618    0.382
       498  -8.8155     66.3834    116.9026   1.1382739814e+02   4.4805491795e+01    0.3004787    0.2136149  19.31  0.001505365    1.629    0.386
       499  -8.8167    147.4963    116.0554   9.0865813654e+01   2.9770607595e+01     0.235198    0.1512901 -44.73 0.0005609912    1.530    0.346
       500 -10.9208      7.4254    114.2181   1.3181205285e+02   5.1435639064e+01    0.3338685    0.3269628  72.80  0.002431846    1.249    0.200
       501  -8.1664    163.1770    114.8054   8.6942202355e+01   2.6546580668e+01     0.201494    0.1821713  -1.72 0.0003396708    1.310    0.236
       502  -9.4043    129.6638    114.4699   9.4905110706e+01   3.3973326832e+01    0.3020644    0.2320598 -15.33  0.001080444    1.674    0.403
       503  -9.1413     21.4778    114.3882   1.2747705815e+02   5.0371463259e+01    0.2745987    0.1206454 -42.69  0.001166736    2.139    0.532
       504  -8.8479    219.0223    113.3768   7.5952364480e+01   1.4650008887e+01     0.317241    0.2191197  31.91  0.001507239    2.073    0.518
       505  -8.8931    203.0482    113.3981   7.8673942047e+01   1.8006243413e+01    0.3063202    0.2184005 -61.65   0.00124128    1.437    0.304
       506  -8.4831    181.4845    114.4237   8.2990446598e+01   2.2529091637e+01    0.2055693    0.1992719 -88.31 8.973269e-05    1.053    0.050
       507  -9.4344    185.7249    112.9931   8.1808828282e+01   2.1874740915e+01    0.3254568    0.2613686  59.79 0.0003782245    1.291    0.225
       508  -9.1038    153.4818    114.4243   8.9042692465e+01   2.8792868737e+01    0.1520392    0.1497995 -77.93 0.0001433469    1.027    0.027
       509  -9.1216    114.0460    112.9400   9.8691163716e+01   3.7523405359e+01    0.2379059    0.1849554 -12.22 0.0004525347    1.624    0.384
       510  -8.1348     41.3245    113.3519   1.2096972215e+02   4.8747575033e+01     0.147068   0.08906899 -33.57 0.0007047927    1.758    0.431
       511  -8.9987    208.2118    111.4792   7.7336378707e+01   1.7273233614e+01    0.2416741    0.1590182 -49.75 0.0005379338    1.398    0.285
       512  -9.3098    194.1847    111.6018   7.9869073907e+01   2.0283036765e+01    0.3347484    0.2708211  28.22  0.001502684    1.578    0.366
       513 -11.6278    233.6228    244.9689   9.9555960087e+01  -1.1946898665e+01    0.5477856    0.2539415 -28.30  0.002605063    2.251    0.556
       514  -8.5060     61.6393    111.6753   1.1409822581e+02   4.6678148065e+01    0.1512213    0.1011335 -23.94 0.0004225191    1.783    0.439
       515  -8.6384    168.1963    109.8338   8.4616922917e+01   2.6442926406e+01     0.201707    0.1823405  -7.69 0.0004032274    1.313    0.239
       516  -8.2915    143.9871    110.2399   9.0222065207e+01   3.1782822063e+01    0.1974747    0.1300141  48.35 0.0003552755    1.535    0.348
       517  -8.1680      1.5433    114.9581   1.3371547762e+02   5.1627662310e+01    0.1873292   0.05889067 -49.81 0.0007012557    2.430    0.589
       518  -8.7549     17.3967    109.8211   1.2793689982e+02   5.1747816788e+01    0.1938045   0.08924189 -53.26 0.0009438735    1.689    0.408
       519  -8.9650    176.6949    108.4223   8.2502477846e+01   2.4809930852e+01    0.2391592    0.1860522 -20.59 0.0005667437    1.624    0.384
       520 -10.3926    123.2411    108.0093   9.4901689563e+01   3.6722934020e+01     0.355699    0.3046589  12.67  0.001645621    1.339    0.253
       521  -8.6026      1.8692    109.0772   1.3270414336e+02   5.2950636092e+01    0.2073053    0.1061354 -42.82  0.001114958    1.739    0.425
       522  -8.2113    218.5217    107.9451   7.4841791769e+01   1.5774046749e+01    0.2121168    0.1284741 -43.62 0.0004021082    1.507    0.336
       523  -8.5102     36.8785    108.0398   1.2128096456e+02   5.0439015017e+01    0.2217646    0.1361857 -31.01 0.0007678011    1.744    0.427
       524  -8.3013    201.2501    107.4433   7.7626298403e+01   1.9545735540e+01    0.1851791     0.139698  72.17 0.0004328822    1.449    0.310
       525  -8.6718    190.0078    107.0727   7.9581674430e+01   2.2092472148e+01    0.2206215    0.2092263 -58.93 0.0004334906    1.064    0.060
       526 -10.9403    224.8381    247.9160   1.0169844860e+02  -1.1203260824e+01    0.2862566    0.2057537 -27.85  0.000570017    1.320    0.243
       527  -8.3910    182.5616    106.5589   8.0882593467e+01   2.3858432868e+01    0.1504422    0.1386174 -72.28 6.369218e-05    1.031    0.030
       528  -9.1448    160.8868    105.9692   8.5228151392e+01   2.8879547220e+01    0.2224257    0.2149077 -54.66 0.0002979024    1.049    0.046
       529  -9.2207    112.8941    105.7173   9.7103794372e+01   3.9329834693e+01    0.2576331    0.2050314 -32.03 0.0005501423    1.304    0.233
       530  -8.0964     29.4913    106.5042   1.2337681139e+02   5.1499670817e+01    0.1343798    0.1080503 -44.46 0.0008096831    1.068    0.064
       531 -10.3742     12.1663    105.5965   1.2884684325e+02   5.3089149670e+01    0.2777738    0.1976686  46.07  0.001671796    1.787    0.440
       532  -9.2018    166.4290    104.9691   8.3777830819e+01   2.7823674778e+01     0.309331    0.2139326  71.61  0.001373596    1.735    0.424
       533  -9.4200    218.8883    103.2397   7.3751135973e+01   1.6569002946e+01    0.2621909    0.1929496 -38.20 0.0006176185    1.373    0.272
       534 -10.2333    119.1385    102.2157   9.4449339314e+01   3.8801972580e+01    0.4284171      0.33501 -16.48  0.001349415    1.541    0.351
       535  -9.5714     65.7330    103.8711   1.1088083456e+02   4.7882991861e+01    0.3009962    0.1977156   7.88 0.0009738012    1.996    0.499
       536  -8.0927      1.3409    104.3134   1.3209603389e+02   5.4054346652e+01    0.1312756   0.06900088 -41.27 0.0003281944    1.701    0.412
       537  -8.4037    205.6895    103.0766   7.5860534124e+01   1.9409289246e+01    0.2023161    0.1710251 -51.52 0.0003257343    1.102    0.092
       538  -8.9797    190.0866    102.4334   7.8465148878e+01   2.2970404989e+01    0.3185892    0.2299841 -18.53  0.001451652    1.966    0.491
       539  -8.7367     17.0145    103.0117   1.2678141727e+02   5.3324452724e+01    0.2085498    0.1188446 -36.96 0.0005536685    1.671    0.402
       540  -9.0349     18.9448     99.9518   1.2553617044e+02   5.3863400571e+01    0.1879411    0.1648188 -81.33  0.001234905    1.303    0.232
       541  -9.6132    129.0247    100.7513   9.1446686533e+01   3.7020897492e+01    0.4557863    0.2946156  22.27  0.001848958    2.236    0.553
       542 -10.2705      7.1248     97.1119   1.2894004272e+02   5.5313342605e+01    0.3111863    0.1021234 -51.01  0.001009978    2.180    0.541
       543  -8.6810      6.5092     89.4853   1.2767450786e+02   5.7009136048e+01    0.1820511    0.1178326   8.51 -1.22389e-05    1.814    0.449
       544  -9.4398      4.3419     93.6933   1.2923395226e+02   5.6228995837e+01    0.2023559    0.1688273  79.46 0.0009959466    1.520    0.342
       545  -9.6134      2.5742     89.8688   1.2910984108e+02   5.7156618717e+01    0.2660919    0.2038327 -86.98   0.00171989    1.579    0.367
       546  -8.2112    195.4210    101.4995   7.7277305922e+01   2.1959251191e+01     0.146013     0.134352 -64.02 0.0001171346    1.029    0.029
       547  -8.5668    140.8497    100.4084   8.8403963378e+01   3.4506670479e+01    0.2123153     0.141386  36.77 0.0006415576    1.656    0.396
       548  -8.6323     11.5057    100.4799   1.2811644466e+02   5.4283366402e+01    0.1271219   0.09915718 -49.23 3.611127e-05    1.036    0.035
       549  -8.5440     24.4642     99.3749   1.2356145552e+02   5.3546912275e+01    0.2159517    0.1354608 -20.36   0.00115423    1.825    0.452
       550  -8.7334    225.4564     97.9224   7.1599406390e+01   1.6170073766e+01    0.2060681    0.1232995 -44.09 0.0003721875    1.512    0.339
       551  -8.1026    217.3743     97.7878   7.2788217803e+01   1.7881069800e+01    0.1869433    0.1261871 -35.37 0.0003074284    1.580    0.367
       552  -7.8732    167.3073     98.3428   8.1922555089e+01   2.8926097734e+01    0.1494566     0.121841   6.12 0.0006323543    1.691    0.408
       553  -8.1644    160.2330     98.0107   8.3337286188e+01   3.0607707592e+01     0.197545     0.124318 -42.67 0.0005674119    1.584    0.369
       554  -8.9891     89.9370     97.9830   1.0169260267e+02   4.5308520436e+01     0.216902    0.2103625 -56.37  0.000612604    1.114    0.103
       555  -7.8705     44.3388     98.3271   1.1659416956e+02   5.1831759810e+01    0.1440126   0.09011155 -27.63 0.0007051642    1.730    0.422
       556  -8.2213    189.0203     97.0242   7.7370092163e+01   2.4233524424e+01    0.1749039    0.1616039 -75.25 0.0003672586    1.006    0.006
       557  -8.2926    122.0212     96.6845   9.2167253454e+01   3.9338372211e+01    0.2055999    0.1904769  35.55 0.0004260341    1.083    0.077
       558  -8.3959    203.1271     96.1042   7.4695201447e+01   2.1260916264e+01    0.2023611    0.1895342 -23.50 0.0003761556    1.276    0.217
       559  -7.8716     56.6898     96.6685   1.1202120098e+02   5.0698977049e+01    0.1448124   0.09596778 -24.49 0.0005297941    1.671    0.401
       560  -9.9104    229.4444     94.4550   7.0283840081e+01   1.5966635945e+01    0.2437136    0.1865397  25.32 0.0007471557    2.098    0.523
       561  -7.9449    135.6785     95.7021   8.8403615697e+01   3.6590190776e+01     0.150725    0.1201132   9.30 0.0003274273    1.621    0.383
       562 -11.8720    235.9277    226.5331   9.5883538239e+01  -9.3930545674e+00    0.3758737    0.2736189 -20.69 0.0003779536    1.222    0.182
       563  -7.8227    183.5064     94.4296   7.7759846197e+01   2.5966921805e+01    0.1455054    0.1376096 -80.92 0.0002039093    1.035    0.034
       564  -8.1693     94.5541     94.1732   9.9237480590e+01   4.5275096593e+01    0.1943765    0.1319551 -30.93  0.000419577    1.566    0.362
       565  -7.6700    207.3394     93.2971   7.3364603236e+01   2.0848045090e+01    0.1340479    0.1145891  15.75 0.0004767369    1.659    0.397
       566  -7.7536    112.3400     93.6776   9.3957778933e+01   4.1943958342e+01     0.150282    0.1194366  89.08 0.0007050669    1.721    0.419
       567  -8.2282     75.9725     93.5251   1.0483953993e+02   4.8584730344e+01    0.1987295    0.1381743  31.93 0.0005699399    1.497    0.332
       568  -9.7309    224.5057     91.2313   7.0299774404e+01   1.7550115760e+01    0.2578436    0.1984344 -82.17 0.0007084637    1.323    0.244
       569  -8.3301    164.5823     92.3123   8.0952238421e+01   3.0700986181e+01    0.1929224    0.1440492 -30.65 0.0004890892    1.511    0.338
       570  -7.8737     35.2783     92.3148   1.1825734714e+02   5.4102344627e+01    0.1351789   0.08387804 -32.07 0.0003367572    1.569    0.363
       571  -9.6280     13.6693     91.3855   1.2557718078e+02   5.6131707637e+01    0.2297694    0.1084583 -44.47    0.0011754    1.722    0.419
       572  -8.0921    188.2085     90.8176   7.6027953768e+01   2.5562853647e+01    0.1874018    0.1747939  17.83 0.0005693428    1.329    0.247
       573  -8.7708    127.9955     91.3094   8.9126553052e+01   3.9128597620e+01    0.2010104    0.1818548  41.76 0.0001660901    1.098    0.089
       574  -8.0750    103.5173     91.5093   9.5843878536e+01   4.4127556347e+01    0.1470981    0.1375794  -4.07 4.005126e-05    1.060    0.057
       575 -10.5998    236.6729     88.6679   6.8086033038e+01   1.5505891388e+01    0.2628691    0.2414624 -26.32  0.001366612    1.397    0.284
       576  -9.8372    234.5211     85.5272   6.7719650927e+01   1.6472407361e+01     0.220503    0.2004739  89.60 0.0009164553    1.166    0.142
       577  -8.1467    121.0508     90.0614   9.0581973596e+01   4.0855608761e+01    0.1708891    0.1678715   2.93 0.0003230729    1.013    0.013
       578  -7.7612    210.2537     89.6543   7.2081650531e+01   2.0862959586e+01    0.1455427   0.09737611 -66.98 0.0002936021    1.587    0.370
       579  -8.3013    203.5078     88.9801   7.2996767808e+01   2.2461802842e+01    0.2075359    0.1327386 -42.81  0.000438666    1.504    0.335
       580  -8.5866    158.2816     88.4493   8.1274501617e+01   3.2870598303e+01    0.2411251     0.176501 -29.80 0.0003173895    1.557    0.358
       581  -7.7117    183.4745     88.4644   7.6312352173e+01   2.7068314750e+01    0.1462183    0.1344596 -79.33 1.449253e-05    1.008    0.008
       582  -8.8946     29.5432     88.5137   1.1935783786e+02   5.5465873956e+01    0.1305192    0.1052429 -37.56 0.0008086247    1.039    0.037
       583 -10.2549      9.7124     85.9746   1.2582643351e+02   5.7556228736e+01    0.2927928    0.2236412  45.18  0.001067287    1.744    0.427
       584  -8.1301    226.2601     86.3436   6.9006307444e+01   1.8030238827e+01    0.1231791    0.1075006 -13.69 0.0002220398    1.593    0.372
       585  -8.2163    150.9233     86.3538   8.2315419654e+01   3.4945090103e+01    0.2067485    0.1305645  41.90 0.0004555445    1.685    0.406
       586  -8.6532    238.9497     83.8743   6.6808195939e+01   1.5859351154e+01    0.1820247    0.1698757 -55.16 0.0004002318    1.239    0.193
       587  -8.7200    217.7907     83.4202   6.9571955374e+01   2.0318614516e+01    0.1735367    0.1265562  52.13 0.0004259992    1.555    0.357
       588  -8.3187    206.0317     82.7704   7.1180298285e+01   2.2989011800e+01    0.1875602     0.168355 -85.14  0.000305152    1.051    0.049
       589  -9.0466      9.4439     79.7210   1.2455649831e+02   5.8881129475e+01    0.1825136    0.1133932 -34.47  0.001094183    1.397    0.284
       590 -10.0735      2.5279     82.2532   1.2760891244e+02   5.8772128030e+01    0.2975848    0.2061943 -72.81  0.001862907    1.550    0.355
       591  -9.8966      5.2061     78.9350   1.2593368395e+02   5.9306267797e+01    0.2701928    0.1874222  83.04  0.001548049    2.290    0.563
       592  -7.9729    200.3491     82.2795   7.1959869262e+01   2.4336965331e+01      0.13354    0.1116984  27.19 0.0007011116    1.643    0.391
       593  -8.0866    185.5303     81.4791   7.4245425156e+01   2.7834872821e+01    0.1430402    0.1324304 -81.95 5.184342e-05    1.024    0.023
       594  -8.0106    196.9706     89.9841   7.4308466755e+01   2.3737432122e+01    0.1693769    0.1535391 -75.02 0.0003304515    1.005    0.005
       595  -9.1510     19.3922     80.7734   1.2115601388e+02   5.7951717440e+01    0.1824425   0.08862992 -47.07 0.0009411261    1.627    0.386
       596  -8.1100    159.1205     79.8335   7.8837066843e+01   3.4228172918e+01     0.190101    0.1702456  27.24 0.0003761719    1.288    0.224
       597  -8.4605    110.7931     80.0770   9.0483542386e+01   4.4872497804e+01    0.2366787    0.1626782 -12.72  0.001065511    1.973    0.493
       598  -8.2032    215.0879     78.4820   6.8876553677e+01   2.1734860568e+01    0.1854569    0.1294381  63.52 0.0004289268    1.462    0.316
       599  -9.4202     85.3650     77.1219   9.7092884323e+01   5.0261234697e+01    0.2992688    0.2098554   7.11  0.001454488    1.771    0.435
       600  -8.2405    206.3041     77.0442   6.9840328146e+01   2.3899516544e+01    0.1866674    0.1569041 -60.03 0.0002644621    1.093    0.085
       601  -8.2839    183.7605     76.7276   7.3396749704e+01   2.9055705874e+01    0.2346676    0.1005313 -49.21 0.0008993658    2.401    0.584
       602  -8.4973    150.8280     77.2038   7.9876625570e+01   3.6599410388e+01    0.1948563    0.1666042  30.11  0.000366625    1.321    0.243
       603  -8.8705     17.7819     77.1675   1.2087580725e+02   5.8814605464e+01    0.1755295    0.1148211 -31.19 0.0005026752    1.352    0.260
       604  -8.1474    174.4341     75.8025   7.4826889473e+01   3.1368310037e+01    0.1781686    0.1403233 -29.13 0.0004349335    1.474    0.322
       605  -8.4592    239.2695     75.0126   6.4969968841e+01   1.7250168480e+01    0.1788446    0.1425853 -60.20 0.0002994185    1.063    0.059
       606  -8.0275    193.9976     75.7630   7.1456279904e+01   2.6875910798e+01    0.1707425    0.1131358  62.68 0.0002194395    1.489    0.328
       607  -8.1157    167.3109     75.3491   7.6044668181e+01   3.3099328247e+01    0.1430506    0.1146231  17.91  0.000704534    1.715    0.417
       608  -8.2123     23.5099     79.0010   1.1920718608e+02   5.7979871049e+01    0.1836827   0.07264557 -38.31 0.0005323905    2.336    0.572
       609  -8.7059    234.4805     74.5082   6.5452282373e+01   1.8302483622e+01    0.1320373    0.1111845 -67.91 -6.754961e-06    1.029    0.028
       610  -8.1655    157.4089     73.7449   7.7576350931e+01   3.5669226665e+01    0.1837483    0.1408453 -25.83 0.0003821072    1.537    0.349
       611  -8.1419     28.6745     73.6481   1.1588835560e+02   5.8595155710e+01    0.1369494   0.07757584 -27.47 0.0007047859    1.761    0.432
       612  -8.2206    206.2440     72.5729   6.8838634543e+01   2.4651223258e+01    0.1955415    0.1301031  65.84  0.000431982    1.490    0.329
       613  -8.0635    203.7090     70.2812   6.8691432290e+01   2.5587592885e+01    0.1761753    0.1271959 -35.28 0.0002140926    1.542    0.351
       614  -8.2105    139.9116     72.1846   8.0900891002e+01   3.9947952714e+01     0.186481    0.1641972  20.98 0.0003067962    1.275    0.216
       615 -10.7320     91.9097     70.0207   9.2898591894e+01   5.0354186229e+01    0.4917845     0.354746  11.24  0.002120839    1.634    0.388
       616 -10.9107      1.8393     68.4121   1.2481125100e+02   6.1619251396e+01    0.8337542   0.09904528 -54.28   0.00271772    3.790    0.736
       617  -9.4581    120.1469    248.7837   1.2311509581e+02   4.9740922836e+00     0.255932    0.2168473 -63.92 0.0005843564    1.307    0.235
       618 -10.9496    124.2443    246.9262   1.2200591857e+02   4.6744239994e+00    0.3646889    0.2796863  45.31 0.0004601739    1.153    0.133
       619 -10.5037     32.6276    247.2841   1.4048892473e+02   1.7860361635e+01    0.4535035    0.2527269  37.91 0.0008846709    1.846    0.458
       620 -10.0091     41.7703    244.6142   1.3854967968e+02   1.7298556543e+01    0.3420528    0.2286855  30.58  0.001042328    1.853    0.460
       621 -10.5900     68.4498    240.2537   1.3284954495e+02   1.4661250762e+01    0.2615476    0.2458452  20.06 0.0004250901    1.428    0.300
       622 -10.6812      2.3680     53.9151   1.2091601919e+02   6.4337974579e+01    0.4627501    0.2821811 -63.50  0.002344721    1.898    0.473
       623 -10.1000     51.4867    240.6074   1.3630263979e+02   1.6903234406e+01    0.2519523    0.2441465 -64.02 0.0007242725    1.408    0.290
       624 -10.2857      4.7335     41.5926   1.1627716914e+02   6.6343259289e+01    0.2212986     0.163707 -32.37 0.0002921316    1.089    0.081
       625  -8.5180     47.5263    238.4335   1.3688834331e+02   1.7886233713e+01    0.2531683     0.125182  51.69  0.001296943    1.784    0.440
       626  -9.6462     35.3077    240.2959   1.3943181059e+02   1.9011775119e+01    0.2476351    0.2011905  27.57 0.0008238998    1.669    0.401
       627  -9.7137     41.7438    236.6372   1.3787071542e+02   1.9008517549e+01    0.3428615    0.2821801 -30.49  0.001423713    1.954    0.488
       628 -10.4160     25.1894    239.8373   1.4131479154e+02   2.0299736632e+01    0.3052285    0.2224339 -51.45  0.001044991    1.866    0.464
       629 -10.4246    125.3591    240.0135   1.2081056796e+02   5.8660958543e+00    0.3258273      0.29116  -3.61 0.0004094595    1.356    0.263
       630 -11.1653     12.5689     40.1354   1.1235657406e+02   6.6004941693e+01    0.7183702    0.3048027  18.50  0.002738191    2.459    0.593
       631  -9.8671    238.7863     69.9823   6.4013964418e+01   1.8150318412e+01    0.2609831    0.1475467 -58.35 0.0007458283    1.610    0.379
       632  -8.6758    170.6223     68.2959   7.3620904692e+01   3.3492481713e+01    0.2154987    0.1786031 -30.22 0.0003513647    1.381    0.276
       633  -7.6894    163.2891     69.3074   7.5248194194e+01   3.5036254384e+01    0.1365569     0.111712  22.93 0.0003534785    1.575    0.365
       634  -8.1590    116.3163     69.3361   8.5816445574e+01   4.5607748391e+01    0.1461163    0.1085653  12.12 0.0006344888    1.696    0.410
       635  -7.9491    107.2866     68.4018   8.7956850922e+01   4.7636142174e+01    0.1467693    0.1063133   3.51 0.0004624321    1.789    0.441
       636  -9.1657    243.8824     64.9886   6.2441862447e+01   1.7907238022e+01    0.2162093    0.1751684 -31.53  0.001320697    1.596    0.373
       637  -8.7433      7.3222     66.2900   1.2216501615e+02   6.1706264759e+01    0.1240216   0.06778561 -31.34  0.000220969    1.606    0.377
       638  -8.0307    138.7559     64.9607   7.9125564274e+01   4.1388174733e+01    0.1733686    0.1211378 -36.02 0.0004140013    1.526    0.345
       639  -8.0588     86.2382     65.5927   9.3247099031e+01   5.2148946550e+01    0.1874784    0.1200237  28.85  0.000750087    1.611    0.379
       640 -10.0027     68.4829     63.9542   9.8503907802e+01   5.5417421666e+01    0.3734185    0.2730414  28.41  0.001536977    1.333    0.250
       641  -7.7917    152.6298     64.7070   7.6118821723e+01   3.8246938163e+01    0.1455084    0.1064719  29.33 0.0007026257    1.723    0.420
       642  -8.3732    146.0032     64.0189   7.7295309004e+01   3.9882773061e+01    0.2266954    0.1681909  24.32 0.0009563776    1.738    0.424
       643  -8.0708    208.2184     62.5994   6.6325450856e+01   2.5795787298e+01    0.1666922    0.1190711  58.64 0.0002891793    1.455    0.313
       644  -8.1360    217.0286     61.0655   6.4826109208e+01   2.4099880285e+01    0.1596656     0.132579 -65.34 0.0003961091    1.072    0.067
       645  -8.1350    157.5275     59.4842   7.3756153938e+01   3.7914917213e+01    0.1386783    0.1284883  64.06 4.795974e-05    1.056    0.053
       646 -11.0329     78.3966     53.2049   9.1682829142e+01   5.5523372312e+01    0.6224309    0.5321582 -47.88  0.003823135    1.433    0.302
       647 -10.0487     75.5106     51.5045   9.2042375222e+01   5.6277288203e+01    0.2741334    0.2216476  -3.03 0.0007389496    1.185    0.156
       648  -8.0525     48.1480     59.6238   1.0436593048e+02   5.9054056809e+01    0.1672949    0.1080996  13.28 0.0003918255    1.623    0.384
       649  -8.4059    164.8953     57.8551   7.1968479230e+01   3.6443961572e+01    0.1999715    0.1822483  35.54 0.0004971399    1.263    0.208
       650  -9.2103     31.1824     58.1903   1.1043439125e+02   6.1251309312e+01    0.1936551    0.1360428 -19.12 0.0006651434    1.273    0.215
       651  -8.8147    146.9057     56.6449   7.5067663685e+01   4.0795554303e+01    0.2091685    0.1929559  -4.84 0.0004467686    1.257    0.204
       652  -9.1702    125.0219     56.9793   7.9956583473e+01   4.5680661164e+01     0.202424    0.1859491  44.78  0.001204576    1.014    0.013
       653  -7.9756     38.5069     56.9545   1.0717589261e+02   6.0679055438e+01    0.1789827   0.08407854 -27.42 0.0008073181    2.405    0.584
       654  -8.4065     23.4852     56.4804   1.1298150986e+02   6.2295175480e+01      0.12317   0.09376726 -23.60 0.0002165217    1.063    0.059
       655  -9.6596    250.1851     54.3887   5.9741601589e+01   1.8255472925e+01    0.2080603    0.1438487 -52.57 0.0008046299    1.244    0.196
       656 -11.7524    231.1561    162.0868   8.4258561902e+01   2.9129889658e+00    0.9758112    0.6550711 -27.63   0.00216892    1.558    0.358
       657  -9.8459    129.6098    235.2015   1.1919790166e+02   6.1347630215e+00    0.2983767    0.2575172 -22.93 0.0004120335    1.402    0.287
       658 -10.0427      2.0171     45.9316   1.1879112688e+02   6.5778979018e+01    0.2438198    0.1427112 -37.66 0.0003525533    1.297    0.229
       659  -8.1984     34.5385     54.4545   1.0792401209e+02   6.1550247528e+01    0.1224611   0.09951641 -16.83 6.990406e-05    1.007    0.007
       660  -8.3288     63.0736     52.9661   9.6742813078e+01   5.8061894038e+01    0.2091878    0.1387048  -1.93 0.0007879142    1.730    0.422
       661 -12.6205    215.2779    177.2202   9.0281022116e+01   2.7711420205e+00     1.424826    0.8341277  30.01  0.006451791    2.048    0.512
       662  -9.0950    172.0741     49.9531   6.8724178680e+01   3.5913719577e+01    0.1915123     0.171537  76.62            0    1.040    0.039
       663 -12.7270    243.4153    148.1233   7.9347616491e+01   3.4232451290e+00     1.650472    0.9776488 -19.80  0.007065031    2.638    0.621
       664  -8.8668     37.4304     40.6699   1.0206405202e+02   6.3439774343e+01    0.2820858    0.1352812  34.04  0.001498488    2.123    0.529
       665  -8.2224     29.4248     37.7442   1.0428753520e+02   6.4790126115e+01    0.1599078   0.09040567 -28.53 0.0007844892    1.570    0.363
       666  -9.3541     24.0549     38.1941   1.0671507697e+02   6.5279451704e+01    0.1745811    0.1229368 -12.40 0.0004262234    1.189    0.159
       667  -8.8099     53.6225     36.7995   9.4415069332e+01   6.1846556684e+01    0.1584729     0.107123 -40.42 0.0006843624    1.697    0.411
       668  -9.2515     25.9356     34.0663   1.0441829498e+02   6.5707288963e+01     0.177862    0.1306773  -8.91 0.0003634772    1.098    0.089
       669  -8.0707    173.7134     33.7406   6.4445770681e+01   3.7657911260e+01    0.1210286   0.09224588  45.34 0.0001789572    1.485    0.327
       670  -9.4589     30.0185     31.3128   1.0165844035e+02   6.5658780862e+01    0.2204048    0.1620887  -1.54 0.0008844022    1.117    0.105
       671 -10.1711    246.2526     31.0864   5.5769935803e+01   2.2247071685e+01    0.1947711    0.1740086 -30.00  0.001382563    1.669    0.401
       672 -10.4306     69.5956     29.8937   8.6330284629e+01   6.0200359595e+01    0.3698469    0.1979565   3.82  0.001615266    3.103    0.678
       673 -10.0352     66.3951     28.7745   8.6964679196e+01   6.0872375266e+01     0.282441    0.1490147 -45.16  0.001400421    2.710    0.631
       674  -9.3629     56.8078     29.3830   9.0487366433e+01   6.2334249990e+01    0.1689709    0.0952649  29.39 0.0005065195    1.625    0.384
       675 -11.0722     66.4303     22.7782   8.4703290027e+01   6.1549688273e+01    0.3594618    0.2977925  32.89  0.002485121    1.164    0.141
       676 -10.3393    250.1783     23.3787   5.4057793013e+01   2.2457203094e+01    0.3473468   0.09434324 -42.35  0.001555408    3.026    0.669
       677  -9.6962     78.6549     22.0298   8.0655493646e+01   5.9475937092e+01    0.2355516    0.2158404 -19.01  0.001173225    1.288    0.224
       678  -7.8397    222.0310     22.0025   5.6214312242e+01   2.8339923015e+01    0.1432845    0.1095632 -86.63 -0.003769674    1.056    0.053
       679  -9.3806    245.8160     21.2019   5.4014164267e+01   2.3580407863e+01    0.1454089      0.12503  84.70 0.0009147211    1.331    0.249
       680 -10.1974    135.0754    239.0099   1.1857905852e+02   4.4517002596e+00    0.2982207    0.2524167  32.37 0.0004380756    1.140    0.122
       681 -10.3267    139.5087    234.8019   1.1699023673e+02   4.5469744815e+00    0.2892831     0.259795 -16.06 0.0004648864    1.274    0.215
       682  -9.6600     62.2255    239.1031   1.3400066963e+02   1.5779564804e+01    0.2400484    0.2120293 -39.41 0.0005736732    1.583    0.368
       683 -10.5858     11.6953    239.4505   1.4377570559e+02   2.1864327715e+01    0.5693856    0.1968097  37.61  0.002803853    2.730    0.634
       684  -9.5355    112.4608    237.6201   1.2325198950e+02   8.4749278845e+00    0.2497222    0.2261759   2.33 0.0005367243    1.371    0.270
       685 -10.4565     91.2455    235.8126   1.2757228589e+02   1.2233104352e+01    0.3141568    0.2661902  18.08 0.0005189129    1.508    0.337
       686 -10.1493     77.8346    235.6860   1.3040223198e+02   1.4288743931e+01    0.2623885    0.2268569  57.28 0.0005075072    1.105    0.095
       687  -9.7091      3.3258    235.7831   1.4505020286e+02   2.3495180846e+01     0.239082    0.2087591 -30.14  0.001063857    1.917    0.478
       688  -8.4654     85.6622    236.6824   1.2886520617e+02   1.2901540223e+01    0.1240967    0.1061023 -18.20 0.0007048826    1.704    0.413
       689 -10.1873    245.8073     17.0064   5.3265720028e+01   2.4090171612e+01    0.1925344    0.1212198 -72.32  0.001251551    1.277    0.217
       690 -11.9242    204.7114    231.7878   1.0280856695e+02  -5.6575677535e+00    0.3517379    0.3084242  12.30 0.0004359383    1.057    0.054
       691  -9.3699    108.2644    233.2131   1.2356140558e+02   1.0086244825e+01    0.2426267    0.2231868  -6.68 0.0004937911    1.366    0.268
       692  -8.8661     64.9234    233.8988   1.3290739896e+02   1.6536535832e+01    0.1805243    0.1724844 -79.26 0.0004947509    1.279    0.218
       693  -9.7612     63.1027     13.3610   8.2160566989e+01   6.3077029203e+01    0.3032551   0.09865364  39.19  0.001349943    2.673    0.626
       694  -9.7855     84.9909    231.6294   1.2840016681e+02   1.4101746714e+01    0.2587682    0.2380323 -48.00 0.0005430581    1.337    0.252
       695 -10.0221     35.3961    230.9267   1.3862817503e+02   2.1034745396e+01     0.348828    0.2422284 -41.61  0.001528887    2.206    0.547
       696  -8.9805     57.4750     10.4427   8.2851950240e+01   6.4284899264e+01    0.1171878   0.08870965  21.55 9.614882e-05    1.050    0.048
       697  -8.8905    130.1818    228.8443   1.1811877804e+02   7.3529702368e+00    0.1845403    0.1804292  89.16 0.0003862335    1.083    0.076
       698  -9.7183    133.8403    230.3932   1.1755091601e+02   6.4073915520e+00    0.2847012    0.2385105   8.39 0.0005590762    1.417    0.294
       699  -9.3627    138.8343    227.2970   1.1596947325e+02   6.1926113540e+00    0.2973386    0.2342508  12.15  0.000501513    1.521    0.343
