#   1 NUMBER                 Running object number                                     
#   2 MAG_AUTO               Kron-like elliptical aperture magnitude                    [mag]
#   3 X_IMAGE                Object position along x                                    [pixel]
#   4 Y_IMAGE                Object position along y                                    [pixel]
#   5 X_WORLD                Barycenter position along world x axis                     [deg]
#   6 Y_WORLD                Barycenter position along world y axis                     [deg]
#   7 A_WORLD                Profile RMS along major axis (world units)                 [deg]
#   8 B_WORLD                Profile RMS along minor axis (world units)                 [deg]
#   9 THETA_WORLD            Position angle (CCW/world-x)                               [deg]
#  10 FWHM_WORLD             FWHM assuming a gaussian core                              [deg]
#  11 ELONGATION             A_IMAGE/B_IMAGE                                           
#  12 ELLIPTICITY            1 - B_IMAGE/A_IMAGE                                       
         1 -13.8555    222.5186      2.6777   4.0356721283e+01   2.8469906581e+01     2.630367     0.786584  62.38  0.007431544    2.935    0.659
         2 -13.8337    180.9730     45.9111   5.7851951544e+01   3.3974277387e+01     1.240817     1.025762 -17.51  0.001101409    1.271    0.213
         3 -14.0394    191.7902     36.4184   5.3238873876e+01   3.2444462169e+01     1.288145     1.060724 -34.01  0.003164819    1.215    0.177
         4 -14.8197    200.1696     26.4711   4.9164320332e+01   3.1508206546e+01     2.024336     1.421686  33.20  0.001445864    1.704    0.413
         5 -10.6736     68.7845      2.7175   6.7480041529e+01   6.5085274987e+01    0.2598469    0.1168724  19.38  0.001030073    3.165    0.684
         6  -9.8048     72.2590    230.3089   1.2098315196e+02   1.9012234716e+01    0.1454622    0.0952802  63.44 0.0004469023    1.234    0.190
         7  -8.7545    159.2779    250.3167   1.0781812064e+02   2.9573217218e+00    0.1076366   0.07998766  18.63 0.0003058057    1.572    0.364
         8 -16.1180     71.6929    149.2433   1.1180837694e+02   3.5658314444e+01     7.701839     3.896481  82.15   0.01580533    3.857    0.741
         9 -11.0991     44.8231    198.1525   1.2324616372e+02   2.8473721616e+01     0.345387    0.2658789  52.77  0.001445584    1.286    0.222
        10 -11.3492     57.1958    212.6845   1.2217672236e+02   2.4162425900e+01     0.572711    0.3702332  59.91  0.002378884    1.271    0.213
        11 -13.8504     55.2298    203.9871   1.2178860785e+02   2.6080665410e+01    0.6492401    0.4364838  41.26  0.002401433    1.551    0.355
        12 -19.3200      6.6121    138.9603   1.2599681419e+02   4.4741924388e+01     17.59777     1.907843 -75.20   0.04069107    9.819    0.898
        13 -11.9454    129.7576    211.5914   1.0825955516e+02   1.3725723183e+01    0.3679431    0.2324339 -85.22  0.001708431    2.414    0.586
        14 -12.0630     38.3818    212.0526   1.2550162821e+02   2.6501874202e+01     0.204311    0.1247361  52.87 0.0006119442    1.392    0.282
        15 -11.9308     32.7499    206.7045   1.2612152408e+02   2.8141375644e+01    0.4399991    0.1417782  56.46  0.002103285    2.836    0.647
        16 -11.4803    106.1685    209.6088   1.1259959643e+02   1.7879839285e+01    0.4222253    0.2861122  61.47  0.001744294    1.365    0.267
        17 -12.3846    107.4879    203.0749   1.1152381181e+02   1.8896797865e+01     0.456016    0.2297809  48.87 0.0006850925    1.756    0.430
        18 -12.2778    193.1745    194.7278   9.3126121434e+01   5.3018084040e+00     1.078675    0.6497006 -65.43  0.004222085    3.944    0.746
        19 -11.1778    132.6720    202.6510   1.0642790260e+02   1.4830861386e+01    0.3006385    0.1943303 -82.73  0.001484948    2.295    0.564
        20  -9.7567    157.5033    200.5147   1.0113367986e+02   1.0853161960e+01    0.2130529    0.1280678 -61.45  0.001024081    2.279    0.561
        21 -16.3765     73.3129    246.6043   1.2211428382e+02   1.6122763394e+01     8.067244     2.704106  32.69   0.02886247    6.033    0.834
        22 -10.6236     59.9275    229.2786   1.2303257017e+02   2.0781037772e+01    0.1741852    0.1190496  77.97 0.0003528651    1.232    0.188
        23 -11.1630    209.0710    198.4475   9.0801353478e+01   1.8707421677e+00    0.2202902    0.1869567 -50.97 0.0007507516    1.580    0.367
        24 -10.7160    141.7143    198.5506   1.0399151657e+02   1.4006390141e+01    0.2159389    0.1612623 -86.81 0.0007575396    1.756    0.430
        25 -12.2928     29.3857    196.9982   1.2603702341e+02   3.0396388317e+01    0.1903607    0.1435175  73.35 0.0004272968    1.060    0.057
        26  -9.6149     34.7902    197.1915   1.2505075176e+02   2.9784895444e+01    0.1599285    0.1093614  68.16 0.0005442867    1.186    0.157
        27  -9.4500     82.3541    195.2836   1.1561278957e+02   2.4208136357e+01    0.1869011    0.1721741  32.71   0.00126928    1.396    0.284
        28  -8.8819     79.0076    193.5229   1.1608533455e+02   2.5037170808e+01    0.2920302     0.133352  56.32  0.001035794    2.204    0.546
        29 -11.7573    152.6531    192.9596   1.0086922629e+02   1.3056336775e+01    0.4861363    0.2990352  72.91  0.002047425    2.889    0.654
        30 -10.0297     97.4335    193.5264   1.1232812729e+02   2.2322694524e+01    0.2681508    0.1997997 -15.48  0.001388024    2.541    0.606
        31  -9.6089     47.3169    191.4654   1.2218338061e+02   2.9534185084e+01    0.1557739   0.08818762  55.74 0.0007689286    1.569    0.363
        32 -10.5583     96.2709    200.6345   1.1345685571e+02   2.1101064161e+01    0.2788118    0.2300581   8.29  0.001035296    1.867    0.464
        33  -8.6138     50.3104    186.2669   1.2110432617e+02   3.0253097021e+01    0.1016973   0.08973562 -50.27 0.0002343161    1.540    0.351
        34 -10.2790    198.8226    222.8598   9.6888200949e+01   2.2160040861e-01    0.2054461    0.1464742  35.10 0.0004001823    1.159    0.137
        35 -10.9480     99.4744    180.7536   1.1015881478e+02   2.4607767384e+01    0.2399862    0.2129906  64.35 0.0005768204    1.057    0.054
        36 -10.1017    149.1812    179.9511   9.9345370919e+01   1.6104285864e+01    0.2144692    0.1815352  79.23  0.001124592    1.356    0.262
        37 -12.2100     76.2167    176.5568   1.1461242847e+02   2.8964513049e+01    0.3570369    0.2479372 -44.66  0.001828317    1.849    0.459
        38 -12.3994     80.1103    171.7047   1.1312029765e+02   2.9459092982e+01    0.3912708     0.288012 -53.60  0.001362193    1.476    0.323
        39  -9.1638    169.3001    177.6800   9.4707641070e+01   1.2688893648e+01    0.1359316    0.1109375  81.01 0.0003754582    1.623    0.384
        40  -9.3844     59.5037    176.9901   1.1824054298e+02   3.1089542338e+01    0.1792761    0.1068564 -69.28 0.0007404886    1.528    0.346
        41 -10.7080     37.3794    176.2468   1.2277433232e+02   3.3820877291e+01    0.3174703     0.172662  59.36  0.001827077    1.724    0.420
        42 -11.7921    141.3000    175.2508   1.0019095041e+02   1.8488037969e+01     0.339333    0.2628233  83.34  0.001771586    1.609    0.379
        43 -11.7864     71.6829    207.4577   1.1900434474e+02   2.3290707832e+01    0.8599616    0.4149287  28.59  0.003972995    3.200    0.687
        44 -11.5745     44.1334    172.4863   1.2100468030e+02   3.3886007973e+01    0.5940254    0.2363554  51.06  0.001764345    2.436    0.589
        45 -11.2261     43.7057    207.9223   1.2424197202e+02   2.6687043738e+01    0.5061788    0.2805327  88.06  0.003101365    1.652    0.395
        46 -10.3377    201.5120    168.9203   8.6446433232e+01   7.8989491186e+00    0.4533776    0.2485383 -46.19  0.002006883    2.122    0.529
        47 -10.7128    204.3958    165.2326   8.5106013599e+01   7.9451667842e+00    0.4915731    0.2560171 -44.24  0.001572419    2.140    0.533
        48 -10.4527    164.2112    170.4093   9.4365077142e+01   1.5024172848e+01    0.2453517    0.2173652 -70.85 0.0004557112    1.318    0.242
        49 -10.9759    230.2523    166.6137   8.0564795520e+01   2.7350789663e+00    0.2494282    0.1597703 -39.85  0.001047001    1.685    0.407
        50 -11.2661    193.2803    165.5293   8.7362688447e+01   1.0111282702e+01    0.4883482    0.3125454 -52.88   0.00176243    1.993    0.498
        51 -10.0126     49.6378    216.6423   1.2385282794e+02   2.4338132578e+01    0.5401145    0.3599399  10.88  0.002826988    3.780    0.735
        52 -12.4535     93.9076    154.9480   1.0740359583e+02   3.1080508307e+01    0.6644075    0.4418012 -32.70  0.003155081    2.185    0.542
        53 -10.7533    189.2999    155.0912   8.5915357909e+01   1.2773047299e+01    0.4221575    0.2791385  44.30  0.002007527    1.477    0.323
        54 -11.4979    133.8286    144.8384   9.5931751164e+01   2.6214855162e+01     1.177457    0.2996017 -53.71   0.00297232    5.392    0.815
        55 -10.6040    174.3185    148.6967   8.7627084154e+01   1.7104115225e+01    0.3421485    0.2793955 -72.15  0.001401455    1.579    0.367
        56 -10.5236    144.2734    146.6465   9.3876326821e+01   2.3752171608e+01    0.4174359    0.2400838 -66.69  0.001573633    2.686    0.628
        57  -9.0828    112.6955    142.3211   1.0051010593e+02   3.0744366684e+01    0.1478845    0.1107669  83.07 0.0003282457    1.634    0.388
        58 -11.3507    106.2542    140.0193   1.0164021264e+02   3.2401543012e+01    0.5342524     0.351788 -29.05  0.002370541    2.172    0.540
        59 -12.5007     94.1469    140.2225   1.0471054439e+02   3.4385792891e+01     0.361287    0.3006362  15.08 0.0005436679    1.548    0.354
        60 -10.8788    105.7695    131.0513   9.9903370989e+01   3.4527188313e+01    0.4105816    0.3376377 -39.62  0.002179997    1.287    0.223
        61 -10.7061    113.8334    130.5831   9.7739932933e+01   3.3180085674e+01     0.302177    0.2735189  17.37 0.0007916271    1.263    0.208
        62 -10.9320    135.7755    127.9704   9.1652774223e+01   2.9475845471e+01    0.5212424    0.1937869 -48.99  0.001748696    2.731    0.634
        63 -10.1849    160.4999    127.9414   8.5794200505e+01   2.4210319515e+01    0.3746328    0.2603845 -49.46  0.001696259    1.498    0.332
        64 -10.9909    101.3945    126.6409   1.0008587205e+02   3.6299541012e+01    0.2710119    0.2270947 -26.90  0.000421521    1.396    0.283
        65 -11.2282    119.9031    123.7810   9.4632670328e+01   3.3563796157e+01    0.5157161    0.3179208 -24.91   0.00202078    2.478    0.596
        66 -10.0918    109.5026    119.2498   9.6268339680e+01   3.6544748480e+01    0.2324768    0.2028705  43.43 0.0004480652    1.205    0.170
        67 -10.3458     53.5838    231.2126   1.2425570887e+02   2.1222118251e+01     0.185075    0.1270107  75.08 0.0009145873    1.165    0.142
        68 -10.1678    167.4831    112.3975   8.0218851732e+01   2.5767669026e+01    0.3354942     0.258929 -75.79  0.001248014    1.762    0.432
        69 -10.7285    134.7508    108.7666   8.7046120991e+01   3.3837831772e+01    0.8769783    0.1269471 -45.05  0.001808267    6.809    0.853
        70 -11.7631    118.4430    109.7837   9.1545398330e+01   3.6966699975e+01    0.5761203    0.5184528 -76.11  0.003052359    1.198    0.165
        71 -10.1901    205.4876    110.1629   7.1804986123e+01   1.7337940819e+01    0.3160869    0.2180634  40.78 0.0008193601    1.507    0.336
        72  -9.9969     65.5553     99.9702   1.0417402523e+02   4.7973211383e+01    0.2079528    0.1830958  32.69 0.0007668069    1.309    0.236
        73  -9.8513    132.3757     96.9535   8.4379613803e+01   3.6848096665e+01    0.3287316    0.1985791  65.12  0.001112145    2.435    0.589
        74 -11.9622     53.0381     91.3245   1.0603618470e+02   5.1511058972e+01    0.5076877    0.2289638 -56.23  0.002296884    1.836    0.455
        75 -13.4838     64.2200    190.9772   1.1878718514e+02   2.7554117999e+01     0.882458    0.7526067  19.97  0.005886266    1.693    0.409
        76 -11.4978     42.2189     91.7065   1.0952939716e+02   5.2590473691e+01    0.2803906    0.2490916  32.86 0.0008542493    1.358    0.264
        77  -9.1363    155.5194     80.4682   7.3789044816e+01   3.4778287362e+01     0.157567    0.1514869  -3.89 0.0002564029    1.021    0.021
        78 -10.0414     65.8325     70.7169   9.6344646267e+01   5.4464707376e+01     0.313542    0.1748268  43.06  0.001483591    2.152    0.535
        79 -11.2332    159.6198     61.2860   6.6828202519e+01   3.7116093194e+01    0.3932188    0.2957403 -77.13 0.0007019065    1.793    0.442
        80 -10.0851     51.8832    226.8856   1.2423031296e+02   2.2195849397e+01     0.244665    0.1044776  66.73 0.0009870076    2.394    0.582
        81  -9.8262    172.2991    237.9984   1.0392859624e+02   2.5474829359e+00    0.1567795    0.1443063  40.85  0.001144651    1.178    0.151
        82 -11.8683     48.7894    232.8304   1.2517153358e+02   2.1513895499e+01    0.2679332    0.1477431  82.09 0.0003965682    1.672    0.402
        83  -9.7433     36.0463    234.1889   1.2734521388e+02   2.2742253218e+01    0.1357313   0.08386488  72.81 0.0004493618    1.243    0.195
        84 -10.8235    161.6689     54.9286   6.4338865728e+01   3.7610149359e+01    0.2690009    0.2257685  69.28 0.0004527158    1.278    0.217
        85  -8.8509    115.5192     31.4532   6.6524126686e+01   5.2201402421e+01    0.1433146    0.1313013  13.54 0.0001267489    1.019    0.019
        86 -10.3858    189.6745     14.9770   4.7139573878e+01   3.5482087016e+01    0.1940596    0.1787073 -36.66 0.0005940449    1.132    0.116
