#   1 NUMBER                 Running object number                                     
#   2 MAG_AUTO               Kron-like elliptical aperture magnitude                    [mag]
#   3 X_IMAGE                Object position along x                                    [pixel]
#   4 Y_IMAGE                Object position along y                                    [pixel]
#   5 X_WORLD                Barycenter position along world x axis                     [deg]
#   6 Y_WORLD                Barycenter position along world y axis                     [deg]
#   7 A_WORLD                Profile RMS along major axis (world units)                 [deg]
#   8 B_WORLD                Profile RMS along minor axis (world units)                 [deg]
#   9 THETA_WORLD            Position angle (CCW/world-x)                               [deg]
#  10 FWHM_WORLD             FWHM assuming a gaussian core                              [deg]
#  11 ELONGATION             A_IMAGE/B_IMAGE                                           
#  12 ELLIPTICITY            1 - B_IMAGE/A_IMAGE                                       
         1  -8.5371    232.2996     38.3235   1.6993751237e+01   2.2724469278e+01    0.3994293    0.2327916  24.47  0.001488023    3.941    0.746
         2  -7.2735    208.6324      7.1832   1.1827482382e+01   3.2184801093e+01    0.1603699     0.128448 -13.10  0.000284695    1.589    0.371
         3  -6.8161     84.9918      5.9959   3.3251262632e+01   6.1954976109e+01    0.1481802    0.1244514  19.62            0    1.023    0.022
         4 -10.1988    102.7995    244.7523   8.5385544348e+01   1.1354408054e+01    0.2249501    0.1967823 -89.57 0.0006761781    1.267    0.211
         5  -8.5047      2.7061    244.7327   1.0240798474e+02   2.3817618272e+01    0.2256832   0.09597986 -84.18  0.001454299    1.978    0.494
         6  -7.2004     21.4020    243.7998   9.9434024084e+01   2.2078263698e+01     0.126318   0.08104566 -79.65 0.0003621124    1.510    0.338
         7  -7.2361     93.4850    240.5540   8.6691306215e+01   1.3468090352e+01    0.1183805   0.09506299  57.58 6.276916e-05    1.077    0.072
         8  -6.7018    176.7054    237.3460   7.0553555467e+01   6.1786111403e-01    0.1186576   0.09147149  65.70 0.0007031538    1.669    0.401
         9  -8.3517    233.1163    234.7598   5.9795493417e+01  -8.0499911386e+00    0.1691826    0.1406797  27.66 0.0009165506    1.235    0.190
        10  -8.8492    127.3399    233.2342   7.9486031847e+01   9.4858042697e+00    0.2112064    0.1705216  47.71 0.0003113824    1.060    0.057
        11  -8.9281     54.0605    233.1111   9.3232301389e+01   2.0230312175e+01    0.2171027    0.1594707  61.61  0.001537313    1.083    0.077
        12  -7.8445     77.8139    231.0260   8.8712763164e+01   1.7454011228e+01     0.169322    0.1334318 -42.18  0.001080895    1.985    0.496
        13  -7.2836    250.6976    229.6317   5.5889430526e+01  -1.0013257336e+01    0.1250483   0.07469559   5.37 0.0007033659    1.743    0.426
        14  -7.6405    112.9610    228.6243   8.1733247788e+01   1.2617502590e+01    0.1842739    0.1309797  53.73 0.0006584497    1.162    0.139
        15  -6.7796    157.6668    227.7246   7.2839517582e+01   5.3317278371e+00    0.1251902   0.09268532  18.14 0.0004129703    1.600    0.375
        16  -8.0184     25.9002    227.0146   9.7778807072e+01   2.4677261044e+01     0.257495    0.1460298  37.71  0.001662264    1.893    0.472
        17  -7.8999    234.1335    216.6151   5.6528159265e+01  -5.8841359210e+00    0.1927757    0.1591076 -29.19 0.0005544783    1.386    0.279
        18  -8.6928     54.5838    209.4470   9.1228711127e+01   2.4788405587e+01    0.2254874    0.1724589 -76.14  0.000189876    1.309    0.236
        19  -6.8987    150.7710    213.6960   7.2163317524e+01   8.9321005422e+00    0.1179223    0.1001517   0.72 0.0002156496    1.475    0.322
        20  -7.8436     60.8000    206.6530   8.9745988324e+01   2.4563332127e+01    0.1633787    0.1483252  37.23 0.0006318863    1.452    0.311
        21  -7.6102     35.1645    206.7040   9.4758225161e+01   2.7658815711e+01    0.2001175     0.124264 -54.79  0.000861223    2.076    0.518
        22  -8.6040     11.7348    206.4532   9.9089850953e+01   3.0131326708e+01    0.2465369    0.1023327  85.46  0.001315883    2.170    0.539
        23  -7.5495     89.3370    197.0951   8.2785863136e+01   2.2522402367e+01    0.1771716    0.1492419  83.24 0.0003992432    1.080    0.074
        24  -8.5275     13.6076    196.2442   9.8132622257e+01   3.2029389328e+01    0.1818684    0.1577678  84.67 0.0006325438    1.281    0.219
        25  -9.7467     25.7434    187.7854   9.5172338906e+01   3.2623965825e+01    0.4274967     0.266403 -85.27  0.002706538    1.313    0.238
        26  -9.7288    139.8976    181.9283   6.9335411030e+01   1.7043553883e+01     0.251275    0.2339333 -63.37 0.0003578205    1.147    0.128
        27  -8.0214    145.6117    179.4523   6.7616957411e+01   1.6466914191e+01    0.2390228    0.2211119 -74.17 0.0006262457    1.148    0.129
        28  -7.0962    170.5861    172.5836   6.0795623958e+01   1.2927628730e+01    0.1436619    0.1354208  46.60 0.0001538314    1.048    0.046
        29  -7.6867    145.5115    172.5114   6.6360958643e+01   1.7925713770e+01    0.1453071    0.1375871  39.70 0.0008096413    1.064    0.060
        30  -7.4190     46.5870    172.2265   8.9300061718e+01   3.3796205945e+01    0.1753101   0.09958664 -62.40 0.0009411767    1.655    0.396
        31  -8.8097     83.3240    170.8194   8.0628735244e+01   2.9224983400e+01    0.2292182    0.2024455  69.98 0.0002186238    1.061    0.057
        32  -7.5820     53.5097    166.5119   8.7066541644e+01   3.4277798961e+01     0.129636    0.1085265  88.72 0.0001115699    1.016    0.016
        33  -7.9500    226.1410    156.7449   4.6229837578e+01   4.6779398232e+00    0.1934666    0.1880747  18.72 0.0004768458    1.146    0.128
        34  -9.2418     50.4135    154.2527   8.6287710806e+01   3.7495199148e+01    0.4186313    0.2940152  -9.37  0.002139293    2.556    0.609
        35  -7.4260     78.9067    153.2485   7.9038979685e+01   3.3972168065e+01    0.1764262    0.1135707  42.63 0.0005500813    1.581    0.368
        36  -8.1068     72.4690    153.4915   8.0698212924e+01   3.4840055986e+01    0.1383924     0.119605  88.82 5.473354e-05    1.033    0.032
        37  -7.7431    248.5233    149.5372   4.0741649990e+01   1.6302531693e+00     0.137106    0.1199169 -12.18 8.563096e-05    1.018    0.018
        38  -7.1512    239.3673    146.1333   4.1551209560e+01   3.9030688222e+00    0.1971636     0.118972 -43.97  0.000602698    1.694    0.410
        39  -7.4307     92.4650    146.3141   7.4383222572e+01   3.3515420715e+01    0.1870424    0.1328647 -73.33 0.0002738853    1.430    0.301
        40  -7.5115     50.2313    146.4874   8.5302915637e+01   3.9345466583e+01    0.1747479    0.1123402  51.52 0.0007037343    1.601    0.375
        41  -8.0080     68.3539    142.6506   8.0044761866e+01   3.7985773383e+01    0.1491196   0.09600486  73.87 0.0007034361    1.836    0.455
        42  -9.0092    152.1344    136.8829   5.7333124798e+01   2.4219039362e+01     0.357178    0.2808378 -23.31 0.0008559925    1.513    0.339
        43  -8.0188     78.2003    137.7890   7.6597862386e+01   3.7758507908e+01     0.211155    0.1755271  84.91  0.000556426    1.198    0.165
        44  -8.4005     37.5953    130.3604   8.6365448046e+01   4.4522784692e+01    0.2119572    0.1803367 -63.65 0.0002813382    1.137    0.120
        45  -7.9654     72.6785    126.4902   7.6018809272e+01   4.1263985604e+01    0.2941323    0.1466479  21.98 0.0009243232    3.087    0.676
        46  -7.3031    130.5233    121.8072   5.9120715243e+01   3.2164500513e+01    0.2086467     0.147579 -62.45 0.0003031106    1.566    0.361
        47  -7.7620     69.8125    117.7905   7.5130076621e+01   4.3744994092e+01     0.199699     0.174635 -51.50 0.0004033891    1.112    0.101
        48 -10.3585     58.7102    115.9459   7.8019363199e+01   4.5629537146e+01    0.2275889     0.212757 -57.30 0.0002937865    1.102    0.092
        49  -7.2699    109.8260    103.1656   6.0009235721e+01   4.0539632607e+01    0.1953577    0.1743502  -9.52 0.0002558805    1.255    0.203
        50  -7.0410     25.9725    100.2370   8.5087543276e+01   5.2627496613e+01    0.1334643    0.1069409  23.91 0.0003206266    1.533    0.348
        51  -7.5594    136.1033     80.9848   4.6456322004e+01   3.9640874892e+01    0.2379783     0.184431  12.98  0.000508794    1.619    0.382
        52  -8.5081    203.1839     78.8665   3.1509727141e+01   2.3613361791e+01    0.2557662    0.2109739  54.30 0.0003603371    1.241    0.194
        53  -8.2670    129.5384     77.9582   4.7253866347e+01   4.1722815780e+01    0.2503214    0.2119559  53.60  0.001260313    1.215    0.177
        54  -7.3309     97.9014     77.9042   5.6364216400e+01   4.8262603708e+01     0.183796    0.1691203 -72.33            0    1.238    0.192
        55  -7.9180    215.8264     75.6131   2.8568928544e+01   2.1089066882e+01     0.237873    0.1940015 -23.79 0.0005261569    1.327    0.246
        56  -7.3318     85.7805     76.3729   5.9745573132e+01   5.0727660550e+01     0.193892    0.1339755  24.60  0.000527999    1.648    0.393
        57  -7.4123    100.9682     72.8566   5.3844349744e+01   4.8706163511e+01     0.251931    0.1724973   9.59  0.001102547    2.053    0.513
        58  -7.6702    241.0517     69.7314   2.3480988184e+01   1.6159773878e+01     0.186192    0.1780782 -72.40 0.0004675105    1.088    0.081
        59  -8.8947    100.1730     65.6538   5.1754610474e+01   5.0261635249e+01    0.2606241    0.2321422 -42.22 0.0003342688    1.145    0.127
        60  -7.1253    168.7692     58.3900   3.2076185799e+01   3.5669440720e+01    0.2038792    0.1354116  48.20 0.0002478785    1.495    0.331
        61  -7.5320     97.5143     50.0175   4.7165595360e+01   5.3588165092e+01    0.2098598    0.1784605  33.03 0.0005160645    1.159    0.137
        62  -8.2553    148.9279     42.0663   3.1000362683e+01   4.3145488970e+01    0.2122223    0.2053316  42.16 0.0003302569    1.029    0.028
        63  -7.8895     53.9049    246.7366   9.4225375055e+01   1.7776136043e+01    0.1882618    0.1089774  79.59 0.0006465592    1.559    0.359
        64  -8.7326     99.7601     26.1072   3.7366141355e+01   5.6684452858e+01    0.2673686    0.1699599 -20.40   0.00135681    1.638    0.390
        65  -8.5297    185.5660     20.7021   1.8146252992e+01   3.6504911290e+01    0.2600907    0.1970219  46.69 0.0005418562    1.400    0.286
        66  -7.3552    135.9578     18.9221   2.5831549254e+01   4.9255641115e+01    0.1637367    0.1503813  43.39 0.0003468976    1.029    0.028
        67  -8.8318    244.4669    245.1269   5.9505843099e+01  -1.0908591495e+01    0.2727204    0.1045616 -32.31  0.001384872    2.830    0.647
