#   1 NUMBER                 Running object number                                     
#   2 MAG_AUTO               Kron-like elliptical aperture magnitude                    [mag]
#   3 X_IMAGE                Object position along x                                    [pixel]
#   4 Y_IMAGE                Object position along y                                    [pixel]
#   5 X_WORLD                Barycenter position along world x axis                     [deg]
#   6 Y_WORLD                Barycenter position along world y axis                     [deg]
#   7 A_WORLD                Profile RMS along major axis (world units)                 [deg]
#   8 B_WORLD                Profile RMS along minor axis (world units)                 [deg]
#   9 THETA_WORLD            Position angle (CCW/world-x)                               [deg]
#  10 FWHM_WORLD             FWHM assuming a gaussian core                              [deg]
#  11 ELONGATION             A_IMAGE/B_IMAGE                                           
#  12 ELLIPTICITY            1 - B_IMAGE/A_IMAGE                                       
         1 -12.9499    194.8026     32.0534   6.0085831241e+01   3.2321107898e+01     1.686193     1.212267   2.27  0.005397838    1.783    0.439
         2 -12.7717    201.8364     26.3536   5.7494747864e+01   3.1199555745e+01     1.202746    0.9147541 -40.59  0.004458093    1.306    0.234
         3 -11.9773    209.4226     18.7966   5.4469789719e+01   3.0131053612e+01    0.6652265    0.5751492   4.29  0.001187039    1.371    0.271
         4 -12.5423    219.3056      6.7187   5.0229304733e+01   2.8937722959e+01    0.7837685    0.6920599 -82.47  0.002660154    1.028    0.027
         5  -9.4551    164.4403     11.2760   5.8128344370e+01   4.2560673019e+01    0.2019562    0.1256464 -37.99 0.0009592784    1.691    0.409
         6 -10.0446    133.7021    248.9566   1.1863480958e+02   8.3745319835e+00    0.2770046    0.1424412  54.99  0.001593033    1.821    0.451
         7  -9.4266     73.9615    249.6465   1.2886947454e+02   1.6641548485e+01    0.2462298      0.14337 -82.09  0.001293733    1.891    0.471
         8  -9.8851     69.5786    250.1855   1.2962876132e+02   1.7113810742e+01    0.2201097    0.1406851  48.72  0.001609907    1.230    0.187
         9 -12.4687     46.4542    234.5933   1.3245077461e+02   2.2428320922e+01     2.936388      0.66487  59.25  0.009597194    6.732    0.851
        10 -15.0010      7.7600    198.4116   1.3710296042e+02   3.2861555933e+01     6.344377       1.1668 -76.63   0.01772795    4.422    0.774
        11 -14.2970     50.0728    205.5687   1.2980941961e+02   2.7167335757e+01     4.836116    0.8770157  50.07   0.01787004    4.441    0.775
        12  -9.0575     70.7044    229.4214   1.2791584174e+02   2.0345407965e+01    0.1884945    0.1349526  67.41 0.0004589372    1.124    0.110
        13  -8.6105     44.3216    247.0289   1.3352274545e+02   2.0636102304e+01    0.1377345   0.09423553  72.89 0.0003795036    1.152    0.132
        14  -8.9173     82.6122    245.7467   1.2713259502e+02   1.6122341727e+01    0.1701754   0.09649898 -65.40   0.00112332    2.074    0.518
        15  -8.7195     87.8301    242.4065   1.2597446344e+02   1.5947407261e+01      0.17087    0.1234222  77.03 0.0006830283    1.322    0.243
        16  -8.6614    102.0649    235.3400   1.2285152664e+02   1.5082209321e+01    0.1614843    0.1136976  53.64  0.000508311    1.095    0.087
        17 -10.3448     58.8785    193.7332   1.2710812337e+02   2.8376633178e+01    0.3325539    0.2002841  78.75  0.001609818    1.613    0.380
        18  -9.7895     60.6667    190.1391   1.2641284467e+02   2.8862252249e+01    0.4203132    0.2070001  88.46  0.001893345    2.430    0.589
        19  -8.8179    189.1792    188.7715   9.9847553669e+01   8.0558461996e+00    0.2807481    0.1668438 -59.29   0.00125819    2.864    0.651
        20 -10.9413     66.1421    186.8659   1.2496835142e+02   2.8818610610e+01    0.3453586    0.2515266 -43.20  0.001271402    1.964    0.491
        21 -10.9212     71.0754    180.6747   1.2327101906e+02   2.9422071652e+01    0.2547707    0.2225633 -66.00 0.0005345046    1.304    0.233
        22 -10.2901     53.4244    231.3978   1.3106654880e+02   2.2152268132e+01    0.3428847    0.1686261  89.14  0.001347282    2.159    0.537
        23  -8.3759    198.5976    178.8108   9.6205963189e+01   7.8510950140e+00    0.1790143     0.127606 -47.96 0.0009535822    1.722    0.419
        24 -11.9685     57.2638    130.5479   1.2002412944e+02   4.2073644959e+01     1.080616    0.4423698 -79.11  0.003862688    3.720    0.731
        25 -12.5647     67.8345    144.7726   1.1944354860e+02   3.7540870197e+01     1.166653    0.6335492  86.61  0.002588421    2.579    0.612
        26 -12.4690     67.7338    166.4541   1.2234756181e+02   3.2827066248e+01    0.4610506    0.2854621 -46.71  0.001665329    2.044    0.511
        27 -10.0923    242.7599    165.0190   8.5479262103e+01   1.7360886483e+00    0.2557617    0.1747321  38.14 0.0003165994    1.411    0.291
        28  -9.1555     97.9173    164.8094   1.1525104971e+02   2.8811016371e+01    0.2002457    0.1755235 -75.97 0.0002978087    1.139    0.122
        29  -8.2950    164.0964    162.0929   9.9972870773e+01   1.7367528434e+01    0.1758803    0.1594264  70.55 -0.0009232552    1.220    0.181
        30 -10.7520    243.7843    159.8155   8.4241172826e+01   2.2676182042e+00    0.3220904    0.2156484  33.23 0.0007195694    1.416    0.294
        31 -10.2627    210.9872    157.9262   8.9681848831e+01   8.7364996997e+00    0.2242905     0.193144  28.14 0.0003384151    1.073    0.068
        32 -13.3384      7.1233    248.0452   1.3928821003e+02   2.4344438435e+01     2.134637     0.767399  34.85   0.01282589    2.980    0.664
        33  -9.3387     96.9943    149.4821   1.1303121803e+02   3.2235538717e+01    0.2297228    0.1900384 -86.88 -4.140135e-05    1.206    0.171
        34  -9.8593    100.2792    147.0141   1.1180965679e+02   3.2239392467e+01    0.6303346     0.351991 -35.41  0.002615502    2.775    0.640
        35 -10.4540     38.4853    146.8971   1.2684514618e+02   4.0492686885e+01    0.3558208    0.1701433  51.69  0.001845655    2.095    0.523
        36 -11.3914     88.5319    145.7989   1.1448694389e+02   3.4368476976e+01    0.2592284    0.2351172 -52.03 0.0006270579    1.216    0.178
        37 -11.1944     28.7266    145.2189   1.2897688327e+02   4.1811282967e+01    0.3288613    0.2099989  85.26   0.00178056    1.408    0.290
        38 -11.9312     16.2878    240.8765   1.3762799754e+02   2.4608764910e+01    0.5176597    0.3364419  31.24 0.0009710411    2.070    0.517
        39  -8.9142    230.3248    140.1269   8.2327774448e+01   7.6668918279e+00    0.2138621    0.1735103  22.26 0.0002994876    1.185    0.156
        40  -8.7558    110.8088    133.9090   1.0673331363e+02   3.3299396225e+01    0.2181662    0.1911344 -16.64 0.0009966996    1.402    0.287
        41 -11.3898     22.8144    124.9995   1.2827676454e+02   4.6800768899e+01    0.3044001    0.2537507 -54.30  0.001607535    1.309    0.236
        42 -10.5376     80.1635    169.8857   1.1998666283e+02   3.0405236186e+01    0.2517042    0.2239511  88.20 0.0003880972    1.081    0.075
        43  -9.8059     98.0009    130.7238   1.0937684158e+02   3.6206760309e+01    0.2438711    0.2164901 -29.52 0.0005964242    1.317    0.241
        44  -8.4643    107.2434    121.9966   1.0516061352e+02   3.6552782112e+01    0.1858772    0.1750999 -70.20 0.0003062996    1.033    0.032
        45 -10.5660    242.3733    169.6936   8.6486735130e+01   1.1702264034e+00    0.2837247    0.2141946  33.99  0.000533403    1.261    0.207
        46  -7.6467    185.7335    115.7086   8.5009915821e+01   2.1315083778e+01    0.1478066    0.1160325   8.77            0    1.505    0.335
        47  -9.4605    246.9962    114.5061   7.3763583408e+01   8.1640187248e+00    0.1998708    0.1347526  48.65 0.0005439247    1.583    0.368
        48  -8.9218    167.6645    113.1323   8.8219732892e+01   2.5906954514e+01     0.308066    0.2382074  84.19  0.001410253    1.762    0.432
        49 -12.1800     40.6864    217.1167   1.3234007566e+02   2.6119727300e+01    0.3824673     0.322688 -65.80  0.001330744    1.572    0.364
        50 -12.2057     86.9819    163.2321   1.1753269168e+02   3.0821224301e+01     2.032115    0.7527047  55.88  0.001103419    3.765    0.734
        51  -9.7646    242.8415     95.1630   6.9820813132e+01   1.1877130661e+01     0.199645    0.1629312   7.82  0.000986823    1.339    0.253
        52  -8.5745    171.8385     93.1012   8.2006431346e+01   2.8676937537e+01    0.2139502    0.2028942 -78.03 0.0002854602    1.144    0.126
        53  -9.6126    227.7342     85.0797   6.9609735659e+01   1.6724423372e+01    0.2404014    0.2011515  43.51 0.0003664942    1.247    0.198
        54  -8.9079    232.4516     81.4453   6.7979858600e+01   1.6196963536e+01    0.1408575    0.1328252 -18.13 0.0001361152    1.034    0.033
        55  -8.3064    157.4748     79.4711   8.1291081095e+01   3.4601104382e+01    0.1539577    0.1490379  17.87 0.0008093074    1.025    0.024
        56  -7.9958    114.6465     74.8119   9.0767949752e+01   4.5154629746e+01    0.1430586    0.1074538  23.30 0.0002539879    1.530    0.347
        57  -7.6751    171.3061     66.3671   7.4407532703e+01   3.3442764881e+01    0.1623053     0.118157  16.89 0.0007036099    1.749    0.428
        58 -10.2962    127.5130     52.8751   8.0076899970e+01   4.6327120752e+01    0.2562106    0.2271787  41.06 0.0002700782    1.107    0.096
        59 -11.9732    236.2421    247.1098   1.0089833118e+02  -6.9139076585e+00    0.2085453    0.1664192  24.33 0.0001988085    1.203    0.169
        60  -9.4952    121.8439    248.5086   1.2064546765e+02   1.0199482595e+01    0.2103893    0.1379176  85.96  0.001336811    2.070    0.517
        61  -9.6486    146.0083    229.5202   1.1422053341e+02   9.2745730626e+00    0.1907164   0.09617932  41.49 0.0006780112    1.580    0.367
        62  -9.1184    223.0959     36.8088   5.7701095691e+01   2.4600344680e+01    0.3047414    0.1959614 -20.93 0.0009894531    1.699    0.411
        63  -7.9614     35.6191     37.3041   1.0589955544e+02   6.4755726510e+01    0.1118273   0.09563887  77.68 0.0007023896    1.781    0.439
        64  -8.4654     28.8630     34.8418   1.0798235269e+02   6.5867748555e+01    0.1423209    0.1368906 -48.12 0.0003388706    1.297    0.229
        65  -8.6332    168.9808     20.0679   6.0282292844e+01   4.0451172898e+01    0.1674298    0.1637348  64.97 0.0003944422    1.041    0.040
        66  -9.2015    189.5791     15.2607   5.5862357665e+01   3.5600134912e+01    0.1848889    0.1391938  -6.27 0.0009501448    1.576    0.366
        67 -10.0618    148.3616    223.9778   1.1308299591e+02   9.7275775277e+00    0.2111802     0.178118  46.71 0.0002953935    1.056    0.053
