#   1 NUMBER                 Running object number                                     
#   2 MAG_AUTO               Kron-like elliptical aperture magnitude                    [mag]
#   3 X_IMAGE                Object position along x                                    [pixel]
#   4 Y_IMAGE                Object position along y                                    [pixel]
#   5 X_WORLD                Barycenter position along world x axis                     [deg]
#   6 Y_WORLD                Barycenter position along world y axis                     [deg]
#   7 A_WORLD                Profile RMS along major axis (world units)                 [deg]
#   8 B_WORLD                Profile RMS along minor axis (world units)                 [deg]
#   9 THETA_WORLD            Position angle (CCW/world-x)                               [deg]
#  10 FWHM_WORLD             FWHM assuming a gaussian core                              [deg]
#  11 ELONGATION             A_IMAGE/B_IMAGE                                           
#  12 ELLIPTICITY            1 - B_IMAGE/A_IMAGE                                       
         1 -14.6156     68.5383    144.2243   1.0608469973e+02   3.7244736417e+01     5.228107     1.856493  57.24  0.004577874    4.872    0.795
         2 -14.5726    214.7417     22.3690   4.2593928095e+01   2.8780310237e+01        2.965      1.59722  29.02   0.01215789    3.114    0.679
         3 -14.2789    201.8770     35.9961   4.7731940207e+01   3.0223306227e+01     1.971631     1.162708  19.60  0.008103111    2.770    0.639
         4 -11.8019      2.3692     24.6800   1.0793764008e+02   7.3320070562e+01     0.442023    0.1819083 -61.25  0.001786448    1.851    0.460
         5 -11.6146      1.9237      4.2207   9.9117044695e+01   7.7751344124e+01    0.6352085    0.1559399 -55.37  0.002547597    3.005    0.667
         6 -10.9759     53.9706      4.7831   6.5499389799e+01   7.0277029457e+01    0.2347268    0.1795605 -22.18 0.0004473557    1.215    0.177
         7 -11.3731    239.2530      1.8642   3.5560626423e+01   2.5410142314e+01    0.5404949    0.2052027  79.93  0.002162206    2.910    0.656
         8 -10.7548     58.3552      6.8962   6.5041210138e+01   6.9129989936e+01    0.2163183    0.1885019  64.72 0.0006439621    1.384    0.277
         9 -11.6574    193.3931    195.3243   8.6744628750e+01   8.1001373613e+00    0.6628581    0.3771478 -59.62  0.002722502    4.880    0.795
        10 -10.1876    140.1049    249.8656   1.0338000297e+02   8.2718073270e+00    0.1657227    0.1172716  45.20  0.001235073    1.283    0.221
        11 -14.7796     46.0105    222.5393   1.1856306527e+02   2.3867251666e+01     1.892283     1.335868  14.58  0.001252126    2.034    0.508
        12 -15.7792     67.9852    247.8916   1.1600372502e+02   1.7297010586e+01     8.896176     2.671194  26.04  0.009984062    9.014    0.889
        13  -9.8760     99.5337    180.9169   1.0348162342e+02   2.4894622758e+01    0.2197972    0.1696308  24.25 0.0005806681    1.440    0.305
        14 -12.1429     66.6980    178.2952   1.1069637349e+02   2.9940037595e+01    0.3882106    0.2764124 -36.61  0.001441717    2.048    0.512
        15 -11.9917     71.3286    173.1583   1.0905377311e+02   3.0420048431e+01    0.2789883    0.2531716 -34.75 0.0006618492    1.426    0.299
        16 -13.8707     57.4207    129.4095   1.0703405688e+02   4.2255759107e+01      2.37689     0.886427 -74.63  0.008441455    3.189    0.686
        17 -12.7872     87.1119    156.5784   1.0305800016e+02   3.1788652369e+01     1.253253    0.7364252 -66.58  0.001922577    1.770    0.435
        18 -12.4307     80.5025    163.3961   1.0564601338e+02   3.1260225345e+01    0.6277698    0.3378288  50.04  0.003079277    1.757    0.431
        19 -13.6249     67.9125    159.4895   1.0827657532e+02   3.3843604629e+01    0.5215034    0.4428339 -45.11  0.001438981    1.437    0.304
        20  -9.3428    112.2958    197.6539   1.0284231292e+02   1.9916257829e+01    0.1243121   0.08536378  65.15 0.0007032969    1.672    0.402
        21  -8.9646    125.9683    154.9945   9.3411631321e+01   2.5845691937e+01    0.1544729    0.1513091  58.81 -0.002661949    1.033    0.032
        22 -11.3701    133.7106    143.2216   8.9375740055e+01   2.6839325539e+01     1.006657    0.2644702 -53.20   0.00280516    5.057    0.802
        23 -10.4767    174.6968    148.9732   8.1762196164e+01   1.8235306877e+01    0.2597387    0.2265823  28.39 0.0008161713    1.106    0.096
        24 -10.7246    133.2758    172.0104   9.4691632082e+01   2.1336607544e+01    0.2278706    0.1639316  38.88 0.0007993717    1.276    0.216
        25 -11.1643     38.2173    146.0107   1.1451187550e+02   4.0508053723e+01    0.3160746    0.1683072  39.70  0.001631151    1.775    0.437
        26 -13.2647     10.6903    188.7148   1.2404190341e+02   3.3758504235e+01    0.4015614    0.2800505  31.50  0.002648767    1.547    0.353
        27  -9.8785     83.3794    142.9740   1.0192168172e+02   3.5400177148e+01    0.2719671    0.1901222  66.90 0.0009088084    1.534    0.348
        28 -12.3485     88.7947    141.1866   1.0018980846e+02   3.4977682956e+01    0.2711812    0.2465782 -53.97 0.0004115025    1.183    0.154
        29 -10.3008    100.4778    142.5082   9.7375552980e+01   3.2802757524e+01    0.2686573    0.2544394 -78.98  0.000895165    1.057    0.054
        30 -10.0629    102.9744    139.2807   9.6143625730e+01   3.3103269363e+01    0.3122542    0.2439018 -10.08  0.001572158    1.830    0.454
        31  -9.4025     79.6715    139.8970   1.0241634476e+02   3.6665486799e+01    0.1932429    0.1647024 -82.59 0.0006872909    1.120    0.107
        32 -16.0309      7.0201    172.0688   1.2414052804e+02   3.7533725488e+01     5.848444     1.640676 -79.65   0.02562519    3.098    0.677
        33 -10.3751     34.8303    139.5361   1.1478090509e+02   4.2401028334e+01    0.2516328    0.1713231  59.71  0.001183204    1.350    0.259
        34 -15.2854      9.3289    207.6492   1.2503876594e+02   3.0187626791e+01     1.892955      1.34089 -36.31   0.00590281    2.502    0.600
        35 -10.2503    110.8868    131.1797   9.2512703466e+01   3.3526101323e+01     0.334109    0.2504474  17.96 0.0008774609    1.714    0.416
        36 -10.1570    105.9164    130.7174   9.3712350821e+01   3.4509324650e+01    0.3193835    0.2819934 -79.30  0.001365158    1.147    0.128
        37 -11.7563    135.4109    121.1630   8.4171204406e+01   3.1029185929e+01    0.8255233    0.1921952 -48.22  0.002240002    4.537    0.780
        38  -9.8482     34.6958    171.5748   1.1763526818e+02   3.5080156471e+01    0.1644489   0.09378333  46.42 0.0008055093    1.508    0.337
        39  -9.8298    126.3025    128.3117   8.8013060771e+01   3.1302971922e+01    0.3006432    0.1798498 -70.67  0.001179946    2.586    0.613
        40 -11.0030     29.2679    128.1477   1.1518333913e+02   4.5716756526e+01    0.2610578    0.2316889 -71.24  0.001166125    1.193    0.161
        41 -11.0205     98.1303    127.3154   9.5103377455e+01   3.6630648499e+01    0.2820282    0.2479091 -24.16 0.0007310732    1.362    0.266
        42 -10.5720    116.9653    125.7729   8.9799545663e+01   3.3606090402e+01    0.3846412    0.2170562 -54.42  0.001674864    1.807    0.447
        43 -10.4533    160.5682    127.3022   7.9931521115e+01   2.4797372280e+01    0.2795626    0.1346804 -45.50  0.001136981    2.109    0.526
        44  -9.9590    107.6166    119.8293   9.0939079532e+01   3.6656611193e+01     0.214692    0.1955495  31.02 0.0003578898    1.185    0.156
        45 -10.3473    230.5876    166.8064   7.5474186853e+01   6.2610031431e+00     0.166743    0.1011112 -37.20 0.0009534471    1.743    0.426
        46  -9.9986    168.4050    113.1560   7.4896071471e+01   2.5811372309e+01    0.3479173    0.2578434 -80.41  0.001225312    2.075    0.518
        47 -14.1479     42.0579    204.8104   1.1828556868e+02   2.7527904612e+01    0.8935317    0.7199426  58.06  0.003216751    1.069    0.065
        48 -10.1197    205.4577    110.1707   6.7363119029e+01   1.8715750777e+01    0.2888496    0.1946152  37.28  0.000981026    1.608    0.378
        49 -14.1998     31.1061    247.9716   1.2250867020e+02   2.1187058697e+01     0.996759    0.7428767  -3.14  0.007144201    2.569    0.611
        50 -14.8911     50.7367    195.2397   1.1578888373e+02   2.8420504964e+01      1.85773     1.075067  59.26   0.01109022    1.498    0.332
        51 -10.5521    134.6282    105.5757   8.0483762929e+01   3.4419744960e+01    0.4376827    0.1404673 -44.00  0.001388852    3.029    0.670
        52 -16.3592      9.2192    240.9897   1.2607371154e+02   2.4361621413e+01      1.76977     1.657254  88.26   0.01646309    1.521    0.342
        53 -10.4598     37.5170    102.4751   1.0912573616e+02   5.1324390698e+01    0.2476906    0.1262567  33.67  0.001151753    2.086    0.521
        54  -8.6136     91.3649    102.6778   9.1540152426e+01   4.3569792774e+01    0.1578124     0.113771  79.38 0.0007039488    1.787    0.440
        55 -10.0405    247.9888    102.0000   5.9314785049e+01   1.1898253249e+01    0.1834345   0.07432146  54.25 0.0008078467    2.980    0.664
        56  -9.0061    129.5922     95.8154   7.9087564048e+01   3.7518608977e+01    0.2233249    0.1388917 -54.27 0.0009421769    1.710    0.415
        57 -10.7115     41.8040     91.6985   1.0566410375e+02   5.3594946723e+01    0.2632689    0.2057419 -66.18 0.0004833805    1.122    0.109
        58 -10.1699     52.8141     90.8877   1.0149228360e+02   5.2458648221e+01    0.2212699    0.1816113 -49.37 0.0006485673    1.218    0.179
        59  -9.9679    158.9120     81.4699   6.8202023667e+01   3.3690245687e+01    0.2247507    0.1525724  55.11  0.000946818    1.565    0.361
        60  -9.2526     70.0409     81.5478   9.2961111029e+01   5.2252062141e+01    0.2049713    0.1457145  40.45  0.000522336    1.520    0.342
        61 -14.2222     86.2953    228.0826   1.1118522323e+02   1.8234049379e+01     2.315804     1.011439  38.44   0.01301535    1.776    0.437
        62 -10.2439    235.7536     61.2348   5.0914776485e+01   1.9538922715e+01    0.1955462   0.09436447  49.70 0.0008898373    2.437    0.590
        63 -10.4632     13.5171     59.8669   1.1093014499e+02   6.4224821542e+01    0.2480333    0.1959097 -75.89 0.0004105011    1.106    0.096
        64  -9.3714    173.6116    245.8074   9.7207872228e+01   4.5134258427e+00     0.116247    0.1018522 -53.82 0.0005519647    1.719    0.418
        65 -12.7915    192.9820     42.0094   5.0560162031e+01   3.1598354437e+01    0.6650354    0.6010385 -71.48  0.001284382    1.130    0.115
        66 -11.0751    170.7390    233.3780   9.6189058740e+01   6.3620524682e+00    0.2047393    0.1843251  18.06 0.0008739413    1.212    0.175
        67 -11.0007    142.5133     47.6024   6.0505604214e+01   4.3447389315e+01    0.5473658     0.316257 -71.79  0.001804011    2.907    0.656
        68 -10.1465    145.6433     42.3797   5.8012186121e+01   4.3446844711e+01    0.2743621    0.2293676 -67.15  0.001392311    1.275    0.216
        69  -9.0464     37.4447     56.5635   9.8762125373e+01   6.2826901673e+01    0.1376247    0.1200116 -57.24 9.308488e-05    1.014    0.014
        70  -9.1577     71.1107    185.5224   1.1042644081e+02   2.7893133599e+01    0.1742904    0.1067209  39.62 0.0004114894    1.453    0.312
        71  -9.7951    189.5242     15.0283   4.2682801254e+01   3.5612688971e+01    0.2124131    0.1284744 -25.95 0.0005931074    1.556    0.357
        72  -8.6731    136.6582     13.3120   4.8470023968e+01   4.9483157085e+01    0.1567238    0.1022117 -59.60  0.000704624    1.700    0.412
        73  -9.1127    130.5665    212.7907   1.0101946242e+02   1.4774424722e+01    0.1366599    0.1127883 -83.61 0.0005707208    1.579    0.367
        74 -10.3674    147.0282    184.0627   9.3732015477e+01   1.6981002431e+01    0.1934604    0.1519085  69.67 0.0009074649    1.676    0.403
        75  -9.9568    209.9916    199.9592   8.4654146528e+01   5.1090689710e+00     0.172117    0.1388218   7.71 0.0004400647    1.031    0.030
