#   1 NUMBER                 Running object number                                     
#   2 MAG_AUTO               Kron-like elliptical aperture magnitude                    [mag]
#   3 X_IMAGE                Object position along x                                    [pixel]
#   4 Y_IMAGE                Object position along y                                    [pixel]
#   5 X_WORLD                Barycenter position along world x axis                     [deg]
#   6 Y_WORLD                Barycenter position along world y axis                     [deg]
#   7 A_WORLD                Profile RMS along major axis (world units)                 [deg]
#   8 B_WORLD                Profile RMS along minor axis (world units)                 [deg]
#   9 THETA_WORLD            Position angle (CCW/world-x)                               [deg]
#  10 FWHM_WORLD             FWHM assuming a gaussian core                              [deg]
#  11 ELONGATION             A_IMAGE/B_IMAGE                                           
#  12 ELLIPTICITY            1 - B_IMAGE/A_IMAGE                                       
         1 -14.4925    125.9067     88.4216   4.3431081967e+01   3.9865982764e+01     3.013437     1.674442  72.21   0.01055366    2.939    0.660
         2 -12.8768     58.0817     33.9419   4.5858150792e+01   6.6359723013e+01     1.952372     0.878543  47.33  0.007761151    2.101    0.524
         3 -13.2700     55.7659     21.2644   3.9934924697e+01   6.8981026666e+01     1.745499     1.269666  45.79  0.009136855    1.292    0.226
         4 -13.1711     72.8920     24.9143   3.4979883622e+01   6.4385029402e+01     1.513874    0.4682797 -40.33  0.001418924    3.288    0.696
         5 -11.7354     79.4599     22.4951   3.1561101940e+01   6.3084539071e+01    0.7804994     0.632419 -70.64  0.003044173    1.324    0.245
         6 -13.9415     43.2328     75.4658   6.9970847014e+01   5.9597510161e+01     1.881028     1.110052 -34.97   0.00596543    2.136    0.532
         7 -13.9880     29.8992     67.9417   7.5164580492e+01   6.3311605884e+01     2.146024     1.278771 -77.46  0.009320959    1.860    0.462
         8 -13.6905     49.5896     52.2730   5.8708446480e+01   6.4292322922e+01     1.811647     1.355469  -0.34  0.007193286    1.822    0.451
         9 -12.0712      3.1702     28.2190   8.3237242806e+01   7.5626594481e+01    0.8162742     0.465733 -66.60  0.001874603    1.674    0.403
        10 -13.4903     12.9987     36.1766   7.7072030362e+01   7.3039015243e+01     1.606276     0.885532 -28.03  0.002979506    2.062    0.515
        11  99.0000    201.3266     18.8058   1.2776779698e+01   3.3364219927e+01     1.409565    0.6243157 -36.64   0.00721794    1.804    0.446
        12 -11.9870    189.2491     23.2011   1.4733918561e+01   3.5457215463e+01    0.7503873    0.3769706  88.20  0.002912919    2.075    0.518
        13 -13.8957    243.6120      8.3549   8.3889087964e+00   2.6375181061e+01     1.194525      0.40986 -70.16  0.005908735    3.001    0.667
        14 -13.1104    198.7651     48.4032   2.0321189088e+01   3.0268526257e+01     1.438533    0.9083939   0.24  0.006293443    3.407    0.706
        15 -13.3954    193.3529     37.9137   1.8194880442e+01   3.2777179889e+01     1.303074    0.7537526 -45.57  0.007085584    1.399    0.285
        16 -13.5308    202.8582     60.4803   2.2847794550e+01   2.7781787289e+01     2.407436     1.068397 -75.28  0.007793802    5.411    0.815
        17 -11.6818    210.6347     20.9674   1.2725009192e+01   3.1213381141e+01    0.4356471    0.3748798  88.64  0.001711265    1.313    0.238
        18 -13.2558    232.9877     48.3020   1.7398010091e+01   2.3750378187e+01     1.214835     1.005062 -60.40  0.006050189    1.150    0.130
        19 -13.5219    226.5203     21.2411   1.1889171981e+01   2.8101156312e+01     1.054667    0.6764252 -13.97  0.004094365    2.186    0.543
        20 -12.5186    172.3031     45.0644   2.2316044165e+01   3.6492596576e+01    0.7375598    0.6669273  21.04  0.002837703    1.497    0.332
        21 -12.3593    221.4288      8.0520   9.1900917891e+00   3.0467698485e+01    0.5831054    0.1815024 -52.91  0.001398327    2.321    0.569
        22 -11.6140    148.6635     40.5565   2.4126789376e+01   4.2768987013e+01     0.803099    0.3243009 -39.53   0.00323619    2.203    0.546
        23 -12.9712    221.4409     38.8664   1.6154464126e+01   2.7012626512e+01     1.128702    0.5899481 -62.14 0.0007036697    1.802    0.445
        24 -10.9474     42.1535     20.8912   4.6999463650e+01   7.1954451091e+01    0.7360262    0.4740682  50.12  0.003513244    1.505    0.336
        25 -11.7034     32.0660     21.4778   5.4145517827e+01   7.3735900636e+01    0.6212919    0.3353065 -48.05  0.002296559    1.981    0.495
        26 -12.0410    241.6532     21.9788   1.1287975432e+01   2.5289239573e+01     0.401495    0.2539992 -70.71  0.002752631    1.462    0.316
        27 -11.0760    103.0157     20.9388   2.4848683846e+01   5.7164306713e+01    0.4128569    0.3719281  21.35  0.002340474    1.360    0.265
        28 -10.5249    170.6095     18.9969   1.5088221360e+01   4.0179405485e+01    0.3168402    0.2329839   8.85  0.001256144    2.163    0.538
        29 -13.0217    173.0178      7.3517   1.1582429418e+01   4.0856376878e+01    0.5130358    0.2861264 -20.23  0.001471668    2.123    0.529
        30 -10.0885    124.9433     16.1188   1.9145186910e+01   5.1936954710e+01    0.2704254    0.1603215 -36.34 0.0007455416    1.665    0.399
        31 -10.4805    187.2903     13.1086   1.2220668875e+01   3.7011395961e+01    0.2487642    0.1282822 -57.24 0.0006151425    1.604    0.377
        32  -9.8881    131.1736     10.2551   1.6183605872e+01   5.0929820702e+01    0.5070307    0.3360676 -35.69  0.002671628    1.509    0.337
        33 -11.8950    115.9586      9.9202   1.8001273766e+01   5.4956022852e+01    0.4388437     0.322624   1.82  0.001430617    1.866    0.464
        34  -8.9885    124.1758     10.3516   1.7067360053e+01   5.2747254638e+01    0.4067009    0.2597827  24.81  0.001873626    2.417    0.586
        35 -10.4115     93.9417     11.8135   2.2606060819e+01   6.0601773825e+01    0.2032339    0.1688587  58.75 0.0002524118    1.182    0.154
        36 -10.4744     88.3686     11.4924   2.3657200606e+01   6.2104824988e+01    0.2388342    0.1812408 -29.51  0.001277731    1.453    0.312
        37 -10.6558    109.7230      9.8813   1.8909815515e+01   5.6612617188e+01    0.2811942    0.2524302 -57.92 0.0009877024    1.135    0.119
        38 -10.5053     78.6025      9.4236   2.4958226990e+01   6.4872121026e+01    0.2526665    0.2200644 -64.36 0.0009497341    1.188    0.158
        39 -12.8276     57.0953      4.3503   2.8583506823e+01   7.0824790914e+01    0.6728145    0.3714061  56.06  0.001046145    1.574    0.364
        40 -10.5290     76.7309      5.0366   2.3026954581e+01   6.5794298289e+01    0.2024657    0.1899263 -45.37 0.0003299494    1.171    0.146
        41 -11.4245     71.2681      3.8361   2.3754505332e+01   6.7317343568e+01    0.6434683    0.2888439  72.49  0.002686792    2.115    0.527
        42  -9.6106     45.0299     10.0548   3.8004806311e+01   7.2976469755e+01    0.1577682     0.142341 -21.90 0.0009451305    1.200    0.167
        43 -11.2174     26.9344      9.7377   4.9831824972e+01   7.6666418908e+01    0.2527594    0.2036422  17.82 0.0005573023    1.246    0.198
        44 -11.9005    193.4243      7.3849   1.0372213720e+01   3.6262702178e+01    0.2409168    0.2060901 -55.30 0.0005920962    1.158    0.137
        45  -9.8494    165.3677      9.2652   1.2674652182e+01   4.2469480930e+01    0.1790299    0.1561781 -25.59 0.0006023872    1.369    0.270
        46 -11.3048     64.8784      7.6427   2.7967501521e+01   6.8556474226e+01    0.3648073    0.2467681 -80.03  0.001614812    1.814    0.449
        47  -9.3745    156.5197      7.5399   1.2836153849e+01   4.4786868803e+01    0.1351743    0.1097074 -69.15 0.0008089931    1.004    0.004
        48  -9.6868     13.2976      6.9574   6.0755946395e+01   7.9280183870e+01    0.1967825    0.0809633 -31.56 0.0006889166    3.865    0.741
        49  -9.5227    210.7850      6.0086   9.1838403018e+00   3.2772350414e+01    0.1476948   0.07877932 -34.47 0.0005402822    1.586    0.369
        50 -10.6316    146.2380      5.8135   1.3137419383e+01   4.7511286463e+01    0.2279719    0.1692735  71.06  0.001009359    1.348    0.258
        51  -9.7358    142.9205      2.9001   1.2450177230e+01   4.8622398071e+01      0.25296    0.2230984 -79.16  0.001443107    1.098    0.089
        52  -9.2690     91.2968      6.7170   2.0689036848e+01   6.1813280852e+01    0.1420886   0.09607462 -67.97 0.0003106543    1.543    0.352
        53 -10.8267      2.8058      6.0301   7.3229254184e+01   8.0595988011e+01     0.263717    0.1717269   9.29 0.0008288799    1.485    0.326
        54  -9.4655    160.2893      5.2133   1.1836032308e+01   4.4095834972e+01    0.1146906   0.09081316  63.71 0.0003549055    1.434    0.303
        55  -9.4504     97.4275      5.1680   1.8826028177e+01   6.0331861677e+01     0.171642    0.1207765 -47.60 0.0005127077    1.439    0.305
        56  99.0000    183.4531      3.7245   9.9565549566e+00   3.8826943913e+01    0.3129454    0.1548191 -52.82  0.001215451    1.597    0.374
        57 -10.7833    187.0220      1.4226   9.1612322771e+00   3.8253749090e+01    0.3515605    0.1217957  82.12 0.0004555507    2.795    0.642
        58 -10.6960    112.2979      3.9830   1.6074776932e+01   5.6488414048e+01    0.2577272    0.1774345  75.98 0.0005775123    1.288    0.224
        59  -9.6936    101.5192      3.7026   1.7488766437e+01   5.9376008795e+01    0.1788946    0.1200432 -45.43  0.000920339    1.496    0.332
        60 -11.4170    217.2379      2.4026   8.0818086896e+00   3.1847597233e+01    0.2263426    0.1884022  84.07  0.001206195    1.410    0.291
        61  -9.6460    207.3798      2.3123   8.4564331747e+00   3.3830908909e+01    0.2071541    0.1059732 -22.93 0.0007964013    2.159    0.537
        62 -12.1987     86.3285      1.3630   1.8965076249e+01   6.3606944745e+01    0.4888628    0.1175263  71.37  0.001180734    3.499    0.714
        63 -11.6101     48.8406      1.4733   2.9848399804e+01   7.3104567308e+01    0.5066264    0.1230168  60.59 0.0008348657    3.407    0.706
        64 -10.4185    250.0487      1.4321   6.7829845585e+00   2.5955916175e+01    0.1349955   0.08629796 -75.71 0.0003852768    1.468    0.319
        65  -9.9929    206.8278     94.8232   3.0339746079e+01   2.1943074112e+01    0.1828059    0.1306123 -54.68 0.0009748957    1.355    0.262
        66 -11.3995    226.6460     97.4480   2.8479455362e+01   1.8195513696e+01    0.2837799    0.2264884  57.30    0.0019336    1.575    0.365
        67 -11.8132     11.8801     97.6541   9.0070813129e+01   5.6663046872e+01    0.3810461    0.2570406 -64.58  0.001183686    1.402    0.287
        68 -10.5947    172.2139     91.3669   3.4670878868e+01   2.9170557476e+01    0.2295777    0.2136246 -87.97 0.0005154548    1.130    0.115
        69 -10.3818    167.9798     89.9788   3.5046506380e+01   3.0294878550e+01    0.3108009    0.2098417  60.16  0.001120571    1.628    0.386
        70  -9.7036     79.5370     90.9847   5.8511675599e+01   4.9319413545e+01    0.2254075    0.1548234 -53.62 0.0004139718    1.461    0.316
        71 -12.1769      6.8175     89.1291   9.1676614494e+01   5.9368088344e+01    0.7962327      0.29809  33.77  0.002399807    2.528    0.604
        72 -12.6481      9.8628     82.7489   8.9346529611e+01   6.0983770619e+01    0.6797136    0.4427988  89.60 0.0008696573    1.513    0.339
        73 -13.9019      8.7956     69.6313   8.8113902403e+01   6.4669160123e+01     1.381495     1.092995  28.59  0.004947146    1.314    0.239
        74 -11.0850     17.3835     69.1208   8.2840105479e+01   6.4218947949e+01    0.3272187    0.2547452 -77.24 0.0009473118    1.256    0.204
        75 -11.5791    222.8053     88.0992   2.6937225193e+01   2.0172430593e+01    0.3535297    0.2416298  81.39  0.002112936    1.997    0.499
        76 -13.6065    195.3540     85.2238   2.9664303140e+01   2.5564095531e+01    0.6751825    0.5869299  24.73  0.002923184    1.478    0.323
        77 -12.3328     53.9020     83.7540   6.7103852551e+01   5.5792038174e+01    0.9097967    0.4219826 -35.22  0.001793426    3.732    0.732
        78 -11.9726     48.5232     85.4970   7.0065814088e+01   5.6161434547e+01     0.536105    0.2152932  30.05  0.001863595    2.516    0.603
        79 -12.4930     85.3917     72.8889   5.0714765774e+01   5.2393796079e+01    0.9285812    0.5452935  48.62   0.00298635    1.672    0.402
        80 -12.3650     71.5089     73.1878   5.6161165180e+01   5.5247375707e+01     1.399392    0.8162057  50.08  0.005761746    1.742    0.426
        81 -10.7676     70.9693     87.9803   6.0965215163e+01   5.1719267142e+01    0.4529273    0.3055393  56.79  0.001168303    1.603    0.376
        82 -12.4347     66.9981     82.5205   6.0995594922e+01   5.3837316173e+01    0.7761273    0.5595195  55.08  0.002373507    1.443    0.307
        83 -11.9173    236.2750     86.0217   2.5079658338e+01   1.8258280278e+01    0.4612584    0.2717498  82.72  0.001570709    2.718    0.632
        84 -11.0380    175.3534     86.1767   3.2849114539e+01   2.9413091754e+01    0.5039741    0.2389089  40.48  0.001467017    3.079    0.675
        85 -11.2649    181.0347     82.9764   3.1163063986e+01   2.8774717031e+01    0.3681164    0.2902652 -72.80 0.0009729962    1.349    0.259
        86 -12.8621    177.3279     72.0344   2.8924952515e+01   3.1325839992e+01     1.404994    0.3834091 -47.97  0.004439215    3.765    0.734
        87 -10.1255    161.3873     66.8140   2.9962573637e+01   3.5700269453e+01    0.2636496    0.1910909 -46.12 0.0002552442    1.248    0.199
        88 -11.7292    166.7618     64.7814   2.8553706845e+01   3.4808703746e+01    0.6564727    0.6246174  26.99  0.003957092    1.311    0.237
        89 -12.1955    161.4436     84.5892   3.4801530777e+01   3.2646158650e+01     1.415721    0.6889637  36.65  0.005045699    3.518    0.716
        90 -11.5185    168.5180     80.4676   3.2495056672e+01   3.1829812188e+01     0.270957    0.2423339 -36.09 0.0008761277    1.155    0.135
        91 -11.5239    167.1530     76.8297   3.1758045777e+01   3.2743134553e+01    0.2653963     0.258195 -63.32 0.0003170828    1.131    0.116
        92 -10.3307     57.7783    119.9583   7.3646955425e+01   4.5379542698e+01    0.2425262     0.210536 -36.12 0.0008689443    1.302    0.232
        93 -10.4792    181.3952    116.6735   3.9097345994e+01   2.2941085162e+01    0.3416772    0.1498248 -44.61  0.001456612    2.076    0.518
        94 -11.6475     11.3262     24.9377   7.3985172104e+01   7.5800466151e+01    0.5509768    0.3976788  14.06  0.003082027    1.364    0.267
        95 -12.9588      5.2385     56.0108   8.8165273494e+01   6.8515858785e+01     1.442289    0.6499234  -8.07  0.002372788    2.638    0.621
        96 -11.3283      3.2435     48.3770   8.8202238587e+01   7.0602958905e+01    0.4285028    0.2944454  47.40  0.001351728    1.596    0.374
        97 -12.5498     55.3247     72.3186   6.3046578556e+01   5.8491300268e+01    0.7827836    0.5103721 -65.59  0.001830771    1.646    0.393
        98 -10.4238    203.6514    115.9957   3.5400130686e+01   1.9159986525e+01    0.3052817    0.1899232  67.57  0.001555525    2.453    0.592
        99 -11.6215     89.0365    115.0996   6.1394561577e+01   4.1423346896e+01    0.4761604    0.2722414  47.18  0.001878153    1.749    0.428
       100 -11.8231     25.5294     43.7422   7.0208185745e+01   6.9929512018e+01    0.9656684    0.7569225 -22.16  0.005155948    1.370    0.270
       101 -11.5348     26.2756     36.2317   6.6503738965e+01   7.1576387254e+01    0.4705557    0.3249443  13.50  0.001502583    1.574    0.365
       102 -12.2766     14.2644     45.2672   7.9058102919e+01   7.0704586961e+01    0.6136753    0.4212189 -54.03  0.001714353    1.366    0.268
       103  -9.6512    245.9566    113.7240   2.9566719592e+01   1.3032928402e+01    0.1478183    0.1180602 -35.93 0.0002364188    1.074    0.069
       104 -12.3006     60.6451     64.6419   5.7935230135e+01   5.9391982762e+01    0.8713589    0.5686131 -17.47  0.003317111    2.684    0.627
       105 -11.7479     57.3936     59.5962   5.7612220269e+01   6.1183131135e+01    0.4235128     0.343553  89.66 0.0004992209    1.462    0.316
       106 -12.5451     39.5749     56.2062   6.5838957976e+01   6.5017300670e+01    0.8317317     0.406066 -56.79   0.00337838    2.030    0.507
       107 -12.3844     34.8420     52.6017   6.7367680784e+01   6.6579621899e+01    0.3662868    0.2984876 -50.84 0.0003580487    1.217    0.178
       108  99.0000     38.6084     41.9270   6.0633889260e+01   6.8483132164e+01    0.8283032    0.6794965  37.88  0.004481231    1.194    0.163
       109  -9.0952    244.3472     85.2937   2.4151371116e+01   1.7099275815e+01    0.1059238   0.08255439  -5.74 0.0003235666    1.669    0.401
       110 -11.5709    147.5990     83.1463   3.7046543269e+01   3.5979341585e+01    0.6697057    0.3892874 -46.74  0.002353958    1.617    0.382
       111  -9.8779    247.6967     83.6634   2.3517181228e+01   1.6806041929e+01     0.171167    0.1157868   0.25 0.0009864039    2.485    0.598
       112 -10.2872    250.6171     81.5287   2.2834480522e+01   1.6645526711e+01     0.164251   0.07565744 -40.22 0.0001529658    1.565    0.361
       113 -12.6522    215.2207     83.6897   2.6834136834e+01   2.2122047755e+01    0.3672727    0.2888023  59.55  0.002380445    1.542    0.352
       114 -12.2675    223.8235     70.1834   2.2942888818e+01   2.2512013635e+01    0.2015164    0.1986495   6.73 0.0006637548    1.323    0.244
       115 -11.8717     83.3539     83.8353   5.4987005504e+01   5.0291028505e+01    0.2992864    0.2566665  53.54 0.0003601491    1.141    0.124
       116 -12.4725    222.7949     79.5850   2.5099831328e+01   2.1385442035e+01     0.297249    0.2211403 -77.64  0.001191853    1.580    0.367
       117 -11.4634    138.1022    112.5787   4.6890739218e+01   3.2178993805e+01    0.4521408     0.246838  31.49  0.001741611    2.513    0.602
       118 -14.4095    201.0034     69.2866   2.5163204659e+01   2.6884366145e+01     3.411243     1.294003  67.25    0.0141558    3.320    0.699
       119  -9.4346    242.4771    112.4289   2.9700953210e+01   1.3696029587e+01    0.1153581   0.08840463 -35.46 6.540628e-05    1.018    0.018
       120 -12.6839    242.3667     61.5875   1.9488825303e+01   2.0493590450e+01    0.6826277    0.6142921  -5.23  0.000423956    1.485    0.327
       121  -8.9715    211.0042    112.0000   3.3506788429e+01   1.8568674356e+01    0.1799292   0.07304855  51.56  0.000807444    2.977    0.664
       122 -12.5636    185.5184     58.3752   2.4290749625e+01   3.1657554903e+01     0.695879    0.4963446 -58.14  0.001783577    1.255    0.203
       123 -11.6783    173.1217     55.1869   2.5012705394e+01   3.4850137718e+01     1.122932    0.5382134  42.49  0.004344406    3.383    0.704
       124 -11.0701     62.9627    110.5156   6.9761002789e+01   4.7168306604e+01    0.2426729    0.1530358  33.36  0.000631091    1.572    0.364
       125 -10.4851     50.4892    109.9384   7.4641730120e+01   4.9186311270e+01    0.2415484    0.2009656  36.27 0.0003619927    1.192    0.161
       126 -14.0431    211.8793     59.5747   2.1715498260e+01   2.6153504816e+01     1.806422    0.6809225  75.78  0.001754704    3.991    0.749
       127 -10.7288     38.2731    109.9843   7.9781872330e+01   5.0737877618e+01    0.2246377     0.194118 -79.83 0.0007675849    1.121    0.108
       128 -10.7917    196.0526    107.7471   3.4735046492e+01   2.1810168566e+01    0.3572616    0.2239183 -54.29  0.001862749    1.678    0.404
       129 -10.6769    191.7041    103.4814   3.4433735277e+01   2.3301604344e+01    0.4274381    0.1420931 -44.53  0.001629545    2.685    0.628
       130 -12.2088    249.8689     75.2431   2.1651512121e+01   1.7567534100e+01    0.2591797    0.1611249 -34.40 0.0003460311    1.263    0.208
       131 -10.8301    249.9276     67.1799   2.0035278352e+01   1.8581891126e+01    0.4921525    0.1538775 -30.20  0.002114478    3.041    0.671
       132 -10.6135    155.2460     76.5793   3.3748990719e+01   3.5438113786e+01    0.3358888    0.2443589  64.26  0.001447772    1.446    0.308
       133 -12.1121    210.9333     47.5430   1.8990951243e+01   2.7939166077e+01    0.6596931    0.3336659 -67.98    0.0032477    2.259    0.557
       134 -11.7161    215.2567     42.0165   1.7341605343e+01   2.7803439880e+01    0.2944633    0.2092107 -57.68 0.0007188278    1.162    0.140
       135  -9.6696    217.6922    108.2923   3.1836186616e+01   1.8043777442e+01    0.1200337   0.08481295 -58.46 0.0001591993    1.582    0.368
       136  -9.8631    162.8349     29.1089   1.8804066504e+01   4.0829661476e+01    0.2655741    0.1467238 -55.24 0.0007369464    1.633    0.388
       137 -10.9176    167.7879     32.6091   1.9291852492e+01   3.9208437435e+01    0.5179222    0.4197555 -33.96  0.003044042    1.303    0.233
       138 -11.8980    160.8991     55.3669   2.6781336998e+01   3.7631742726e+01     0.703792    0.4275991 -51.99  0.003405588    1.516    0.340
       139 -10.1959    161.7813     47.4121   2.4342958089e+01   3.8611595547e+01     0.386876    0.2241772  78.66   0.00181489    1.851    0.460
       140 -11.9190    161.4637    107.0162   4.0500177376e+01   2.8523888287e+01    0.3795314    0.1932384 -48.88  0.001614197    1.913    0.477
       141 -11.3872    178.0010     37.6309   1.9616621812e+01   3.6195333104e+01    0.4074197    0.2816682 -15.32  0.001075135    1.931    0.482
       142 -10.5956    164.8682     38.8452   2.1440613310e+01   3.9079901442e+01    0.3267132    0.2146523 -76.21 0.0007047991    1.525    0.344
       143 -11.0843    100.3068     54.6274   3.9262801621e+01   5.2656157054e+01    0.5548729    0.5118691  39.05  0.002875178    1.216    0.178
       144 -10.7126    248.0659     56.1306   1.7944642092e+01   2.0248828998e+01    0.2251116    0.2021988  88.59  0.001790161    1.393    0.282
       145  -9.9943    108.6717     56.6809   3.7689767813e+01   5.0213021086e+01    0.2296217    0.2238854 -36.03 0.0009225601    1.166    0.142
       146  -9.5645    107.2379     53.4342   3.6888996898e+01   5.1155920520e+01    0.3216769    0.2135909  86.64 0.0007912722    1.892    0.471
       147 -10.5333     69.9091     55.0885   5.0164235280e+01   5.9649436407e+01    0.3555472    0.2494592 -89.84  0.001498552    2.085    0.520
       148 -11.3779     90.4801     51.0206   4.0880841378e+01   5.5725992001e+01    0.2574162     0.208623  57.99  0.001286958    1.182    0.154
       149 -12.1569    246.4854     41.8614   1.5136650930e+01   2.2219308674e+01    0.3557214     0.179629 -57.55  0.001266213    1.730    0.422
       150 -10.3678    245.5018     50.0063   1.6872270437e+01   2.1411931581e+01    0.2036864    0.1476763 -81.90  0.000865761    1.536    0.349
       151 -10.8821    248.5110     47.2752   1.6114707633e+01   2.1246599321e+01     0.370842    0.1938777 -62.40  0.001301172    1.887    0.470
       152 -11.2424    153.0042    108.0515   4.2461623645e+01   3.0041065402e+01    0.2223766    0.1928179 -74.61  0.000519488    1.244    0.196
       153 -11.2845     99.5953     47.7890   3.6839517243e+01   5.4061649046e+01    0.4329224    0.2983895  39.04    0.0018362    1.717    0.418
       154 -10.3036    132.4266     39.9580   2.6544787207e+01   4.6935673337e+01     0.760168    0.4189078 -82.68  0.002576384    2.390    0.582
       155 -10.0507    143.4436     45.7453   2.6590206514e+01   4.3307846516e+01    0.5413162     0.347108  53.89  0.002460628    1.683    0.406
       156 -11.0764    158.9509     99.1625   3.9042858954e+01   3.0515202240e+01    0.2563918    0.1917729 -51.01 0.0003062765    1.261    0.207
       157 -12.5202    153.5981     96.8197   3.9503656836e+01   3.2085793544e+01    0.6503474    0.5920489  67.91  0.002399256    1.154    0.133
       158 -10.2584    132.2138     46.1897   2.8709287504e+01   4.6054250975e+01    0.2390749    0.1541418  25.25 0.0009466243    2.800    0.643
       159 -10.9953    126.1111     44.3518   2.9252944475e+01   4.7887108474e+01    0.5118761    0.2047985 -51.91  0.001779952    2.826    0.646
       160  -9.7413    182.9261     45.5176   2.1218599764e+01   3.4038910096e+01    0.1895654    0.1262049  77.08   0.00102626    1.574    0.365
       161  -9.7309    121.2243     45.0578   3.0504350228e+01   4.9023957144e+01    0.2516747    0.1485495 -62.12 0.0008770882    1.926    0.481
       162  -9.9119    105.3293     43.5178   3.3622631462e+01   5.3333231927e+01    0.1948427    0.1805889 -78.91  0.001060108    1.039    0.038
       163 -10.7765     93.6682     42.7677   3.6529954353e+01   5.6406405240e+01    0.4125111     0.268156 -28.26   0.00183746    1.841    0.457
       164  -9.8505    156.4420     42.1388   2.3509021286e+01   4.0643265380e+01     0.349125   0.08136312 -41.31  0.001130857    3.348    0.701
       165 -10.8374     99.6943     41.0589   3.4121431660e+01   5.5167950223e+01    0.3816649    0.2975923 -83.76   0.00189782    1.363    0.266
       166 -10.8180    240.8307     40.3334   1.5170880071e+01   2.3352345513e+01    0.2296589    0.1852983  70.99  0.001164684    1.579    0.367
       167 -11.3140    233.8822     36.7598   1.4849923698e+01   2.4986321161e+01    0.4141223    0.2497817 -67.26  0.001622548    1.572    0.364
       168  -9.7462    250.6192     37.0595   1.3917293034e+01   2.2092989952e+01     0.268884   0.08985198 -29.75 0.0005891041    2.674    0.626
       169 -12.0121    204.3223     78.9548   2.7045646757e+01   2.4814646746e+01    0.2481185    0.1998391  76.46  0.001294528    1.436    0.304
       170  -8.7768    104.4154     27.4436   2.7319193973e+01   5.5962865012e+01     0.367693    0.1879039 -38.74  0.001239077    1.953    0.488
       171 -11.2999    114.5480     27.9935   2.5447220495e+01   5.3232083187e+01    0.2437078    0.1867119  62.02 0.0001581488    1.270    0.213
       172 -10.8556    113.0087     32.5148   2.7530439670e+01   5.3019004957e+01    0.4473699    0.3095571  19.86  0.001860973    2.304    0.566
       173 -10.4511    109.1211     32.3492   2.8294861167e+01   5.4056346532e+01    0.4463576    0.2657727  76.61  0.001950128    1.716    0.417
       174  -9.6619    152.2526     33.7508   2.1487808993e+01   4.2812262043e+01    0.1614711    0.1545178  79.86 0.0003552252    1.211    0.175
       175 -10.5282    131.6120     33.5607   2.4462036271e+01   4.8046753274e+01    0.3181178    0.1650898 -63.13 0.0005186358    2.221    0.550
       176 -10.2453    122.5937     33.2966   2.5946681201e+01   5.0414108894e+01    0.3277523    0.1523668 -40.27   0.00108015    2.049    0.512
       177 -11.3963     92.8357     32.9271   3.2560098498e+01   5.8187761213e+01    0.3867485    0.3326875  15.24  0.001926145    1.468    0.319
       178 -10.5043     74.8638     33.6552   3.8651335195e+01   6.2553602403e+01    0.3017025      0.22878  65.11 0.0008623559    1.285    0.222
       179 -11.7420    160.8101     38.2223   2.1757952368e+01   4.0131574117e+01    0.5224229    0.2663328 -33.00  0.002178138    1.904    0.475
       180 -10.2747    240.7486     30.2628   1.3065200003e+01   2.4529161474e+01    0.2394243    0.1742577  62.47  0.001641546    1.831    0.454
       181  -9.3877     89.6274    108.3211   5.9559456930e+01   4.3017194949e+01    0.1719147     0.120413  72.66 0.0007032154    1.806    0.446
       182 -10.3416     38.1662     29.3240   5.4567556415e+01   7.1179195955e+01    0.6536489    0.4262585   9.54  0.002870236    2.311    0.567
       183 -10.0435     35.0564     26.2994   5.4939431365e+01   7.2310353731e+01    0.2759558    0.2275921 -11.31 0.0006049649    1.349    0.259
       184  99.0000     27.2319     18.6585   5.6052113739e+01   7.5066753323e+01    0.3596408    0.1967558  26.57  0.001159419    2.025    0.506
       185 -11.5659     29.0642     26.9117   5.9652027524e+01   7.3173627577e+01    0.3672376    0.2320327 -28.65 0.0003670153    1.902    0.474
       186 -10.0289    210.1468    105.6307   3.2265701522e+01   1.9698071774e+01    0.2191111    0.1828974 -56.67 0.0009175821    1.232    0.188
       187 -11.2036     86.0789     28.7687   3.2610728898e+01   6.0525269979e+01    0.4313872    0.2383937  56.85  0.001282177    1.662    0.398
       188  -9.8860    128.5939     27.4897   2.2791451389e+01   4.9629224111e+01    0.3411275    0.1864849 -17.64  0.001142545    2.533    0.605
       189 -10.3530    135.6648     25.2869   2.0948433977e+01   4.8078898238e+01    0.2585739    0.2141165  55.11  0.001441431    1.355    0.262
       190  -9.8718    132.4656     24.4662   2.1118825806e+01   4.9004812037e+01    0.2477385    0.1323046  73.16 0.0001211273    1.763    0.433
       191 -10.1805    123.4414     26.0893   2.3117812088e+01   5.1149230067e+01    0.4291585    0.1761502 -37.76  0.001716222    2.281    0.562
       192 -10.1959    234.1225     24.6956   1.2240321414e+01   2.6323890267e+01    0.3976385    0.2798311  71.50   0.00275425    1.732    0.423
       193 -10.8881    182.0574    102.4244   3.5714695787e+01   2.5295141075e+01    0.4757543    0.3106753 -76.27  0.002187405    2.390    0.582
       194 -10.6155    246.6589     22.6920   1.1200215759e+01   2.4351681469e+01    0.2801071    0.1115158 -36.81  0.001235173    1.765    0.433
       195 -10.6016    176.0172     24.6619   1.6219614117e+01   3.8264864991e+01    0.3729695    0.1888209 -23.57  0.001716548    2.286    0.563
       196 -10.4941    168.5079     26.5532   1.7462890113e+01   3.9791648606e+01    0.2616073    0.2075213 -56.38  0.001396919    1.072    0.067
       197  -9.7969    159.7918     26.2075   1.8262879709e+01   4.1922111158e+01    0.1751127    0.1565072  59.86  0.001055569    1.331    0.249
       198 -10.3610    153.7626     16.2672   1.5811696349e+01   4.4553615529e+01    0.2503451    0.1955689 -34.28 0.0008944822    1.338    0.252
       199 -10.7862    150.1446     12.9459   1.5105058575e+01   4.5811622087e+01    0.2340405    0.1509954 -63.21  0.001062798    1.373    0.272
       200  -9.9472    148.8452     24.0986   1.8842915797e+01   4.4877242725e+01    0.3651533     0.188658 -60.06  0.001635766    1.905    0.475
       201 -10.1281    150.9601     20.7374   1.7522037852e+01   4.4745479123e+01    0.2695983    0.1875928 -28.72  0.001027688    1.544    0.353
       202  -8.8965    144.6656     26.3395   2.0090461005e+01   4.5654745199e+01    0.1568341   0.08899294 -63.10 0.0007051452    1.751    0.429
       203  -9.5579     90.3569     26.7393   3.0455023471e+01   5.9717893855e+01    0.1508247    0.1062362 -79.81 0.0006976511    1.622    0.384
       204 -11.1324    144.5192    103.1647   4.3056203881e+01   3.2773193115e+01    0.3394485    0.2934549   3.29  0.001547797    1.440    0.306
       205 -13.3034    116.9091     94.6301   4.7552860453e+01   4.0556316406e+01     1.134214     0.642642 -70.43   0.00390683    2.938    0.660
       206 -13.5572    106.6550     95.4953   5.0727753774e+01   4.2601824173e+01     1.026334    0.8024544 -44.62  0.004902491    1.314    0.239
       207 -10.0595    163.2090     21.0260   1.6354222167e+01   4.1709708776e+01    0.1766861    0.1690137 -73.13  0.000419003    1.223    0.182
       208 -10.9417    130.0328     19.3812   1.9640110918e+01   5.0240357428e+01    0.2905056    0.2188903 -89.34 0.0004700144    1.202    0.168
       209  -9.0151    158.2835     19.4038   1.6342388761e+01   4.3090585185e+01    0.1287989      0.10216  30.81 0.0005216331    1.786    0.440
       210  -9.8547     19.7546     19.0923   6.2794007085e+01   7.6094832953e+01    0.2211606    0.1696525  39.97  0.001070108    1.350    0.259
       211 -10.6480     36.3732    248.8082   9.2238773379e+01   1.7210783255e+01    0.1427569    0.1059688 -65.13 0.0009600159    1.739    0.425
       212  -9.8381    121.1943     17.1755   2.0091991192e+01   5.2803810580e+01    0.2000176    0.1418481 -73.90 0.0004528479    1.343    0.255
       213 -10.9700     93.8991     16.2254   2.4690881333e+01   6.0126428316e+01    0.3599018    0.1921204  53.23  0.001598181    1.804    0.446
       214 -11.1328     98.1922     21.9753   2.6349282491e+01   5.8305874890e+01    0.3855464    0.2440905  62.59  0.001351073    1.443    0.307
       215 -12.0183    134.5789     71.2509   3.6303129329e+01   4.1208359702e+01    0.7937146    0.6006392  76.82  0.002764178    1.400    0.286
       216  -9.3347    159.9910     13.7834   1.4465173945e+01   4.3294386435e+01    0.1775904     0.146002 -77.56 0.0002796088    1.065    0.061
       217 -11.6804    143.6908     69.1092   3.3781282047e+01   3.9430016581e+01    0.6236303    0.5204111 -19.24  0.002037258    1.474    0.321
       218  -9.0645     36.6652     14.2986   4.6067757473e+01   7.4115212723e+01    0.1312356    0.1073606  84.27 0.0007032302    1.652    0.395
       219 -12.8273    101.5626     77.6553   4.6909563863e+01   4.7713226855e+01     2.247337    0.9825346 -31.91  0.006266994    4.310    0.768
       220 -13.2036     91.5994     64.6288   4.5672968017e+01   5.2776292475e+01     1.659207     1.107313 -65.49  0.007123958    1.783    0.439
       221 -11.5221     49.8303     28.4932   4.7129178325e+01   6.9081596697e+01    0.5083359    0.3182724  33.13  0.002047595    1.759    0.431
       222 -12.5197    152.5670     62.9235   3.0320771839e+01   3.8387523265e+01    0.8866228    0.7423772  88.54  0.002882025    1.182    0.154
       223 -12.4352    140.6464     56.4005   3.0467786668e+01   4.2327470892e+01    0.9957331    0.9150329 -68.14  0.002943533    1.050    0.048
       224 -14.1252    116.6539     63.1721   3.7888716437e+01   4.7046887951e+01     1.195801    0.9566875  63.10  0.002697752    1.224    0.183
       225 -11.8205    127.1726     58.8444   3.3973266797e+01   4.5235134749e+01    0.6156756    0.3576103  37.54  0.002437884    2.467    0.595
       226 -11.1769    113.5275    246.5396   7.4852735468e+01   9.5096732685e+00    0.2567958    0.1746628 -21.75  0.001110813    1.746    0.427
       227 -10.1552    180.5124    243.4881   6.1234572859e+01   2.7712880583e+00    0.1089451   0.08237135   5.75 9.793542e-05    1.043    0.041
       228 -10.2884    152.9549    124.0654   4.6271432813e+01   2.6888004797e+01    0.2074308    0.1952792 -45.73            0    1.027    0.026
       229  -9.8925    220.2041    121.2701   3.4170625567e+01   1.5696193899e+01    0.1732866    0.1421662   7.14 0.0009040012    1.432    0.301
       230 -12.8517     79.5943     59.1046   4.7878404122e+01   5.6674011719e+01    0.8471266    0.5314581  40.34  0.003654188    1.678    0.404
       231 -13.3600     79.9780     50.3081   4.4220592059e+01   5.8358468425e+01     1.196939     0.642392  36.10  0.004536203    2.399    0.583
       232 -12.9416     81.6164     40.9453   3.9613986732e+01   5.9690302919e+01    0.6429343    0.4928415  51.54  0.003221849    1.255    0.203
       233 -12.2119     75.3495     42.0859   4.2404545959e+01   6.0981988556e+01    0.6767393    0.3470447  60.70  0.001025275    2.120    0.528
       234 -10.7557    165.0372    102.1790   3.8634552197e+01   2.8702568857e+01    0.2655568    0.1928019 -41.88 0.0008717671    1.266    0.210
       235 -12.8151    136.5379     82.3183   3.9158340627e+01   3.8657943561e+01    0.9430645    0.6124624 -57.44  0.004251552    1.604    0.377
       236 -10.8352     95.8596    102.6760   5.6052902533e+01   4.3174395724e+01    0.2848827    0.2180701 -44.02  0.001318978    1.376    0.273
       237  -9.9804    242.6654    101.0078   2.7447647619e+01   1.5234105164e+01    0.1628227     0.141121 -19.87 0.0004020302    1.235    0.190
       238 -12.8299     85.7032     98.6081   5.8391756560e+01   4.6208371694e+01    0.7562506    0.4448209  31.53  0.002998946    1.933    0.483
       239 -10.5758     89.0974     93.9475   5.5926183261e+01   4.6671478472e+01    0.2309716     0.224758 -85.48  0.000280411    1.042    0.040
       240 -11.5035     33.8675    100.0209   8.0040178714e+01   5.4051226870e+01    0.3473728    0.2645273 -76.07 0.0008541566    1.277    0.217
       241 -10.6622    170.5280     97.8054   3.6561338399e+01   2.8380481682e+01    0.3093318    0.2448017 -48.53  0.001649933    1.149    0.130
       242 -11.5106    199.8362     96.1915   3.1589493726e+01   2.2990380208e+01    0.3243409    0.2174907 -53.70 0.0006716168    1.450    0.310
       243 -12.2500     73.3128     96.6853   6.2435822958e+01   4.9059992346e+01    0.4616017    0.3859054 -72.65  0.002250083    1.220    0.180
       244 -12.6986     56.4513     94.8653   6.8845891361e+01   5.2430051576e+01    0.5523049    0.4057859  60.73 0.0006469983    1.460    0.315
       245 -13.4446     61.6867     90.2992   6.5440216693e+01   5.2783409340e+01    0.9767831    0.5648507 -75.15  0.002382652    2.177    0.541
       246 -11.1035     13.5023     93.5693   8.8813245278e+01   5.7710396167e+01    0.2403182    0.1881509  19.06 9.162203e-05    1.347    0.258
       247 -10.0027    232.7777     96.4554   2.7588498792e+01   1.7363658923e+01    0.1742662    0.1310437 -26.53 0.0002756267    1.253    0.202
       248 -12.2921     48.5090     95.1623   7.2403233132e+01   5.3544249267e+01    0.5034211    0.3093253  36.97  0.001535116    1.584    0.369
       249 -10.0958    250.0818     94.6632   2.5460746129e+01   1.5006580551e+01    0.2151944    0.1140135 -40.90 0.0009807975    1.406    0.289
