#   1 NUMBER                 Running object number                                     
#   2 MAG_AUTO               Kron-like elliptical aperture magnitude                    [mag]
#   3 X_IMAGE                Object position along x                                    [pixel]
#   4 Y_IMAGE                Object position along y                                    [pixel]
#   5 X_WORLD                Barycenter position along world x axis                     [deg]
#   6 Y_WORLD                Barycenter position along world y axis                     [deg]
#   7 A_WORLD                Profile RMS along major axis (world units)                 [deg]
#   8 B_WORLD                Profile RMS along minor axis (world units)                 [deg]
#   9 THETA_WORLD            Position angle (CCW/world-x)                               [deg]
#  10 FWHM_WORLD             FWHM assuming a gaussian core                              [deg]
#  11 ELONGATION             A_IMAGE/B_IMAGE                                           
#  12 ELLIPTICITY            1 - B_IMAGE/A_IMAGE                                       
         1 -14.4234    198.2206     10.4080   6.8190532731e+01   3.3447786674e+01     2.872428     1.635731  25.53   0.01228753    2.409    0.585
         2 -14.9291      8.5385    239.5861   1.5216278838e+02   2.6375153562e+01     4.648082    0.6932331 -74.33  0.008091244    5.987    0.833
         3 -10.7738    248.8641    249.6440   1.1294816469e+02  -4.0581660003e+00    0.2522647    0.1160013  32.02  0.001738447    1.560    0.359
         4 -11.2578    139.5488    249.6364   1.3043207454e+02   1.0067714578e+01    0.3160522     0.112312  41.51  0.001745762    2.002    0.500
         5 -10.7304    124.7600    250.3610   1.3302027768e+02   1.1911926317e+01    0.3479528   0.06931309  38.62  0.001463686    3.444    0.710
         6 -10.7856     98.7876    249.5995   1.3740730237e+02   1.5295193774e+01    0.2811421    0.1303771  51.51  0.001783082    1.785    0.440
         7 -10.5762     97.0169    245.7030   1.3742061508e+02   1.6037949447e+01    0.1582637    0.1327532  62.82 0.0007644506    1.242    0.195
         8  -9.8962     88.9955    249.4959   1.3907718764e+02   1.6500790720e+01    0.1761542    0.1141799  66.49 0.0007474815    1.568    0.362
         9 -10.7006     81.6940    248.8313   1.4028125276e+02   1.7460514051e+01    0.2405179    0.1307749  45.52  0.001015018    1.284    0.221
        10  -9.7359     85.4803    246.9580   1.3950633638e+02   1.7269672449e+01     0.175895    0.1132529  78.95 0.0008772378    1.822    0.451
        11 -10.4581     82.7836    243.5653   1.3974182683e+02   1.8065732295e+01    0.1810268    0.1104346  54.57  0.001326089    1.310    0.236
        12 -10.0733     67.4980    250.5098   1.4279388971e+02   1.8860744992e+01    0.1677314   0.09239874  47.24  0.000622677    1.252    0.201
        13 -10.1077     64.1857    250.6217   1.4335758829e+02   1.9214675664e+01    0.2144156    0.1026739  31.97  0.000578766    1.963    0.491
        14 -14.2619     34.6049    246.1451   1.4808791569e+02   2.2967545091e+01     10.31208     2.697057  27.32   0.02583881   15.135    0.934
        15 -10.3879     95.2140    240.9125   1.3737152143e+02   1.6922317736e+01    0.1660787      0.16063 -12.86 0.0003881993    1.485    0.326
        16 -10.5471    234.5170    238.5726   1.1360306998e+02  -1.3997176473e+00    0.2210347    0.1638396 -56.01  0.001363578    3.998    0.750
        17 -10.5654    193.9321    236.0682   1.1973314478e+02   4.2132369749e+00     0.231711    0.1806867 -70.68  0.001553784    2.881    0.653
        18 -10.8612    229.7093    230.3006   1.1320131746e+02  -4.4533105590e-02     0.375797    0.2599531 -52.81  0.002273099    3.693    0.729
        19 -11.0840     17.9467    232.9563   1.5040751480e+02   2.6549797647e+01    0.1591956    0.1521634  31.95 0.0009722199    1.603    0.376
        20 -10.1578    152.3223    248.0741   1.2810837739e+02   8.5543743943e+00    0.1441298    0.1115415  35.95 0.0006374955    1.092    0.084
        21 -14.6895      7.2338     16.6497   1.3119828023e+02   7.2745974761e+01     15.18975          nan -63.47   0.02986252   12.760    0.922
        22 -14.1710     12.0771    206.9130   1.5057471133e+02   3.1343164314e+01     1.370018    0.9120016  76.32  0.005578169    1.241    0.194
        23 -10.8220     23.3518    224.4643   1.4917571419e+02   2.7391439239e+01    0.2580726    0.1226397  55.70   0.00178802    1.510    0.338
        24 -15.0749     26.4197    180.5861   1.4656027997e+02   3.4832224080e+01     5.662148     1.713296  69.33   0.02169078    4.586    0.782
        25 -11.1677    173.4247    221.8958   1.2142212620e+02   8.7078284136e+00    0.3482109    0.2699687  61.13  0.002411266    1.794    0.443
        26 -10.3200     27.2979    221.3495   1.4835068618e+02   2.7520589597e+01         0.23   0.08619904  52.47  0.001141097    1.888    0.470
        27  -8.7358    152.5436    212.9506   1.2405849565e+02   1.2940695830e+01    0.1352021    0.1164749 -40.95  0.000383717    1.474    0.322
        28 -12.7393     48.0366    233.2577   1.4521599783e+02   2.3525834227e+01    0.2876659    0.2483083  65.81 0.0007351199    1.266    0.210
        29 -10.8589     34.1788    202.4712   1.4617813576e+02   3.0049257699e+01    0.2021284    0.1519777  37.71  0.001535232    1.357    0.263
        30 -11.5701     71.3294    198.3607   1.3846570610e+02   2.6622170628e+01    0.2961764    0.2312717 -40.61  0.001752719    1.869    0.465
        31 -10.5167    193.2648    195.4776   1.1410308876e+02   8.9691420115e+00    0.5821899    0.3122795 -59.03  0.002049515    6.961    0.856
        32 -11.6970     76.1524    190.7977   1.3679128823e+02   2.7366734057e+01    0.2297746    0.2138964 -58.35 0.0005820199    1.373    0.272
        33 -11.0275     84.6206    178.2529   1.3368182198e+02   2.8565509181e+01    0.2130736    0.1917931  60.67 0.0003786016    1.093    0.085
        34 -13.2839     72.3799    175.9869   1.3615889983e+02   3.0617267190e+01    0.4088861     0.264884 -40.91  0.001749039    2.277    0.561
        35 -14.6491     54.4713    223.2826   1.4350996889e+02   2.4396222376e+01     2.636358     1.110363  32.08   0.01504479    2.247    0.555
        36 -12.2073     89.8028    168.0128   1.3130570368e+02   2.9801531089e+01     1.545139    0.5389335  51.77  0.005976602    3.207    0.688
        37 -13.1860     65.7675    141.9970   1.3384169976e+02   3.8437641226e+01     2.237197     1.006751  83.24   0.00333044    5.057    0.802
        38  -9.9423    102.2136    152.1705   1.2617649568e+02   3.1069160684e+01     0.275072    0.2417705 -57.69 0.0008986554    1.245    0.197
        39  -9.3248    104.9536    147.8184   1.2482477453e+02   3.1507178279e+01    0.3311993    0.1724429 -39.67  0.001439276    2.638    0.621
        40 -12.1433     91.4151    151.7904   1.2873607916e+02   3.2802155713e+01    0.2554048    0.2353676  15.03 0.0005001211    1.293    0.226
        41  -9.5326    236.6718    151.3286   9.8752804136e+01   7.3301133912e+00    0.1099096    0.1000413 -56.80 0.0004429807    1.707    0.414
        42 -10.8311     46.6653    146.5796   1.3926445086e+02   3.9712585958e+01    0.2381353    0.1413625 -79.35 0.0009500763    1.609    0.378
        43 -12.5747     28.7154    142.5956   1.4344967578e+02   4.2379128731e+01    0.5261263    0.2164452 -57.02  0.002565738    2.581    0.613
        44  -9.2911    242.2478    138.9686   9.5375894500e+01   7.8720691575e+00    0.1607827   0.09539703 -24.94  0.000374468    1.555    0.357
        45  -9.9235     90.6246    139.0100   1.2698112389e+02   3.5584791438e+01    0.2359862    0.1684333  51.49  0.000335129    1.324    0.245
        46  -9.8393    112.3406    137.2382   1.2118056851e+02   3.2422630344e+01    0.2970818    0.2262274 -18.35  0.001477247    1.835    0.455
        47 -10.5885    100.0640    134.5991   1.2380915777e+02   3.5026786011e+01     0.256058    0.2204982 -11.81 0.0006933496    1.487    0.328
        48  -8.6254    192.2251    144.0174   1.0497797483e+02   1.6271170862e+01    0.1602026     0.107927 -30.76 0.0003513413    1.537    0.349
        49  -8.7852    117.6842    129.6726   1.1840082400e+02   3.3025118130e+01    0.1387841     0.110943  -4.95  0.000527043    1.674    0.403
        50  -9.1953    108.7609    124.0723   1.1956526445e+02   3.5773046528e+01    0.1773828    0.1749203  85.65  0.000257685    1.054    0.052
        51 -10.8981    168.1390    113.3121   1.0294621592e+02   2.6093003445e+01    0.3661538    0.3049447 -81.16   0.00107476    1.626    0.385
        52  -9.3644    203.5105    111.5058   9.5634964450e+01   1.8903284658e+01    0.1418145    0.1261391   6.75 0.0008103136    1.036    0.034
        53  -9.3529    154.3988     75.2327   9.5675090225e+01   3.5860698832e+01    0.2188261    0.1384458 -44.90 0.0009479291    1.648    0.393
        54  -9.8920    162.1549    249.1601   1.2656574433e+02   7.1174333149e+00    0.1442408   0.09978445  45.73 0.0006758629    1.345    0.256
