#   1 NUMBER                 Running object number                                     
#   2 MAG_AUTO               Kron-like elliptical aperture magnitude                    [mag]
#   3 X_IMAGE                Object position along x                                    [pixel]
#   4 Y_IMAGE                Object position along y                                    [pixel]
#   5 X_WORLD                Barycenter position along world x axis                     [deg]
#   6 Y_WORLD                Barycenter position along world y axis                     [deg]
#   7 A_WORLD                Profile RMS along major axis (world units)                 [deg]
#   8 B_WORLD                Profile RMS along minor axis (world units)                 [deg]
#   9 THETA_WORLD            Position angle (CCW/world-x)                               [deg]
#  10 FWHM_WORLD             FWHM assuming a gaussian core                              [deg]
#  11 ELONGATION             A_IMAGE/B_IMAGE                                           
#  12 ELLIPTICITY            1 - B_IMAGE/A_IMAGE                                       
         1 -13.2200    244.4710     26.5435   1.3863849516e+01   1.9978076688e+01     0.628931    0.4051227 -71.92  0.003041064    1.539    0.350
         2 -13.6621    227.0244     11.3334   1.1998833761e+01   2.5901732878e+01    0.9156355    0.4439206 -32.52  0.004347307    2.079    0.519
         3 -13.6283    247.2172     11.5116   1.0266279553e+01   2.1152495104e+01    0.8790781    0.6658584 -61.79  0.005446814    1.132    0.117
         4 -12.1263    247.7273      3.2742   8.4433835282e+00   2.1958268576e+01    0.4603926    0.3294619 -86.81  0.002829871    1.226    0.185
         5 -14.1406    233.1276      7.4706   1.0550778944e+01   2.4871969739e+01     1.727143    0.3735734 -37.40  0.006306161    3.489    0.713
         6 -11.5123    240.2620      1.8708   8.7098861361e+00   2.3811660884e+01     0.358337    0.1605352  69.65   0.00173282    2.038    0.509
         7 -11.7969    200.6635     12.6749   1.5077094371e+01   3.2307753111e+01    0.2953742    0.2041038 -68.27  0.001542769    1.471    0.320
         8 -11.6044    203.3032      9.1585   1.3864009169e+01   3.2012665973e+01    0.2576931    0.2037528  17.03  0.001353123    1.710    0.415
         9 -11.3390    174.8052     12.2990   1.8261077425e+01   3.9024422000e+01     0.247096    0.2404185  54.41 0.0008867615    1.129    0.114
        10 -10.6480    132.9326     12.4651   2.5343578438e+01   4.9699194232e+01    0.2121411     0.187909 -36.60 0.0004123887    1.277    0.217
        11 -11.8198     31.4877     11.6639   5.7501383401e+01   6.8898358963e+01    0.4016948    0.1681466 -35.54  0.001838997    2.055    0.513
        12 -10.9736    184.5219     10.9669   1.6575063339e+01   3.6640197608e+01    0.1935577    0.1380809 -28.99 0.0004973137    1.555    0.357
        13 -12.9181    217.0558      4.5608   1.1318127852e+01   2.9061139948e+01    0.5453356    0.4511909  64.73  0.003115448    1.239    0.193
        14 -12.7685    192.1070      6.6375   1.4458009031e+01   3.5126254863e+01    0.4052285    0.3471664 -20.96  0.002074425    1.379    0.275
        15 -12.5200    197.5455      4.3244   1.3232317293e+01   3.3968576256e+01    0.5425032    0.2249362  73.78  0.002262267    2.196    0.545
        16 -11.1433     69.9966     11.4322   4.1750158068e+01   6.3349595862e+01     0.221061    0.1654609 -14.85 0.0001495731    1.254    0.203
        17 -10.7182     24.1183      7.6269   5.9119928019e+01   7.0261845376e+01     0.195313    0.1311707 -39.46 0.0007530287    1.544    0.352
        18 -10.6332    103.3232      6.3468   2.9651396451e+01   5.7220447121e+01    0.2561061     0.138709 -43.85  0.001180687    2.474    0.596
        19 -11.0836    151.2995      4.8980   1.9497184457e+01   4.5803063076e+01    0.3572837    0.1759065  88.07   0.00134628    2.968    0.663
        20 -11.5942     79.0204      3.8387   3.5355612141e+01   6.2492126314e+01    0.2645047    0.2413953   4.00 0.0008019782    1.202    0.168
        21 -10.4907    111.5051      7.5148   2.8137628955e+01   5.5271809439e+01    0.1361851    0.1160383  37.17 5.303743e-05    1.008    0.008
        22 -11.8022    206.6900      2.2991   1.1762599933e+01   3.1862950944e+01    0.3679961    0.2125365 -74.56  0.001406726    1.821    0.451
        23 -12.0304    179.8262      2.5250   1.4787238539e+01   3.8681857936e+01    0.5637144    0.2058862  54.50  0.002250262    2.411    0.585
        24 -11.4200    160.2405      1.9977   1.7229320761e+01   4.3773673937e+01    0.2618175    0.2315443 -46.17  0.001581108    1.259    0.206
        25  -9.9987    143.5385     12.5146   2.3335811764e+01   4.7050788431e+01    0.1402672    0.1250473  56.37 0.0001176568    1.013    0.013
        26 -10.8538    115.8396      2.0810   2.5072853087e+01   5.4752577218e+01    0.1894285    0.1756124  82.16 0.0005013639    1.252    0.201
        27 -10.4334     12.2363      4.0032   6.3408787574e+01   7.1888056061e+01    0.1463555   0.07296363 -39.10 0.0008881585    1.648    0.393
        28  -9.6357     23.5303      1.4772   5.6424893856e+01   7.1162843533e+01    0.1142402   0.08362849 -10.32 7.629387e-05    1.013    0.013
        29 -11.4694    228.7005    220.4867   5.9321939797e+01  -6.2831994185e+00    0.2386105    0.1923362  40.66 0.0005924769    1.363    0.266
        30 -10.5528     49.5745    249.8245   9.5910694864e+01   1.7904013779e+01    0.1835942   0.09614974  51.90  0.001193921    1.434    0.303
        31 -11.6286    247.7942    217.8276   5.5471053780e+01  -8.9912881068e+00    0.3133601    0.2380622 -51.52  0.001875229    2.262    0.558
        32 -11.4812    180.0616    216.7050   6.7863736649e+01   2.7120228766e+00    0.2508724    0.2250572  16.17 0.0006596359    1.138    0.121
        33 -10.9578    212.8033    215.3549   6.1351880969e+01  -2.9158246521e+00    0.3171638    0.1820113  29.51  0.001029037    1.589    0.371
        34 -10.5571    209.5377    212.4924   6.1465809307e+01  -1.9403105330e+00    0.2257158    0.2117408 -41.54 0.0008066619    1.390    0.280
        35  -9.8435     11.7616    216.0073   1.0016503735e+02   2.8308695926e+01    0.1360008   0.07052378 -83.71 0.0008751077    1.592    0.372
        36 -10.6897    242.7896    214.8162   5.5806249158e+01  -7.8356015454e+00    0.1891516    0.1380033  12.89 0.0005831468    1.167    0.143
        37 -12.4914    231.6203    212.8138   5.7437959536e+01  -5.7648571205e+00    0.4366782    0.3463034  30.67  0.002194043    1.172    0.147
        38 -10.5873    244.2532    218.9786   5.6292459799e+01  -8.5815857915e+00    0.1694299    0.1366548   7.19 0.0004015752    1.068    0.064
        39 -10.3542     80.8249    199.6913   8.5732227800e+01   2.3044128197e+01    0.2054041    0.1674124 -61.48  0.001293096    1.408    0.290
        40 -10.1898      5.2058    198.8905   1.0034007023e+02   3.2252917139e+01    0.2372309   0.06881194 -85.18  0.001034632    3.351    0.702
        41  -9.5976    182.5612    198.5367   6.4268529393e+01   5.1887481362e+00    0.1379811    0.1210858  35.04 0.0001035851    1.026    0.026
        42 -10.3697    157.9290    197.8645   6.9222956252e+01   1.0014953863e+01    0.2122628    0.1598164  70.96 0.0008342045    1.629    0.386
        43  -9.9987    243.4777    197.4995   5.2475190410e+01  -5.6883098652e+00    0.1308907    0.1053877   9.14 -3.286487e-05    1.036    0.035
        44  -9.7308    165.1901    194.3747   6.7103615870e+01   9.2522275541e+00    0.1931608    0.1189194  49.46 0.0004085171    1.519    0.342
        45 -11.5635    249.5242    183.4689   4.8676857257e+01  -4.7702466063e+00     0.257202    0.2101493 -33.29 0.0006135069    1.372    0.271
        46 -12.2636    241.2764    181.8846   4.9807519969e+01  -3.1203831880e+00    0.4841924    0.3073623  14.11  0.002466221    1.751    0.429
        47 -10.2143    190.0073    174.9744   5.8256459435e+01   7.8022064180e+00    0.2110498    0.1782311  82.44 0.0004167272    1.593    0.372
        48 -10.3516    248.9710    168.3588   4.5694962636e+01  -2.4970497226e+00    0.2583341    0.1108249  37.32   0.00109917    2.383    0.580
        49 -10.5843    242.9491    162.9804   4.5610408205e+01  -5.9704856621e-01    0.2231731    0.1558479  70.38  0.001031169    2.595    0.615
        50 -10.0374    182.6752    162.0581   5.7114225346e+01   1.1694272420e+01    0.1994662    0.1909447   8.31 0.0004062568    1.048    0.046
        51 -10.6147    249.1713    153.3240   4.2476283442e+01  -2.6392747934e-01    0.2185444    0.1583735  19.77  0.001175099    1.445    0.308
        52 -10.2725    205.1957    148.6050   4.9508762610e+01   9.3645631519e+00    0.2162921    0.1316062  34.90 0.0006623713    1.711    0.415
        53  -9.7214    176.4894    148.4625   5.5476355116e+01   1.5656931304e+01    0.1520397    0.1457861  54.60 0.0005068774    1.071    0.066
        54 -11.7514    236.3317    145.8902   4.3060626642e+01   3.3764355538e+00    0.3968809    0.2563649 -53.62  0.001447137    2.044    0.511
        55 -12.7462    247.9994    131.9200   3.7950439590e+01   3.3253642087e+00    0.5479522    0.3252888 -38.19  0.002328537    1.574    0.365
        56  -9.6930    231.5063    134.4539   4.1324621564e+01   6.2526060082e+00     0.144323    0.1324605  -5.57 5.342893e-05    1.025    0.025
        57 -10.8729    225.1969    133.4711   4.2224959521e+01   7.7474242858e+00    0.2264033    0.1941841 -55.64 0.0004161817    1.335    0.251
        58  -9.7215     25.6904    134.7287   9.0525688443e+01   4.4207947972e+01    0.1152842   0.08242964 -47.47 0.0002471615    1.546    0.353
        59  -9.6959      7.4710    134.5028   9.4983636746e+01   4.5736891401e+01    0.1174531   0.09014486 -78.63 0.0008096748    1.038    0.037
        60 -10.2177    218.8608    133.6139   4.3421195349e+01   9.0829424928e+00    0.2031813    0.1417528  60.80  0.000812082    1.709    0.415
        61 -10.2624    209.2189    130.0875   4.4415612938e+01   1.1833796621e+01    0.4180779    0.2347152 -58.40  0.001537471    2.756    0.637
        62 -11.4852    235.0015    130.0259   3.9695674596e+01   6.2677525742e+00     0.494182    0.2258895  63.10  0.001631909    3.952    0.747
        63 -11.7201    240.7518    124.8448   3.7528525723e+01   5.9353943984e+00    0.3344969    0.2689179  68.15  0.001784528    1.545    0.353
        64 -10.8472    227.2365    124.9563   3.9866623887e+01   8.7722922984e+00    0.2523122    0.2098725 -83.91  0.000978031    1.589    0.371
        65  -9.8113     12.1575    125.4139   9.2850515103e+01   4.7431296238e+01    0.1380183    0.1007907  55.11  0.000218743    1.490    0.329
        66 -10.8310    235.2935    123.5723   3.8147791905e+01   7.2857305062e+00    0.2466306    0.1438297  56.27    0.0005919    1.958    0.489
        67 -11.0052    246.1618    119.3134   3.5374934731e+01   5.7269305641e+00      0.20937    0.1687155 -24.45  0.001023775    1.165    0.142
        68 -10.6939    239.6059    118.2754   3.6192125166e+01   7.2580229304e+00    0.1973963    0.1299119 -24.84 0.0004243067    1.539    0.350
        69 -10.2254     22.0509    118.5406   8.9385965348e+01   4.8222138022e+01    0.1665712   0.08130475  54.63 0.0008087626    2.512    0.602
        70 -10.8257    250.2350    116.2386   3.4030186688e+01   5.3926037426e+00    0.1913074     0.158047 -54.75 0.0009399104    1.327    0.246
        71 -11.1992    236.0069    113.2796   3.5607187212e+01   8.8550794098e+00    0.1965859    0.1881281 -17.65 0.0004945459    1.030    0.029
        72  -9.8756      4.7997    110.8880   9.3077785908e+01   5.1190870828e+01    0.1510645    0.1131041  84.38 0.0003509948    1.281    0.220
        73 -10.4732    223.5049    106.4595   3.6062233638e+01   1.2784832133e+01    0.3108315    0.1445728  51.89  0.001014667    2.215    0.549
        74  -9.7784     31.9880    106.7404   8.4785951109e+01   5.0069845603e+01    0.1370527    0.1112717  26.13 0.0004444303    1.494    0.331
        75 -10.5829    239.2101    103.4604   3.2759674187e+01   9.7881228676e+00    0.2799587    0.1904318 -35.08  0.001039571    1.365    0.267
        76 -12.1118    247.4793    103.0131   3.1388192413e+01   8.0879564489e+00    0.5337842    0.2599752 -42.94  0.001953142    1.928    0.481
        77 -11.9548    246.7561     97.5629   3.0218828046e+01   9.1160230960e+00    0.3856035    0.2321378 -50.14  0.001290854    1.722    0.419
        78 -12.4129    243.4593     97.4978   3.0692638897e+01   9.8363657515e+00    0.5518666    0.2683493 -34.65  0.002345962    1.900    0.474
        79 -10.6941    233.8597     98.8440   3.2494073447e+01   1.1731212706e+01    0.2033619    0.1636002 -57.30 0.0006439029    1.315    0.240
        80 -10.1036    126.0293     96.7595   5.4756042248e+01   3.7789520423e+01     0.210742    0.1305285  46.21 0.0008376322    1.623    0.384
        81  -9.8954     42.2751     94.6814   7.9390981179e+01   5.1829325345e+01    0.1240203   0.09430952  85.72 0.0003058142    1.570    0.363
        82 -10.1362    144.3026     87.1948   4.7281322754e+01   3.5570282337e+01    0.3272054    0.1445839 -32.33   0.00108646    2.693    0.629
        83 -10.3446     64.3288     85.3301   7.0100402148e+01   5.1304022654e+01    0.2250108    0.1513792 -25.18  0.001119023    1.763    0.433
        84 -10.0482    117.6840     83.3008   5.3153973235e+01   4.2371391235e+01    0.1504645    0.1228597 -87.18 0.0006455937    1.616    0.381
        85 -10.2892     73.9729     79.9508   6.5490947486e+01   5.1085551172e+01     0.232796    0.1591632 -21.64  0.001130774    1.758    0.431
        86 -10.8285     44.1909     79.0566   7.5242034485e+01   5.5104778343e+01    0.3277771    0.1945345 -73.18  0.001588734    2.130    0.530
        87  -9.9092    158.5291     79.4842   4.1632314624e+01   3.3564077349e+01    0.1573588    0.1520215  30.65    0.0001049    1.039    0.038
        88 -10.0505    110.8087     77.1738   5.3249740678e+01   4.5041131064e+01    0.2159939    0.1775985  -3.56  0.001077632    1.377    0.274
        89 -10.1543     63.1712     75.1507   6.7733268515e+01   5.3654776610e+01    0.1751416    0.1629391  86.45  0.001070752    1.307    0.235
        90 -10.5456     95.2461     72.4206   5.6434678595e+01   4.9043838786e+01    0.2666724    0.1397126  37.50  0.001121299    2.007    0.502
        91 -11.2858    143.5850     70.9226   4.2557055427e+01   3.8806234787e+01    0.2775887    0.2188065  56.59  0.001330988    1.277    0.217
        92 -10.6884    229.1576     69.8151   2.6062489339e+01   1.7501618497e+01    0.1975425    0.1744397  23.14  0.001078854    1.349    0.258
        93 -10.3826     64.7761     70.2082   6.5755624870e+01   5.4465481998e+01    0.2121582    0.1700884 -68.87  0.001182515    1.522    0.343
        94 -10.2330     58.3426     69.6876   6.7835190160e+01   5.5437873186e+01    0.1267246     0.105091  82.71 0.0005017724    1.703    0.413
        95  -9.8367     21.2793     68.6744   8.0807757086e+01   5.9389831099e+01     0.111559   0.08784969  88.62 0.0002597458    1.592    0.372
        96 -10.1237     30.6372     67.6866   7.7196566103e+01   5.8846676776e+01    0.1328843   0.07741208 -31.91 5.267952e-05    1.757    0.431
        97 -10.6777      2.0819     65.9563   8.7093857319e+01   6.1137477100e+01    0.1771903    0.1295154 -54.27 0.0004619056    1.042    0.040
        98  -9.8527    137.4721     65.4691   4.2346554219e+01   4.1250890763e+01    0.1542347    0.1458002  24.12 0.0008088854    1.040    0.038
        99 -10.5131     17.0226     63.7167   8.1216957398e+01   6.0734482164e+01    0.1597716    0.1296828 -43.26 0.0002193549    1.071    0.066
       100 -12.0530    246.0640     62.5243   2.2043165958e+01   1.4690226709e+01    0.4317279    0.2466266  71.56  0.002020965    1.965    0.491
       101 -10.9282      6.9354     62.2207   8.4592815631e+01   6.1665671563e+01    0.1908306    0.1288804 -56.18 0.0004277473    1.129    0.114
       102  -9.5832     46.6704     62.7170   6.9987287014e+01   5.8280463320e+01    0.1313261   0.08699568 -23.54 0.0002965107    1.608    0.378
       103 -10.6369    128.7145     60.2770   4.2890950460e+01   4.4223384201e+01     0.297384     0.235544 -62.68  0.001439601    1.562    0.360
       104 -10.6083    119.6924     59.6535   4.5089428231e+01   4.6393358027e+01    0.3098195    0.1707987 -54.87  0.001172241    2.595    0.615
       105 -10.5508     56.0499     56.9025   6.4748655099e+01   5.8302406428e+01    0.1896292    0.1666846 -26.81 0.0003418229    1.040    0.039
       106  -9.7517    166.5015     60.4643   3.4221543749e+01   3.4825424657e+01    0.1535663    0.1475319  62.37 0.0001616407    1.005    0.005
       107  -9.9743     87.5466     49.5287   5.1186722532e+01   5.4711691269e+01    0.1394559    0.1256759  -4.66  2.55391e-06    1.006    0.006
       108 -11.2935    244.0494     48.0199   1.8872400063e+01   1.7231458012e+01    0.2379604    0.1442555 -62.98  0.001142507    1.753    0.430
       109  -9.8849    136.4845     48.5191   3.7042154242e+01   4.4272971775e+01    0.1482726    0.1424681  46.50 0.0003825424    1.045    0.043
       110  -9.7214     48.3093     48.3331   6.4837499064e+01   6.0899119577e+01    0.1342513   0.08508143 -20.60 0.0007042254    1.672    0.402
       111  -9.8514    176.3313     47.3169   2.8398377587e+01   3.4282733717e+01    0.1571939    0.1122196  30.49 0.0007047037    1.686    0.407
       112 -10.2663     38.8365     47.1811   6.8173356499e+01   6.2179568428e+01    0.1758958    0.1215566 -25.71 0.0004533758    1.325    0.245
       113  -9.8013     26.5391     47.4288   7.3196309571e+01   6.3296765142e+01    0.1228488   0.09367759 -34.10 0.0001084596    1.067    0.063
       114  -9.8604      3.6714     46.2770   8.2190113551e+01   6.5069710861e+01   0.09703882   0.08338458  80.00 0.0002059165    1.594    0.373
       115 -11.4889    241.3420     43.3003   1.8069367835e+01   1.8508042004e+01    0.3401354    0.2340731  14.73  0.001579795    2.515    0.602
       116 -10.2201    149.9193     44.0744   3.2547058473e+01   4.1583651855e+01    0.3465648    0.1780434 -56.01  0.001227284    2.968    0.663
       117 -11.3241     61.8712     44.3454   5.8270804877e+01   5.9827761513e+01    0.2266097    0.1829287 -31.47 0.0003438814    1.135    0.119
       118  -9.7250    121.7233     43.6430   3.9040867523e+01   4.8517963596e+01    0.1516049    0.1085145  14.43 0.0007008181    1.654    0.396
       119 -11.0524    233.1465     40.8343   1.8415447309e+01   2.0772925397e+01    0.3307417    0.1979818  47.64  0.001569389    1.963    0.491
       120 -11.8959    238.5694     38.1255   1.7156155462e+01   1.9853680133e+01    0.2978014    0.2890748  42.92 0.0005334116    1.249    0.200
       121 -10.1671     94.4566     40.9931   4.5840383557e+01   5.4785560449e+01    0.2079259    0.1312314 -34.23     0.001019    1.578    0.366
       122 -11.8612      7.4303     37.5344   7.8256925422e+01   6.6553389063e+01    0.2362359    0.1989106 -73.11  0.001250723    1.500    0.333
       123 -12.5742    242.8520     33.5203   1.5624591139e+01   1.9461920725e+01    0.5168738    0.2123721 -39.16  0.001749205    2.145    0.534
       124  -9.9038    172.3181    249.6858   7.4200883204e+01  -7.5586632220e-01    0.1173803   0.08342674  60.50 0.0003511418    1.649    0.394
       125 -10.3966     36.6954     34.2974   6.4554982458e+01   6.4742797175e+01    0.2050204    0.1424507  35.82  0.001259755    1.766    0.434
       126 -10.7949     44.1395     32.3156   6.0691883810e+01   6.4233338928e+01    0.2218401    0.1881091 -72.56  0.001143627    1.963    0.491
       127  -9.7818     65.9365     32.7617   5.2323842698e+01   6.1130226620e+01    0.1557511    0.1022775  32.23 0.0002113719    1.516    0.340
       128  -9.7560    133.9954     31.2513   3.1716146447e+01   4.7305433170e+01    0.1880956    0.1162981  56.54 0.0002943508    1.502    0.334
       129 -11.0513     78.0902     30.6407   4.7146860396e+01   5.9411201551e+01    0.2514057    0.1790254 -19.94 0.0008076414    1.339    0.253
       130 -10.1037     98.2727     35.0596   4.2427282020e+01   5.4901933839e+01    0.1876116     0.170854   0.06 0.0004760302    1.060    0.057
       131  -9.9842    107.3172     30.6493   3.8144837467e+01   5.3593490627e+01    0.1364436    0.1110194 -68.05 0.0004555384    1.735    0.424
       132 -10.3850    218.3218     29.3115   1.7303604143e+01   2.5897764987e+01    0.1369486    0.1038368  37.45  0.000703792    1.651    0.394
       133 -10.8383     37.1604     27.2263   6.1633123122e+01   6.5883144912e+01      0.28958    0.1768082  10.82  0.001268441    1.776    0.437
       134 -10.5455    207.0441     26.0574   1.7827002333e+01   2.9138134531e+01    0.4107039    0.1129775 -41.30  0.001393832    3.309    0.698
       135 -10.2318     99.3349     25.0096   3.8206274354e+01   5.6036814588e+01    0.1905179    0.1691665  -7.12 0.0008248378    1.122    0.109
       136 -10.5237     76.6755    248.0877   9.1233383711e+01   1.4593840935e+01    0.2780339    0.1223479  60.45   0.00147602    2.071    0.517
       137  -9.9436     65.9977    248.6672   9.3100913901e+01   1.5964471530e+01     0.197567    0.0423015  53.78 0.0007052066    4.371    0.771
       138 -10.8294     19.6762    248.3492   1.0056947666e+02   2.1654379429e+01    0.1138238   0.05022806  66.23 0.0007049046    1.749    0.428
       139 -10.9694     26.5600     22.3232   6.4373718558e+01   6.7782870657e+01    0.2388198    0.1685833  -5.36  0.001172542    1.315    0.240
       140 -10.6575     15.0315     23.5306   7.0192421861e+01   6.8573005012e+01    0.1306982   0.09127475  46.23 0.0005228354    2.391    0.582
       141  -9.8608    229.2863    247.3341   6.3641273885e+01  -9.5946058336e+00    0.1192153   0.07331324  12.76 0.0003999418    1.624    0.384
       142 -11.2386     47.0054     20.5054   5.4640548643e+01   6.5721650015e+01    0.2510647    0.1457009 -37.35 0.0006702821    1.636    0.389
       143 -10.2279      5.1619     22.0908   7.4357642189e+01   6.9493091592e+01    0.2202149    0.1044985 -51.04  0.001033735    1.695    0.410
       144 -11.0378    187.5542     21.0215   1.8998317910e+01   3.4755661010e+01     0.283375    0.1880766 -89.20  0.001280947    1.605    0.377
       145 -11.0212    173.9685     20.6838   2.0860307630e+01   3.8337046921e+01    0.3583691    0.2248047  56.35  0.001368657    1.445    0.308
       146 -10.5034    238.3529    244.7907   6.1667241610e+01  -1.0672157819e+01    0.1502658   0.09539416 -12.28 0.0007191093    1.662    0.398
       147  -9.8983    166.6949     18.2821   2.1261363724e+01   4.0500218047e+01    0.1417882    0.1037235 -72.59 0.0001899951    1.557    0.358
       148 -10.1035    217.4927     17.4939   1.4443599525e+01   2.7532308393e+01     0.136246    0.1199615 -85.33 0.0001633629    1.021    0.020
       149 -10.2733    218.5103     14.5168   1.3602507026e+01   2.7621186100e+01    0.2279937    0.1301984 -30.77 0.0008982787    1.852    0.460
       150  -9.8525    151.6985     17.7116   2.3590166079e+01   4.4438463350e+01    0.1459689   0.09768385  37.11            0    1.562    0.360
       151  -9.6572     15.0148     17.7727   6.7977869086e+01   6.9536081600e+01    0.1266158   0.08429879  12.43 0.0003054302    1.566    0.362
       152 -10.1779     46.0248     14.4593   5.2362378390e+01   6.6708696430e+01    0.1682414    0.1071274  28.97 0.0005141507    1.538    0.350
       153  -9.8101      2.5120     14.5314   7.2902576520e+01   7.0938864418e+01    0.1090749   0.08038707 -31.74  0.000237806    1.040    0.039
       154 -10.0906     46.4101    244.0064   9.6050701178e+01   1.9300021825e+01    0.1624005   0.09904458  51.86 0.0005779297    1.311    0.237
       155 -10.8541    187.5881    241.1781   7.0204769337e+01  -2.1531517340e+00    0.1508814    0.1135926 -15.82 0.0009467186    1.637    0.389
       156 -11.3170    249.4860    239.9348   5.8971651620e+01  -1.1775449930e+01     0.157418    0.1029551 -21.45  0.000949909    1.581    0.367
       157 -10.6923    162.9340    239.3357   7.4538307904e+01   2.2873699648e+00    0.1804505    0.1313857  40.10 0.0004835729    1.095    0.087
       158 -11.2408    201.9918    240.4510   6.7451350353e+01  -4.4522054253e+00    0.2623141    0.1686093  31.85 0.0008830864    1.251    0.201
       159 -11.6219    221.9519    237.5735   6.3392552590e+01  -7.3251576951e+00    0.3896033    0.1529101  33.01  0.001811016    2.250    0.556
       160 -11.9450    178.9956    237.5284   7.1269747188e+01  -1.9571341780e-01    0.3970231    0.1684136  32.61  0.001444175    2.403    0.584
       161  -9.6593     61.6579    237.2789   9.2974295527e+01   1.8529115337e+01    0.1213273   0.06362113  63.94 0.0003929995    1.626    0.385
       162 -11.5387    239.9373    235.3057   5.9848353138e+01  -9.8496070898e+00    0.2889361    0.1849612  26.23  0.001368166    1.244    0.196
       163 -11.8057    244.9273    233.2941   5.8647374733e+01  -1.0371406058e+01    0.2905769    0.1845084 -19.27  0.001826967    1.606    0.377
       164 -10.1092     66.7663    234.5829   9.1857443457e+01   1.8324347638e+01    0.1645729   0.08143097  52.42 0.0007561207    1.587    0.370
       165 -11.9352    232.9143    235.4486   6.1101372505e+01  -8.7912695450e+00     0.406027    0.1941161   9.73  0.001532961    4.358    0.771
       166 -10.7703    218.1895    231.1301   6.3024955586e+01  -5.9225363339e+00     0.194002    0.1396837  16.32 0.0006966635    1.252    0.201
       167 -11.1545     11.3728    231.1406   1.0102307288e+02   2.5548328592e+01    0.1585354    0.1193249  54.83 0.0006927047    1.355    0.262
       168 -10.2702    226.0971    230.1595   6.1437409795e+01  -7.0808048309e+00    0.1928887    0.1361848  17.14 0.0007155979    1.235    0.190
       169  -9.7148    161.4400    230.5724   7.3598534131e+01   3.8707143866e+00    0.1289424    0.1035594  45.51 4.789958e-05    1.056    0.053
       170 -10.5071     62.2671    228.7767   9.2182586140e+01   1.9992542466e+01    0.2897219    0.1006131  52.50  0.001383863    2.366    0.577
       171 -10.9038    235.7527    225.3838   5.8907167521e+01  -8.0302259719e+00    0.1966292    0.1803787  28.07 0.0005826985    1.394    0.283
       172 -10.1400    125.5502    225.9383   7.9933768152e+01   1.0837374457e+01     0.166193    0.1253149 -63.82 0.0007997227    1.555    0.357
       173  -9.7761    190.5231    225.4393   6.7249027419e+01  -4.6206866496e-01    0.1307151    0.1045678  29.90 -1.771012e-05    1.043    0.041
       174 -10.9929    221.8180    221.7029   6.0782107932e+01  -5.3057113387e+00    0.2131132    0.1542975  -9.53  0.001296132    1.443    0.307
