#   1 NUMBER                 Running object number                                     
#   2 MAG_AUTO               Kron-like elliptical aperture magnitude                    [mag]
#   3 X_IMAGE                Object position along x                                    [pixel]
#   4 Y_IMAGE                Object position along y                                    [pixel]
#   5 X_WORLD                Barycenter position along world x axis                     [deg]
#   6 Y_WORLD                Barycenter position along world y axis                     [deg]
#   7 A_WORLD                Profile RMS along major axis (world units)                 [deg]
#   8 B_WORLD                Profile RMS along minor axis (world units)                 [deg]
#   9 THETA_WORLD            Position angle (CCW/world-x)                               [deg]
#  10 FWHM_WORLD             FWHM assuming a gaussian core                              [deg]
#  11 ELONGATION             A_IMAGE/B_IMAGE                                           
#  12 ELLIPTICITY            1 - B_IMAGE/A_IMAGE                                       
         1 -10.3398     50.6074     37.0448   8.4634436522e+01   6.3785009809e+01    0.7575473    0.5654151 -72.62  0.003881055    2.653    0.623
         2 -10.1964     39.1812      7.2871   7.6020576308e+01   6.9765950930e+01    0.9298154     0.389536 -21.94  0.004288639    2.665    0.625
         3 -10.5046     39.6212     29.4369   8.6306480856e+01   6.6470585563e+01    0.5804363    0.3065335 -41.54   0.00282701    1.721    0.419
         4 -11.8278     44.9723     22.3509   8.0748380230e+01   6.6903650790e+01     0.984481    0.8701948 -56.19  0.006029456    1.743    0.426
         5 -10.2235    225.1999     29.2337   4.1757602506e+01   2.5598836758e+01    0.5290977    0.3401318  72.03  0.002068054    1.522    0.343
         6 -11.5162    115.3551     17.2740   5.5066580210e+01   5.4113228863e+01     1.717142    0.9801768  86.29  0.006730813    3.226    0.690
         7 -12.2197    128.8163     15.7187   5.1582717893e+01   5.1063075183e+01     1.767085     1.137003  58.71  0.009076186    1.391    0.281
         8 -11.8097     81.4403      4.3366   5.8512650185e+01   6.2796932049e+01     1.941536    0.3266288  52.80  0.006313564    4.268    0.766
         9 -11.5446    131.1756      3.6537   4.6812997300e+01   5.1599270768e+01     1.699153    0.3225244  63.86  0.005257679    4.013    0.751
        10 -12.4883    155.6480     20.8979   4.8468237814e+01   4.3834836205e+01     1.460536    0.7212529  59.97   0.00299618    1.786    0.440
        11 -13.7306    169.6506     12.5927   4.3818481157e+01   4.1156756662e+01     2.858151     1.788273  67.88   0.01288984    1.428    0.300
        12 -12.4537    116.1064      4.4400   4.9959877016e+01   5.5148698355e+01     4.510439    0.5160938  63.77   0.01000348    8.189    0.878
        13 -11.0958     77.9445     15.2815   6.4615211651e+01   6.2367965721e+01    0.9071456     0.530556 -15.38   0.00469995    1.788    0.441
        14  -9.4163     94.0244     17.6046   6.0691515589e+01   5.8844256070e+01    0.4118501    0.3458219 -87.54  0.002376346    1.690    0.408
        15  -8.8553     20.3775     14.3245   8.9030503700e+01   7.0976153286e+01    0.4433221    0.1895637 -28.37  0.002214431    2.273    0.560
        16  -8.9477     69.7528     14.1824   6.6919145924e+01   6.4031380254e+01    0.2428287    0.2362861 -45.16  0.001643173    1.430    0.301
        17 -10.6905    248.9858      6.0378   3.4522950975e+01   2.2999447918e+01    0.6771498    0.3107528 -36.96  0.003538544    1.937    0.484
        18  -8.5085     52.5824      1.8980   6.7334813142e+01   6.8352828691e+01    0.3266947    0.1513355  42.41  0.001693056    1.981    0.495
        19  -9.0099     55.0936      7.6387   6.9282127855e+01   6.7319432050e+01    0.3837938    0.1784507  49.51    0.0016469    2.466    0.595
        20  -9.3870     60.4438      8.7450   6.7738493549e+01   6.6296852221e+01    0.3910685     0.280124 -43.81  0.002296268    1.930    0.482
        21  -9.6627     60.7709      2.2378   6.4351679826e+01   6.6921736845e+01    0.5443462    0.2741483  33.17  0.002852786    1.808    0.447
        22 -10.4936    203.5415      4.3506   3.7755612678e+01   3.3559348554e+01    0.4431254    0.3166071 -61.06  0.002577475    1.307    0.235
        23  -9.3593    208.9787      3.4625   3.7042319486e+01   3.2342285848e+01    0.2792718    0.1724487 -36.12  0.001532312    1.627    0.385
        24 -10.2424    221.6792      2.3282   3.5709953544e+01   2.9471348232e+01    0.6351725    0.1451028 -48.87  0.002204574    3.976    0.749
        25  -8.7597     17.5637      2.5679   8.4642068878e+01   7.2974452488e+01    0.2798911    0.1713305 -49.89  0.001627213    2.498    0.600
        26  -7.4121      1.3496      1.2758   9.3613652029e+01   7.4552340192e+01    0.1139988   0.06083652 -19.30 0.0004110455    1.636    0.389
        27  -8.4774    139.0137     79.1342   7.0764257179e+01   3.9153414231e+01    0.3932592    0.2233655 -27.16  0.001519007    2.106    0.525
        28  -9.4476      2.4984     87.6116   1.1761003597e+02   5.7299784636e+01    0.5185705    0.1973552 -76.19  0.002343189    2.401    0.583
        29 -10.1376     25.2170     65.5576   1.0478163720e+02   6.0844386224e+01    0.6601766    0.3077542 -50.31  0.002891944    1.667    0.400
        30 -10.9088      4.3443     75.9921   1.1505988439e+02   5.9852049086e+01    0.6933999    0.5151177  37.88  0.004608109    1.708    0.414
        31 -10.5492     18.3033     73.9061   1.0944852874e+02   5.9505243217e+01    0.6644344    0.2579175 -43.85  0.003073146    2.217    0.549
        32 -10.9791     13.0419     71.2875   1.1089217083e+02   6.0429402372e+01    0.6624623    0.3616959 -60.51  0.003716979    1.431    0.301
        33  -8.3095    101.3665     83.7736   8.2764401455e+01   4.6372727208e+01    0.2223658    0.1346385 -35.87 0.0008467376    1.684    0.406
        34  -9.7629     73.9741     69.4108   8.7296810427e+01   5.4230965567e+01    0.4552241    0.3034022  61.28  0.002056122    2.371    0.578
        35  -9.4351     78.1330     66.3345   8.4821422710e+01   5.4180540305e+01    0.4428498    0.2559039  33.41  0.002045953    1.844    0.458
        36  -8.2710     34.3391     68.3070   1.0189138682e+02   5.9458613827e+01    0.1372769     0.082494 -31.11 0.0007042223    1.681    0.405
        37  -9.2988     50.1748     61.4357   9.3623109904e+01   5.9219590170e+01    0.3291055    0.2353821 -21.83  0.001831156    1.411    0.291
        38  -8.9576     78.2583     77.3966   8.8320180630e+01   5.1862516461e+01    0.2571429     0.229535 -24.16   0.00145524    1.058    0.054
        39  -8.3615     77.1301     59.3351   8.2775930468e+01   5.5720500201e+01    0.2264455     0.170426  12.44  0.001184946    1.451    0.311
        40  -8.2076     16.4233     58.2512   1.0649632927e+02   6.3057912275e+01    0.1664789    0.1040519 -67.88 0.0009435148    1.607    0.378
        41  -9.0218    199.1212     55.7021   5.1836742910e+01   2.8248396885e+01    0.2702905    0.2253122 -47.23 0.0005453154    1.153    0.132
        42  -9.0645     66.0313     53.1967   8.4653453412e+01   5.8666553687e+01    0.5880986    0.2739807 -56.72   0.00214511    3.500    0.714
        43  -8.3205     34.2677     52.5057   9.7269863473e+01   6.2788929453e+01    0.2974975    0.1189208  27.82  0.001353051    2.762    0.638
        44  -8.3502     22.5984     52.2013   1.0219394680e+02   6.3877542878e+01    0.2110047    0.1672051   6.54  0.001394276    1.396    0.284
        45  -9.9416     83.9384     47.5774   7.6081265029e+01   5.6641063842e+01    0.7145858    0.5114067  55.36    0.0036516    1.749    0.428
        46 -10.1275     82.3653     38.5622   7.3088822516e+01   5.8395354635e+01    0.5237487    0.3410502 -27.97  0.002701605    1.498    0.332
        47  -8.3596    111.3001     46.2216   6.7067207058e+01   5.1272056655e+01    0.2317804    0.1809006   0.89   0.00118186    1.417    0.294
        48 -10.1733      3.6138     40.9262   1.0749316998e+02   6.7380045545e+01    0.4358073    0.3805868  52.76  0.003142038    1.628    0.386
        49  -8.3064    182.4050    245.7957   9.6875642909e+01  -1.8406992215e+00    0.1539405    0.1102754 -21.16 0.0009496661    1.663    0.399
        50  -8.6190    171.3115    241.6672   9.8395605715e+01   5.0018279649e-01    0.1187596   0.09022199  61.34            0    1.677    0.404
        51  -8.7147    199.6021    240.2136   9.2821240230e+01  -3.7303469638e+00    0.1617836    0.1068194 -19.53 0.0009506876    1.734    0.423
        52  -9.4150    160.8088    240.9856   1.0032487381e+02   2.2805218359e+00    0.1855119    0.1412764  78.04  0.001086204    1.953    0.488
        53  -8.9345     68.4865     36.1734   7.7109087863e+01   6.1225830422e+01    0.4388631    0.2581567  47.48  0.002179076    1.993    0.498
        54  -8.4888      7.0549     35.7030   1.0428852942e+02   6.8221735484e+01     0.242123    0.1555954 -70.81  0.001254924    1.935    0.483
        55  -8.4147     97.6406     27.1651   6.3611099628e+01   5.6936147137e+01    0.2626752    0.1693359   6.62  0.001255115    1.899    0.473
        56  -8.3862     97.0146     36.5105   6.7539760855e+01   5.5800226956e+01    0.2088454     0.130263  46.07 0.0005289472    1.542    0.352
        57  -8.7536     11.9425     34.2191   1.0141319737e+02   6.8201673312e+01    0.4087158    0.1446295 -51.18   0.00165468    2.124    0.529
        58  -8.2770     27.7817     35.2678   9.4162821287e+01   6.6727415390e+01    0.1948844    0.1401483  19.12 0.0008610819    1.502    0.334
        59 -10.3820    207.7726    224.3900   8.8745107960e+01  -2.7963458771e+00    0.2417988    0.1424337  28.26 0.0009465587    1.512    0.339
        60  -9.3576     90.6992     28.7902   6.6366310724e+01   5.8171307742e+01    0.2946522    0.2681555 -29.22  0.001799479    1.231    0.187
        61 -10.7496    100.9988    176.0021   1.0361576752e+02   2.4872385722e+01    0.2001777    0.1829152  74.18  0.001161258    1.002    0.002
        62  -8.7949     20.9167    155.9068   1.2057090734e+02   3.9909341451e+01    0.1891875     0.152407 -63.70  0.001244949    1.271    0.213
        63 -10.7233      9.7647    140.7711   1.2186877739e+02   4.4371791543e+01    0.3996192    0.2437103  64.45     0.002104    1.655    0.396
        64  -9.1489     40.2452    141.2427   1.1395153628e+02   4.1565107461e+01    0.3062928    0.1557264  68.67  0.001310198    2.611    0.617
        65 -12.4930    240.9897    132.1418   6.4154743164e+01   6.1633312880e+00     1.498483     1.136234  49.73  0.006565231    1.507    0.337
        66  -9.7885     11.5088    128.4780   1.2014798538e+02   4.7156625666e+01    0.2526121    0.1422991 -56.86  0.001417889    1.573    0.364
        67  -8.9567    104.0833     26.1596   6.1392017204e+01   5.5664663938e+01    0.3730721    0.1969387  54.77  0.001704763    1.835    0.455
        68  -8.1088     21.9747     23.2547   9.2192863151e+01   6.9378594374e+01    0.2517081    0.1589954 -26.26  0.001570855    1.311    0.237
        69  -9.4225     86.2639     31.7680   6.9012051760e+01   5.8651040468e+01    0.2681602    0.2200512  14.90  0.001472647    1.130    0.115
        70  -8.4186     85.5577     23.1955   6.5631669973e+01   5.9929165897e+01    0.3188076    0.1431547  46.77  0.001417729    2.062    0.515
        71  -8.6967     58.7715    124.4126   1.0603689938e+02   4.3577547863e+01    0.1755912    0.1386508  10.77 0.0004092077    1.613    0.380
        72  -8.2793     10.6496    135.6983   1.2114086329e+02   4.5504897712e+01    0.1231743   0.07760928 -48.61 0.0004752204    1.696    0.410
        73  -8.5497      9.3264    120.3199   1.1982819689e+02   4.9243908304e+01    0.1271686    0.0745597 -48.87 0.0004071113    1.681    0.405
        74  -9.1089     64.7393     16.1543   6.9680696931e+01   6.4686459531e+01     0.272949      0.20511  65.19   0.00152166    2.134    0.531
        75  -7.7797    192.5388    116.4918   6.9172765874e+01   1.9189291690e+01      0.15347    0.1470131 -31.76 0.0002460857    1.004    0.004
        76  -9.1409      7.6408    113.6853   1.1952350861e+02   5.0923765263e+01    0.2047593    0.1121949 -49.63  0.001132752    1.715    0.417
        77  -9.4750     67.0105     29.4619   7.4829272333e+01   6.2498135884e+01    0.3671308    0.1793796 -28.16  0.001468338    2.045    0.511
        78  -9.4204     21.1102    107.4530   1.1460917209e+02   5.1486748313e+01    0.3973705    0.2059916 -78.28  0.001786659    1.830    0.453
        79  -9.2691     17.7537    104.2458   1.1516831145e+02   5.2496905625e+01    0.3121206    0.2128939 -81.70  0.001837417    1.354    0.262
        80 -10.6795     17.2827    129.2396   1.1866206764e+02   4.6549765516e+01    0.5579259    0.2180321 -73.94  0.002528466    2.120    0.528
        81  -9.7572     47.0252    101.3997   1.0518063350e+02   5.0563670250e+01    0.4924813    0.1996457 -50.66  0.002074026    2.097    0.523
        82  -9.2355     29.8427    102.2527   1.1097119841e+02   5.2029780548e+01    0.3318048    0.1956069 -29.21  0.001666998    2.127    0.530
        83  -8.7869     64.1242     98.4246   9.8861465919e+01   4.9189634769e+01     0.245903     0.160141 -60.51  0.001203606    1.446    0.309
        84 -12.0435     42.6925     83.1912   1.0255927343e+02   5.5302426139e+01     1.163702    0.8758449 -39.94  0.006778003    1.207    0.172
        85  -9.6421     75.8919     26.9515   7.0491654146e+01   6.1290438245e+01    0.3224874    0.2394844  49.94  0.001637388    1.527    0.345
        86  -8.8005    228.2690     78.8617   5.3524639502e+01   1.7729859101e+01    0.3942602    0.2489285 -17.19  0.001752487    2.090    0.522
        87  -8.4095    221.0189     80.0048   5.4868771944e+01   1.9183857992e+01    0.2805952      0.12731 -53.00  0.001027259    2.608    0.617
