#   1 NUMBER                 Running object number                                     
#   2 MAG_AUTO               Kron-like elliptical aperture magnitude                    [mag]
#   3 X_IMAGE                Object position along x                                    [pixel]
#   4 Y_IMAGE                Object position along y                                    [pixel]
#   5 X_WORLD                Barycenter position along world x axis                     [deg]
#   6 Y_WORLD                Barycenter position along world y axis                     [deg]
#   7 A_WORLD                Profile RMS along major axis (world units)                 [deg]
#   8 B_WORLD                Profile RMS along minor axis (world units)                 [deg]
#   9 THETA_WORLD            Position angle (CCW/world-x)                               [deg]
#  10 FWHM_WORLD             FWHM assuming a gaussian core                              [deg]
#  11 ELONGATION             A_IMAGE/B_IMAGE                                           
#  12 ELLIPTICITY            1 - B_IMAGE/A_IMAGE                                       
         1 -14.4043    170.2496     56.2660   6.0445198565e+01   3.5434665155e+01     1.989213     1.392405  26.57  0.005950714    1.810    0.448
         2 -14.3106    185.1271     41.8167   5.3485003063e+01   3.3741381413e+01     1.049358    0.9858435 -44.33  0.003363708    1.087    0.080
         3 -13.7778    190.0766     35.5871   5.0915744905e+01   3.3307397006e+01    0.6867833    0.5923085 -40.48  0.001417019    1.175    0.149
         4 -15.0283    208.0199     10.8781   4.1900176674e+01   3.1693960862e+01     1.790085     1.420825  41.99  0.007084385    1.494    0.331
         5 -13.4899    235.5680      3.1365   3.7572100434e+01   2.5933193103e+01     1.846299    0.4594907  74.74  0.006503222    3.911    0.744
         6 -12.6400     50.8796      7.8421   7.5086519117e+01   6.7929318045e+01    0.3455433    0.2278695  -5.46  0.002068323    1.422    0.297
         7 -10.3076     87.8603    202.5089   1.1301371857e+02   2.1563133476e+01    0.2184586    0.1875434 -36.32  0.001248343    1.637    0.389
         8 -14.3447    245.8589    239.1311   8.7878121683e+01  -9.7164253479e+00      1.63699    0.7358569 -26.14  0.008983288    2.368    0.578
         9 -10.4269     16.1951    201.2432   1.2716087561e+02   3.0596001371e+01   0.09057365   0.06885633 -76.78 0.0006451758    1.347    0.258
        10 -10.7928    223.0170    198.3186   8.4818421242e+01  -1.0187420202e+00    0.1820668    0.1500079  18.99 0.0004377359    1.053    0.050
        11 -10.7091     82.4882    195.0014   1.1326861694e+02   2.3904056604e+01    0.2632878    0.2191342  86.30  0.001556454    1.100    0.091
        12 -10.3407     78.8169    193.5037   1.1387774245e+02   2.4749250283e+01    0.2173444    0.1618485  61.09 0.0008071872    1.177    0.150
        13 -11.7495    205.5192    194.4689   8.7389959017e+01   2.6056076511e+00    0.3144303    0.1907386   6.35  0.001399835    2.416    0.586
        14 -12.4188     65.5041    193.5324   1.1670908618e+02   2.6578372375e+01     0.354331    0.2263977 -48.77  0.001395128    2.038    0.509
        15 -13.2680    150.0859    189.3520   9.7796590901e+01   1.3715092051e+01    0.7100998    0.4791561 -80.02  0.002589511    2.321    0.569
        16 -11.4962     71.6094    242.4735   1.1997471663e+02   1.6298185976e+01    0.2080406    0.1662985 -82.63  0.001344467    1.346    0.257
        17 -10.6754     15.5132    187.4924   1.2642543692e+02   3.3492417611e+01    0.1133315   0.08731557  85.21 -6.192608e-06    1.074    0.069
        18 -12.0809    242.1855    184.8263   7.8797132903e+01  -2.2901883532e+00     0.227217     0.176127  24.84 0.0006212883    1.199    0.166
        19  99.0000     52.7720    231.7966   1.2251578928e+02   2.0624777454e+01     9.041717      7.87573  73.12   0.07037224    1.264    0.209
        20 -11.8209     68.1768    207.2556   1.1754463097e+02   2.3380081478e+01    0.2878369    0.2081268  35.09 0.0006243716    1.569    0.363
        21 -11.3021    188.1312    176.4933   8.7385951749e+01   8.8588230505e+00    0.3611091     0.350449 -26.60   0.00146954    1.139    0.122
        22 -10.3114    185.7303    170.0324   8.6581649436e+01   1.0497056963e+01    0.2537506    0.2021107 -51.65 0.0009217175    1.431    0.301
        23 -13.0757    238.1162    172.8575   7.7108871909e+01   1.6114680639e-01    0.4272157    0.2628553  35.73  0.002233003    1.595    0.373
        24 -10.1179    194.3007    171.7632   8.5178259773e+01   8.5005330896e+00    0.2360278    0.1941503  33.23 0.0006724652    1.144    0.126
        25 -11.3883     72.6294    205.6041   1.1648289698e+02   2.3109932347e+01    0.3464772    0.2165203  26.83  0.001539153    2.156    0.536
        26 -12.0722    230.6384    167.5250   7.7338231120e+01   2.3180657674e+00    0.4142295    0.1882635 -48.07  0.001609873    3.039    0.671
        27 -18.8417     25.5729     98.9547   1.1447933612e+02   5.2820921398e+01     14.30144     1.148037 -66.73   0.02963817    9.976    0.900
        28  -9.9662    187.9127    163.7726   8.4832172686e+01   1.1214423859e+01    0.2689928    0.1925429 -67.86  0.001068286    2.095    0.523
        29 -10.9525      2.3162    162.5946   1.2746161822e+02   3.9948013721e+01     0.191321    0.1569799  84.13 0.0006416194    1.135    0.119
        30 -10.9849     48.9899    206.0029   1.2123241851e+02   2.6076191814e+01    0.1951768    0.1400818 -64.80  0.000923103    1.537    0.349
        31  -9.8677      7.8787    161.1631   1.2616526738e+02   3.9831353625e+01    0.1385344     0.116398 -69.99 0.0003800523    1.309    0.236
        32 -11.7393     93.9074    156.5474   1.0518885715e+02   3.0683425191e+01    0.2485312    0.2364018 -85.43 0.0003508052    1.089    0.082
        33 -11.1733    186.8152    151.8615   8.2488505314e+01   1.3676816698e+01    0.4340769    0.2896451  58.30  0.001958523    1.784    0.440
        34 -11.9851    133.9174    145.6530   9.3173105019e+01   2.5938152479e+01     1.268874    0.3306875 -55.37  0.003004539    5.955    0.832
        35 -12.8149     99.3598    150.3668   1.0274249122e+02   3.1222139943e+01    0.6036378    0.4829004 -28.34  0.003135579    1.618    0.382
        36 -10.9587    113.3574    151.6036   9.9459710681e+01   2.8498559165e+01    0.3192684    0.2261418  81.60  0.001092939    1.799    0.444
        37 -10.6980    174.4750    148.7980   8.4449336442e+01   1.6869330375e+01    0.3112833     0.250658  89.62 0.0009042805    1.686    0.407
        38 -11.2077    143.9409    145.9201   9.0806617624e+01   2.3857754245e+01    0.3942601    0.2092479 -60.76  0.001474543    2.459    0.593
        39 -11.9138    109.4672    137.1954   9.7573017289e+01   3.2530572993e+01    0.6099765    0.3304547 -36.33   0.00235999    2.481    0.597
        40  99.0000     11.5420    206.1137   1.2829283800e+02   3.0066138269e+01    0.4370774    0.2275477  35.76  0.002760204    2.067    0.516
        41 -12.6174     98.2100    136.4428   1.0038589511e+02   3.4684510890e+01    0.3249266    0.2857197 -56.20  0.001065593    1.119    0.107
        42 -11.9571    106.0228    130.8630   9.7140537481e+01   3.4633133422e+01    0.4085652    0.3480292 -77.62  0.001156369    1.203    0.169
        43 -10.9637    135.7926    129.0368   8.8975275945e+01   2.9258593365e+01    0.5047642    0.1225995 -50.83  0.001270613    4.719    0.788
        44 -10.7342    160.5825    127.8795   8.2692156340e+01   2.4168710168e+01     0.348474    0.2658744 -59.72  0.001617921    1.469    0.319
        45 -10.9483    116.2427    128.4136   9.3877812335e+01   3.3307767989e+01    0.3050974    0.2751879   2.70 0.0006983608    1.302    0.232
        46 -11.4004    104.1269    123.9523   9.6130796989e+01   3.6595273090e+01    0.2955938    0.2517868 -20.04 0.0007557308    1.407    0.289
        47 -10.7946    120.9218    122.6637   9.1299253440e+01   3.3719099857e+01     0.442236    0.2757948 -19.19  0.001594177    2.940    0.660
        48 -10.5523    134.8959    119.8861   8.6979117611e+01   3.1481853260e+01    0.3415596    0.1622232 -48.97  0.001059815    2.114    0.527
        49 -10.1158    151.9594    119.0824   8.2536826670e+01   2.7945651498e+01     0.279996    0.2219763 -47.78 0.0006938784    1.264    0.209
        50 -10.2501    111.0266    117.9184   9.2831154456e+01   3.6728105501e+01     0.218567     0.210905 -77.11 0.0003324339    1.022    0.022
        51 -10.7280    231.3457    113.7809   6.5097794359e+01   1.1071586823e+01    0.2584139    0.2451764 -14.76 0.0007331208    1.046    0.044
        52 -10.6999    167.6537    112.6618   7.7210111405e+01   2.5709301803e+01    0.3830641      0.29386 -80.38  0.001141875    1.763    0.433
        53 -10.8426    134.8690    105.5707   8.3263962181e+01   3.4629160457e+01    0.5660313    0.1649599 -46.27  0.001632998    3.432    0.709
        54 -11.9185    119.3452    110.5191   8.8709017229e+01   3.6794131538e+01    0.5817028    0.3813737  63.38  0.002446016    1.972    0.493
        55 -10.6841    205.3997    110.2883   6.8805774308e+01   1.7406253245e+01    0.3149193    0.2623401  41.49 0.0008969464    1.247    0.198
        56 -12.1508     75.3785    248.3202   1.1977150882e+02   1.4793051390e+01    0.3932056    0.1420473 -61.73  0.002026156    3.109    0.678
        57 -10.0303    197.4697     97.9592   6.7109259941e+01   2.1495296737e+01    0.2285737     0.120691 -55.81 0.0008095874    2.541    0.606
        58  -9.7218      1.4358     91.9789   1.2098509926e+02   5.5985530625e+01    0.1689765   0.08905733 -69.94 0.0001007163    1.424    0.298
        59 -10.6506    185.3509     85.2894   6.6001925246e+01   2.6719237438e+01    0.2989247    0.2737212 -75.96 0.0009942582    1.156    0.135
        60 -10.3789     85.6301    239.5500   1.1721557404e+02   1.4892299012e+01    0.1876739    0.1225682  45.63  0.000515712    1.294    0.227
        61 -12.1441     60.9009    203.7491   1.1867075860e+02   2.5050672026e+01    0.2064846    0.1786512  83.32 0.0006472143    1.152    0.132
        62 -10.1590    167.2473    227.9362   1.0037736848e+02   4.0183640805e+00    0.1784791    0.1530036  54.10 0.0006028093    1.229    0.186
        63 -12.2691    203.4775    200.0618   8.8810072650e+01   2.0946789695e+00     0.691385    0.1962792  35.25  0.002208891    4.051    0.753
        64 -12.0455    193.3383    195.5950   8.9972061808e+01   4.6164522524e+00     1.184569    0.6020843 -61.68  0.003573568    6.243    0.840
        65  -9.6083     45.5799    203.5683   1.2170004577e+02   2.6978174966e+01    0.2446956   0.09859531 -71.47    0.0012241    2.294    0.564
