#   1 NUMBER                 Running object number                                     
#   2 MAG_AUTO               Kron-like elliptical aperture magnitude                    [mag]
#   3 X_IMAGE                Object position along x                                    [pixel]
#   4 Y_IMAGE                Object position along y                                    [pixel]
#   5 X_WORLD                Barycenter position along world x axis                     [deg]
#   6 Y_WORLD                Barycenter position along world y axis                     [deg]
#   7 A_WORLD                Profile RMS along major axis (world units)                 [deg]
#   8 B_WORLD                Profile RMS along minor axis (world units)                 [deg]
#   9 THETA_WORLD            Position angle (CCW/world-x)                               [deg]
#  10 FWHM_WORLD             FWHM assuming a gaussian core                              [deg]
#  11 ELONGATION             A_IMAGE/B_IMAGE                                           
#  12 ELLIPTICITY            1 - B_IMAGE/A_IMAGE                                       
         1 -14.8708     68.0487    144.1696   8.5122456925e+01   3.7389989582e+01     5.577699     2.769175  85.08  0.002601723    3.976    0.749
         2 -13.7131    243.5452     26.0358   2.0585543192e+01   2.2921952368e+01    0.9241587    0.8429974  -0.35   0.00269726    1.340    0.254
         3 -14.3482    220.7876     43.5620   2.6428045020e+01   2.5422900557e+01      2.25809     1.293679  36.42   0.01026235    2.522    0.603
         4 -12.3576     16.3618      4.7241   7.1736136353e+01   7.7114106223e+01    0.6842926     0.400665  25.76   0.00364558    1.675    0.403
         5 -12.6073      3.2631      6.9660   8.6268910304e+01   7.7774692381e+01     1.170518    0.3858591 -59.46  0.005043696    2.518    0.603
         6  -9.7450    189.7991     15.3398   2.1941077643e+01   3.5242081837e+01    0.2281971    0.1562961 -41.88 0.0008922883    1.310    0.237
         7 -10.4598    139.4073    250.1100   8.0717854143e+01   8.4604624001e+00     0.237511    0.1056616  38.69  0.001335228    1.944    0.486
         8 -12.2794    115.1481    247.6618   8.5314050561e+01   1.1592102482e+01    0.4261413    0.3079601  28.46  0.003066344    1.031    0.030
         9 -14.5512      8.6520    207.4700   1.0623345620e+02   2.9472310402e+01     1.495027     1.033802 -89.67  0.006694526    1.518    0.341
        10 -12.5954     50.4426    171.7991   9.3541832734e+01   3.3115994197e+01    0.7710789    0.4882065 -15.44  0.001815545    2.422    0.587
        11 -12.1085     56.7841    166.7785   9.1263229175e+01   3.3530155966e+01    0.3414501    0.3025678   4.37 0.0007143524    1.271    0.213
        12 -12.4441     15.9432    249.1295   1.0578560474e+02   2.1467118097e+01     0.254776    0.1802716  49.05 0.0008794954    1.093    0.085
        13 -15.6322     10.0548    241.0923   1.0677468257e+02   2.3274959787e+01     9.345646     2.441404  16.09   0.02744309    8.710    0.885
        14 -13.2129     18.8426    196.1992   1.0342556236e+02   3.0900471101e+01    0.4551252    0.3654231  -5.56   0.00120546    1.599    0.375
        15 -10.5356    194.6674    198.0024   6.3116032704e+01   8.5424840393e+00    0.4303078    0.2361386 -54.47  0.001891283    4.378    0.772
        16 -10.6978     21.9511    213.9596   1.0339540713e+02   2.7138570216e+01    0.2500094    0.1285221  68.87  0.001444313    1.899    0.473
        17  -9.2727     99.4523    180.9664   8.1421450876e+01   2.4944907181e+01    0.2046983    0.1588382  30.52  0.000493501    1.113    0.102
        18 -12.8557    232.9105    170.7011   5.2002355068e+01   7.0233768885e+00    0.9170926    0.7567717  -5.79  0.006792872    1.167    0.143
        19 -12.8957    240.6295    169.2057   5.0572387769e+01   6.2156226686e+00    0.7810436    0.5011165   4.70  0.003735204    1.450    0.311
        20 -12.2643     80.3131    137.7061   8.0294385372e+01   3.7192773449e+01    0.3385546    0.2836941 -53.34 0.0004272426    1.267    0.211
        21 -13.5986     54.2280    153.5303   9.0574896445e+01   3.6890084339e+01    0.8165882    0.5674758 -53.00  0.001772274    1.581    0.367
        22 -11.6055     68.2520    158.2523   8.6967129387e+01   3.4070876631e+01    0.3316646     0.287208  61.37 0.0003555971    1.134    0.118
        23 -12.9173     76.1658    152.4155   8.3848344705e+01   3.4356187404e+01    0.9923701    0.6816999 -46.48  0.001162519    1.629    0.386
        24 -10.8249     70.3883    248.2864   9.4605926723e+01   1.6457061143e+01    0.2026866    0.1637318  34.60 0.0007936817    1.104    0.094
        25  -9.2989    134.0000    145.9816   6.6790373079e+01   2.6483632060e+01    0.3642787   0.08152747 -47.92  0.001033836    4.777    0.791
        26  -9.5875    110.7575    167.5017   7.6551582254e+01   2.5992223198e+01    0.2380437    0.1977063 -72.58 0.0009561719    1.482    0.325
        27 -10.8287     94.2091    138.5821   7.6226563020e+01   3.4833709377e+01    0.6283011    0.3973094 -11.10  0.002494875    2.701    0.630
        28 -11.4386    241.8542    136.4547   4.4316914342e+01   1.0070386658e+01    0.2487171    0.1743156  15.55  0.001328287    1.463    0.317
        29 -11.0137    106.1464    129.9317   7.1030335954e+01   3.4772585083e+01    0.4744386    0.3448417 -34.40  0.002213178    1.547    0.354
        30  -9.0073    174.6660    149.3405   5.8279455020e+01   1.8808946050e+01    0.1844641    0.1653933 -89.72 0.0008823447    1.677    0.404
        31  -8.8756    111.2666    129.5929   6.9488364913e+01   3.3938530607e+01    0.1492545    0.1161716  81.61 0.0006967828    1.750    0.429
        32  -9.0340     92.3319    125.0659   7.4191238504e+01   3.8259252468e+01    0.1997249    0.1881324 -50.69 0.0004105164    1.115    0.103
        33  -8.9019    113.4568    124.4334   6.7754668212e+01   3.4666649712e+01    0.1488832    0.1394294  20.36 0.0002426535    1.035    0.034
        34  -9.8199    104.0904    118.2608   6.9120035084e+01   3.7756510412e+01    0.2234671    0.2097221 -28.81 0.0003902455    1.111    0.100
        35 -10.0776    231.1277    114.1517   4.1285211765e+01   1.4571012158e+01    0.2429252    0.2013108 -15.42 0.0008826079    1.025    0.024
        36 -10.1455    204.8893    110.5550   4.4388925137e+01   1.9568876613e+01    0.3483092     0.227433  32.80  0.001270135    1.678    0.404
        37  -9.8190    246.3272    110.3399   3.8525958553e+01   1.2674992397e+01    0.1210078   0.08025639   1.16 0.0007051547    1.733    0.423
        38 -10.5606     25.3929    250.1732   1.0392719272e+02   2.0494576420e+01     0.355772    0.1412813  24.24  0.001989605    2.114    0.527
        39  -8.9088     86.0893    102.4876   7.1215765503e+01   4.4661140751e+01     0.347987    0.2060723  80.84  0.001080533    4.036    0.752
        40  -9.1145     80.8893     96.6012   7.1586209607e+01   4.6977231348e+01    0.2946773    0.2070535 -78.70  0.001294166    1.859    0.462
        41  -8.8846     77.0527     93.5121   7.2202062990e+01   4.8381944773e+01    0.2225948    0.1458975  37.17 0.0004928539    1.489    0.328
        42 -10.9759    164.1383     85.6424   4.5492649887e+01   3.1721284558e+01    0.2815999    0.2116284 -27.35 0.0007184868    1.344    0.256
        43  -9.2693    184.2379     77.7169   3.9753582417e+01   2.8587242598e+01     0.192588    0.1585706  14.31  0.001056743    1.393    0.282
        44  -9.4221     55.7177     71.5838   7.4967105936e+01   5.7148626838e+01     0.206388    0.1331443  42.75 0.0007154947    1.594    0.373
        45  -8.9028     66.5303     65.4759   6.8284140047e+01   5.6837368838e+01    0.1472468    0.1450491  50.93 0.0008088601    1.052    0.050
        46 -12.4820     79.7350    243.3064   9.2303912725e+01   1.6235955042e+01    0.4710641    0.4119493  47.30  0.003039467    1.222    0.182
        47 -16.2243     28.1696    184.3397   1.0048992524e+02   3.2577156827e+01     8.971717     3.370326  72.76   0.03640163    3.336    0.700
        48 -12.7262    228.6834     37.4228   2.4268713671e+01   2.4548166541e+01    0.5574376    0.4695407  44.09  0.001440296    1.450    0.310
        49 -11.1518      2.4236     50.5826   9.8609845204e+01   6.7438618000e+01    0.3601259    0.1601272 -78.48  0.001597802    2.097    0.523
        50 -10.7547     18.7930     47.4708   8.7828665898e+01   6.7333960246e+01    0.2373078    0.2235734 -58.48 0.0004155129    1.065    0.061
        51  -9.7182    198.0562     24.2029   2.3619773839e+01   3.2432275577e+01    0.2498392    0.1553752   9.63  0.001169143    2.560    0.609
        52  -8.9313    224.0912    206.8938   5.9436653232e+01   3.7991612473e+00     0.147397   0.09625479   2.10            0    1.235    0.191
        53 -13.5356     55.2506    233.8709   9.6931865153e+01   2.0379625359e+01     1.113775    0.6208887  80.43  0.006210466    2.298    0.565
