#   1 NUMBER                 Running object number                                     
#   2 MAG_AUTO               Kron-like elliptical aperture magnitude                    [mag]
#   3 X_IMAGE                Object position along x                                    [pixel]
#   4 Y_IMAGE                Object position along y                                    [pixel]
#   5 X_WORLD                Barycenter position along world x axis                     [deg]
#   6 Y_WORLD                Barycenter position along world y axis                     [deg]
#   7 A_WORLD                Profile RMS along major axis (world units)                 [deg]
#   8 B_WORLD                Profile RMS along minor axis (world units)                 [deg]
#   9 THETA_WORLD            Position angle (CCW/world-x)                               [deg]
#  10 FWHM_WORLD             FWHM assuming a gaussian core                              [deg]
#  11 ELONGATION             A_IMAGE/B_IMAGE                                           
#  12 ELLIPTICITY            1 - B_IMAGE/A_IMAGE                                       
         1 -13.7633    231.6673     26.7734   3.5435183176e+02   2.7629815001e+01    0.7748968    0.6088449 -56.64  0.004079118    1.186    0.157
         2 -12.3543     31.6506     14.9706   3.0275344965e+01   7.2173561910e+01    0.7394585     0.258933  50.90  0.002748729    3.409    0.707
         3 -11.1154    239.9857      5.2947   3.5007308592e+02   2.8578369886e+01    0.2390349    0.1636153 -22.59  0.001691754    2.263    0.558
         4 -10.9074     20.8967      4.8809   3.1568154570e+01   7.5395338625e+01    0.1955994    0.1494842  16.20  0.001246879    1.266    0.210
         5  -9.5794     41.5218      1.4892   1.7407583811e+01   7.1983889030e+01     0.125789    0.1028721  47.32 -2.076528e-05    1.007    0.007
         6 -11.7178     46.2503    237.8225   6.9010263945e+01   1.7554927887e+01    0.2444889     0.176072 -61.17  0.001431599    1.640    0.390
         7 -13.9439    120.9761    233.1987   5.0288268844e+01   9.9439970908e+00     3.912054     3.419271   5.15  0.008102283    1.060    0.057
         8 -10.3200     45.1828    188.8622   6.5309791167e+01   2.9013677611e+01    0.3648109    0.2053059  68.91  0.001326676    2.088    0.521
         9 -18.5057     13.2021    203.9556   7.5729888730e+01   2.8409253157e+01     10.74921     3.839338 -80.96   0.04257558    2.940    0.660
        10  -9.6856     53.5632    229.9909   6.6569543435e+01   1.8454825400e+01    0.2564913     0.130311 -87.25  0.001153928    2.609    0.617
        11 -10.6341     37.3802    176.0454   6.6469497767e+01   3.3142192959e+01     0.564208    0.2869424  21.26  0.001849708    1.924    0.480
        12 -10.6732     47.8073    173.5917   6.2907265193e+01   3.2612103731e+01    0.4788956    0.2265237  37.45   0.00107249    1.856    0.461
        13 -10.7017     49.7661    184.0342   6.3437841656e+01   2.9706987061e+01    0.2671454    0.2071669 -87.15  0.000378648    1.380    0.275
        14 -13.0139     46.4096    180.3718   6.4081242156e+01   3.1026973167e+01    0.5738976    0.4726959 -49.04   0.00120123    1.347    0.257
        15 -10.7260     44.3271    229.7617   6.8937856071e+01   1.9482538777e+01    0.1874764    0.1773057  11.99 0.0004410992    1.181    0.153
        16  -9.6160    174.8414    179.7988   3.0794984797e+01   1.2911269679e+01    0.1940253    0.1595207 -13.53 0.0006581927    1.186    0.157
        17 -11.2211    179.6673    168.2551   2.7897082649e+01   1.4325898696e+01    0.6856056    0.4209879 -38.49   0.00374031    1.512    0.339
        18 -11.1340    171.6997    175.3635   3.0651006053e+01   1.4164581186e+01    0.3337774     0.310951  33.71  0.001088021    1.194    0.162
        19 -10.6789    173.1889    171.1999   2.9641456926e+01   1.4720577803e+01    0.3311265    0.2591801 -74.42  0.001765791    1.789    0.441
        20  -9.0228     91.4518    176.2761   5.0075061397e+01   2.6071909547e+01    0.1953286    0.1447854 -82.55   0.00094074    1.632    0.387
        21 -11.8114    111.6331    168.9856   4.3345681423e+01   2.4690780808e+01    0.6696106    0.4273206 -80.51   0.00284181    2.350    0.575
        22 -10.3499    152.4268    237.6018   4.3985697102e+01   5.5337778536e+00    0.2436313    0.1427165 -12.36 0.0006883122    2.006    0.502
        23 -11.3098    105.4450    172.0445   4.5519148499e+01   2.4953357231e+01    0.3374631    0.3279764  -7.04 0.0007352717    1.056    0.053
        24  -9.8564    230.3196    166.6620   1.9446022597e+01   7.9722216861e+00    0.1043332   0.08127487 -62.92 0.0007049706    1.709    0.415
        25  -9.3509     47.4554    229.4598   6.8106879484e+01   1.9221524300e+01    0.2350685    0.1658143  50.86 0.0008441453    1.302    0.232
        26 -11.4041    131.2482    143.3381   3.3560042023e+01   2.7146388942e+01    0.5873215    0.3791195 -39.25 0.0009708316    1.665    0.399
        27 -11.2449    134.0000    147.5815   3.3730975765e+01   2.5741902620e+01    0.8037853    0.2558922 -55.79  0.002491329    3.834    0.739
        28  -9.8021    119.0776    149.4051   3.7830752185e+01   2.7933444743e+01     0.246491    0.2066591 -80.09  0.001283192    1.360    0.265
        29 -10.2650    192.1849    193.7996   2.9876039342e+01   8.2273025481e+00    0.6195447    0.3365687 -67.73  0.001767522    9.160    0.891
        30 -12.0698     89.9721    144.1247   4.5084060542e+01   3.4169936945e+01    0.6767133    0.5534139 -38.11   0.00340041    1.347    0.258
        31  -8.6385     49.5780    196.4744   6.4746338850e+01   2.6632013374e+01    0.1405315    0.1284209  39.87 9.903806e-05    1.033    0.032
        32 -10.9859    103.8425    132.9096   3.8722769948e+01   3.4468294869e+01    0.5244491    0.3657839 -13.22  0.002196447    2.258    0.557
        33 -11.5454     91.1277    131.6689   4.2285458683e+01   3.7039802158e+01    0.2933663    0.2862394 -11.31 0.0004006832    1.103    0.094
        34 -10.0679    136.0000    130.4577   2.9771814125e+01   2.9052274086e+01    0.3121696   0.08005733 -49.12  0.000923797    3.847    0.740
        35  -9.6462     82.6606    129.5533   4.4557443911e+01   3.9028897607e+01    0.2571213    0.2331072 -57.00 0.0005035296    1.145    0.126
        36 -10.8553    112.5425    125.9648   3.4785756697e+01   3.4466776479e+01    0.3512848    0.2890153  12.27 0.0009604009    1.493    0.330
        37 -11.1333    117.4717    122.2470   3.2632860049e+01   3.4362553040e+01    0.2900527    0.2789563  71.85 0.0007701194    1.006    0.006
        38 -10.4119     99.2645    121.1544   3.7544646357e+01   3.8087178564e+01    0.2756971    0.2418881   4.30 0.0004721995    1.356    0.262
        39  -9.9746    134.9958    120.4348   2.7842046283e+01   3.1357401651e+01    0.2688552     0.141181 -54.62  0.001123359    1.981    0.495
        40 -10.1911     76.1976    120.8266   4.4918652753e+01   4.2312339607e+01     0.233827    0.2049277  68.70 0.0005831631    1.173    0.148
        41  -9.0755    194.0873    222.5147   3.3878620224e+01   3.4242234926e+00    0.1683539    0.1260958 -27.57 0.0004709928    1.177    0.151
        42 -10.3882    123.6954    117.2237   2.9884236686e+01   3.4251222984e+01    0.2296501    0.1802063 -72.13 0.0007746969    1.400    0.286
        43 -10.1235    108.1329    116.1111   3.3810767132e+01   3.7553879190e+01    0.2441077    0.2348739  83.92 0.0002908644    1.021    0.020
        44 -11.9913    118.3228    104.4789   2.8275070898e+01   3.8063753977e+01    0.6489135    0.3172577 -62.08  0.002350617    2.769    0.639
        45 -11.2309    115.2410    108.9527   3.0168308232e+01   3.7731027341e+01    0.3260401    0.2863878 -12.28   0.00136051    1.424    0.298
        46 -10.9872    111.4818    105.4370   3.0343986280e+01   3.9257049681e+01    0.3670364    0.3075871  71.41 0.0007719721    1.231    0.187
        47 -10.2970    134.5712    106.2797   2.4716794257e+01   3.4360821993e+01    0.2864623    0.1352128 -51.68  0.001147681    2.152    0.535
        48 -10.6946     89.1588    221.7357   5.6628209214e+01   1.6092647496e+01    0.3199928    0.2422061  26.80 0.0007821006    1.141    0.124
        49  -9.4230     71.6380    222.8079   6.1246142123e+01   1.7972733158e+01    0.1777554   0.09642226 -39.22 0.0007896335    2.375    0.579
        50 -10.8162    114.1686     95.4042   2.7111338564e+01   4.0833960260e+01    0.3089737    0.2208747  79.97  0.000992842    1.739    0.425
        51 -10.0982     59.7067     94.6379   4.5079964564e+01   5.1558096053e+01    0.3011895    0.1963995  65.06  0.000605007    1.976    0.494
        52  -9.8574    210.9570    198.8578   2.7480405419e+01   5.2463806116e+00    0.1842943    0.1381037 -30.04 0.0004595842    1.120    0.107
        53 -10.8026     15.2309     89.6540   6.4286811061e+01   5.8355332190e+01    0.3167255    0.1991846  23.02  0.001072479    1.552    0.356
        54 -15.2698     66.2266    148.6236   5.3487745057e+01   3.6733790958e+01     4.891249     3.209088 -84.73   0.01633031    1.837    0.456
        55  -9.0082    234.4798    191.4312   2.2759695662e+01   3.8526816201e+00    0.1068526   0.08320772 -25.13 0.0001453031    1.017    0.016
        56 -12.3502    184.5689     64.9722   6.3283218140e+00   3.1346035224e+01    0.4511857    0.3729591 -58.31 0.0007908141    1.093    0.085
        57  -9.8518     88.7006     68.0012   2.6861479804e+01   5.1815671258e+01    0.2847655    0.1979713  60.40 0.0008075798    1.423    0.297
        58 -10.9363     80.0885     62.4563   2.7976461218e+01   5.4718383596e+01    0.3096901    0.2348839  63.76  0.000586189    1.334    0.251
        59 -10.4032     76.1250     60.1236   2.8611254839e+01   5.5994572295e+01    0.2760444    0.2036811  48.81  0.000315914    1.238    0.192
        60 -13.8286    201.2503     52.7757   1.8396008291e+00   2.9847525026e+01    0.9580198    0.8603214  53.69  0.004068602    1.530    0.346
        61 -12.6282    207.3769     47.9890   2.7221256213e-01   2.9340462077e+01    0.4192367    0.3617871 -87.02  0.001277827    1.229    0.186
        62 -10.1776     41.1604     54.9640   4.2048191398e+01   6.3511615952e+01    0.2386075    0.1893645  30.81 0.0005538304    1.164    0.141
        63  -9.5822     40.5684     47.9762   3.9879520865e+01   6.5014907210e+01    0.2079362    0.1688702  33.23 0.0003403267    1.121    0.108
        64  -9.4105     55.7230     42.2335   3.0302273976e+01   6.3377852078e+01    0.2392329    0.1663309  52.04 0.0006506906    1.368    0.269
        65  -9.6952    237.5012    249.5446   3.0540538440e+01  -4.1901227229e+00   0.09835903   0.07079868 -13.12 3.318423e-05    1.046    0.044
        66 -10.3292     61.1813     21.5284   1.9279759393e+01   6.5442160179e+01     0.253195    0.2121131  56.89 0.0009503504    1.046    0.044
        67  -7.6400     37.0646    194.9256   6.8264370264e+01   2.8376790911e+01    0.5724537    0.3125089  21.20  0.002603923    1.753    0.430
        68  -9.9465     50.8228    247.3662   6.8531518853e+01   1.5118419942e+01    0.1262127    0.1192066 -30.01 0.0001950522    1.290    0.225
        69  -9.2032    189.4846     15.0243   3.5480422012e+02   3.6845081121e+01    0.1638887   0.09877473 -42.24 0.0005830596    1.546    0.353
        70  -9.3783     76.1171    244.4092   6.2135294823e+01   1.2994884780e+01    0.1104706   0.07659207 -49.50 0.0003205633    1.704    0.413
        71  -9.7276     36.3878    243.5241   7.1827141421e+01   1.7353970489e+01    0.3077688    0.1744538 -22.89  0.001412185    2.872    0.652
