#   1 NUMBER                 Running object number                                     
#   2 MAG_AUTO               Kron-like elliptical aperture magnitude                    [mag]
#   3 X_IMAGE                Object position along x                                    [pixel]
#   4 Y_IMAGE                Object position along y                                    [pixel]
#   5 X_WORLD                Barycenter position along world x axis                     [deg]
#   6 Y_WORLD                Barycenter position along world y axis                     [deg]
#   7 A_WORLD                Profile RMS along major axis (world units)                 [deg]
#   8 B_WORLD                Profile RMS along minor axis (world units)                 [deg]
#   9 THETA_WORLD            Position angle (CCW/world-x)                               [deg]
#  10 FWHM_WORLD             FWHM assuming a gaussian core                              [deg]
#  11 ELONGATION             A_IMAGE/B_IMAGE                                           
#  12 ELLIPTICITY            1 - B_IMAGE/A_IMAGE                                       
         1 -11.0935     14.1806     21.0833   1.3149047916e+02   7.3439723704e+01    0.4151628    0.2709676  63.09  0.001731574    2.220    0.550
         2 -12.0778     76.8259     24.3110   9.7607885736e+01   6.3648447562e+01    0.5039186    0.4404524 -51.42  0.001513963    1.278    0.218
         3 -11.2336     42.1216     18.7240   1.1173364487e+02   7.0940381314e+01    0.5166299    0.3544366  22.84  0.002814853    1.569    0.362
         4 -11.1851     22.4837      9.4665   1.1991597400e+02   7.5168670582e+01    0.3398273     0.260312  -2.85  0.002125009    1.340    0.254
         5 -11.0300     41.7538      6.6567   1.0473575877e+02   7.3118348424e+01    0.7036361    0.3316387  30.43  0.003108161    2.466    0.594
         6 -10.5519     39.0761     10.3371   1.0876859758e+02   7.2912232151e+01    0.3308392    0.2577375 -56.96  0.001834073    1.594    0.373
         7  -9.7868     28.5253      1.4808   1.1022026791e+02   7.5921839228e+01    0.2576415    0.1198487  29.63 0.0005085103    2.330    0.571
         8 -11.7819     35.0813     13.7231   1.1337172645e+02   7.2862057437e+01     0.479386    0.3094735 -56.53   0.00173399    1.785    0.440
         9 -12.1457     30.0803      7.2877   1.1295166752e+02   7.4700727172e+01     0.450876     0.428799  55.76  0.003045332    1.385    0.278
        10 -10.3903    190.7210     13.9955   6.9206466723e+01   3.4770533953e+01    0.2216476    0.1929516  89.87  0.001077941    1.096    0.088
        11 -10.4973     26.9196     15.8427   1.2008261153e+02   7.3435419618e+01    0.2888104     0.226325 -44.62 0.0009969657    1.145    0.127
        12 -10.2733     53.3084     12.9288   1.0209911870e+02   7.0135344971e+01    0.4543751    0.2796727  30.74  0.002266377    1.727    0.421
        13 -10.7786     56.1120      7.9482   9.7580302367e+01   7.0382051239e+01    0.3818544    0.2739134  53.21   0.00119282    1.559    0.359
        14 -10.8090     57.3477      4.4312   9.4698466951e+01   7.0635398331e+01    0.3754612    0.2395014  41.27  0.001826116    1.512    0.339
        15 -10.8470     53.0098      3.6239   9.6323963779e+01   7.1590958898e+01    0.3763055    0.2135247 -42.50  0.001242446    1.964    0.491
        16 -11.0368    212.5696     11.9539   6.6639595888e+01   2.9337497017e+01    0.2879476    0.2266166  77.38 0.0007979369    1.276    0.216
        17  -9.7527     68.0717     12.2177   9.4652240276e+01   6.7357056160e+01    0.2581534    0.1714528 -54.71  0.001217153    2.047    0.512
        18 -10.1911    223.5953     12.1889   6.5855302033e+01   2.6620899545e+01    0.1843833    0.1251406  -8.29 0.0007118802    1.717    0.417
        19 -10.3152    184.4978     11.9771   6.9210312638e+01   3.6638903852e+01     0.209589    0.1389355 -26.52 0.0004754795    1.524    0.344
        20 -10.4168    119.0093     11.9988   7.8987348879e+01   5.4829132451e+01    0.2219348    0.2069172  57.03 0.0003123806    1.005    0.005
        21  -9.7194    109.4771     11.3293   8.0824904142e+01   5.7467632992e+01    0.2524026    0.1500565 -16.20 0.0005393057    1.874    0.466
        22 -10.4111     87.2774     11.7256   8.7208694932e+01   6.3069608318e+01    0.3469743    0.2103121  -7.22  0.001520619    2.043    0.510
        23 -10.8197     92.5872      9.2670   8.4261581027e+01   6.2060561866e+01     0.311764    0.2311772  11.42  0.001440791    1.502    0.334
        24 -11.1225     13.6004      8.3464   1.2642301844e+02   7.6191839842e+01    0.3685942    0.3053449  11.88  0.001427912    1.311    0.237
        25 -11.5455      3.5800      8.6700   1.3507570585e+02   7.6732727689e+01    0.3454902     0.246323  84.75  0.001496198    1.780    0.438
        26 -12.1470    151.8195      6.4681   7.1147855439e+01   4.6223612352e+01    0.5693507    0.4130586 -18.75  0.001558227    1.497    0.332
        27  -9.9158    210.3742      7.8059   6.5648944789e+01   3.0283806949e+01     0.184778    0.1288311  -8.69 0.0007978965    1.662    0.398
        28 -11.2845     71.1873      7.4053   9.0517954852e+01   6.7337756567e+01    0.9644423    0.2096184  53.53  0.002932758    4.098    0.756
        29 -11.4859     69.1979      4.3977   8.9471977447e+01   6.8152472658e+01    0.5299693    0.3614949  43.31  0.001738871    1.378    0.274
        30 -10.1077    160.3051      4.7312   6.9443204706e+01   4.3996856269e+01    0.3243188    0.1991754 -31.56  0.001499336    1.639    0.390
        31  -9.1726    107.3738      5.2422   7.8379705914e+01   5.8665377247e+01    0.1573005   0.09557827  41.86 0.0006933038    1.624    0.384
        32 -10.5017    236.3486      3.4772   6.2765913120e+01   2.4459302275e+01    0.3257537    0.1705021  19.28  0.001308438    3.639    0.725
        33 -11.7213    129.9544      3.1890   7.3068597435e+01   5.2671582643e+01    0.6440695    0.2934673  88.89   0.00223135    2.913    0.657
        34 -10.0500      7.5152      4.5254   1.2977704799e+02   7.7397680433e+01    0.1974114    0.1534689   1.45  0.001320509    1.363    0.266
        35 -10.1842     10.5578      1.6563   1.2547068240e+02   7.7770910646e+01    0.2410314    0.1611849   2.41   0.00116678    1.597    0.374
        36  -9.9631    199.6595      2.9550   6.5081582223e+01   3.3466279827e+01    0.1964383    0.1633071 -41.61 0.0003774388    1.149    0.129
        37  -9.5812     91.5098      2.8759   8.1136663132e+01   6.3022303595e+01    0.3940674     0.195988  62.82  0.001675748    1.909    0.476
        38 -10.2872     39.1634      1.8754   1.0308426443e+02   7.4289975043e+01    0.3454255    0.1916721  26.77  0.001692423    2.037    0.509
        39 -10.6011     19.4952      2.4657   1.1809672515e+02   7.6815464070e+01    0.3011236    0.2016836   0.24  0.001758576    1.644    0.392
        40  -9.9929    120.9871      4.0940   7.5034513086e+01   5.5080043776e+01    0.2199026    0.2042263  59.10 0.0004437848    1.012    0.012
        41 -11.3829     80.1969      1.6610   8.3840868580e+01   6.5930756796e+01    0.4081716    0.1605509  54.13  0.001071931    2.229    0.551
        42  -9.7021      2.0216      2.5278   1.3391495084e+02   7.8105057408e+01    0.1531783    0.1107487   4.24 0.0007179408    1.509    0.337
        43 -10.3566     22.0763    143.4030   1.4701043395e+02   4.3767266883e+01    0.2361985    0.1522403  82.79 0.0007913024    1.358    0.264
        44 -12.1590      2.2902    219.8435   1.5444039882e+02   3.0331702198e+01    0.6462682    0.1712614 -88.33  0.003219632    3.729    0.732
        45 -11.9003      4.2997    232.7173   1.5431572246e+02   2.8020820433e+01    0.3265145    0.2055802  76.27 0.0009967714    1.397    0.284
        46 -12.6658      9.4958    232.3300   1.5336455623e+02   2.7624143699e+01    0.4101328    0.3657039 -54.88  0.003592485    1.807    0.446
        47 -11.7110      8.8068    227.8214   1.5338952811e+02   2.8425194666e+01    0.3193331    0.2001325  38.26  0.001625557    1.362    0.266
        48 -10.9538     12.4135    130.4032   1.4892973860e+02   4.7503824085e+01    0.4250929    0.1447304  48.84  0.001393007    2.475    0.596
        49  -9.4705     51.5396    131.0355   1.3731518093e+02   4.3596924576e+01    0.1846484   0.09717836  75.08 0.0005299806    2.267    0.559
        50 -10.1602     29.0354    128.6120   1.4385366367e+02   4.6548883603e+01    0.2800774    0.1490905  79.34   0.00109573    1.854    0.461
        51  -9.5019     21.1781    126.1493   1.4602642758e+02   4.7810665042e+01    0.1735879    0.1183763  61.47 0.0004380631    1.292    0.226
        52  -9.3832    226.3110    124.6375   9.3883551704e+01   1.2088184591e+01    0.1272759     0.101955 -57.77 0.0007040521    1.750    0.429
        53 -11.3082     23.4478    121.0805   1.4490654080e+02   4.8817608917e+01     0.522902     0.213114  74.62  0.001252083    2.812    0.644
        54  -9.5169     15.7777    122.8066   1.4742444264e+02   4.9018530308e+01    0.1739953    0.1169034  60.27  0.000996117    1.313    0.239
        55  -9.5575     65.0000    114.9936   1.3075171782e+02   4.5670430987e+01    0.2300628    0.0763271 -64.25 0.0008075008    2.978    0.664
        56  -9.6630     96.6338    114.0116   1.2065702623e+02   4.0804319327e+01    0.2055943    0.1858511 -83.76 0.0006239279    1.120    0.107
        57 -11.2412      3.8927    113.6044   1.5054627865e+02   5.1968395273e+01     0.311654    0.2155821  -9.91   0.00181806    2.014    0.504
        58  -9.6255    249.3156    111.3459   8.7589762158e+01   9.5223997934e+00    0.1332578    0.0872645   9.67 0.0005794145    1.719    0.418
        59  -9.7226     65.9940    110.7697   1.2968331422e+02   4.6544665710e+01     0.211239     0.145852  83.86  0.001034263    1.625    0.385
        60 -11.7670     12.4783    108.8490   1.4744066596e+02   5.2558989970e+01    0.3553144    0.1895139  45.43  0.001924537    1.767    0.434
        61 -11.5571      6.0088    108.3134   1.4954599471e+02   5.3091849078e+01    0.2729098    0.2003329 -52.33  0.001724655    1.515    0.340
        62  -9.2147     79.6702    107.3173   1.2452995012e+02   4.5284262564e+01    0.1531479    0.1060742  70.26 0.0007046726    1.683    0.406
        63 -10.3002     58.7298    107.1503   1.3146812114e+02   4.8416536130e+01    0.2548159    0.1834991 -14.38  0.001234095    2.099    0.524
        64 -10.1754     61.8413     98.8241   1.2882992036e+02   5.0019404822e+01    0.2044796     0.158572  70.20  0.001082102    1.339    0.253
        65 -12.3509     18.6774     94.7694   1.4396528761e+02   5.5538599946e+01    0.6423155    0.3527433 -84.67  0.002204901    1.643    0.391
        66 -11.6821     11.2464     87.8341   1.4604165598e+02   5.7714366026e+01     0.589672     0.241865 -79.63  0.001958761    2.103    0.524
        67 -10.0825     16.0730     89.4824   1.4436469171e+02   5.7010614782e+01    0.2163874    0.1793065  23.03 0.0006478833    1.392    0.281
        68  -9.7082     18.7775     86.9739   1.4302874683e+02   5.7441515801e+01    0.2008122    0.1672885 -83.44 0.0008276777    1.037    0.035
        69 -10.6171      6.7166     97.9982   1.4859001824e+02   5.5513255668e+01    0.2383673    0.1264721 -30.78  0.001176506    2.640    0.621
        70 -10.1431     36.9784     95.9492   1.3733925452e+02   5.3689441071e+01    0.3326211    0.1351966  43.77  0.001409208    2.435    0.589
        71  -9.6029      3.5113     95.4939   1.4954899986e+02   5.6284571715e+01    0.1233117    0.1002538  82.17 0.0003202428    1.039    0.038
        72 -10.6835     84.3101     94.0164   1.1996559121e+02   4.7633060766e+01    0.3227642    0.2057413  31.20  0.001454655    1.727    0.421
        73 -10.9245     27.4527     90.8020   1.4017304951e+02   5.5832564035e+01     0.609875    0.2342973  47.02  0.002549816    2.707    0.631
        74 -10.3826     25.2978     84.8958   1.4017841137e+02   5.7465398616e+01    0.3019178    0.1828407 -70.14 0.0009001899    1.444    0.308
        75 -10.6996     43.1594     89.2554   1.3388710053e+02   5.4694759889e+01    0.4366361    0.1692325  42.35  0.001677756    2.580    0.612
        76  -9.4543    116.9881     90.0000   1.0860322086e+02   4.2036404341e+01    0.2622833   0.08584643  45.77 0.0008047342    2.958    0.662
        77 -10.2983     76.5278     89.1281   1.2144324051e+02   5.0113712174e+01     0.256472    0.2145887  28.57 0.0006078602    1.298    0.230
        78 -10.6129    104.0781     87.8487   1.1188520660e+02   4.5251248370e+01    0.2351667    0.2026211  80.41 0.0004908089    1.272    0.214
        79  -9.7931    124.0447     86.9813   1.0573129652e+02   4.1087181583e+01    0.2327456    0.2268495  49.35 0.0004841003    1.021    0.021
        80 -11.1938     54.5719     84.2575   1.2845637406e+02   5.4551559342e+01    0.3135306    0.2429497 -85.07 0.0007511513    1.329    0.248
        81  -9.7561     92.3516     85.1001   1.1491076108e+02   4.8206789734e+01    0.2040298    0.1834775 -64.35 0.0003311334    1.119    0.106
        82  -9.0138     43.2333     84.2897   1.3292192990e+02   5.5910700638e+01    0.1297519   0.09444831 -44.84  0.000174213    1.455    0.313
        83 -10.0999      1.7185     89.5799   1.4978852968e+02   5.7789630517e+01    0.2237638    0.1345658 -83.66 0.0005479982    1.385    0.278
        84  -8.9490     78.2822     83.2977   1.1930800579e+02   5.1189303223e+01    0.1420256    0.1149916 -20.78 0.0001887534    1.543    0.352
        85 -11.5502     63.9708     81.6049   1.2419597950e+02   5.3883760593e+01    0.3821142    0.3515668 -78.98  0.001401414    1.046    0.044
        86 -10.4522     65.3807     75.4635   1.2204663948e+02   5.5136009699e+01    0.3767892    0.2704309 -18.04            0    1.955    0.488
        87 -10.9150      4.1415     81.6690   1.4824099942e+02   5.9584739299e+01    0.3580625    0.1903716 -84.76  0.001915367    1.601    0.375
        88  -9.8998    250.3701     80.7870   8.0521455065e+01   1.3022057138e+01     0.183534    0.1099985 -16.78 0.0005983507    1.633    0.388
        89 -10.0119     89.3720     80.4963   1.1461253280e+02   4.9819713093e+01    0.2818179    0.1835482 -56.90 0.0006731456    1.585    0.369
        90  -8.6671    124.4812     79.4507   1.0335798121e+02   4.2511231593e+01    0.1566507    0.1487874  76.18  0.000192404    1.068    0.063
        91  -9.1772     85.4010     79.5638   1.1572773177e+02   5.0779300368e+01    0.1448929    0.1418814 -61.40  0.000798452    1.037    0.035
        92  -9.4623     24.0601     78.9573   1.3979780046e+02   5.9026746878e+01    0.2126473    0.1341227 -43.55  0.001125671    1.699    0.412
        93  -9.6305     19.3740     79.2019   1.4177949364e+02   5.9310046363e+01     0.229823    0.1353596  62.22  0.001182868    1.820    0.451
        94 -10.4475     15.8546     76.1370   1.4283580680e+02   6.0295819887e+01    0.1975673    0.1567667  69.91  0.001121698    1.244    0.196
        95  -9.7187    176.8620     77.1444   9.0526620219e+01   3.0038586983e+01    0.2364157    0.2117056 -77.23  0.001233662    1.237    0.191
        96 -10.2553     56.1968     75.6885   1.2578003628e+02   5.6413473249e+01    0.2715539    0.2537878  76.42  0.001238071    1.080    0.074
        97  -9.8830     37.5776     75.2284   1.3343341627e+02   5.8740094945e+01    0.2981212    0.1887216 -52.72  0.001016906    1.490    0.329
        98 -10.6455     34.9835     72.5313   1.3399518549e+02   5.9659639530e+01    0.5099865    0.3218862 -29.24  0.002523976    2.011    0.503
        99  -9.0209     74.9688     75.7175   1.1842397134e+02   5.3522677419e+01    0.1713576    0.1298678  37.49  0.000238136    1.357    0.263
       100  -9.0613    224.3129     74.2799   8.2174544545e+01   1.9238551134e+01    0.1366058    0.1014113  20.65   0.00030059    1.568    0.362
       101  -9.9562    136.8075     74.0043   9.8382552244e+01   4.0600167806e+01    0.2333919    0.2073446  10.66 0.0004824528    1.266    0.210
       102  -9.6630     95.9596     73.7500   1.1032322304e+02   5.0008798224e+01    0.2068148    0.1879417  57.16 0.0002952782    1.101    0.092
       103  -9.7301     92.6173     72.2722   1.1099560719e+02   5.1010724058e+01    0.2693704    0.2039442  71.13 0.0007281593    1.612    0.380
       104  -9.2377     90.6619     69.3085   1.1072411698e+02   5.2049396686e+01     0.152105    0.1504457  82.80  0.000326139    1.002    0.002
       105 -11.2700      3.9346     73.6749   1.4759354451e+02   6.1529731603e+01    0.3541526     0.219561   9.27  0.001461986    1.964    0.491
       106  -9.5307    216.8691     72.4436   8.2713392812e+01   2.1147794656e+01    0.2263424    0.1601605 -20.70 0.0005900642    1.397    0.284
       107 -10.0128    152.7812     71.9630   9.3937181610e+01   3.6965416601e+01    0.2078158    0.2002911 -48.28  0.001094034    1.062    0.058
       108 -10.3715    105.9719     71.7154   1.0639999776e+02   4.8307720047e+01    0.2397477    0.2183708 -40.58 0.0003619716    1.125    0.111
       109 -10.1793     80.8326     71.7848   1.1506044184e+02   5.3386983222e+01    0.2842613    0.1950786 -81.46  0.001224695    2.074    0.518
       110 -10.3538     45.9227     69.5501   1.2856067453e+02   5.9207392981e+01    0.2998808    0.2290401  14.07  0.001336412    1.539    0.350
       111  -9.5415    130.0278     69.3591   9.8644547535e+01   4.3139741381e+01     0.219057    0.1973316  51.22 0.0004381321    1.079    0.073
       112 -10.9164     10.6813     69.1208   1.4415473683e+02   6.2312342225e+01     0.349244    0.1934989 -86.45  0.001828598    1.656    0.396
       113 -11.4590      5.2093     66.9549   1.4633418987e+02   6.3102939229e+01    0.3535411    0.1454575 -71.70  0.001500517    1.950    0.487
       114 -10.2208      9.1448     60.9019   1.4374480090e+02   6.4389270719e+01    0.4530384    0.1100222 -60.02  0.001333526    2.913    0.657
       115  -8.8068     57.3433     67.6887   1.2316515333e+02   5.8164291903e+01    0.1457556    0.1065047  71.35 0.0007045857    1.702    0.412
       116 -10.7358     34.8584     64.9260   1.3239929125e+02   6.1528801757e+01    0.4463365    0.2635244  29.76  0.002241871    1.819    0.450
       117 -10.8234     39.7887     62.4114   1.2951446864e+02   6.1627171229e+01    0.4694457    0.2536949 -39.69  0.001807528    2.059    0.514
       118 -10.0930     38.3987     59.5277   1.2941804879e+02   6.2468692561e+01    0.2917956     0.210078 -21.43 5.423115e-05    1.682    0.405
       119 -11.0801     16.9970     64.3073   1.4056925191e+02   6.3119407995e+01    0.3135091    0.3076029  -0.63  0.001035165    1.180    0.153
       120 -10.2786    132.2791     64.4017   9.6409745540e+01   4.3496433219e+01    0.4577631    0.3726684  58.41  0.002222527    1.212    0.175
       121  -9.6731    127.0623     61.8103   9.6894975506e+01   4.5273087712e+01     0.225998    0.2034861  85.55 0.0003293281    1.192    0.161
       122 -10.1389    101.0050     61.9832   1.0470941140e+02   5.1404223390e+01    0.2426019    0.1893933 -84.20 0.0007814255    1.675    0.403
       123  -9.0313     72.6758     62.3428   1.1518254627e+02   5.6968304484e+01    0.1502201    0.1147783  82.59 0.0002589118    1.733    0.423
       124 -10.5749     62.9038     61.8694   1.1905933740e+02   5.8691915843e+01    0.2223478    0.1873295 -24.74 0.0009286599    1.311    0.237
       125 -10.5585     53.7093     62.0636   1.2310507593e+02   5.9996546616e+01    0.4734403    0.2856002  19.65  0.000870557    2.070    0.517
       126  -9.9618     54.5022     58.4761   1.2165506177e+02   6.0721836068e+01    0.2355196    0.2066584  49.78 0.0007388293    1.221    0.181
       127 -10.8438      2.4016     60.1102   1.4684522441e+02   6.4869723136e+01    0.2962064    0.1487835  62.45   0.00148036    2.205    0.547
       128  -9.7541    119.3039     59.8503   9.8346503028e+01   4.7548838392e+01    0.2781424    0.2125201  64.40  0.001293879    1.385    0.278
       129  -9.4470     67.4814     60.4861   1.1668662849e+02   5.8269295404e+01     0.142464    0.1369874 -44.78 0.0007216881    1.015    0.015
       130  -9.5589    178.1801     59.2017   8.4968902712e+01   3.2468810965e+01    0.2069248    0.1705437 -66.35 0.0004751736    1.325    0.245
       131 -10.2570     25.9259     57.8994   1.3505012660e+02   6.4032825689e+01    0.3372586    0.1930412 -61.50  0.001742346    1.498    0.332
       132 -11.0743      2.2217     54.2172   1.4621911721e+02   6.6292601026e+01    0.8514605    0.1961027 -42.18  0.002909092    4.692    0.787
       133 -11.8735     17.5353     45.0166   1.3646344269e+02   6.7733348578e+01    0.9566023    0.5618135  -6.42   0.00437767    2.152    0.535
       134 -12.4456     20.4960     57.3327   1.3760875506e+02   6.4581321637e+01    0.2991869    0.2729045  58.79 0.0009717456    1.198    0.165
       135 -11.0659     19.4571     52.0820   1.3703614833e+02   6.5919187609e+01    0.2855681    0.1924597 -51.65 0.0008094175    1.327    0.246
       136 -10.4979     60.2676     57.7704   1.1886725757e+02   6.0035374799e+01    0.2533901    0.2429654  81.37 0.0007305523    1.102    0.093
       137  -9.6463     71.7769     57.2456   1.1380467368e+02   5.8253943115e+01    0.1908881    0.1649234 -14.02 0.0009238835    1.297    0.229
       138 -11.9428    114.2365     54.2608   9.7784501281e+01   4.9815668390e+01    0.3433406    0.3286232  17.65 0.0006032873    1.080    0.074
       139 -10.4073    104.1385     55.9163   1.0149671042e+02   5.1896181097e+01    0.2617859    0.2262355 -22.45 0.0003652345    1.246    0.197
       140 -10.3013    106.8028     54.0077   9.9941394133e+01   5.1640395946e+01    0.4294682    0.2600625 -65.87  0.001585481    2.653    0.623
       141 -10.3934      7.6570     56.0472   1.4376259580e+02   6.5633378038e+01    0.2094164    0.1826961 -19.90 0.0009900249    1.310    0.237
       142 -11.4676     86.4448     53.5592   1.0672047237e+02   5.6227645898e+01    0.6282673    0.3444709  52.20  0.002477602    1.976    0.494
       143 -10.5271     34.3304     53.7431   1.2984872902e+02   6.4268185299e+01    0.3156845    0.1773745 -46.74  0.001237965    1.674    0.403
       144  -9.0314     76.9553     54.7747   1.1082341265e+02   5.7843497668e+01    0.1765328    0.1206083  39.88 0.0008280865    1.495    0.331
       145 -11.6964     66.7926     52.4859   1.1419050464e+02   6.0156328912e+01    0.5802398    0.2557399  34.75  0.002252761    2.486    0.598
       146  -9.4548    212.0179     48.9736   7.7036991637e+01   2.5338239699e+01    0.1636537    0.1576892 -74.07 0.0003337825    1.056    0.053
       147  -8.9207    173.2843     49.6978   8.2850722578e+01   3.5126421757e+01    0.1551854    0.1128528 -63.33 0.0002222601    1.556    0.357
       148  -9.0195    176.2813     52.3058   8.3165941280e+01   3.3964221584e+01    0.1514184    0.1155633  25.03 0.0001704034    1.557    0.358
       149 -10.3173     38.3971     48.6043   1.2628149741e+02   6.5044562181e+01    0.2335549    0.1913582 -35.60  0.001366654    1.209    0.173
       150  -9.0018    146.6107     48.2920   8.7462535154e+01   4.2474383054e+01    0.1661551    0.1188364 -74.92 0.0007010501    1.770    0.435
       151  -9.6426     99.6582     56.1464   1.0304561391e+02   5.2868558362e+01    0.2121481    0.1415096 -30.93 0.0004650974    1.661    0.398
       152 -11.2608     26.2065     43.6438   1.3128779230e+02   6.7400991348e+01     0.276545    0.2499536  62.07  0.000514066    1.253    0.202
       153  -9.7228     32.3005     48.3050   1.2935406656e+02   6.5751574245e+01    0.1856061    0.1184599 -72.37 0.0004950148    1.598    0.374
       154 -10.7057     68.6079     46.7885   1.1124121965e+02   6.1055025025e+01    0.2622006    0.2211148  26.33 0.0002180163    1.245    0.197
       155 -10.5754     70.5429     42.9123   1.0883695046e+02   6.1499349577e+01    0.2902854    0.2489817 -58.85   0.00068107    1.256    0.204
       156  -9.3918    135.9763     46.4800   8.9186743593e+01   4.5591588964e+01    0.2339984    0.1512215  60.24 0.0007736527    1.512    0.339
       157 -10.4264     77.6947     45.9483   1.0711564999e+02   5.9524081267e+01    0.3308525    0.2158596  43.33  0.001552167    1.553    0.356
       158 -10.4650     35.4799     40.6923   1.2522009173e+02   6.7178219571e+01    0.4022198    0.2797608 -24.82  0.002037341    1.615    0.381
       159  -9.8217    182.9092     41.1088   7.8623103667e+01   3.3736058168e+01    0.3051771    0.1794322 -29.92  0.001334757    1.673    0.402
       160 -11.3941    139.9434     40.6968   8.6161239731e+01   4.5413773937e+01    0.2725001    0.2539822 -84.18 0.0003701472    1.098    0.089
       161 -10.5238      5.3486     40.0228   1.4232440328e+02   6.9555974798e+01     0.323686    0.1384817 -47.63  0.001587741    2.034    0.508
       162 -10.0150    134.4554     39.8054   8.7049125012e+01   4.7023022115e+01     0.247217    0.2014583  73.09 0.0003009222    1.254    0.203
       163  -9.3506     43.4022     40.5230   1.2088543140e+02   6.6277484907e+01    0.1350504     0.120166 -40.77 5.128308e-05    1.029    0.028
       164 -10.0402     12.7916     38.6651   1.3766129893e+02   6.9519064312e+01    0.3198372    0.1387005 -80.77  0.001385221    2.560    0.609
       165 -11.3580    145.1013     33.0295   8.2249495237e+01   4.5088536436e+01    0.2808612    0.2518407 -64.97 0.0003698999    1.153    0.133
       166  -9.9469     22.0487     38.4967   1.3215323800e+02   6.8937463424e+01    0.2348474    0.1670096 -86.43 0.0007672862    1.594    0.373
       167 -11.4668    121.4681     36.6387   8.8945295625e+01   5.0946038704e+01    0.5314141    0.3980872 -86.64  0.002423277    1.669    0.401
       168 -10.2472      7.2367     28.2376   1.3853283400e+02   7.2218507045e+01    0.2331532    0.1564755  23.86 0.0008726018    1.716    0.417
       169 -11.2379      2.1083     34.8289   1.4327864632e+02   7.0891769232e+01    0.4679733    0.1681959 -69.97  0.001375424    2.171    0.539
       170 -10.4062      2.2919     28.6027   1.4189723329e+02   7.2329845380e+01    0.2383392    0.1639509 -42.80 0.0008247269    1.317    0.241
       171  -9.8192     99.1774     35.7630   9.4982887601e+01   5.6690486666e+01    0.2347197    0.2076976 -12.95            0    1.186    0.157
       172  -9.6105     91.6003     35.7831   9.7533388550e+01   5.8458796693e+01    0.2076432    0.1371617 -46.14 0.0008684223    1.609    0.379
       173 -10.1887     70.2468     35.3458   1.0567632841e+02   6.3037358634e+01    0.2719869    0.1647173 -31.47 0.0008750316    1.774    0.436
       174 -10.9944     26.5408     35.1388   1.2842519475e+02   6.9327446068e+01     0.316975    0.2108905 -42.73  0.001045141    1.371    0.270
       175 -11.9663     50.5387     33.8041   1.1438543826e+02   6.6720215286e+01    0.3680364    0.2733637  47.18 0.0004093826    1.532    0.347
       176  -9.3556    149.9727     33.9690   8.1663814398e+01   4.3622400765e+01    0.1784143    0.1741584  83.03 0.0009579208    1.021    0.020
       177 -11.1064    134.5110     34.0095   8.4813099031e+01   4.7848563778e+01    0.2638831    0.2066465  54.19 0.0003664429    1.220    0.180
       178 -11.2374     19.9721     31.9223   1.3137155199e+02   7.0603513681e+01     0.580097    0.3150074  -8.15  0.002503687    2.467    0.595
       179  -9.6904     88.6884     32.9514   9.7286273670e+01   5.9603126927e+01    0.2032353    0.1859826 -29.50 0.0003466858    1.101    0.092
       180  -9.9564    166.6725     30.7662   7.7693478999e+01   3.9433073241e+01    0.3158937    0.1493922 -14.28  0.001109604    2.806    0.644
       181 -10.7181     43.4076     29.5112   1.1632627134e+02   6.8628679390e+01    0.4758864    0.2172983 -46.91  0.001725949    1.995    0.499
       182  -9.7253     46.4986     26.5404   1.1320586092e+02   6.8788185568e+01    0.2167831    0.1244975 -47.26 1.366915e-05    1.644    0.392
       183  -9.5703    187.2931     29.9863   7.4556343390e+01   3.3943368022e+01    0.2103979    0.1953447 -38.86  0.001173155    1.079    0.073
       184 -10.6532    150.6736     29.4582   7.9889533382e+01   4.4016563985e+01    0.5087126    0.2783443  73.91  0.002030251    1.941    0.485
       185  -9.7253    127.6570     30.6895   8.5037231704e+01   5.0165511476e+01    0.1646145    0.1123759  31.37 0.0007045384    1.699    0.411
       186 -10.4516    103.5918     28.2190   9.0264460784e+01   5.6796199464e+01    0.4939678    0.4218265 -47.38  0.002580985    1.252    0.202
       187  -9.4058    162.3490     28.7820   7.7686116054e+01   4.0868174448e+01    0.2058509     0.145545  -9.52 0.0006800852    1.663    0.399
       188  -9.6153     69.9619     28.6702   1.0265147980e+02   6.4320163929e+01    0.1962356    0.1800432  28.79 0.0004902129    1.084    0.077
       189  -9.8267    230.2630     26.0106   6.8975138809e+01   2.3647018386e+01    0.3251438   0.09637004 -37.96  0.001234717    2.638    0.621
       190 -10.0368    132.4549     26.4438   8.2268382040e+01   4.9430771982e+01    0.2893837    0.1922247 -65.08   0.00062084    1.866    0.464
       191 -10.5196    113.9783     25.3296   8.6105780455e+01   5.4543847227e+01    0.2681106    0.2191861 -37.24 0.0005802544    1.273    0.214
       192 -10.4377     88.9057     24.2443   9.3086794820e+01   6.0949688092e+01    0.4796053    0.2665494  -8.42  0.001626435    2.990    0.666
       193 -10.0256     88.5102     19.5198   9.0867350701e+01   6.1735424443e+01    0.2200889    0.1313598 -40.90 -2.793761e-05    1.776    0.437
       194  -9.3586     18.3708     26.2905   1.3048746339e+02   7.1989815767e+01    0.1350256   0.07956871 -32.54 0.0007023802    1.719    0.418
       195  -9.4999    153.0685     25.5201   7.8033699653e+01   4.3839043084e+01    0.2319375    0.1450296  67.95 0.0006047555    1.532    0.347
       196 -10.0905     58.8903     24.3940   1.0562903628e+02   6.7168901395e+01    0.3036885    0.2217999 -32.86  0.001403627    1.324    0.245
       197 -10.4043     52.1766     23.2110   1.0844842584e+02   6.8539265686e+01    0.4022929    0.1809409 -36.82  0.001158869    2.261    0.558
       198 -11.6426     17.2201    249.1461   1.5238473979e+02   2.4272503537e+01    0.3115635    0.1615075  17.28  0.001798211    3.350    0.701
       199 -10.1590     13.0072     16.1240   1.3043081722e+02   7.4598411548e+01     0.343295    0.1717502  23.20  0.001802574    2.186    0.542
       200 -12.0460     21.9138    244.5786   1.5143802688e+02   2.4523866440e+01    0.2460594    0.1442327  78.30  0.001889903    1.605    0.377
       201  -9.7135     22.5769     21.6358   1.2581598661e+02   7.2660120463e+01    0.2288205   0.09967502 -52.71 0.0005777862    1.911    0.477
       202  -9.2704     84.4825     21.4284   9.3239408364e+01   6.2397493603e+01    0.1451007    0.1342586  23.34 0.0001217675    1.032    0.031
       203 -10.4490     30.9278     20.1659   1.1951931293e+02   7.2114148231e+01    0.2638373    0.1727539 -40.34 0.0007295233    1.369    0.269
       204 -10.5135    236.2861     19.3522   6.6784889271e+01   2.2953074028e+01    0.3203841    0.1848118  -8.68  0.001535685    2.118    0.528
       205  -9.3857    229.5308    248.0280   1.1472712703e+02  -2.1303599154e+00    0.1278949   0.08784757 -12.73  0.001016933    1.549    0.355
       206 -11.1922     33.2792    247.7125   1.4950951875e+02   2.2916047126e+01    0.2616574    0.1114229  24.93  0.001413711    2.987    0.665
       207  -9.5556    217.2145    244.8295   1.1625815623e+02  -3.0091886307e-01    0.2321483    0.0579391  41.11   0.00100779    3.573    0.720
       208  -9.6561    146.5142    244.5056   1.2839791922e+02   9.3026294951e+00    0.1133219   0.07975851  34.98  0.000810478    1.010    0.010
       209 -10.1647    190.6644    246.6707   1.2087340049e+02   3.0083378527e+00    0.1116208   0.06423099  16.16 0.0007052032    1.728    0.421
       210 -12.4239      5.1071    240.7124   1.5432108358e+02   2.6676473142e+01    0.4581613    0.2565918  37.36  0.003488406    1.442    0.307
       211  -9.6928    202.4957    240.0060   1.1804844943e+02   2.0923913040e+00    0.1316683   0.09879835 -15.41 0.0007305215    1.536    0.349
       212  -8.6906      2.3384     20.3142   1.3984918783e+02   7.4216852118e+01    0.1318518   0.06757258 -42.34 0.0004646377    1.697    0.411
       213 -10.4069    190.4457     17.4528   7.0301916896e+01   3.4490517857e+01    0.2298787    0.1765479 -38.35 5.371372e-05    1.255    0.203
       214  -9.4802     60.0593    241.0000   1.4429921085e+02   2.1034291352e+01    0.2875234   0.04490246  33.78  0.001029566    4.739    0.789
       215 -11.7379     21.2127    235.9603   1.5131512000e+02   2.5947952227e+01    0.2300274    0.1442198  65.94  0.001783455    1.269    0.212
       216 -11.1344     20.1292     16.7815   1.2540404223e+02   7.3906422245e+01    0.1988507    0.1862776  -7.91 0.0003177031    1.151    0.131
       217 -10.4779     90.1791     16.1590   8.8599060903e+01   6.1797108024e+01     0.224156    0.1850051  22.42 0.0004399649    1.240    0.194
       218  -9.6860    162.6794     15.3261   7.2915727302e+01   4.2302599861e+01    0.1615037    0.1037589 -60.79 0.0003807993    1.682    0.406
       219  -9.0464      1.2485     15.3215   1.3926217511e+02   7.5370973800e+01    0.1249854   0.06670449 -46.79 0.0002339137    1.532    0.347
       220  -9.9430    144.1643     14.2324   7.5248612314e+01   4.7608993220e+01    0.2271715    0.1928063  46.90 0.0006609836    1.184    0.155
       221  -9.0493    155.5541    235.5074   1.2576028003e+02   9.1436390555e+00    0.1150944   0.08324999  34.07 2.507791e-05    1.012    0.011
       222  -9.7831    249.2979    234.1416   1.0981554853e+02  -3.3787034159e+00    0.1755248    0.0963433  23.32 0.0005656424    1.313    0.238
       223  -9.3012     80.0480    231.5486   1.3986637932e+02   2.0084079605e+01    0.1655074   0.05606579  49.87 0.0008054539    2.345    0.574
       224  -9.3626    209.5302    229.5163   1.1547230821e+02   2.1943239043e+00    0.1121861   0.07949673  22.61 0.0002923227    1.001    0.001
       225  -9.4730    140.6663    227.3392   1.2763114181e+02   1.2357594568e+01    0.1172019   0.07464803  55.62  0.000705162    1.748    0.428
       226  -9.3411    109.7094    226.6598   1.3360568535e+02   1.6885392841e+01    0.1053348    0.0826242  11.59 0.0007024656    1.647    0.393
       227  -9.8844     32.8416    225.2032   1.4874565762e+02   2.6557545086e+01    0.2459821   0.02977834  37.20  0.001035376    3.438    0.709
       228 -10.3607     25.6928    224.8425   1.5011315602e+02   2.7337846604e+01    0.1402256    0.1187635  87.49 0.0007494347    1.414    0.293
       229  -9.3162     37.6583    223.3468   1.4772634040e+02   2.6368674170e+01    0.1221738   0.05158181  55.96 0.0007045908    1.792    0.442
       230 -11.1693      7.6677    217.5998   1.5336790654e+02   3.0252642916e+01    0.2482461    0.1766301  68.39  0.001789035    1.164    0.141
       231  -9.8279    246.4810    216.5230   1.0765292585e+02  -1.4931590626e+00    0.1101833   0.07565705  14.08 0.0008096563    1.037    0.036
       232 -10.6135      3.9887    212.3382   1.5396065013e+02   3.1485367131e+01    0.2284463    0.1307299  35.17  0.001325333    1.529    0.346
       233  -9.7401      9.3154     10.3411   1.3092099207e+02   7.6071566428e+01    0.1670657    0.1038085 -20.46 0.0003811176    1.672    0.402
       234  -9.8247    209.3243    212.0302   1.1299153997e+02   4.0756472237e+00    0.1581522    0.1226301   8.12  0.001136694    1.151    0.131
       235  -9.5005    249.4962    211.5064   1.0642203317e+02  -1.4251671250e+00      0.10982   0.07734288  13.17 8.572766e-05    1.001    0.001
       236  -9.5980     20.3707    209.6938   1.5062851668e+02   3.0483275894e+01    0.1227082   0.04978517  54.53 8.174347e-05    1.759    0.431
       237  -9.8207    246.8644    206.9131   1.0610155992e+02  -6.5096201741e-01    0.1730748    0.1108137   8.21 0.0007854852    1.279    0.218
       238 -10.8093      1.7296    248.7132   1.5503963171e+02   2.5738814758e+01    0.3158979    0.1397032  87.00  0.002237749    2.229    0.551
       239  -9.3344    173.6829     13.6802   7.0961681486e+01   3.9419288574e+01    0.1528864    0.1054496  38.22 0.0005372134    1.659    0.397
       240  -9.4231    197.0479    203.8320   1.1389975393e+02   6.8610460753e+00    0.1396232    0.1365965  57.87  0.001035193    1.561    0.359
       241 -10.4818    108.1883     16.6122   8.3637516560e+01   5.7191520372e+01    0.2326136    0.2014322 -28.14 0.0003256072    1.208    0.172
       242 -10.7747      9.5322    203.4224   1.5263435175e+02   3.2604147168e+01    0.1953515    0.1373792  58.17 0.0007549947    1.001    0.001
       243  -9.1078    181.5611    199.5007   1.1608606754e+02   9.8381289911e+00    0.1229432    0.0977384  28.95 6.667943e-05    1.047    0.045
       244  -9.6051     23.0689    197.4834   1.4960022921e+02   3.2466746165e+01     0.160883   0.08833808  36.80 0.0004385312    1.532    0.347
       245 -12.6634      8.2954    246.3280   1.5387169658e+02   2.5522788665e+01    0.4723103    0.3434535  15.66  0.003748513    2.058    0.514
       246  -9.1026     28.7553    190.6483   1.4805225160e+02   3.3215776629e+01   0.09662002   0.08231465 -59.87 0.0002279488    1.583    0.368
       247 -10.3725     15.4583    185.4229   1.5078105054e+02   3.5486818927e+01    0.2048643   0.09457358 -87.84  0.001168833    2.044    0.511
       248  -8.9694    250.3545    183.2951   1.0164523828e+02   1.1958838581e+00    0.1212344   0.06892248  12.92 0.0007032726    1.690    0.408
       249  -9.1706     21.6684    179.6692   1.4913009587e+02   3.6064171714e+01    0.1015664   0.08523291 -44.80 0.0007052001    1.721    0.419
       250 -10.5208      4.5764    167.3012   1.5263841542e+02   4.0034692246e+01    0.2767157    0.1384795  60.50  0.001401913    1.547    0.354
       251  -8.9463    247.4628    155.5260   9.6990245859e+01   4.6223290724e+00    0.1215458   0.09622143   4.55 0.0001137474    1.008    0.008
       252  -9.5086    243.0000    155.0058   9.7564190242e+01   5.3915896319e+00      0.18676   0.06199159 -29.36 0.0005029342    2.870    0.652
       253  -9.9320      8.6995    148.6849   1.5090261795e+02   4.3676471230e+01    0.1071146   0.08262359 -54.84 0.0002594072    1.613    0.380
