#   1 NUMBER                 Running object number                                     
#   2 MAG_AUTO               Kron-like elliptical aperture magnitude                    [mag]
#   3 X_IMAGE                Object position along x                                    [pixel]
#   4 Y_IMAGE                Object position along y                                    [pixel]
#   5 X_WORLD                Barycenter position along world x axis                     [deg]
#   6 Y_WORLD                Barycenter position along world y axis                     [deg]
#   7 A_WORLD                Profile RMS along major axis (world units)                 [deg]
#   8 B_WORLD                Profile RMS along minor axis (world units)                 [deg]
#   9 THETA_WORLD            Position angle (CCW/world-x)                               [deg]
#  10 FWHM_WORLD             FWHM assuming a gaussian core                              [deg]
#  11 ELONGATION             A_IMAGE/B_IMAGE                                           
#  12 ELLIPTICITY            1 - B_IMAGE/A_IMAGE                                       
         1  -8.7700     40.4007      1.8212   7.7455047678e+01   7.2295759268e+01    0.2450864    0.1978772  -8.51 0.0008505799    1.236    0.191
         2  -9.5556     39.8224      7.4721   8.1207278552e+01   7.1391108939e+01    0.4551355    0.3139215 -22.92  0.002355536    1.477    0.323
         3 -10.4408     50.7466     36.6073   8.9609834019e+01   6.4073572180e+01    0.8420638    0.5692766  87.57  0.003976709    2.461    0.594
         4 -10.4868     39.5108     29.8511   9.2076915591e+01   6.6961648852e+01    0.5759659    0.3264315 -54.96  0.002238982    1.494    0.331
         5 -11.9696     44.7186     22.2048   8.6341680089e+01   6.7892220368e+01     1.266113    0.9218615 -75.98  0.006799454    1.906    0.475
         6 -10.4201    225.7219     28.1646   4.5551962244e+01   2.4316905193e+01    0.5256884    0.4774876  -0.28  0.001603137    1.095    0.087
         7 -12.3294     80.4362      7.0547   6.3591324692e+01   6.4190014492e+01     1.900137     1.361848  30.42  0.009332947    1.489    0.328
         8 -10.5565    121.2659      4.1198   5.1411375448e+01   5.4733061222e+01    0.6428951    0.5474756  68.63  0.002540031    1.236    0.191
         9 -11.3680    131.2971      3.4588   4.9209727495e+01   5.2139671723e+01     1.741171    0.4272692  65.57  0.005127669    3.757    0.734
        10 -12.1314    155.7740     20.8024   5.2209701049e+01   4.3600091582e+01     1.551068    0.8431391  43.45  0.004310884    1.943    0.485
        11 -13.2644    169.4879     16.6655   4.8523977560e+01   4.0321318744e+01     2.560973     1.538568  70.75  0.009661423    1.734    0.423
        12  -9.0096    111.1106     16.3199   5.9474692595e+01   5.5854954588e+01    0.3727607    0.2886923  46.72  0.001526317    1.308    0.236
        13  -9.3549    117.0000     18.9528   5.9240324968e+01   5.4038949031e+01    0.5842286    0.2039499 -29.05  0.001989296    2.654    0.623
        14  -9.6776    115.7393     14.6330   5.7560379572e+01   5.4926432362e+01    0.4784729    0.4152999 -69.14  0.002045918    1.331    0.249
        15 -13.0652    167.3403      5.0135   4.4453376808e+01   4.2086703813e+01     3.443582    0.9962953  71.97   0.01042481    3.558    0.719
        16  -9.4931     94.2962     17.4547   6.4652177748e+01   5.9656531833e+01    0.5277152    0.3933975 -87.34   0.00222921    1.949    0.487
        17 -10.7613    248.2563     15.9605   4.0109301625e+01   2.0152837840e+01    0.5159439    0.3352713 -34.95  0.002737157    1.336    0.252
        18 -10.7057     64.8418     16.5284   7.4556061628e+01   6.5785894793e+01    0.5040597    0.3547986  82.21  0.002319758    2.660    0.624
        19 -12.2004    129.1340     15.5066   5.4993560641e+01   5.1375572499e+01     2.104258     1.516802  55.31   0.01009938    1.386    0.278
        20  -9.7412    104.4323     12.6934   5.9449048877e+01   5.7963291161e+01    0.4954827    0.4012668  -6.58   0.00258728    1.230    0.187
        21  -9.0820     20.7509     13.5987   9.5207990930e+01   7.2397846845e+01    0.4440409    0.1470767 -48.63  0.001944831    2.309    0.567
        22 -11.2811    109.6445      4.5185   5.4103938634e+01   5.7673209018e+01     1.447988    0.5348157  64.47  0.005110787    2.859    0.650
        23 -10.5887    249.9818      6.0578   3.7299783281e+01   2.0629848042e+01       0.9268    0.3680315 -39.69  0.003988976    2.126    0.530
        24 -10.7155     60.2188      4.7837   6.9863551510e+01   6.8536671603e+01     0.847272    0.4931819 -23.24  0.004133108    1.691    0.409
        25  -8.4787     49.9756      6.5220   7.5521973398e+01   7.0024922211e+01    0.2715428    0.1844038  -4.75  0.001055985    1.855    0.461
        26  -8.9288     52.4276      2.1452   7.1668905561e+01   7.0321493249e+01    0.3464371    0.2619585   0.94  0.001391959    1.421    0.296
        27  -9.4060    229.9698      6.6191   3.8861996198e+01   2.5324215570e+01    0.2834845    0.1859339 -29.79 0.0008855029    1.348    0.258
        28 -10.2677    218.0455      2.0226   3.8408221716e+01   2.8706287708e+01    0.6302571    0.2771315 -80.55  0.002296242    3.110    0.678
        29  -8.5633     26.8460      3.5430   8.6322130839e+01   7.3777017232e+01    0.2953985    0.1791791 -47.83  0.001675671    1.384    0.277
        30  -9.0219     17.0696      2.2712   9.1881202339e+01   7.5048520603e+01    0.3210989    0.2235602 -77.41  0.001832062    2.056    0.514
        31  -9.6043    213.5230      4.2158   3.9445807546e+01   2.9679711544e+01    0.2681837     0.202432  76.01  0.001210253    1.395    0.283
        32 -10.2476    203.8553      3.9148   4.0185179757e+01   3.2234162797e+01    0.3061594    0.2470798  78.01  0.001450071    1.290    0.225
        33  -8.2657     35.8090     53.2357   1.0113083510e+02   6.2116022163e+01     0.256287    0.1557552 -86.42  0.001285288    1.935    0.483
        34  -7.6570    164.3153     53.6509   6.2471021522e+01   3.6836983707e+01    0.1632618    0.1159865 -61.13 0.0007047277    1.726    0.421
        35  -8.3948     23.2983     52.3285   1.0608022810e+02   6.3482073568e+01     0.219765    0.1637562 -55.35 0.0009610918    1.212    0.175
        36  -7.8380    174.9344     51.0000   5.9645432509e+01   3.4503218919e+01    0.2496326   0.08789353  60.55 0.0008005707    2.930    0.659
        37  -9.8824     83.9147     47.5815   8.1090046741e+01   5.6401940801e+01    0.7458838    0.5247931  63.22  0.003647835    1.784    0.439
        38 -10.4261     82.7069     40.8656   7.8928599528e+01   5.7971726998e+01    0.8029995    0.3253942 -45.90  0.003077854    2.292    0.564
        39 -10.3592      3.4497     40.6206   1.1247919331e+02   6.7524169706e+01    0.5136161     0.365879  85.10  0.002963299    1.339    0.253
        40  -9.3238     10.7225     34.2735   1.0763577677e+02   6.8578417657e+01     0.473544    0.3271763 -14.29  0.002939957    1.899    0.473
        41  -9.3377    183.4145     40.4613   5.4769401376e+01   3.3727839893e+01    0.4097424    0.1634693  37.64  0.001241863    3.593    0.722
        42  -9.5837    162.0710    242.5065   9.9943139548e+01   9.7547910587e+00    0.2603655    0.1658303 -82.43  0.001475855    4.583    0.782
        43 -10.3115    204.6443    222.7222   9.1133210529e+01   5.7496921741e+00    0.2827654      0.21824  80.42  0.001856026    3.023    0.669
        44  -8.3798    239.0000    202.9750   8.3220753596e+01   2.5740672313e+00    0.1479161   0.05619179 -26.33 0.0008024038    2.942    0.660
        45 -10.8347      9.3535    141.1286   1.2024587409e+02   4.4703808153e+01     0.399287    0.3057844  23.15  0.002973572    1.752    0.429
        46 -12.7006    242.1834    134.2298   7.0421386812e+01   8.7058249179e+00      1.25236      1.05684  51.37   0.00544603    1.487    0.328
        47  -9.4409     68.6448     36.5708   8.2314460498e+01   6.1345570677e+01    0.4869064    0.3620127  68.34  0.002510163    1.829    0.453
        48  -9.0922     43.9685     38.7420   9.3326135344e+01   6.4487498935e+01    0.2825626    0.1431116  49.48  0.001284987    2.606    0.616
        49  -8.3005     28.1368     35.1150   9.9365336202e+01   6.7017309416e+01    0.1953621    0.1505617 -45.82 0.0009394639    1.197    0.165
        50  -8.8896     96.8978     28.9879   6.9264790621e+01   5.7245019081e+01    0.6285496    0.3418485  -7.65  0.001983531    4.036    0.752
        51  -9.5677     86.5611     31.4008   7.3650830370e+01   5.9004666979e+01     0.280984    0.2476245 -16.59  0.001203195    1.134    0.118
        52  -9.5681     66.4559     29.4605   8.0144349375e+01   6.3124458452e+01    0.4420725    0.2769338 -32.14  0.002066658    1.606    0.378
        53  -9.0538     70.6544     24.8524   7.6387170282e+01   6.3253528405e+01    0.2677228    0.2131826   1.61  0.000969901    1.478    0.323
        54 -11.3707    249.7991    130.4965   6.8535746990e+01   7.7513778765e+00     1.023617    0.3467472 -37.20  0.004128891    3.483    0.713
        55  -9.2520     40.7558    141.6818   1.1298103247e+02   4.1672005445e+01    0.2619174    0.1975298  49.09  0.001813246    1.276    0.216
        56  -9.9421     17.3323    126.9218   1.1746936897e+02   4.6991353590e+01     0.318314    0.1215898  75.14  0.001480188    2.727    0.633
        57  -8.5003     72.5227    118.9677   1.0229407883e+02   4.2588936926e+01     0.180982   0.09499563 -43.96  0.000810172    2.604    0.616
        58  -7.7584     24.3035    141.6638   1.1682995160e+02   4.3309648172e+01    0.1216984   0.06266277  65.85 0.0006599958    1.666    0.400
        59  -8.6545      2.7758    116.6093   1.2050888146e+02   5.0299700846e+01    0.1487084   0.08323316  46.51 0.0009490668    1.655    0.396
        60  -8.5313     21.0858     23.1581   9.8883418789e+01   7.0314521243e+01    0.2547517    0.2454687  50.05  0.001836428    1.283    0.221
        61 -10.1877     18.1628    105.3300   1.1548701935e+02   5.1627665807e+01    0.4548342    0.2802676  76.94  0.002777032    1.407    0.289
        62  -9.8579     46.5903    100.4994   1.0663790676e+02   4.9985041644e+01    0.4345852    0.1979383 -66.73  0.002111089    1.908    0.476
        63  -9.6675     29.7862    102.0212   1.1178463934e+02   5.1365101268e+01    0.3687721    0.1902069 -41.72  0.001773233    2.905    0.656
        64  -8.4926     11.1968     21.8080   1.0389633338e+02   7.1371447363e+01    0.1758426    0.1144733 -45.80   0.00107599    1.354    0.262
        65 -11.8500     44.8232     81.8225   1.0405503363e+02   5.4487736953e+01     1.162965    0.7629998 -56.51  0.006583347    1.418    0.295
        66 -10.2559     38.4899     82.4549   1.0626528343e+02   5.5020832173e+01    0.4561555    0.2817162 -83.68  0.002496344    1.523    0.343
        67  -9.3092      2.3321     88.5787   1.1872799541e+02   5.6511121194e+01    0.3903043    0.1816598 -87.16  0.002146018    1.722    0.419
        68  -9.5136     20.4839     87.4313   1.1287425281e+02   5.5509324072e+01    0.4608782    0.1352718 -65.14  0.002000938    2.586    0.613
        69  -8.6079     12.4266     89.2266   1.1563173396e+02   5.5705154914e+01    0.1761481   0.09065539  89.03 0.0009555201    1.682    0.405
        70  -9.7250    225.4826     14.0268   4.1402365639e+01   2.5763822041e+01      0.23601    0.2111196 -25.66  0.001359943    1.026    0.026
        71  -8.9500    228.1245     78.7289   5.9417911177e+01   1.7965506983e+01    0.3827901    0.2230075  -1.31  0.001684139    2.051    0.512
        72 -10.3946     25.2630     65.2665   1.0788540149e+02   6.0287858316e+01    0.7670745    0.3249893 -50.39   0.00361439    2.283    0.562
        73  -9.0930     90.5640     28.3854   7.0986222445e+01   5.8709663986e+01    0.3778388    0.2255901 -44.01  0.001717597    1.627    0.385
        74  -9.3877      9.1638     80.1841   1.1574119130e+02   5.8003363377e+01    0.3264306    0.2351211 -58.97  0.001867759    1.387    0.279
        75 -10.9554      4.0137     76.0153   1.1704621061e+02   5.9280568993e+01    0.6983625     0.540674  68.37  0.004837687    1.241    0.194
        76  -9.3511     75.1482     27.0497   7.5715370120e+01   6.2021441358e+01    0.4612703    0.2310631 -44.62  0.002002459    1.863    0.463
        77 -10.9186     17.3331     73.8891   1.1216177418e+02   5.8896396338e+01    0.5328792    0.3649269  83.02  0.003317743    1.324    0.245
        78 -10.9567     12.3013     71.3139   1.1360022559e+02   5.9852484408e+01    0.6913877    0.3701667 -77.11  0.003907876    1.481    0.325
        79 -10.6309     74.9281     68.7969   9.0976771731e+01   5.3405102881e+01    0.5351545    0.4936434  37.21   0.00322076    1.227    0.185
        80  -9.0677    104.1556     26.2463   6.5900170054e+01   5.6058715293e+01     0.435368    0.2492972  62.98  0.001840357    2.072    0.517
        81  -8.3078    138.7486     78.5969   7.5862815481e+01   3.8795250310e+01    0.2029017     0.143778  62.78 0.0007184372    1.567    0.362
        82  -8.4815     76.3230     60.1019   8.7937097541e+01   5.5094672000e+01    0.2328044    0.1632004 -41.25  0.001183812    1.419    0.295
        83  -9.0092     49.8101     61.5381   9.7820423017e+01   5.8614471303e+01    0.2962222    0.2569642 -68.41  0.001848542    1.015    0.015
        84  -9.1657    199.2998     55.6095   5.7118958857e+01   2.7682571545e+01    0.2919361    0.2356856  20.18  0.000480124    1.310    0.236
        85  -8.5130     66.0175     53.9935   8.9627778874e+01   5.8079070690e+01    0.2919959    0.1769203 -53.77  0.001235791    1.470    0.320
