#   1 NUMBER                 Running object number                                     
#   2 MAG_AUTO               Kron-like elliptical aperture magnitude                    [mag]
#   3 X_IMAGE                Object position along x                                    [pixel]
#   4 Y_IMAGE                Object position along y                                    [pixel]
#   5 X_WORLD                Barycenter position along world x axis                     [deg]
#   6 Y_WORLD                Barycenter position along world y axis                     [deg]
#   7 A_WORLD                Profile RMS along major axis (world units)                 [deg]
#   8 B_WORLD                Profile RMS along minor axis (world units)                 [deg]
#   9 THETA_WORLD            Position angle (CCW/world-x)                               [deg]
#  10 FWHM_WORLD             FWHM assuming a gaussian core                              [deg]
#  11 ELONGATION             A_IMAGE/B_IMAGE                                           
#  12 ELLIPTICITY            1 - B_IMAGE/A_IMAGE                                       
         1 -15.4315      6.2600     69.2061   1.1522110007e+02   6.0980634198e+01     2.023312    0.9244596 -65.24   0.00737566    1.682    0.405
         2 -14.4802     24.8469     94.5317   1.1352438354e+02   5.4014317783e+01     1.210344     1.076754  -7.19  0.008294337    1.379    0.275
         3 -13.5544     58.4628     64.4516   9.4379494440e+01   5.7274923086e+01     1.604852    0.8705094 -27.43   0.00708213    2.294    0.564
         4 -14.6410    119.7627     54.6224   7.1090693986e+01   4.7961706928e+01    0.9554026    0.7597463  27.77  0.001963515    1.308    0.236
         5 -14.7911    119.5136     38.0648   6.5156561099e+01   5.0597959775e+01     1.854525    0.6644502  47.79  0.006714547    2.601    0.616
         6 -13.0820    139.2112     21.9537   5.4819284979e+01   4.7888237848e+01    0.7087414    0.3338645  55.96  0.000848932    1.883    0.469
         7 -14.6340    166.5198     30.0577   5.2597333147e+01   3.9966211938e+01     1.175044     1.088184  75.55  0.004196077    1.027    0.026
         8 -14.8309    147.2353     30.2241   5.6125238748e+01   4.4887680043e+01     1.547261     1.024647  62.09  0.005634516    1.441    0.306
         9 -14.9717    218.1365     16.9733   4.2194620958e+01   2.8412147381e+01     1.920984     1.611044 -29.92   0.01153171    1.308    0.235
        10 -14.7814    212.0608     40.9878   4.9120909517e+01   2.6909225632e+01     3.008403    0.8586137  71.12  0.008578419    4.730    0.789
        11 -13.7625    189.2906     26.4702   4.8102462462e+01   3.4525648977e+01     1.642351    0.7812182 -57.29  0.006368374    2.618    0.618
        12 -13.7419    187.6904     12.2669   4.4243658875e+01   3.6530516715e+01     1.105747    0.6674476 -48.78  0.005464453    1.680    0.405
        13 -13.2074    131.7509     32.3987   6.0134803885e+01   4.8460542721e+01    0.6689432    0.4696253 -18.10  0.002176363    1.543    0.352
        14 -13.0594      7.9196      2.6505   9.3043999724e+01   7.3638861551e+01    0.5855575    0.4187708  33.14  0.002327201    1.959    0.489
        15 -13.4294      2.6304     10.7565   9.9877336527e+01   7.2723171781e+01     0.713842    0.3230996 -53.28  0.004054798    2.051    0.513
        16 -16.0147     14.0639     20.1219   9.7681073439e+01   7.0332062641e+01     1.930216    0.9567193 -33.58   0.01006343    1.650    0.394
        17 -14.2647     42.8386      3.7662   7.5627460606e+01   6.9576571232e+01    0.8652804    0.6175533 -12.60  0.005386376    1.176    0.150
        18 -12.5372     48.9925      3.6567   7.2910225773e+01   6.8676848978e+01    0.2136578    0.1714273   0.88 0.0003440046    1.043    0.041
        19 -12.9611    120.2377     26.6829   6.0686918903e+01   5.1941330962e+01    0.8563373    0.4836038  35.97  0.003839874    1.863    0.463
        20 -11.6612     59.7914     18.0556   7.5701052112e+01   6.5187297962e+01    0.5540161    0.1931811 -28.27  0.002215847    3.003    0.667
        21 -12.5810     71.7737     17.3381   7.0900145226e+01   6.3243218997e+01    0.5094268    0.3094514 -36.35  0.002724437    1.753    0.429
        22 -15.4272     97.6881     12.3866   6.0641529022e+01   5.8659019514e+01     1.681708    0.7847299  50.66  0.004814325    1.907    0.476
        23 -11.5805    153.2906      8.7868   4.7839511425e+01   4.5689099345e+01     0.294909    0.2398369  20.04  0.001016889    1.384    0.277
        24 -11.1814     59.1908      6.5931   7.0340686064e+01   6.6706897487e+01    0.2647755    0.2015203 -33.08  0.001670058    1.511    0.338
        25 -11.9006     61.6004      2.0057   6.7102258912e+01   6.6787059060e+01    0.3544014     0.203226  49.30  0.001423515    1.828    0.453
        26 -10.9616    160.7893      5.9602   4.5821200268e+01   4.4037989175e+01    0.2150433    0.1673926  42.82 0.0007109205    1.310    0.236
        27 -11.1217     68.1385      4.7921   6.6176643324e+01   6.5337476009e+01    0.2787445    0.1560154 -37.81  0.001452213    2.127    0.530
        28 -11.1952    112.0208      1.5202   5.2654668981e+01   5.6444358162e+01    0.4613996    0.2063727  69.41  0.001933884    2.486    0.598
        29 -11.6968    119.6639      3.6990   5.1936013130e+01   5.4465893622e+01    0.4028392    0.2045957  70.00  0.001807999    2.076    0.518
        30 -11.3180    117.3103      1.6549   5.1611566171e+01   5.5194158891e+01    0.2433393    0.2169726  48.99 0.0008840892    1.045    0.043
        31 -11.8292     78.2365      2.4056   6.1718100327e+01   6.3657936445e+01    0.3249363    0.2411207  36.86  0.001270602    1.179    0.152
        32 -11.0512     83.0266      1.2386   5.9739710820e+01   6.2805866624e+01    0.2748104    0.1141492  55.58    0.0011691    2.281    0.562
        33 -11.7392    232.8214      2.0737   3.7314139316e+01   2.6548762897e+01    0.2959737    0.2123875  68.55   0.00142074    1.403    0.287
        34 -14.8006     24.0866     13.9264   8.9807761155e+01   7.0460893620e+01     1.397903    0.4447658  29.84  0.002917959    3.385    0.705
        35 -12.6622    198.4643    181.6184   8.6124823967e+01   5.7921257283e+00    0.2968745    0.2842876 -67.93  0.001347731    1.299    0.230
        36 -11.6522    109.3285    249.1655   1.1368585141e+02   9.7069943096e+00    0.4463163    0.1860706  48.81  0.002309478    1.902    0.474
        37 -11.9721    107.6431    244.0998   1.1348518429e+02   1.0787075152e+01    0.3730828     0.270538  24.66  0.002326461    1.820    0.450
        38 -12.5277     57.3153    246.8375   1.2262864805e+02   1.7296621610e+01    0.3852046    0.3236811  35.27  0.002927816    1.619    0.382
        39 -13.4686     28.3239    246.1666   1.2739804866e+02   2.0841550333e+01    0.6719691    0.3047138  78.58  0.004082247    2.004    0.501
        40 -11.8765      2.8484    249.7819   1.3153044167e+02   2.2859056111e+01    0.2828276    0.1574608  51.79    0.0017348    1.397    0.284
        41 -13.7302      9.0820    245.7029   1.3041980358e+02   2.2944821414e+01    0.6968732    0.3218521  59.09  0.003151125    1.534    0.348
        42 -12.3359     85.2092    180.4375   1.1061366262e+02   2.6577994790e+01     0.350571    0.2126352  79.96  0.001675726    1.984    0.496
        43  -9.8168    100.7324    176.2409   1.0646314635e+02   2.5055180408e+01     0.132392   0.09581799  69.93            0    1.428    0.300
        44 -11.9992    131.1075    173.6926   9.9053056742e+01   2.0267560842e+01    0.2456423    0.1730486  58.19  0.001211044    1.458    0.314
        45 -12.5832    124.6098    167.8206   9.9501618327e+01   2.2733740203e+01    0.5216126    0.2692638 -55.41  0.002227033    2.022    0.505
        46 -13.1806     73.8758    153.4514   1.0941110854e+02   3.4430330028e+01    0.7134034    0.5405114  41.39  0.002956796    1.397    0.284
        47 -11.0017     55.9927    156.0458   1.1421434761e+02   3.6202467199e+01    0.1987351    0.1494588 -42.57  0.000869417    1.661    0.398
        48 -11.6860     86.0255    152.6874   1.0623452002e+02   3.2799630627e+01    0.4549396    0.2414188 -49.59  0.002024985    1.968    0.492
        49 -10.9835    133.1212    152.6669   9.4561285878e+01   2.4443941910e+01    0.2359083    0.1991655 -68.03 0.0002633389    1.240    0.193
        50 -11.7065    103.1532    150.2488   1.0148179661e+02   3.0556601555e+01    0.3980817    0.2689316 -38.87  0.001816186    1.785    0.440
        51 -11.7720     24.3151    150.4244   1.2122135572e+02   4.0923120097e+01    0.3162771    0.2332138 -80.58  0.001891824    1.091    0.084
        52 -12.5017    206.5271    154.8761   7.8945818609e+01   8.8766707989e+00    0.4179906    0.3199747  55.25  0.002134998    1.495    0.331
        53 -11.2746      6.3700    147.1784   1.2514392109e+02   4.3152642293e+01    0.3214953    0.1591552  56.67  0.001791354    2.025    0.506
        54 -10.2847     38.3109    146.2877   1.1733971578e+02   4.0519462293e+01    0.1209843   0.08913433 -46.82 0.0002342131    1.579    0.367
        55 -11.9969     77.3624    156.9337   1.0908016180e+02   3.3107676994e+01    0.3765324    0.3084782  32.14  0.001486933    1.422    0.297
        56 -11.3217     88.6085    140.1319   1.0333760556e+02   3.5368640045e+01    0.2955674    0.2491249 -42.38    0.0012033    1.311    0.237
        57 -12.3236     44.7584    133.8987   1.1401327240e+02   4.2776919046e+01    0.5132826     0.360567  80.03  0.002887357    1.457    0.314
        58 -12.8904    246.0211    133.5795   6.7095154031e+01   4.6571664722e+00    0.4760582    0.3336445 -43.22  0.002507265    1.427    0.299
        59 -14.6515    233.1741    129.5234   6.8288722771e+01   7.8532375716e+00     1.059898    0.8095739 -39.03  0.005643696    1.247    0.198
        60 -10.4557     10.9725    134.2117   1.2284287082e+02   4.5778971244e+01    0.1325424   0.09661597  31.93 0.0008620568    1.684    0.406
        61 -13.2428    120.4076    102.2968   8.5872811708e+01   3.8364670669e+01    0.7260104    0.3610476  40.85  0.002509777    2.119    0.528
        62 -12.4214     77.1183    117.2919   1.0194989738e+02   4.2626235727e+01    0.6208473    0.4318406 -73.09  0.003076525    1.505    0.336
        63 -13.4771     85.9811    113.7036   9.8576257989e+01   4.2106455864e+01     1.673762    0.9737896 -31.15   0.00592734    2.455    0.593
        64 -14.1332    105.7463    121.6597   9.4824274103e+01   3.6807130167e+01     1.662105     1.136847  37.07    0.0077912    1.567    0.362
        65 -14.7167    106.2962    106.1196   9.0842969398e+01   4.0308460789e+01     1.617991     1.301692  -7.49  0.006473906    1.590    0.371
        66 -11.0567     25.6617    127.0933   1.1820955281e+02   4.6267248383e+01    0.2032642    0.1902419 -27.70 0.0008586354    1.367    0.268
        67 -12.9281     28.4944    122.4239   1.1681267878e+02   4.7125889743e+01    0.3700051    0.2715394 -66.14  0.002287222    1.137    0.121
        68 -11.3165     59.5207    125.5838   1.0861303025e+02   4.3045656733e+01    0.3017699    0.2107967   2.12  0.001122413    2.233    0.552
        69 -11.9402    181.0222    121.2849   7.6216057384e+01   2.0762669455e+01    0.3723881    0.2334603  49.35  0.001293031    1.625    0.385
        70 -12.4978     33.3604    104.7495   1.1264355587e+02   5.0888631482e+01    0.5578307    0.2558942 -53.76  0.002205748    1.812    0.448
        71 -11.9823      4.0798    119.8401   1.2314703998e+02   4.9570757465e+01    0.4545762     0.224706  12.64  0.002431899    2.969    0.663
        72 -12.3113     23.2076     71.7611   1.0951321316e+02   5.9331170743e+01      0.23005     0.212238 -15.44 0.0003720432    1.244    0.196
        73 -13.9973     17.7312    111.1692   1.1830622650e+02   5.0660050963e+01    0.8566679    0.5894657 -46.98  0.004246251    1.473    0.321
        74 -11.3792    209.5045    249.5128   9.5631319983e+01  -5.8827682544e+00    0.1179716   0.08995231  24.79  0.000810541    1.002    0.002
        75 -13.4509      6.0616     43.7246   1.0946754050e+02   6.6390610456e+01    0.8424061     0.449265  26.70  0.005028454    2.314    0.568
        76 -14.0194     10.6781    101.5753   1.1905853803e+02   5.3384199246e+01    0.8462267    0.6525776 -76.02  0.005170876    1.068    0.064
        77 -13.4716      2.2270     97.2359   1.2102484706e+02   5.4879052078e+01    0.8521711    0.1852817 -71.62  0.003176273    3.438    0.709
        78 -13.7634    171.1648    243.0454   1.0162064291e+02   9.3900333476e-01    0.9169073    0.5164549  35.28  0.005202597    1.480    0.324
        79 -11.4214    121.3391    112.2095   8.8255095661e+01   3.5956638022e+01     0.285695    0.1835565  55.71  0.000926169    1.756    0.430
        80 -11.2447     62.3268    110.9984   1.0500361870e+02   4.6200353348e+01    0.2585164    0.1873888  64.55  0.001347338    1.639    0.390
        81 -11.5137     44.9353    110.4437   1.1013735178e+02   4.8387979630e+01    0.4778391     0.316983 -58.17  0.002634628    1.279    0.218
        82 -11.6627    222.8900    109.6930   6.5290125355e+01   1.3417891813e+01    0.2575994    0.2478552 -59.26  0.001273563    1.106    0.096
        83 -12.2693    136.0643    103.2320   8.1969889891e+01   3.4796619463e+01    0.7937056    0.3060971  47.08  0.002633208    2.648    0.622
        84 -11.4941     43.1983     91.3410   1.0687800392e+02   5.3086023206e+01    0.6023459    0.3081547 -77.32   0.00253242    2.631    0.620
        85 -11.0986     64.6740    102.2849   1.0239744716e+02   4.7966284534e+01    0.2159615    0.1814593  35.79 0.0005133253    1.338    0.253
        86 -11.9858     62.0177     98.7078   1.0241561159e+02   4.9160301103e+01    0.4533157    0.3443476  76.33  0.001800953    1.657    0.397
        87 -12.5501     51.2222     99.0463   1.0593140599e+02   5.0403568946e+01     0.864946    0.5347983  -4.92  0.003937983    2.694    0.629
        88 -12.1218     49.2949     94.3326   1.0552724148e+02   5.1729866122e+01    0.4051919    0.2949017  85.64  0.001488255    1.722    0.419
        89 -12.9640    249.2350     98.5699   5.8510615022e+01   9.6433940207e+00    0.5400974    0.2030701 -37.72  0.002110457    2.273    0.560
        90 -12.3474    137.1057     95.7513   7.9596944561e+01   3.6149720658e+01    0.5251037    0.3852068  66.14  0.001897462    1.631    0.387
        91 -11.9630    125.3500     92.6511   8.1799338690e+01   3.9406362536e+01    0.4242035    0.2690051 -67.84  0.001628747    2.371    0.578
        92 -10.5764     52.0786     90.4915   1.0373403863e+02   5.2305546159e+01    0.1758993    0.1352495  30.73 0.0004587478    1.498    0.333
        93 -12.0943     89.6553     88.3387   9.0965814958e+01   4.7347923402e+01    0.4691825    0.3413793  45.51  0.001589944    1.499    0.333
        94 -12.3984    149.6398     85.1101   7.3368446266e+01   3.5379557298e+01    0.7220974    0.3858419  33.77  0.002590828    2.480    0.597
        95 -13.5477    163.4950     71.6178   6.6164802357e+01   3.4478980747e+01     1.695989    0.5473623  45.38   0.00504888    3.417    0.707
        96 -12.7880    160.0284     68.3116   6.5894931099e+01   3.5924570840e+01    0.7974012    0.4885855 -49.11  0.002302387    1.758    0.431
        97 -13.6116    160.7700     80.8532   6.9534139606e+01   3.3484623463e+01    0.9653781    0.6784663  15.47  0.003508439    2.036    0.509
        98 -14.4925    169.2637     77.2572   6.6636919714e+01   3.2033904190e+01      1.59265    0.6757078  52.51  0.005422567    2.328    0.570
        99 -12.3070    129.1600     85.6922   7.8711811078e+01   4.0015550188e+01    0.8179969    0.4012766  49.02  0.003114727    2.099    0.524
       100 -12.9594    135.4829     79.9308   7.5297479670e+01   3.9727746241e+01    0.7442473    0.4630583  47.26  0.002952697    1.621    0.383
       101 -11.2863     34.3917     86.7874   1.0885504923e+02   5.4998637968e+01    0.2296842     0.182486 -31.84 0.0007505179    1.324    0.245
       102 -13.1728    188.4279     84.3379   6.4846370633e+01   2.5998698497e+01    0.8455236    0.3608912  43.77  0.002672453    2.672    0.626
       103 -13.5353    237.3917     80.5258   5.5836826113e+01   1.5040257917e+01    0.8465158     0.431621  76.05  0.003222888    3.095    0.677
       104 -13.3191     65.8488     48.9629   8.6325872631e+01   5.9276818050e+01    0.5435209    0.4887759 -51.58  0.003345653    1.312    0.238
       105 -13.6910     96.6824    238.8778   1.1497830141e+02   1.3299746463e+01    0.7055588    0.4557916  45.40  0.003329179    1.291    0.225
       106 -13.4817     81.3859     54.6246   8.2842772169e+01   5.5699744187e+01     1.381626    0.5227145  42.90  0.005292409    2.815    0.645
       107 -13.4327     72.6380     75.2260   9.2676648723e+01   5.2981673340e+01    0.9082969    0.5253586  20.06  0.002894514    2.337    0.572
       108 -13.7774     85.9000     66.5725   8.5468096844e+01   5.2607850366e+01     1.392374    0.8333203  -3.57  0.005074468    3.352    0.702
       109 -12.9701     54.9174     81.9587   1.0066331480e+02   5.3918875436e+01    0.5782614    0.3559145 -39.32  0.002235343    1.562    0.360
       110 -13.8176     61.0197     75.4997   9.6775511897e+01   5.4576536848e+01     0.673352    0.3965113 -38.76  0.001076093    1.617    0.381
       111 -13.5287    213.4354     78.6150   5.8925109873e+01   2.0882799229e+01     1.084154    0.6616037  81.30  0.004448322    2.319    0.569
       112 -12.8526    216.5326     73.5365   5.7107413696e+01   2.0969169519e+01     0.724843     0.476097 -72.26  0.003189604    1.993    0.498
       113 -12.0185    114.1189     80.2758   8.1202048994e+01   4.4380451409e+01    0.4386366     0.341388 -46.60  0.001106261    1.271    0.213
       114 -10.7741     90.2841     81.4291   8.8748397327e+01   4.8748307987e+01    0.2577937    0.1814171 -66.49    0.0011928    1.783    0.439
       115 -11.5544    176.6302    110.8214   7.4456573538e+01   2.3854097575e+01    0.3776526    0.2799884  -5.18  0.001637596    1.806    0.446
       116 -11.3739     95.3799     79.4150   8.6536881087e+01   4.8257176897e+01    0.4952772    0.1344335  46.56  0.001421615    4.365    0.771
       117 -11.2085     42.1612     76.6831   1.0379622332e+02   5.6540945438e+01    0.2359702    0.2227076 -51.12  0.001152625    1.131    0.116
       118 -13.9219    199.0450     69.7878   5.8898247608e+01   2.5846275950e+01     1.045435    0.6643665  40.24  0.002887125    1.836    0.455
       119 -12.1468    199.7240     62.3226   5.6716895696e+01   2.6870308602e+01    0.3615792    0.2895222 -61.46  0.001265767    1.281    0.219
       120 -13.3797    133.5353     66.0247   7.1360448294e+01   4.2793788555e+01     0.946673    0.7441186  -4.82  0.003326429    1.506    0.336
       121 -11.8814    241.7908     71.3675   5.3009811012e+01   1.5483968098e+01    0.3873347     0.241076 -78.42  0.001732039    2.249    0.555
       122 -11.6672     99.9759     65.0936   8.0470637271e+01   5.0271378664e+01    0.3746558    0.3192234 -24.79  0.001788963    1.131    0.116
       123 -12.3651     38.5555     68.1544   1.0289236986e+02   5.8786383083e+01    0.6183395    0.3456667  24.18   0.00324107    2.102    0.524
       124 -13.9148    178.0146     57.6765   5.9089429617e+01   3.3109259584e+01    0.9510459    0.7390299 -43.84  0.002755459    1.281    0.219
       125 -13.8149    101.0863     49.3828   7.4544617276e+01   5.2879912051e+01    0.7841066    0.7094768  68.16  0.001678263    1.339    0.253
       126 -13.6392     91.0003    232.1828   1.1538019546e+02   1.5312783996e+01     0.515564    0.2952888  84.81   0.00279405    2.156    0.536
       127 -12.6442    135.5289     50.5165   6.5651927607e+01   4.4933800151e+01    0.6527549     0.347422  35.66  0.002542257    2.251    0.556
       128 -12.0348    147.3882    239.2076   1.0554055735e+02   5.3488249550e+00    0.1862677    0.1592042 -78.91 0.0009506351    1.459    0.314
       129 -11.2690     14.4053    223.8138   1.2855120858e+02   2.6366398075e+01    0.3882891    0.1819154  75.10  0.001904811    1.772    0.436
       130 -11.9785     24.7164    217.4639   1.2640408772e+02   2.6517097056e+01    0.6107202    0.3431562  54.94  0.004028921    1.429    0.300
       131 -13.6829     25.7934    227.5405   1.2680682212e+02   2.4482507292e+01     0.632638    0.3290285 -64.27  0.003977081    2.140    0.533
       132 -12.0088     24.4321     59.6927   1.0607976906e+02   6.1861165251e+01    0.3496687    0.1863432 -51.10  0.000996471    1.457    0.314
       133 -10.6761     38.6818     60.1180   1.0057279845e+02   6.0490620050e+01     0.201482    0.1517178 -68.42  0.001179777    1.519    0.342
       134 -10.8262     47.3596     56.8784   9.6175384036e+01   6.0215466709e+01    0.2056338    0.1569844 -62.74  0.001187352    1.495    0.331
       135 -11.9697    247.6639     54.0113   4.8139496700e+01   1.6734626405e+01    0.5518758    0.3060829 -53.98  0.002632926    1.761    0.432
       136 -11.8476    249.0058     48.8431   4.6775901733e+01   1.7161619373e+01    0.4504491    0.3050224 -51.04  0.002453151    1.309    0.236
       137 -11.2542    231.7108     55.5699   5.0396300626e+01   2.0128640536e+01    0.2582599    0.1284041  58.99  0.001020072    2.083    0.520
       138 -11.7079    109.8680     53.9000   7.3595715977e+01   5.0267152395e+01    0.3767067    0.2154412 -32.00    0.0016475    1.759    0.432
       139 -10.2807     39.4914     52.4771   9.7884736216e+01   6.1978111240e+01    0.1310869     0.103336 -32.85 0.0008091499    1.072    0.067
       140 -10.9903     23.7883     49.8174   1.0356065269e+02   6.3969024599e+01    0.3209735    0.1602797 -20.95  0.001264877    2.617    0.618
       141 -11.1535     26.7794     46.2286   1.0117749969e+02   6.4443083214e+01    0.2541232    0.1845931  13.43  0.001622505    1.554    0.357
       142 -13.2754     20.5968    225.3576   1.2757666377e+02   2.5442722012e+01    0.4412571    0.3191758 -89.20  0.002418597    1.237    0.192
       143 -12.8677    237.2966    230.4597   8.7795121846e+01  -7.7538861712e+00    0.2748972    0.1835915  46.19  0.001675969    1.827    0.453
       144 -12.5857     57.2606    203.2177   1.1915815229e+02   2.5583622931e+01    0.8202531    0.2902902 -72.52   0.00362967    2.840    0.648
       145 -13.1198     66.4098    223.3841   1.1918799283e+02   2.0382809199e+01    0.7226939    0.5040119  42.55  0.004707733    1.417    0.294
       146 -13.9649     62.8355    214.4834   1.1908558196e+02   2.2584293742e+01    0.9603869    0.4526643  47.50  0.005187874    1.780    0.438
       147 -12.7150     75.7328     37.3569   7.8188908521e+01   5.9672548244e+01    0.3501817    0.2497521  36.65 0.0008099558    1.426    0.299
       148 -12.2174     69.6039     36.8305   8.0195455697e+01   6.0794655471e+01    0.4176873    0.2272571  31.31   0.00088168    1.953    0.488
       149 -12.9443    241.6938     35.5280   4.4387556507e+01   2.0586139384e+01    0.6599661     0.393279  70.75   0.00230164    1.722    0.419
       150 -11.8015     40.4501    243.4276   1.2525350689e+02   1.9943405035e+01    0.2841285     0.179398  85.18  0.001901137    1.362    0.266
       151 -13.1725     95.6667    218.8346   1.1309275981e+02   1.7086710200e+01    0.5576538    0.2259819  42.02  0.002614408    2.109    0.526
       152 -12.9344      1.8039     21.6742   1.0462318608e+02   7.0863477970e+01     0.199305     0.131341 -53.07  0.000705598    1.331    0.248
       153 -11.1232     85.4864    215.9871   1.1479766317e+02   1.9146235629e+01    0.2569132    0.1389324  54.64  0.001378967    1.614    0.380
       154 -11.6994    185.8499    213.7613   9.4429305293e+01   2.8352210875e+00    0.2243466    0.1769226 -80.43  0.001243579    2.070    0.517
       155 -13.4432      9.1293    210.8484   1.2879471316e+02   2.9370717641e+01     0.949807    0.5320681  71.39  0.006392516    1.368    0.269
       156 -11.6860     58.5331     35.4357   8.3864048304e+01   6.2747128512e+01    0.5151786    0.2255005  33.34  0.002321655    2.456    0.593
       157 -12.2416     46.0430     33.8353   8.8342715603e+01   6.4721205911e+01    0.4872558    0.2939777 -28.60   0.00269047    1.500    0.333
       158 -11.4818     27.7287     33.4501   9.6307007267e+01   6.6799344451e+01    0.3555933    0.1978562 -51.36  0.001987456    1.682    0.405
       159 -11.2987     31.4025     31.0821   9.3705758136e+01   6.6867206474e+01    0.2270821    0.1470482   9.44 0.0007267263    1.676    0.403
       160 -10.8620     90.8811     34.1358   7.1786165468e+01   5.7343124938e+01    0.2590788    0.1776653  37.03  0.001350309    1.414    0.293
       161 -10.4761     36.2686     34.3353   9.2793286027e+01   6.5777451786e+01    0.1283553   0.07781406 -23.97  0.000226956    1.592    0.372
       162 -12.7031     16.8324    195.5309   1.2649036596e+02   3.1715355016e+01    0.8949006    0.2532043 -72.90  0.004132169    2.879    0.653
       163 -10.7243     89.4255     30.1004   7.0587763886e+01   5.8211012523e+01    0.2002519    0.1664569  31.41 0.0002704997    1.144    0.126
       164 -12.8562     56.5926     27.4026   8.1229134511e+01   6.4326435535e+01    0.5728583    0.2937658  43.13  0.001890178    2.236    0.553
       165 -12.8482     67.6535     24.5538   7.5672196124e+01   6.2993907211e+01    0.6784957    0.3497507  39.32  0.003363492    1.928    0.481
       166 -10.1696     38.6660     29.6748   8.9846823726e+01   6.6324196768e+01     0.131126   0.08042315 -15.99 0.0007051188    1.713    0.416
       167 -13.0785    157.6624     43.8751   5.8631756589e+01   4.0402657197e+01    0.8749607    0.5315169  34.76  0.003717444    1.970    0.492
       168 -10.9572     97.9523     27.1693   6.6783044358e+01   5.6863386487e+01    0.2004517    0.1924936  80.72  0.001221172    1.295    0.228
       169 -11.9888     46.8886     21.0321   8.2423891352e+01   6.6677226136e+01    0.3958279    0.2806949  17.42  0.001966663    1.373    0.271
       170 -14.0522     29.9054    169.4140   1.2178030072e+02   3.6056473277e+01     1.403823    0.7592482  73.01  0.002366603    1.807    0.447
       171 -13.4536     22.3145    181.2403   1.2439556885e+02   3.4205545135e+01    0.5743362    0.4404679 -68.69  0.002703717    1.369    0.270
       172 -14.6875      8.1939    183.5376   1.2739975998e+02   3.5020538803e+01     1.009075    0.7787691  72.79  0.007517566    1.118    0.105
       173 -11.7024    169.3474     43.8569   5.6438951648e+01   3.7402717634e+01    0.3043105    0.2118241  54.99  0.001035781    1.383    0.277
       174 -14.9851     16.1585    175.7787   1.2525477790e+02   3.5972904136e+01     2.231108       1.0264  70.93   0.01083086    2.114    0.527
       175 -11.3152    157.3876    213.2097   9.9958034491e+01   7.9037898890e+00    0.1720627    0.1265116 -64.58 0.0009571313    1.744    0.427
       176 -11.1081    136.8191    211.3425   1.0384364124e+02   1.1807380885e+01    0.2102545    0.1768072 -82.93 0.0007764263    1.360    0.265
       177 -12.4280     41.8758    206.9609   1.2250044756e+02   2.6695066352e+01    0.2951665    0.1646989  77.37  0.001290887    1.632    0.387
       178 -10.8375     80.4299    208.3048   1.1499418990e+02   2.1396863976e+01    0.2306275    0.1212215  57.45  0.001183975    1.762    0.432
       179 -12.4227     79.5886     60.8422   8.5652557304e+01   5.4824937189e+01    0.4743951    0.4484262  -6.03  0.002394235    1.081    0.075
       180 -11.1096    150.5621    207.0885   1.0039637286e+02   1.0176529768e+01    0.2802845    0.1635811  29.26  0.001331268    1.909    0.476
       181 -13.0698     40.4994    195.3219   1.2182854691e+02   2.9262608650e+01    0.4820987    0.2304428 -89.33  0.002468864    2.086    0.521
       182 -10.2109    212.3137    200.3513   8.7020895521e+01   2.8531779002e-01    0.1383808   0.09267802   6.11 0.0004834949    1.728    0.421
       183 -12.6266    164.1880    194.6165   9.5528769552e+01   9.9548027211e+00    0.5419295    0.2994088 -63.50  0.002231204    2.944    0.660
       184 -12.4236    201.0726    191.9607   8.7606167835e+01   3.5923174267e+00    0.3482626     0.292188  -0.14  0.001619231    1.174    0.148
       185 -11.8273     49.1161    181.4492   1.1874664803e+02   3.1247204225e+01    0.3856609    0.2298113 -56.52  0.002142556    1.825    0.452
       186 -10.8081     55.5076     41.0932   8.7330430381e+01   6.2200679839e+01    0.1855227    0.1136568 -39.11 0.0003638501    1.449    0.310
