#   1 NUMBER                 Running object number                                     
#   2 MAG_AUTO               Kron-like elliptical aperture magnitude                    [mag]
#   3 X_IMAGE                Object position along x                                    [pixel]
#   4 Y_IMAGE                Object position along y                                    [pixel]
#   5 X_WORLD                Barycenter position along world x axis                     [deg]
#   6 Y_WORLD                Barycenter position along world y axis                     [deg]
#   7 A_WORLD                Profile RMS along major axis (world units)                 [deg]
#   8 B_WORLD                Profile RMS along minor axis (world units)                 [deg]
#   9 THETA_WORLD            Position angle (CCW/world-x)                               [deg]
#  10 FWHM_WORLD             FWHM assuming a gaussian core                              [deg]
#  11 ELONGATION             A_IMAGE/B_IMAGE                                           
#  12 ELLIPTICITY            1 - B_IMAGE/A_IMAGE                                       
         1  -7.1856    177.3880     10.7595   4.6384702146e+01   3.9290940928e+01    0.1687895    0.1363854  -3.67 0.0001914171    1.477    0.323
         2  -9.0616    136.1359      8.5439   5.1932720628e+01   5.0107690008e+01    0.3017941    0.2246276 -11.30  0.000347117    1.478    0.324
         3  -8.3294    169.1031     10.0605   4.7266810677e+01   4.1515482947e+01    0.2032379    0.1863989  66.20 0.0003338787    1.041    0.040
         4  -7.2891    238.7184    232.6367   8.9651727801e+01  -8.0185902807e+00    0.1211179   0.07413899   8.39 0.0007015667    1.680    0.405
         5 -16.5827     26.9862    246.7202   1.2852732976e+02   2.1454040451e+01     2.060509     1.421728  55.67  0.007597659    1.242    0.195
         6  -8.3948     70.8525    210.0968   1.1820900020e+02   2.2791705126e+01    0.1856153     0.144092  71.02 0.0004808305    1.026    0.026
         7 -10.1532     23.1888    204.6247   1.2678223452e+02   2.9648832018e+01    0.4273648    0.3247653  34.57  0.001576884    1.718    0.418
         8  -8.6568     30.8252    204.6155   1.2537442110e+02   2.8836514665e+01    0.2613968     0.118963  68.03  0.001235804    2.015    0.504
         9  -7.5332    246.7542    227.6179   8.7467710303e+01  -8.6403593071e+00    0.1538743   0.09594755  40.74 0.0007689554    1.614    0.380
        10  -9.2139    231.9802    197.9439   8.4733899605e+01  -2.6080009206e+00    0.3246109    0.2753676 -88.03  0.001887377    2.159    0.537
        11  -7.1937    133.3465    198.8276   1.0414156379e+02   1.5075531054e+01    0.1642032    0.1234273 -42.70            0    1.600    0.375
        12  -8.6808     65.8367    197.0463   1.1790608909e+02   2.6113473033e+01     0.243334    0.2064336 -52.91 0.0009870101    1.561    0.359
        13  -7.4409     18.5425    197.4967   1.2718231996e+02   3.1551608015e+01    0.1147148   0.08137304  77.32 -7.316752e-06    1.033    0.032
        14  -7.4419    144.4917    193.9274   1.0105391210e+02   1.3991564532e+01    0.1837302    0.1363769 -55.60 0.0004289168    1.504    0.335
        15  -9.1585    220.3050    192.8440   8.5870907600e+01   1.3447545293e-01      0.32515    0.2066524  45.86 0.0009297896    1.609    0.378
        16  -8.8618    221.0784    188.0691   8.4813496760e+01   7.0315096031e-01    0.2196196    0.1797945  16.64 0.0003043877    1.089    0.082
        17  -9.7124    250.6252    190.4753   8.0094583499e+01  -4.6855074968e+00    0.2194441    0.1147683 -30.06 7.319204e-05    1.837    0.456
        18  -7.3224    246.4882    189.4454   8.0594065011e+01  -3.8722494819e+00    0.1256848     0.107835   5.10 8.737396e-05    1.081    0.075
        19  -6.8293     82.2717    188.6363   1.1353463781e+02   2.5548790011e+01    0.1360833   0.08593184  75.66 0.0002991064    1.659    0.397
        20  -9.1440     33.8970    186.2173   1.2337749639e+02   3.2292350054e+01    0.3603359    0.1728467  34.21  0.001561465    2.336    0.572
        21 -12.4691     21.4942    236.7359   1.2889874110e+02   2.3787835985e+01    0.2615615    0.1909344  48.40 0.0006745079    1.447    0.309
        22  -8.6493    221.7130    183.3764   8.3779264112e+01   1.2941256116e+00     0.239905    0.2077924  12.55 0.0004279163    1.008    0.008
        23 -10.0333    189.4700    179.7645   8.9247271578e+01   7.9750485235e+00    0.2516991    0.2450341 -10.22 0.0004282563    1.117    0.105
        24  -8.4457    141.9635    180.7808   9.9380677314e+01   1.7008017964e+01    0.2074782    0.1976792 -68.80 0.0003699691    1.125    0.111
        25  -6.9646      1.5162    181.4906   1.2941766242e+02   3.6392426727e+01    0.1108042   0.08072928  85.22 7.177756e-05    1.050    0.048
        26  -9.4804     74.8026    178.0231   1.1383651426e+02   2.8928642015e+01     0.271208    0.1956715 -63.48            0    1.394    0.282
        27  -7.9218    247.9382    178.2379   7.8132716774e+01  -2.5744724254e+00    0.1770352     0.167415   3.39 0.0005955077    1.269    0.212
        28  -9.5074    124.6501    226.3528   1.0960941439e+02   1.1582507276e+01    0.3247256    0.2328491  55.72  0.000948779    1.187    0.158
        29  -6.8866     25.7243    173.6716   1.2401172477e+02   3.5843197579e+01    0.1097003   0.07912987 -58.44 0.0004587412    1.591    0.372
        30  -7.8701     88.3725    171.7921   1.0993590138e+02   2.8278447101e+01    0.2163295    0.1626446  71.19 0.0005527205    1.273    0.214
        31  -7.7246     84.5794    171.9697   1.1082799098e+02   2.8823186272e+01    0.1925841     0.185788 -64.09  0.000696825    1.271    0.213
        32  -7.5669    140.2302    226.9530   1.0671708168e+02   8.9071582129e+00    0.1396198    0.1053957 -58.85 0.0004448969    1.588    0.370
        33  -7.7607     88.0433    166.7032   1.0926103189e+02   2.9467448728e+01    0.1871213    0.1615787  57.55 0.0003954131    1.136    0.120
        34  -8.7218    209.9860    163.2351   8.1839861151e+01   6.7567873313e+00    0.2150666    0.1908835 -21.49 0.0002803426    1.115    0.103
        35  -9.0283     75.0732    162.4010   1.1167461281e+02   3.2392699326e+01     0.237263    0.2033009  83.78 0.0003326199    1.013    0.013
        36  -7.7224    195.7444    161.3859   8.4229327695e+01   9.9557515455e+00    0.2504952    0.1775062 -51.58 0.0008567288    1.644    0.392
        37  -7.2462    119.5985    161.2115   1.0093217960e+02   2.5308320783e+01    0.1811177    0.1346892 -46.42 0.0001898565    1.460    0.315
        38  -7.2301     93.3778    218.4772   1.1470542510e+02   1.7922850702e+01    0.1207685   0.09943654  67.30 0.0001418107    1.039    0.037
        39  -7.7691    137.9595    157.5485   9.5945043007e+01   2.2586672054e+01    0.2048905    0.1949379  89.02 0.0003137221    1.046    0.044
        40  -7.2784     93.8156    158.3770   1.0657847574e+02   3.0434807289e+01    0.1831894    0.1329847  31.22 0.0009363091    1.625    0.385
        41  -8.7837     83.5516    153.0360   1.0819993208e+02   3.3289465351e+01    0.2967279    0.2052338 -44.21  0.001067977    1.707    0.414
        42  -7.4658    142.8259    153.4539   9.3986332318e+01   2.2485278984e+01     0.193729    0.1404047  30.69  0.000319469    1.547    0.353
        43  -7.6997    237.4681    152.0149   7.4405559552e+01   3.2162747608e+00    0.1986476    0.1265334 -31.28  0.000357207    1.472    0.321
        44  -7.2688    101.4756    151.5804   1.0353507660e+02   3.0709984693e+01    0.1421427    0.1304294  83.01 0.0002916738    1.013    0.013
        45  -7.1082     31.9612    152.0000   1.2055987911e+02   4.0062628569e+01    0.1804008    0.0690302  30.93  0.000813649    3.021    0.669
        46  -8.5350    233.9448    216.0397   8.7663006041e+01  -5.3068181398e+00    0.2081196    0.1506581  33.15 0.0003484806    1.241    0.194
        47  -9.0024     69.0935    144.0057   1.1036292103e+02   3.7516989778e+01    0.4333174    0.2689831  77.17  0.002072145    1.932    0.483
        48  -7.5383    151.9856    142.7874   8.9561849000e+01   2.2848436326e+01     0.244315    0.1701462  71.37 0.0006728001    1.902    0.474
        49  -6.7935    122.3483    143.7065   9.6850968697e+01   2.8692672831e+01    0.1549375    0.1135925  77.51 0.0007030641    1.672    0.402
        50  -7.0375    231.3553    142.7398   7.3397061948e+01   5.8997823469e+00    0.1319656    0.1135865 -80.95 0.0003894309    1.618    0.382
        51  -7.6394     88.0247    141.0583   1.0500157249e+02   3.5390559283e+01    0.2267326    0.1557456  70.30 0.0006109391    1.667    0.400
        52  -6.9975    142.6961    145.6726   9.2367044076e+01   2.4180886783e+01    0.1501857     0.121732  -3.85 0.0007034151    1.647    0.393
        53  -7.9242     98.6220    137.7743   1.0163640663e+02   3.4403327661e+01    0.2205347    0.1946054  33.70 0.0006399823    1.277    0.217
        54  -7.5352    167.1019    136.3244   8.4637056976e+01   2.0907106986e+01    0.2099413    0.1883904  50.68 0.0003636511    1.111    0.100
        55  -7.6328      1.9838    133.9422   1.2591672871e+02   4.6688695946e+01    0.1460071    0.1030476 -82.45 0.0004515074    1.059    0.056
        56  -7.4458     46.9395    131.4509   1.1418071037e+02   4.3274017073e+01    0.1853171   0.08906063  56.78 0.0008082332    2.529    0.605
        57  -8.3289      3.8801    129.8620   1.2508278806e+02   4.7481710834e+01    0.1716741    0.1279011 -68.61 0.0004334705    1.196    0.164
        58  -8.8511    154.8862    112.9629   8.1601358221e+01   2.8514558729e+01    0.2380164    0.2221688  49.09            0    1.079    0.073
        59  -9.6907    211.1414    108.9554   6.8872504317e+01   1.6065677515e+01    0.2578464    0.2544267 -57.60 0.0002885962    1.064    0.060
        60  -7.5683    117.7827    109.1788   8.9981712461e+01   3.7429660622e+01    0.2022982    0.1798413   2.83 0.0007130638    1.321    0.243
        61  -8.2832    215.8419    105.5241   6.7166908810e+01   1.5585538604e+01    0.2707238    0.2018194 -33.12 0.0006014575    1.277    0.217
        62  -7.2559    212.3194     99.3203   6.6188870259e+01   1.7484775314e+01    0.1546137    0.1181128  12.25            0    1.666    0.400
        63  -7.3361    238.6148     93.1776   6.0406842440e+01   1.2509003010e+01    0.1939272    0.1298903 -22.86 0.0004146973    1.554    0.356
        64  -8.6481     99.5763     89.8960   8.9869527224e+01   4.5269306306e+01     0.280596    0.2235955  62.89 0.0001492168    1.477    0.323
        65  -7.6876    156.9075     86.6815   7.3774946475e+01   3.3338741324e+01    0.2127021    0.1974509  61.96 0.0003033278    1.100    0.091
        66  -7.4331      8.5000     81.9184   1.1768747836e+02   5.8105820858e+01    0.1803501   0.09250125 -67.44 0.0003914322    1.494    0.331
        67  -7.0865     55.2992     77.2674   1.0056236323e+02   5.4962489847e+01    0.1313833   0.09371042 -27.98 0.0002431093    1.520    0.342
        68  -8.0986    131.9570     73.8996   7.5907015146e+01   4.1749935755e+01    0.3481683    0.2164292  29.60  0.001401778    2.050    0.512
        69 -10.1477    114.6307     68.9862   7.8984146399e+01   4.6559500040e+01     0.255244    0.2428786  39.85 0.0001960808    1.088    0.081
        70  -7.4813    126.1883     66.8055   7.5098422351e+01   4.4405632338e+01    0.2015355    0.1725635   6.01            0    1.285    0.222
        71  -9.1379    210.8121     60.8419   5.6152182212e+01   2.4196480835e+01    0.4298137    0.2657552 -23.58  0.001492267    1.796    0.443
        72  -7.5453    185.0364     51.9831   5.7707168402e+01   3.2122871261e+01    0.2253068      0.17373  29.96            0    1.539    0.350
        73  -7.3600    171.5689     49.4945   5.9310649463e+01   3.5998570841e+01    0.1485713    0.1461149  78.61 8.389047e-05    1.017    0.017
        74  -7.6706    159.0871     40.5040   5.8757079608e+01   4.0533533116e+01    0.2184509    0.1422062  59.66 0.0003632136    1.473    0.321
        75  -8.9825    189.5716     32.7055   5.1285233270e+01   3.3608334018e+01    0.3132341    0.2487757  11.27 0.0008582845    1.592    0.372
        76  -7.5092    138.9751     20.7382   5.5830401619e+01   4.8152831691e+01    0.1917281     0.172073  48.52  0.000459207    1.033    0.032
        77  -9.1037     85.5071    246.7208   1.1883483055e+02   1.4085442698e+01    0.2837373    0.1315259  44.10  0.001613719    1.730    0.422
        78 -10.1347    122.6931    241.2957   1.1170161924e+02   9.4220843425e+00    0.2063819    0.1816242  64.73 0.0002375251    1.148    0.129
