#   1 NUMBER                 Running object number                                     
#   2 MAG_AUTO               Kron-like elliptical aperture magnitude                    [mag]
#   3 X_IMAGE                Object position along x                                    [pixel]
#   4 Y_IMAGE                Object position along y                                    [pixel]
#   5 X_WORLD                Barycenter position along world x axis                     [deg]
#   6 Y_WORLD                Barycenter position along world y axis                     [deg]
#   7 A_WORLD                Profile RMS along major axis (world units)                 [deg]
#   8 B_WORLD                Profile RMS along minor axis (world units)                 [deg]
#   9 THETA_WORLD            Position angle (CCW/world-x)                               [deg]
#  10 FWHM_WORLD             FWHM assuming a gaussian core                              [deg]
#  11 ELONGATION             A_IMAGE/B_IMAGE                                           
#  12 ELLIPTICITY            1 - B_IMAGE/A_IMAGE                                       
         1 -13.8748    186.3170     49.5657   4.1571251365e+01   3.2836156108e+01     1.190124    0.8815382  39.78  0.003886296    1.690    0.408
         2 -14.1170    209.8707     20.7669   3.2231662555e+01   3.1228240358e+01     1.034163    0.9227934 -63.60   0.00498346    1.180    0.153
         3 -11.1140      3.8640      6.4531   8.1923747130e+01   7.3736177116e+01     0.294059    0.1552459   0.24   0.00140846    1.864    0.464
         4 -10.2098     65.9781      2.3241   5.0779349321e+01   6.4961671940e+01    0.1824614   0.09974017  76.89 0.0007050057    4.393    0.772
         5 -10.3203     86.1649    240.9333   1.0486216026e+02   1.2173492862e+01    0.1696821   0.08804633 -56.66 0.0006038916    2.110    0.526
         6 -14.3488    245.0210    234.6327   7.1014421100e+01  -8.8451247463e+00     2.535933    0.7895807 -35.60   0.01133467    2.826    0.646
         7 -10.3742     83.3190    195.0617   9.9800323962e+01   2.2777470455e+01    0.3108316    0.2616069  42.81  0.001405842    1.153    0.133
         8  -9.9911    191.7750    192.6434   7.3508547116e+01   5.4474278100e+00    0.4028031    0.2207744 -64.99  0.001234937    5.305    0.812
         9  -9.7696     66.9478    194.4863   1.0390046137e+02   2.5188872858e+01    0.1856098    0.1363403  29.19  0.000447458    1.430    0.300
        10 -11.4240      1.3302    193.2056   1.1974912311e+02   3.2371977778e+01    0.1037491   0.08744342 -42.21 0.0006751966    1.499    0.333
        11  -9.6697     61.4026    190.8208   1.0484871780e+02   2.6806376193e+01    0.1414843   0.08800854  50.63 0.0003366222    1.611    0.379
        12  -9.9243     60.5669    187.5541   1.0464523297e+02   2.7718203315e+01    0.1808219    0.1295929 -68.05 9.942832e-05    1.336    0.252
        13  -9.3987     72.5173    188.5419   1.0166397504e+02   2.5890254178e+01    0.2490151    0.1614052  81.30 0.0002251489    1.924    0.480
        14  -9.6905     71.3452    185.4866   1.0154012682e+02   2.6805349686e+01    0.1940566    0.1557115  44.75 2.273969e-05    1.230    0.187
        15  99.0000     45.9794    221.2100   1.1183549589e+02   2.1534908984e+01     2.022709      1.80058  -0.42    0.0102849    1.472    0.321
        16 -10.6965     85.5852    186.3236   9.7912270037e+01   2.4565146495e+01      0.31591    0.2348031  84.22  0.000742047    1.576    0.366
        17  -9.5151     77.6633    186.3096   9.9994596238e+01   2.5719986299e+01    0.3016768    0.2067709  78.71    0.0013373    1.778    0.438
        18 -11.6164     79.8473    183.0807   9.8932585894e+01   2.6204768168e+01    0.5407549    0.2660061  39.82  0.001972397    1.972    0.493
        19 -18.9328     25.0570     96.2084   1.0083950529e+02   5.4629627924e+01     16.24822     1.614934 -63.42    0.0325867    9.644    0.896
        20 -10.5218     64.4827    183.9339   1.0313571917e+02   2.8111055161e+01    0.4136877    0.2234147 -38.39   0.00133598    2.476    0.596
        21 -11.0586     85.4316    179.2049   9.6828605718e+01   2.6344300280e+01     0.252752    0.2300729  65.20 0.0003452408    1.102    0.093
        22 -10.7813     79.8897    231.3377   1.0520615266e+02   1.5021303326e+01    0.1144038   0.07875185 -81.88 0.0002169464    1.631    0.387
        23  -9.5976     80.8804    220.4136   1.0372149386e+02   1.7257582365e+01    0.1592313     0.140038  37.87 0.0003506263    1.113    0.101
        24 -11.3787    180.5037    177.5224   7.2890046341e+01   1.0330151309e+01    0.7541968    0.3102685 -53.35  0.002350787    3.212    0.689
        25 -10.0517    182.6616    174.2946   7.1763225819e+01   1.0603926340e+01    0.2200408    0.2133013 -33.00  0.001270485    1.152    0.132
        26  -9.6851    165.8375    215.3480   8.3257083815e+01   5.2708582532e+00    0.2216834    0.1788224 -49.29 0.0005628761    1.405    0.288
        27 -11.2518      1.3813    177.3739   1.1863466283e+02   3.6139452373e+01    0.1411303    0.1003612 -84.95 0.0008494013    1.161    0.139
        28 -10.9400    156.3489    174.9074   7.7817294663e+01   1.5219227305e+01    0.3917405       0.1448 -51.93  0.001285836    3.021    0.669
        29  -9.4571    199.6806    173.5489   6.8086567695e+01   7.7918360169e+00    0.2315673    0.1629775 -56.62 0.0008395794    1.754    0.430
        30  -9.1973     62.6576    172.2652   1.0197142936e+02   3.1289007138e+01    0.1479406    0.1023494  62.40 0.0003262174    1.600    0.375
        31 -11.5475    144.5200    168.9897   7.9452091941e+01   1.8710625168e+01    0.3085895    0.2342859  35.51 0.0007349676    1.322    0.243
        32 -12.0543    247.5452    165.0591   5.7838631394e+01   1.7276214865e+00    0.5051608    0.2061262 -42.30  0.001642175    2.086    0.521
        33 -10.9996    245.8813    159.3286   5.6976305137e+01   2.9410288170e+00    0.2480215     0.191709 -44.49 0.0006194487    1.256    0.204
        34 -11.7892    230.4882    167.1478   6.1060914553e+01   3.9374906834e+00    0.3167417    0.2059073 -56.32  0.001582253    2.004    0.501
        35 -11.5027    120.7859    165.4253   8.4793111276e+01   2.3883685384e+01    0.4340805    0.3142034  65.81  0.001594609    1.804    0.446
        36  -9.8507    108.9354    152.5356   8.5353205304e+01   2.9139698511e+01    0.2758533    0.2194595  89.07 0.0008961735    1.588    0.370
        37 -10.9275    111.8408    150.2389   8.4051065235e+01   2.9183374687e+01    0.5236893     0.329758  80.94  0.001774658    3.282    0.695
        38 -11.2586    133.8481    145.8754   7.7127773094e+01   2.6079959569e+01      1.23163    0.3115867 -54.10  0.002756476    5.963    0.832
        39 -11.4646     93.5210    151.3325   8.9497862368e+01   3.2082414689e+01    0.3050314    0.2897662  10.38 0.0003576755    1.100    0.091
        40 -12.8647     97.9503    146.6743   8.7244983862e+01   3.2509353806e+01    0.7614434     0.517895 -39.85  0.001323297    1.523    0.344
        41 -10.6661     46.8125    207.5129   1.1034390415e+02   2.4576532881e+01    0.2252121    0.1568485  70.69  0.000564941    1.405    0.288
        42  -9.8498    115.9552    126.4964   7.7386621289e+01   3.4130451652e+01    0.2683208      0.21444 -30.54 0.0008515198    1.307    0.235
        43 -10.6408    119.6430    137.4541   7.8995484484e+01   3.0822332435e+01    0.4543791    0.3094434 -79.48  0.001355596    2.290    0.563
        44 -11.1144    116.5926    132.7405   7.8728642815e+01   3.2530845733e+01    0.5749871    0.3801772  80.98  0.001676336    2.884    0.653
        45  -9.5170    144.6625    138.3113   7.2598540791e+01   2.5665550596e+01    0.1579344     0.126414  85.82 0.0004621823    1.688    0.407
        46 -11.2547    109.5064    133.1652   8.0851453626e+01   3.3770956185e+01    0.5661641    0.3272568 -23.40  0.001962131    2.843    0.648
        47 -11.9713    105.6432    130.7411   8.1400310398e+01   3.5072335763e+01    0.9406995    0.5406619 -69.72  0.003366031    2.671    0.626
        48 -11.7024     92.7008    134.8941   8.6228319116e+01   3.6343351155e+01    0.4173579     0.277995  37.12 0.0005743719    1.545    0.353
        49 -11.6465     97.9209    132.6402   8.4139946317e+01   3.5999311855e+01     0.304345    0.2752202 -18.16 0.0003762209    1.149    0.130
        50 -10.4309    103.7723    121.7100   7.9747369828e+01   3.7583655963e+01    0.2927272    0.2311836  -9.71 0.0007978937    1.514    0.339
        51 -15.2148    119.1976    235.6442   9.6862671232e+01   8.5087224646e+00      14.2048     8.140466 -84.95   0.05535304    3.790    0.736
        52  -9.4758    183.4974    116.4865   5.8601985420e+01   2.2171330018e+01    0.1479447    0.1387614 -31.19 0.0008099013    1.056    0.053
        53  -9.1604    110.8085    116.3952   7.6306698323e+01   3.7484897538e+01    0.2042388    0.1490658  26.25 0.0002631969    1.502    0.334
        54 -11.2906    118.8105    110.1843   7.2364790981e+01   3.7288577079e+01    0.4805414    0.3710243  82.17  0.001535178    1.830    0.453
        55 -10.1592    205.3194    110.3502   5.3170146171e+01   1.8830621307e+01    0.2605245    0.2169292  42.95 0.0007758969    1.352    0.260
        56  -9.4601     73.3863    205.0885   1.0364136226e+02   2.1789167262e+01    0.1595802    0.1238034  87.76 0.0003949587    1.345    0.256
        57 -10.8660     90.6981    105.3867   7.9559983817e+01   4.3785478419e+01    0.2668242    0.2608216 -54.81 0.0003269952    1.099    0.090
        58 -10.4711     55.9626     96.6016   8.9245904731e+01   5.1241198590e+01    0.3009741    0.1378982  28.92   0.00122475    2.309    0.567
        59 -11.9608     55.2390    238.3615   1.1132784551e+02   1.6713049537e+01    0.2819886    0.2165301 -64.86   0.00177238    1.417    0.294
        60  -8.9662    153.6919     84.7124   5.6601251513e+01   3.4776609626e+01    0.1454387     0.116718  15.80 0.0002106918    1.573    0.364
        61 -11.3523     61.5036    198.8212   1.0581365730e+02   2.4849392954e+01    0.2330229    0.1847226 -46.87 0.0008187495    1.407    0.289
        62 -12.9087    170.3812     63.3603   4.7580972421e+01   3.4488348927e+01    0.5316426    0.4964216 -45.77 0.0008799486    1.115    0.103
        63  -9.6791    164.5193    249.0031   8.8921643553e+01  -5.6223839065e-01    0.1696545    0.1226125 -38.01  0.000508128    1.509    0.337
        64 -12.1909    191.6613     43.7002   3.9429088927e+01   3.2420753513e+01    0.3572703    0.3179519  42.82  0.001000034    1.372    0.271
        65 -10.1684     87.9077     33.7347   5.6946235698e+01   5.7342910007e+01    0.2319086    0.1739854  63.10 0.0008686124    1.551    0.355
        66 -10.4665     58.5412    233.4977   1.1017529939e+02   1.7335750554e+01    0.1923475    0.1491561 -11.79 0.0008111573    1.924    0.480
        67 -11.2239     60.9088    243.7212   1.1059243542e+02   1.4906273498e+01    0.1000885   0.06607228 -64.87 0.0004115768    1.630    0.386
        68 -10.7003     53.1224    231.3714   1.1116667805e+02   1.8454892433e+01    0.4835666    0.1655896 -57.30  0.002013468    3.028    0.670
        69 -10.3341     60.3688     21.1034   6.1045211707e+01   6.4170891887e+01    0.2115631    0.1459761  29.24 0.0004672249    1.246    0.198
        70 -11.5057     49.3200     19.6085   6.4750268509e+01   6.6234386446e+01    0.2479312    0.2217932  -3.67 0.0008792871    1.247    0.198
        71 -10.2429     51.4805    199.1593   1.0833791422e+02   2.6008386694e+01    0.1616657    0.1237881 -71.05 -0.0001015138    1.251    0.201
        72 -10.7994     53.2638    242.3405   1.1208712677e+02   1.6125553543e+01    0.1110508   0.09275622 -39.25 0.0005403126    1.594    0.373
