#   1 NUMBER                 Running object number                                     
#   2 MAG_AUTO               Kron-like elliptical aperture magnitude                    [mag]
#   3 X_IMAGE                Object position along x                                    [pixel]
#   4 Y_IMAGE                Object position along y                                    [pixel]
#   5 X_WORLD                Barycenter position along world x axis                     [deg]
#   6 Y_WORLD                Barycenter position along world y axis                     [deg]
#   7 A_WORLD                Profile RMS along major axis (world units)                 [deg]
#   8 B_WORLD                Profile RMS along minor axis (world units)                 [deg]
#   9 THETA_WORLD            Position angle (CCW/world-x)                               [deg]
#  10 FWHM_WORLD             FWHM assuming a gaussian core                              [deg]
#  11 ELONGATION             A_IMAGE/B_IMAGE                                           
#  12 ELLIPTICITY            1 - B_IMAGE/A_IMAGE                                       
         1 -14.4212     68.8912    144.3560   9.9886668923e+01   3.7505180742e+01      5.04676     2.195261  61.51  0.002875555    6.294    0.841
         2 -12.5640     54.0371    146.9668   1.0462958488e+02   3.8798246759e+01     5.857139    0.3909425 -62.27   0.01206787    8.256    0.879
         3 -13.2784    199.3472     41.8836   4.1846892490e+01   3.0296666603e+01     1.064842    0.9537857 -58.37   0.00335694    1.090    0.083
         4 -13.6572    209.1615     32.3833   3.8406348952e+01   2.9253954137e+01     1.169899    0.8452316 -17.67  0.001503548    1.816    0.449
         5 -12.9053    234.3216      6.2326   3.0491370999e+01   2.6762080113e+01    0.8065574     0.610558 -85.52  0.004886407    1.134    0.118
         6 -15.4349      2.7019    202.2841   1.2297465245e+02   3.0771520522e+01     12.55549          nan -72.84   0.02807157   11.194    0.911
         7 -10.5231    140.6878    250.4165   9.8772611623e+01   3.1960554959e+00    0.4250501    0.1499427  41.41   0.00182224    2.384    0.581
         8 -10.3817    129.1255    249.8751   1.0105418165e+02   5.0274372526e+00    0.2704468    0.2114571  38.00  0.001720681    1.064    0.060
         9 -14.8651     46.1465    199.5784   1.1333416308e+02   2.6977102324e+01     9.214787     3.462997  69.27   0.02235214    6.385    0.843
        10 -10.8391    202.5413    198.6702   7.7648675987e+01   2.1721143279e+00    0.2915477    0.1931392   7.92  0.001455541    1.734    0.423
        11 -10.2713     60.3070    197.8284   1.0987343124e+02   2.5623930117e+01    0.2534268    0.1972619  49.30 0.0002993492    1.211    0.174
        12  -9.5219     89.4090    211.3337   1.0476782115e+02   1.8530940662e+01    0.2394623    0.1969109  66.84 0.0004100793    1.161    0.139
        13 -10.2422    104.4439    209.2155   1.0103677067e+02   1.6683928663e+01      0.25738    0.1273734 -53.22  0.001144516    2.150    0.535
        14  -8.7028     24.0199    193.3488   1.1777366781e+02   3.0811619739e+01    0.1631197    0.1353357  69.39 0.0004044412    1.087    0.080
        15 -10.7293     43.4055    178.1591   1.1170969198e+02   3.2328587760e+01    0.6369331    0.3550852 -35.15  0.002780594    2.872    0.652
        16 -12.8682     55.6280    186.3079   1.0965194133e+02   2.8914779935e+01    0.8768387    0.8060297  30.57  0.004156138    1.265    0.210
        17 -11.3138    112.6279    198.3292   9.7509032137e+01   1.7723547977e+01    0.5156255    0.2587604  51.79   0.00212592    2.198    0.545
        18  -9.7855    147.5107    187.3797   8.7383980501e+01   1.4004523419e+01    0.3287985    0.2094301 -52.42   0.00127042    1.692    0.409
        19  -9.6885     49.4864    180.5145   1.1047481958e+02   3.1052146504e+01    0.2360692    0.1938992  87.77 0.0005851123    1.095    0.087
        20  -9.1378    210.3390    187.6772   7.3984465390e+01   2.7838489886e+00    0.1264875     0.112615 -86.71 0.0007050807    1.720    0.418
        21 -14.4569     10.4283    206.4679   1.2164732619e+02   2.9174073758e+01    0.8760975    0.6999847  18.09  0.002611201    1.716    0.417
        22  -8.7045     79.6453    183.1623   1.0328038970e+02   2.6391305472e+01    0.2152595    0.1629763 -87.83 0.0005765415    1.383    0.277
        23 -10.3899     99.2303    180.9749   9.8005620276e+01   2.3873182225e+01    0.3058581    0.2797365   8.18 0.0008908923    1.249    0.200
        24 -17.2987     14.7497    242.7871   1.2290947893e+02   2.1270003959e+01      8.08229     5.622335  88.55   0.02478515    1.254    0.203
        25  -8.7607     89.8974    180.3524   1.0026671600e+02   2.5507863838e+01    0.1957035     0.177883  48.39 0.0005962008    1.088    0.081
        26 -10.0908    187.3117    175.8095   7.6235777091e+01   9.0076053855e+00    0.3617491    0.3169836 -59.80  0.001148124    1.383    0.277
        27 -11.0166    121.3849    197.0058   9.5221681037e+01   1.6545305546e+01    0.4939162    0.2612779 -69.59  0.001413799    2.802    0.643
        28  -8.5884    147.8535    174.5861   8.4830063847e+01   1.6674723331e+01    0.2024166    0.1372198  49.99 0.0005096917    1.572    0.364
        29 -11.4872     69.3537    172.2894   1.0432653302e+02   3.0486374187e+01     0.468551     0.300989 -36.94  0.002184158    2.019    0.505
        30  -8.6459     84.4534    173.5322   1.0058288215e+02   2.7983725312e+01     0.142058     0.134763  88.37  4.50616e-05    1.021    0.020
        31  -8.5271     34.5173    171.5257   1.1318818009e+02   3.4901972903e+01    0.1328988    0.1116735  86.09 0.0008095622    1.039    0.038
        32  -8.5834    193.4935    170.5328   7.3852012678e+01   8.8799651334e+00    0.1438667    0.1333982  -9.80 0.0003558056    1.033    0.032
        33  -9.6949    240.4876    169.4963   6.4845688152e+01   9.4038492204e-01    0.1337297     0.111654 -18.83 -0.0001153983    1.001    0.001
        34 -11.0677    193.1666    195.4910   7.8932829970e+01   4.3014224915e+00    0.9160801    0.5040581 -63.92  0.002915212    5.235    0.809
        35  -9.4902    110.7812    167.8526   9.2736496831e+01   2.5019331885e+01    0.2706313    0.2066173 -80.18 0.0007590061    1.545    0.353
        36 -11.0239    111.2783    204.0544   9.8703012074e+01   1.6699280023e+01     0.345031    0.2688193  84.63  0.001094975    1.512    0.339
        37  -9.4654     32.3290    156.5714   1.1202484663e+02   3.8792721044e+01    0.2331147    0.1312737 -53.26   0.00115808    1.718    0.418
        38 -11.5933     89.4157    152.1492   9.5496676795e+01   3.2451006137e+01    0.7247444    0.5029054 -22.38  0.003197628    2.029    0.507
        39 -10.7391    133.8612    145.2133   8.2020959346e+01   2.5996177654e+01     1.220145    0.3429241 -54.59   0.00295085    5.223    0.809
        40  -9.3870    174.7071    149.0005   7.3136142522e+01   1.6832112185e+01     0.264603    0.2195488  76.29 0.0006523642    1.567    0.362
        41 -10.2381     38.8761    146.2597   1.0885787750e+02   4.0696168648e+01     0.329269    0.2508285  78.31 0.0008714707    1.352    0.260
        42 -10.2806    102.7879    138.3826   8.8885275905e+01   3.3552143798e+01    0.5627188    0.3581065 -21.72  0.002182526    2.433    0.589
        43 -11.6544     90.2478    137.9572   9.2395485353e+01   3.5827130726e+01     0.298656      0.26889 -32.61 0.0004385939    1.161    0.139
        44 -10.0916    105.8669    130.8336   8.6286238068e+01   3.4814776548e+01    0.3666622    0.3228389 -56.14  0.001218985    1.120    0.108
        45  -9.5769    136.0000    129.5061   7.7741785501e+01   2.9146553905e+01    0.3514676   0.08873859 -46.37 0.0009306787    3.902    0.744
        46  -9.6380    111.8861    129.1963   8.4187985858e+01   3.4070008732e+01    0.3391818    0.2519494  17.63 0.0009676908    1.639    0.390
        47 -10.9522     31.4969    129.1507   1.0850164261e+02   4.5709806157e+01     0.360872    0.3205462  12.40  0.002240546    1.335    0.251
        48  -9.1971    160.8497    127.9921   7.1273793474e+01   2.4165865653e+01    0.4026596    0.1749776 -54.52  0.001272469    3.095    0.677
        49 -10.0514     67.3023    125.2588   9.6635025483e+01   4.2513362352e+01    0.4498804    0.2815549 -29.20  0.001958984    2.049    0.512
        50 -10.6440     42.9515    128.9220   1.0493893279e+02   4.4616417714e+01    0.3484671     0.202554  46.20   0.00166101    1.941    0.485
        51 -10.7142    118.9649    122.8002   8.0631748710e+01   3.4178219210e+01    0.7376192    0.4511435  -9.46  0.002345787    3.660    0.727
        52  -8.8237     90.7747    123.7690   8.9062944881e+01   3.9216092013e+01    0.2038843    0.1752947  79.86 0.0005971019    1.352    0.261
        53 -10.3254     99.0863    125.2100   8.6923315925e+01   3.7406569875e+01    0.3187093    0.2644545 -14.52  0.001106707    1.397    0.284
        54  -9.5289    135.1525    119.9793   7.5556011211e+01   3.1459890107e+01    0.3775722    0.1105974 -45.33  0.001081661    3.361    0.702
        55  -9.2197    107.9964    118.4444   8.2642739129e+01   3.7349185557e+01    0.2189271    0.2038112 -43.87 0.0001657955    1.044    0.042
        56 -11.4132     73.8509    167.4608   1.0240883008e+02   3.1037109654e+01    0.4710044    0.3383704 -57.44  0.002420293    1.348    0.258
        57  -9.9795    231.2294    113.7987   5.4420400408e+01   1.2090652200e+01    0.2726217    0.2468675 -42.71 0.0008190346    1.039    0.038
        58 -12.2012     18.0657    108.6618   1.0953759207e+02   5.1876871737e+01    0.4992247    0.4173968 -51.69  0.003172225    1.088    0.081
        59  -9.4132    205.3322    110.1432   5.7811653717e+01   1.8010914090e+01    0.2941277    0.2025534  35.67  0.001127741    1.723    0.420
        60 -10.6597    115.2404    108.6658   7.7983841808e+01   3.8149889929e+01    0.4334785    0.2571722 -35.45  0.001764345    1.820    0.450
        61 -11.1679     33.1975     99.8591   1.0268209811e+02   5.2746047080e+01    0.3543425    0.2517004 -74.46  0.001919443    1.465    0.317
        62 -11.0119     45.4481    105.8318   9.9665493980e+01   5.0051062594e+01    0.3287454    0.2360393  38.28 0.0009568974    1.567    0.362
        63 -11.7788     31.1517    108.1872   1.0504084757e+02   5.0922314524e+01    0.4162237    0.2936226 -17.06  0.002079459    1.695    0.410
        64  -9.7990     39.8295    103.0957   1.0102744100e+02   5.1315496336e+01    0.2058167    0.1824617 -84.04  0.001034411    1.234    0.190
        65  -9.2399    127.7281     94.8468   7.0646480076e+01   3.8465524869e+01    0.2858052     0.205549  76.68  0.001203978    2.020    0.505
        66  -8.4593    139.2084    106.1090   7.0823701319e+01   3.3579741987e+01    0.2101888    0.1822674 -70.84 0.0006093474    1.305    0.234
        67  -8.9838    134.5928    112.3121   7.3687918017e+01   3.3265164218e+01      0.31331    0.1493765 -48.43  0.001137052    2.143    0.533
        68 -11.9356     82.1311    159.2621   9.8812995356e+01   3.1835920045e+01    0.8741741    0.6072504  75.10 0.0005120742    1.785    0.440
        69  -9.4173    155.8414     87.8200   6.1759002824e+01   3.3402514896e+01    0.3836237    0.2397436 -65.60  0.001329679    2.330    0.571
        70  -9.7910    233.9758     86.0329   4.7792134161e+01   1.6160360899e+01    0.1677348      0.14339 -49.70 0.0007083123    1.015    0.015
        71  -8.8019    115.6872     85.0995   7.1069471585e+01   4.3057537827e+01    0.2652644    0.2018812  53.93 0.0009676838    1.405    0.288
        72  -9.1684    158.4753     82.9640   5.9813636232e+01   3.3672764627e+01     0.225645    0.1480065 -38.25 0.0004524876    1.522    0.343
        73 -13.0865     70.5697    154.1093   1.0112274780e+02   3.4821215675e+01    0.6514747    0.5862486 -38.20  0.001022905    1.212    0.175
        74 -13.0196    188.6603     49.9326   4.5336220821e+01   3.1716840878e+01     1.002323     0.855857  29.27  0.001000032    1.452    0.312
        75  -9.3708    161.6583    226.6882   9.1009390136e+01   3.9767226009e+00     0.136942   0.09674805   2.91 0.0003272493    1.699    0.411
        76 -11.3031    107.5995    203.7421   9.9516638543e+01   1.7361705682e+01    0.4565384     0.273666  68.52  0.001960065    2.381    0.580
        77 -11.3742     21.2349     33.7799   8.8772111788e+01   6.7759095813e+01    0.3440133    0.2099067  28.86  0.001609407    1.806    0.446
        78  -8.9732     68.0085     52.3186   7.5552426396e+01   5.8380895259e+01    0.2165999    0.1951131 -70.51 0.0008799222    1.563    0.360
        79  -8.4953     33.6911     37.3328   8.4143403269e+01   6.5831226182e+01    0.1072072    0.1022518  89.53 0.0006262506    1.671    0.401
        80  -8.9439    189.5172     14.9806   3.6291134313e+01   3.5776312699e+01    0.1783437    0.1224637 -34.34 0.0005945156    1.555    0.357
