#   1 NUMBER                 Running object number                                     
#   2 MAG_AUTO               Kron-like elliptical aperture magnitude                    [mag]
#   3 X_IMAGE                Object position along x                                    [pixel]
#   4 Y_IMAGE                Object position along y                                    [pixel]
#   5 X_WORLD                Barycenter position along world x axis                     [deg]
#   6 Y_WORLD                Barycenter position along world y axis                     [deg]
#   7 A_WORLD                Profile RMS along major axis (world units)                 [deg]
#   8 B_WORLD                Profile RMS along minor axis (world units)                 [deg]
#   9 THETA_WORLD            Position angle (CCW/world-x)                               [deg]
#  10 FWHM_WORLD             FWHM assuming a gaussian core                              [deg]
#  11 ELONGATION             A_IMAGE/B_IMAGE                                           
#  12 ELLIPTICITY            1 - B_IMAGE/A_IMAGE                                       
         1 -10.8267     42.1243     32.4254   2.9146525998e+01   6.8433578697e+01    0.2601416    0.1953118 -49.04 0.0006912983    1.459    0.314
         2  -9.9876     50.9244     13.4733   1.4292542831e+01   6.9601414864e+01    0.1852147     0.169889 -10.25 0.0002802348    1.152    0.132
         3 -12.2031     71.9684      9.6574   4.6860426753e+00   6.5265190999e+01    0.2872506    0.2459561 -23.92 0.0001684011    1.294    0.227
         4 -11.1289     83.2175      7.3457   6.5706597501e-01   6.2779782061e+01     0.226744    0.1972489 -62.71 0.0003207325    1.220    0.181
         5  -9.5114     25.3179      1.7147   2.0141332324e+01   7.6120998550e+01    0.1116625   0.09932634  83.50 0.0003278777    1.588    0.370
         6 -12.1732     35.9509    246.6157   6.9824076729e+01   1.6823139623e+01    0.4069771    0.1893357  28.00  0.002172631    1.735    0.424
         7 -10.8872    139.3227    248.5258   4.7369999020e+01   5.4364920189e+00    0.2733701    0.1660647 -42.66  0.001106016    1.812    0.448
         8  -9.2285     87.3257    250.6947   5.8667003809e+01   1.0795730520e+01    0.1233359   0.07528754  48.03 0.0007034538    1.646    0.393
         9 -12.1117     32.6773    240.3526   7.0237619765e+01   1.8352647942e+01    0.3057252    0.2016606  49.37 0.0006509382    1.261    0.207
        10 -14.0122     35.3297    229.4951   6.9025016308e+01   2.0303768287e+01     1.256043     0.571107 -89.59  0.005967678    2.641    0.621
        11 -13.8118     21.3180    196.7237   7.0631369394e+01   2.8946681775e+01    0.9264045    0.8031086 -27.69  0.005587528    1.431    0.301
        12 -14.0259     20.4401    215.5159   7.1878993330e+01   2.4693777617e+01     1.237421    0.5605412  57.24  0.004925697    2.023    0.506
        13 -13.2382     11.8197    189.8295   7.2820690755e+01   3.1418247929e+01    0.6645247     0.503318 -40.37   0.00046182    1.640    0.390
        14 -13.4814      4.3088    201.2885   7.5319541384e+01   2.9273451983e+01     1.018233    0.7123913 -72.20  0.004935015    1.513    0.339
        15 -13.5175      3.5324    217.4082   7.6082611651e+01   2.5686933938e+01     1.022033    0.4863197 -80.56  0.004858998    2.138    0.532
        16 -14.2090      6.5729    233.1032   7.5879345325e+01   2.2113149589e+01     2.030551    0.4543839  46.14  0.008511133    2.856    0.650
        17 -13.7019      4.5240    247.8990   7.6764311103e+01   1.9340308686e+01     1.077102    0.5302867  32.38  0.005635052    1.563    0.360
        18 -14.0185     11.1604    239.1767   7.5046491380e+01   2.0503272313e+01     1.287828    0.6811294 -18.77  0.005710623    3.946    0.747
        19 -13.5982     15.2579    229.0765   7.3735276827e+01   2.2222376727e+01     0.711345    0.5148022 -72.55  0.003074478    1.559    0.359
        20 -11.3452     67.8678    246.6285   6.2656961584e+01   1.3613392801e+01    0.3274261    0.2399798  45.96  0.001320408    1.227    0.185
        21  -9.3601    178.7297    247.3103   3.9560823553e+01   1.4450273146e+00   0.09358395    0.0827628  28.44 0.0001833382    1.546    0.353
        22  -9.3203     59.6564    247.7133   6.4580206917e+01   1.4267969490e+01    0.1146672   0.08634419  -8.27 0.0003803638    1.646    0.392
        23  -9.3947    246.2153    245.0465   2.8114245367e+01  -4.4138543044e+00    0.1196081    0.0605713 -29.70            0    1.571    0.363
        24 -10.0465    204.8173    243.8313   3.4473789999e+01  -6.5064442294e-01    0.1347041     0.113283   1.56 0.0009420666    1.330    0.248
        25  -9.3156    186.2326    242.5438   3.7553661748e+01   1.3437969301e+00     0.231961   0.05899186 -35.06 0.0008921004    4.460    0.776
        26 -10.0817    142.9603    242.9338   4.5952381300e+01   5.9116201367e+00    0.1715682    0.1385981  52.69 0.0008319143    1.727    0.421
        27 -10.9329     43.0711    243.4694   6.8047665890e+01   1.6743511844e+01    0.1865074   0.09898962  27.59 0.0004699197    1.562    0.360
        28 -10.4967    116.8520    241.1033   5.1241952520e+01   9.1676189086e+00      0.21654    0.1823483  42.99  0.001468716    1.304    0.233
        29 -13.9841      3.7935    181.3881   7.4636839351e+01   3.4115907118e+01     1.556309    0.8301976  81.93  0.007485712    1.768    0.434
        30 -10.2389    158.3020    233.3543   4.1611575294e+01   5.6983157077e+00    0.1833476    0.1522653 -18.41 0.0006834879    1.174    0.148
        31 -10.5357    120.3666    234.1206   4.9668999101e+01   9.9726337820e+00    0.1574388    0.1203376 -74.24 0.0009536276    1.857    0.462
        32 -10.3905     72.3593    232.8253   6.0491448457e+01   1.5762785549e+01    0.2757414    0.1683726  28.39  0.001539452    1.380    0.275
        33 -10.1360     73.5856    229.7566   5.9928324143e+01   1.6233272845e+01    0.2232874    0.1613041  71.74   0.00114517    1.632    0.387
        34 -10.6700     61.7273    231.2343   6.2867674009e+01   1.7243356622e+01    0.2278293    0.1772251  36.25   0.00067557    1.074    0.069
        35 -10.5024    217.4984    231.5112   3.0616127035e+01  -2.5712561406e-01    0.1096401   0.07970905  -8.78 0.0001408787    1.002    0.002
        36 -11.0452    152.1961    229.5617   4.2329809974e+01   7.0066799912e+00    0.3015888    0.2425846  30.96  0.002018596    1.311    0.237
        37 -10.7319    155.0928    225.2912   4.1149184172e+01   7.3661465116e+00    0.2173758    0.1705984 -46.14  0.001056331    1.490    0.329
        38 -10.5883    194.2219    229.3760   3.4267409829e+01   2.3646547221e+00    0.2318267     0.134411 -38.11  0.001358396    1.679    0.404
        39 -12.5603    138.2514    228.3124   4.5072152328e+01   8.8602616422e+00     0.232091    0.2014973  -2.54 0.0003882425    1.077    0.072
        40 -12.2353    114.8096    225.9462   4.9923411724e+01   1.2111259416e+01    0.5516614    0.2768709 -52.09 0.0006258763    2.191    0.544
        41  -9.6095    166.5171    227.5130   3.9177573667e+01   5.6815847178e+00    0.1186328   0.09792325   2.97  0.000809755    1.052    0.049
        42 -11.8758    147.5290    224.9124   4.2657394013e+01   8.3290337663e+00    0.2780536    0.2033004 -32.00 0.0004581303    1.374    0.272
        43 -10.1112     91.8920    225.1421   5.5135054620e+01   1.5027371366e+01     0.189084    0.1551431  45.76  0.000466187    1.205    0.170
        44 -11.5897    173.9857    222.8791   3.7060051416e+01   5.5518698549e+00    0.2810669    0.1822563 -35.16   0.00174414    1.485    0.327
        45 -11.5238    170.7442    219.4457   3.7181700329e+01   6.4696725907e+00    0.4038873    0.2001361  18.68  0.001467891    2.069    0.517
        46 -11.7053    159.7295    222.1274   3.9759577368e+01   7.3365628441e+00    0.4034783    0.2026234  39.78  0.002054137    2.215    0.549
        47 -12.4038    125.3378    221.4281   4.6984467384e+01   1.1651853048e+01    0.4726965    0.3336704  13.69  0.002191118    1.325    0.245
        48 -11.6590    127.2053    214.1526   4.5588422257e+01   1.2767956220e+01    0.3241283    0.2498859  69.39  0.001309179    1.925    0.481
        49 -12.5148     48.8512    221.9325   6.5257239978e+01   2.0540153598e+01    0.4259956     0.213677  46.34  0.002130203    1.744    0.427
        50  -9.7790    152.3000    220.3071   4.1018686800e+01   8.5324175946e+00    0.1261937   0.08386027  -9.63 0.0003289592    1.596    0.373
        51  -9.6340     67.4664    220.5715   6.0567893542e+01   1.8801782245e+01    0.1298827    0.1110281  36.79 0.0001408835    1.010    0.010
        52 -10.0739     82.3232    222.2880   5.7117917861e+01   1.6730501199e+01    0.1264567   0.09455637 -11.62 0.0003683624    1.605    0.377
        53 -10.4441     76.8638    219.6211   5.8173262459e+01   1.7918644832e+01    0.1928643   0.09775595  37.43 0.0009163604    1.677    0.404
        54 -12.0724    144.0793    215.5842   4.2075167636e+01   1.0366137503e+01     0.581387    0.3908191  63.26  0.002687815    2.816    0.645
        55 -10.5860    139.9421    207.5923   4.1806544497e+01   1.2345597141e+01    0.2653209    0.2198332 -88.84  0.001297413    1.838    0.456
        56 -10.3741    193.8457    217.1244   3.2508036000e+01   4.1862365575e+00    0.1668027    0.1118173 -12.55 0.0004229313    1.331    0.249
        57 -11.1846    120.1136    213.9223   4.7174264560e+01   1.3718965885e+01     0.297956    0.1928336  35.83  0.001096084    1.438    0.305
        58 -11.6371     85.6741    214.8114   5.5505663281e+01   1.7867623984e+01    0.6588266    0.2120014  36.55  0.002600672    2.542    0.607
        59 -10.3090     63.5307    216.1947   6.1143514848e+01   2.0176219893e+01    0.2301915    0.1310245 -80.03  0.001136905    2.113    0.527
        60 -10.1327    190.1930    219.8510   3.3580933313e+01   4.1852765638e+00    0.1623912    0.1107909  -8.75 0.0003962965    1.307    0.235
        61 -13.3022     13.1758    214.1260   7.3610348426e+01   2.5630558871e+01     1.201368    0.3826472 -72.30  0.005058145    3.113    0.679
        62 -11.1141    108.7664    214.7950   4.9933692743e+01   1.4994500463e+01    0.3079243    0.2447248 -11.73  0.001766263    1.352    0.260
        63 -10.6637    156.0608    212.8774   3.9153506147e+01   9.3387047242e+00    0.2862185    0.1913616 -71.03  0.001415259    2.876    0.652
        64 -10.9063     73.6300    211.7428   5.8175955854e+01   1.9967829405e+01    0.3087656    0.2308854  13.99 0.0007468775    1.371    0.271
        65 -10.8550     72.7027    208.6835   5.8093307821e+01   2.0743698356e+01    0.4169836    0.2173412  58.16  0.001624817    2.349    0.574
        66 -10.5386     40.3632    212.7523   6.6709523149e+01   2.3417350454e+01     0.168371    0.1144611 -63.66 0.0005991333    1.623    0.384
        67  -9.8202    172.2826    211.6691   3.5705971046e+01   7.5436784192e+00     0.104624   0.09872143  64.74 0.0003760324    1.610    0.379
        68 -10.7447     96.8962    208.3873   5.1988989756e+01   1.7808674899e+01    0.3409156    0.2003928 -67.41  0.001350888    2.059    0.514
        69 -11.8233     51.3183    209.8980   6.3689043317e+01   2.2909837437e+01    0.2665781    0.1982103 -16.20  0.001462622    1.738    0.425
        70 -11.9815     25.6014    208.8288   7.0219540625e+01   2.5731765340e+01     0.361858    0.2367046 -79.23 0.0007228195    1.589    0.371
        71 -11.2534    161.5457    208.0473   3.7291103471e+01   9.4813457617e+00    0.2813504    0.2437341  71.06  0.001118461    1.829    0.453
        72 -10.7063    229.1750    208.3660   2.5251524590e+01   1.6753159187e+00    0.1363079   0.09453847  30.82 0.0009303834    1.741    0.426
        73 -10.6971    180.4779    207.7057   3.3508513490e+01   7.1950157142e+00     0.210973    0.1808124  24.39  0.001172479    1.317    0.241
        74 -12.4213     34.9177    206.1668   6.7646871280e+01   2.5454110185e+01    0.4611163    0.3187538 -25.05  0.002438295    1.981    0.495
        75 -10.1247    103.4939    205.9630   5.0061234743e+01   1.7461669562e+01    0.1869897    0.1338729 -58.37 0.0009551862    1.551    0.355
        76 -10.5317     62.0723    205.3655   6.0496647286e+01   2.2729149612e+01    0.2455944     0.197216  85.63  0.001002149    1.348    0.258
        77 -11.5902     47.2043    205.5443   6.4393921174e+01   2.4337680936e+01    0.2430414    0.1869285 -81.73  0.001409036    1.379    0.275
        78 -12.7792     84.4946    199.3387   5.4001566932e+01   2.1350679003e+01    0.7802995    0.4812538 -62.32  0.001319224    1.760    0.432
        79 -13.2540     91.7695    197.9417   5.1950837364e+01   2.0715703744e+01    0.9842785    0.4200214 -54.51  0.003179642    2.416    0.586
        80 -11.4754     16.8805    204.7393   7.2236595768e+01   2.7448859943e+01    0.3705394    0.1736694  64.13  0.001486063    2.072    0.517
        81 -11.2778     20.8272    204.2003   7.1187469091e+01   2.7228993502e+01    0.2689531    0.2316954 -34.38  0.001250424    1.448    0.309
        82 -10.3855    150.5071    203.4943   3.8890372433e+01   1.1711220340e+01    0.2062775    0.1580725 -27.33 0.0007942468    1.259    0.206
        83 -11.6338    146.1515    201.6250   3.9538722955e+01   1.2632098312e+01    0.3322804    0.3054998 -15.03  0.001557026    1.112    0.100
        84 -10.0386    212.7843    200.7593   2.6650836239e+01   4.4942572498e+00      0.15581    0.1384949 -77.06  0.001050992    2.153    0.536
        85 -11.2912    101.6394    198.1343   4.9472761871e+01   1.9361545749e+01    0.3460347     0.218925 -55.94  0.001753804    1.693    0.409
        86 -10.3313     53.6571    198.4884   6.2062739692e+01   2.5267193606e+01    0.2445399    0.2065716  69.94  0.001354655    1.172    0.147
        87 -10.6482    176.2247    198.4082   3.2826232095e+01   9.2577175574e+00    0.1697306    0.1096336  38.13 0.0009539768    1.730    0.422
        88 -10.3882    137.1586    197.4207   4.0877493767e+01   1.4648805413e+01    0.3876911    0.2054529   5.28  0.001498403    3.192    0.687
        89 -11.4296    123.0157    196.2671   4.3978569370e+01   1.6830667224e+01    0.3599778    0.2350872  41.89  0.001857941    1.566    0.361
        90 -11.3139     36.5553    197.0150   6.6547366534e+01   2.7434259008e+01    0.3247665    0.1647609  63.82   0.00103592    2.114    0.527
        91 -11.4183     32.7967    194.3946   6.7371396537e+01   2.8434405883e+01    0.2523416    0.2448183 -31.31  0.001614294    1.212    0.175
        92 -11.6772    192.3905    193.7536   2.9018475186e+01   7.9843008731e+00    0.2834458    0.2542479  12.00  0.000396113    1.260    0.206
        93 -10.0714    172.9552    195.7428   3.3025242560e+01   1.0134534753e+01    0.1527408    0.1007945  24.71 0.0004272945    1.479    0.324
        94 -11.0174    133.1102    191.4137   4.0853224024e+01   1.6398875804e+01     0.354722    0.2477345 -11.68  0.001579187    1.678    0.404
        95 -10.5784     52.5417    192.5398   6.1796768665e+01   2.6801660582e+01     0.234335    0.2301418  57.91 0.0004970378    1.100    0.091
        96 -11.0063     50.2850    190.3504   6.2207812006e+01   2.7581860709e+01    0.2880106      0.23355 -88.45  0.001489413    1.268    0.211
        97  -9.6859    212.3289    192.6583   2.5386405764e+01   5.7503977536e+00    0.1025699   0.09274402 -59.43  0.000568659    1.743    0.426
        98 -11.6971     75.7835    182.0601   5.4149381638e+01   2.6486161120e+01    0.7629814    0.2975064 -74.02  0.002528072    3.727    0.732
        99 -10.3397    153.4569    188.5168   3.5828016222e+01   1.4085883689e+01    0.1332328    0.1162148  -7.61 2.132808e-05    1.031    0.030
       100 -10.6224    110.8165    187.8821   4.5683673997e+01   2.0310371991e+01    0.2152619    0.1855882  -6.20 0.0007081064    1.200    0.166
       101 -10.7470    128.2689    185.7632   4.1074762121e+01   1.8246263177e+01    0.2435531    0.1961099  23.87  0.001370306    1.183    0.155
       102 -10.8930    163.9797    184.2169   3.2872809416e+01   1.3404714813e+01    0.3262015    0.2080465 -59.43   0.00162249    2.143    0.533
       103 -11.5843     94.3712    182.2477   4.9099603471e+01   2.3906184303e+01    0.5170311    0.3177397 -60.30  0.002455384    1.725    0.420
       104 -12.0766     88.3285    181.3119   5.0592231131e+01   2.4968543075e+01    0.3668937    0.2828129  84.09  0.001889111    1.564    0.360
       105 -12.2664     25.6035    182.9928   6.8547764765e+01   3.1920680747e+01    0.4011047    0.2965532  36.58  0.002232253    1.250    0.200
       106  -9.6523    150.5036    183.5542   3.5620225970e+01   1.5455754396e+01    0.1331435    0.1207025  -4.42 0.0001616339    1.021    0.021
       107 -10.4581    105.1352    182.8292   4.6356436345e+01   2.2239718556e+01    0.1924179    0.1611104 -18.60 0.0005541185    1.293    0.227
       108 -11.0195     67.8079    180.8085   5.6230451531e+01   2.7820264448e+01    0.3003417    0.2068819 -25.27  0.001419653    1.895    0.472
       109 -10.2003    191.5189    178.0363   2.6445424953e+01   1.0689723316e+01     0.187478    0.1097242 -40.42  0.000558094    1.546    0.353
       110 -11.0960    136.8647    176.7514   3.7515607736e+01   1.8837140881e+01    0.3624878    0.2143201 -51.99  0.001462772    1.759    0.431
       111 -12.5220    127.7752    174.6101   3.9305157433e+01   2.0671759877e+01    0.4942364    0.3765137 -59.08  0.002402343    1.451    0.311
       112 -10.8038     62.7478    177.2463   5.7239663041e+01   2.9335761240e+01    0.3003127    0.2263646  11.01  0.001117489    1.482    0.325
       113  -9.8428    117.6583    177.6940   4.2334316054e+01   2.1536985067e+01    0.1471043    0.1063506 -12.93 0.0007041992    1.685    0.407
       114 -10.3820    106.9116    175.3365   4.4702534914e+01   2.3673973375e+01    0.2263113    0.2028984 -80.64 0.0005913681    1.257    0.204
       115 -11.3050     31.4932    176.1444   6.6300732921e+01   3.3097407616e+01     0.228634    0.1959639 -20.31  0.001295424    1.404    0.288
       116 -11.0690    144.2095    173.5526   3.5253566342e+01   1.8374418441e+01    0.4527153    0.2869506  59.71  0.001994856    2.538    0.606
       117 -11.8490     29.3560    167.9387   6.6235793020e+01   3.5427997690e+01    0.4301765    0.2304583 -30.10  0.001723995    2.800    0.643
       118 -13.1761     20.5316    172.1558   6.9247548000e+01   3.5134247442e+01      0.57568    0.3945184 -89.18  0.003028701    1.400    0.286
       119 -12.5413     16.4422    167.0628   7.0121587717e+01   3.6804343078e+01    0.5024286    0.2567904  33.08  0.002328626    1.793    0.442
       120 -11.8920     91.3389    171.0996   4.8229344045e+01   2.6967577341e+01    0.5165069    0.2730778 -52.47  0.001796367    1.910    0.476
       121 -11.2389     80.1693    173.1250   5.1680703254e+01   2.8063733775e+01      0.42429    0.2416853  27.14   0.00187757    1.734    0.423
       122 -11.1041    158.2635    171.3832   3.1764845508e+01   1.6663393164e+01     0.218379    0.1842543   8.54 0.0009186774    1.166    0.142
       123 -11.5324    153.0815    170.3214   3.2685365063e+01   1.7661713861e+01    0.2388157    0.1900351 -47.81 0.0004411125    1.290    0.225
       124 -10.0210    208.4448    170.2106   2.2105535987e+01   9.7243422320e+00    0.1697527    0.1025168 -45.66 0.0009461469    1.660    0.398
       125 -10.5365    197.5000    170.4590   2.4006885461e+01   1.1149944022e+01    0.2400126    0.1204501  35.46  0.001215333    2.195    0.544
       126 -10.6136    121.3531    167.8556   3.9697103765e+01   2.3142189487e+01    0.3362193    0.1392597  44.99  0.001230695    2.704    0.630
       127  -9.3111     39.0177    168.6693   6.3345370628e+01   3.4266660117e+01    0.2597746   0.04657501  42.41  0.000704891    4.458    0.776
       128 -11.2351    125.7340    166.0329   3.8269095868e+01   2.2851400147e+01    0.4203931    0.1702524  50.15  0.001353806    3.754    0.734
       129 -12.3527    169.7830    160.1613   2.7245171787e+01   1.7039425200e+01    0.5255008    0.2418048 -47.35  0.002292359    2.115    0.527
       130  -9.7247     14.3343    171.3185   7.1042504831e+01   3.5868967001e+01    0.1381762   0.09768067 -41.24 0.0004619333    1.697    0.411
       131 -10.1604    205.5342    163.9608   2.1436834784e+01   1.1127541483e+01    0.1806688   0.09052039 -22.97 0.0008087064    2.464    0.594
       132 -11.9110      7.8341    163.7974   7.2548153725e+01   3.8325470331e+01    0.2979977    0.2107311  45.19  0.001059286    1.303    0.233
       133 -11.9290      5.0119    160.8671   7.3250911794e+01   3.9295075079e+01    0.3918951    0.2957555 -37.02  0.001884157    1.586    0.369
       134 -11.7905     25.1505    160.3619   6.6880433613e+01   3.7822324308e+01    0.3252508    0.2022524 -49.07  0.001131211    1.770    0.435
       135 -10.2316     37.2478    160.8020   6.3081314949e+01   3.6524143105e+01    0.1923451    0.1621736 -43.83 0.0005906639    1.319    0.242
       136 -11.7794     13.4511    159.6715   7.0533182481e+01   3.8993097585e+01    0.3725489    0.1932236 -53.58  0.001466297    2.050    0.512
       137 -12.9048     20.5155    155.7134   6.7965965988e+01   3.9475702468e+01    0.5397517    0.4108451 -54.83  0.002006366    1.384    0.278
       138 -11.7498     26.2750    150.8619   6.5628250110e+01   4.0277029437e+01    0.5661024    0.2638884 -15.94  0.001798878    4.341    0.770
       139 -12.6941     20.8030    149.7677   6.7351102296e+01   4.1059196930e+01    0.4867512    0.3956404  23.50  0.002043096    1.302    0.232
       140 -10.4859    132.8296    157.1529   3.4838912340e+01   2.3640265943e+01    0.2071922    0.1686955 -13.19   0.00108198    1.346    0.257
       141 -10.1428    118.2494    157.1801   3.8513038958e+01   2.6048637208e+01    0.2521864    0.1533536 -16.62 0.0009501956    2.763    0.638
       142  -9.8718    141.3607    155.2507   3.2431077416e+01   2.2627432393e+01    0.1995222    0.1316953 -56.33 0.0009399976    1.647    0.393
       143 -10.5252    111.3213    158.2042   4.0534994905e+01   2.6944957093e+01    0.2803927    0.1971428   0.03 0.0009057071    1.913    0.477
       144 -11.3965      1.7700    153.6888   7.3874822051e+01   4.1411489137e+01    0.4503517    0.2542629  60.61  0.001691721    1.652    0.395
       145 -11.6046      4.9729    149.9622   7.2618084259e+01   4.2202336399e+01    0.3788942    0.2307354 -16.38  0.001331654    2.174    0.540
       146 -10.6219     43.5825    153.0226   6.0143809317e+01   3.7920676315e+01    0.4219649    0.2008587 -46.68   0.00164327    2.374    0.579
       147 -11.3641     83.7582    150.5971   4.7005396045e+01   3.3176920750e+01     0.531706    0.3050599 -28.55   0.00176148    2.648    0.622
       148 -11.4525    172.6259    151.2941   2.4919367189e+01   1.8263639272e+01    0.3017917    0.1639446 -54.86  0.001331413    2.218    0.549
       149  -9.9449    139.3035    152.2677   3.2314355098e+01   2.3608022364e+01    0.1413537    0.1090477  -8.81 0.0001615751    1.529    0.346
       150 -10.9104     75.2029    151.0807   4.9714364870e+01   3.4331251077e+01    0.3715965    0.2314147  42.13  0.001654036    1.574    0.364
       151 -10.9409    108.9755    148.9519   3.9394491053e+01   2.9512688456e+01    0.3270642    0.2477986 -58.07 0.0009207109    1.347    0.258
       152  -9.9313     96.1725    148.8530   4.2997841173e+01   3.1655108152e+01    0.2024491    0.1763906 -19.37 0.0003986577    1.269    0.212
       153 -10.3513    143.5465    152.5362   3.1378227769e+01   2.2833352069e+01     0.141403    0.1335364 -24.56 -1.011077e-06    1.017    0.016
       154  -9.8248    158.4586    145.4939   2.6619352822e+01   2.1744264717e+01    0.1416238    0.1273796 -24.31 4.410424e-05    1.043    0.041
       155 -10.3781    146.7672    145.0142   2.9085872690e+01   2.3859992043e+01    0.2017757    0.1754135 -37.92            0    1.085    0.078
       156 -11.9954    102.7161    142.4287   3.9843674327e+01   3.2142485401e+01    0.5070509      0.35387  76.77 0.0007409991    2.060    0.515
       157 -12.1800     11.5311    143.2598   6.9940576346e+01   4.3567197244e+01    0.4402747     0.251601  66.47  0.002019208    1.748    0.428
       158 -11.2950     50.9608    142.4839   5.6239506549e+01   3.9902525019e+01    0.5009645    0.1643122  38.13  0.001694042    2.764    0.638
       159 -10.7001    164.7102    141.0680   2.4384209936e+01   2.1548325480e+01    0.2151432    0.1975821  30.30 0.0007448389    1.175    0.149
       160 -11.4908     96.3966    138.4688   4.0878564120e+01   3.4190880315e+01     0.444342    0.2969479   9.91 -8.877397e-05    2.083    0.520
       161 -10.7533      1.6389    137.5494   7.2958024245e+01   4.5777617165e+01    0.2676063     0.154602 -87.20 0.0006828013    1.577    0.366
       162 -10.9104     68.3622    137.1393   4.9478481341e+01   3.8990450928e+01    0.3997874    0.1954208  35.90  0.001403861    1.977    0.494
       163 -10.1802    123.4624    135.0021   3.2581946512e+01   3.0221512986e+01    0.2178528    0.1439222 -49.09  1.82653e-05    1.470    0.320
       164 -12.4791     13.5101    134.0530   6.8455088834e+01   4.5956361552e+01    0.5255918    0.3088942  46.03  0.002464398    1.669    0.401
       165 -12.1808     19.7055    131.8892   6.5976519529e+01   4.6073289582e+01    0.5276355    0.2651637  32.02  0.000371554    1.935    0.483
       166 -10.3060      7.4818    135.0488   7.0711446166e+01   4.6101219103e+01    0.2050589    0.1820598  42.57 0.0004183032    1.157    0.136
       167  -9.4717    197.3212    134.6772   1.7043380610e+01   1.7289582886e+01     0.126714   0.09771805 -65.54 0.0007045824    1.676    0.403
       168 -10.2010    160.3772    132.7733   2.3476813708e+01   2.3946703789e+01    0.2045795    0.1232422 -35.23 0.0008332665    1.641    0.391
       169 -11.1173     83.5669    131.6975   4.3441322727e+01   3.8050460488e+01    0.3056919    0.1888753  38.80  0.000737888    1.607    0.378
       170 -10.0017     68.1523    130.8854   4.8380836398e+01   4.0685269738e+01    0.2323304    0.1989693  69.36 0.0004002936    1.221    0.181
       171 -10.3881     50.3003    130.5879   5.4592274348e+01   4.3232483076e+01    0.2065384    0.1495557   9.55 0.0009494944    1.627    0.386
       172 -10.6048    121.6862    128.3223   3.1538385418e+01   3.2075346956e+01    0.2768155    0.1856463 -62.41  0.000650373    1.674    0.403
       173  -9.4982     90.4658    129.5111   4.0796677005e+01   3.7447604824e+01    0.1545106    0.1479752 -30.76 0.0007845507    1.085    0.078
       174  -9.9746    130.4844    127.9900   2.9204756309e+01   3.0492359950e+01    0.2269498    0.1431938 -49.95 0.0006742668    1.537    0.350
       175 -10.2899     83.0311    127.6815   4.2769906840e+01   3.9172217809e+01    0.2223127     0.206031  40.92  0.001019337    1.089    0.082
       176 -11.4446     56.8840    126.5405   5.1511650418e+01   4.3468937504e+01    0.3422785    0.2504341  37.74  0.001627254    1.365    0.268
       177 -12.5341      9.9697    125.2962   6.8956571025e+01   4.8635262110e+01    0.3321824    0.2882068  70.10  0.001886301    1.101    0.092
       178 -10.9824      1.4919    126.0333   7.2216841951e+01   4.8948372278e+01    0.2240918     0.125042 -79.41  0.001035248    1.603    0.376
       179 -11.0377     49.4864    123.8247   5.3725547028e+01   4.5190377122e+01    0.2481983    0.2060086  31.39 0.0001192124    1.237    0.191
       180 -12.4738     15.4524    120.8012   6.6378394225e+01   4.9497660582e+01     0.516992    0.2606346  62.05  0.002098026    2.232    0.552
       181 -11.2167     23.0027    123.9664   6.3818086885e+01   4.8001855739e+01     0.222124    0.2046737  80.77 0.0003454494    1.034    0.033
       182  -9.2741    178.7422    121.6998   1.7448111670e+01   2.2759095004e+01    0.1314629    0.1010684 -15.19 0.0002388766    1.507    0.336
       183 -10.7672    105.2775    121.0467   3.4386444559e+01   3.6866651579e+01     0.219241    0.2024406 -58.89  0.000673055    1.064    0.060
       184 -10.6718     95.6248    118.8241   3.6762756985e+01   3.9198980478e+01     0.410832    0.2521708 -71.42  0.001616405    2.128    0.530
       185 -11.8849     80.9160    119.4756   4.1661087622e+01   4.1638645997e+01    0.5743985    0.3049771  32.19  0.002261452    1.974    0.493
       186 -11.0886     82.3668    116.0946   4.0394147406e+01   4.2254441711e+01    0.3351501    0.2336129  22.76 0.0009531408    1.659    0.397
       187 -12.3208     24.8350    119.7204   6.2552579160e+01   4.9025036245e+01    0.8186452    0.2416698  24.15  0.002731806    3.230    0.690
       188 -10.0279     26.9998    125.4866   6.2480741563e+01   4.7217240395e+01    0.2152053    0.1458134  22.30 0.0005726527    1.561    0.359
       189 -11.4866     71.5804    118.6092   4.4670582946e+01   4.3405715993e+01    0.3387536     0.263455  55.75 0.0009699953    1.365    0.267
       190  -9.7507    201.5213    114.0879   1.2013241250e+01   2.0104275865e+01    0.1900306    0.1099817 -40.11 0.0003351272    1.444    0.307
       191 -10.6447     73.9844    114.2238   4.2838132899e+01   4.4159481585e+01     0.213807     0.201511  41.34 0.0003182849    1.080    0.074
       192 -12.1282     62.0715    109.3511   4.6066123293e+01   4.7338644421e+01    0.5500008     0.356746 -64.19  0.002169238    1.539    0.350
       193  -9.9086    165.4644    111.9683   1.7673297705e+01   2.7054753640e+01     0.219506    0.1282473 -42.97 0.0004861771    1.546    0.353
       194  -9.5419     36.5020    110.4285   5.6400869637e+01   5.0437341350e+01     0.150442     0.138961  75.52 9.962852e-05    1.083    0.077
       195 -10.0268    123.8026    109.2086   2.6323463685e+01   3.5960107391e+01    0.2035599      0.17651 -20.44 0.0004525776    1.299    0.230
       196 -11.0671      1.6984    108.4892   7.0692096449e+01   5.3788713157e+01    0.3553683    0.1250866 -61.51 0.0008327542    2.384    0.581
       197  -9.6094    139.5172    107.4804   2.2036213208e+01   3.3120614182e+01    0.1497375    0.1389827 -62.95  0.000809395    1.060    0.057
       198  -9.9663     98.4695    107.5229   3.3067257792e+01   4.1405494188e+01    0.1540897    0.1502939 -47.70 -6.861827e-05    1.038    0.036
       199 -11.2176     66.1026    105.4031   4.3619736575e+01   4.7742751168e+01    0.4056766    0.2044815  53.79 0.0009892636    2.568    0.611
       200 -10.9257    167.0270    104.8355   1.5660981384e+01   2.8093452587e+01    0.2308676    0.1824441 -43.19 0.0003234329    1.140    0.123
       201 -10.7894     12.4283    104.9185   6.5727432390e+01   5.4139146010e+01     0.293909    0.1770941 -23.66  0.001319748    1.992    0.498
       202 -10.0517      1.3349    103.7225   7.0396589744e+01   5.5123124105e+01     0.193201    0.1135639 -69.93 0.0005474878    1.495    0.331
       203 -10.9251    104.7347    102.5366   2.9847836147e+01   4.1335893105e+01    0.2722222    0.2526877 -81.34  0.000400106    1.102    0.092
       204  -9.6615     29.9978    103.5175   5.7899635128e+01   5.3035247478e+01    0.2127234    0.1018985  48.00 0.0008065233    2.338    0.572
       205 -10.5092     78.6135    101.6537   3.8100366936e+01   4.6564786794e+01    0.3098177    0.1908363  40.42 0.0009035991    1.637    0.389
       206 -11.5433     55.9781    101.0654   4.6510395507e+01   5.0447077390e+01    0.3099323    0.3010813 -40.77 0.0005052526    1.049    0.047
       207 -11.1258     57.7658     97.6038   4.4946856989e+01   5.1085136569e+01    0.3231601    0.2282459  49.24 0.0009236402    1.505    0.336
       208 -10.3516      9.9724     99.9245   6.6167339401e+01   5.5684632693e+01    0.1700628     0.152733 -73.08 0.0003149594    1.015    0.015
       209  -9.5664    115.4522    105.4704   2.7574738321e+01   3.8491862613e+01    0.1528116    0.1466815 -65.16 6.055896e-05    1.012    0.011
       210 -11.8079     94.0294     98.1361   3.1943154397e+01   4.4501541297e+01    0.5376776    0.2668759  48.63  0.002032834    2.140    0.533
       211  -9.8413     47.6603     99.3236   4.9513992527e+01   5.2088110635e+01    0.1617675    0.1127813  65.09  0.000705098    1.723    0.420
       212 -11.5949      5.7077     95.0301   6.7486555923e+01   5.7287030149e+01    0.2881039    0.1844635 -78.45 0.0007096124    1.434    0.303
       213 -10.2955     32.5280     97.5037   5.5660450963e+01   5.4418539582e+01    0.2747763    0.1847746  58.83  0.001182861    1.698    0.411
       214 -12.0420     42.9086     92.1191   4.9879081966e+01   5.4633505230e+01    0.5935212    0.2302937  33.88  0.002151779    2.500    0.600
       215 -11.1631     26.5868     92.6698   5.7402426425e+01   5.6341667201e+01    0.4298287    0.2975392 -47.52  0.001664332    1.399    0.285
       216 -10.5825     98.4318     96.7832   3.0175853436e+01   4.3936616976e+01    0.3106236    0.2096148 -36.84 0.0007977718    1.627    0.385
       217 -11.4064     79.0095     92.7204   3.5516648232e+01   4.8688422712e+01    0.2181325    0.2137248  34.40   0.00116935    1.051    0.049
       218 -11.0029     57.5567     91.9475   4.3575919713e+01   5.2578735193e+01    0.2769407     0.217262   7.88  0.000529936    1.506    0.336
       219  -9.9579    121.4565     90.0597   2.1726843588e+01   4.0559659297e+01    0.2333015     0.144952 -45.36  0.001017916    1.557    0.358
       220 -10.7474    101.9195     90.0084   2.7160378746e+01   4.4752851622e+01    0.2924409    0.2041623  45.32  0.001335502    1.457    0.314
       221 -11.2007     73.6171     90.1170   3.6748215300e+01   5.0314024159e+01    0.2683801    0.2114679  50.99 0.0008372606    1.318    0.241
       222 -10.0655     12.4836     90.5079   6.3669775437e+01   5.8103175850e+01    0.1432822    0.1299787 -61.95 0.0008103118    1.022    0.022
       223 -12.0857      3.2278     88.2757   6.7809779190e+01   5.9262238493e+01    0.4769193    0.2726966 -89.60  0.001926838    1.762    0.433
       224 -11.7831      7.0260     86.8917   6.5769685602e+01   5.9432645158e+01    0.2867333    0.2624504 -61.53 0.0005770992    1.022    0.021
       225 -10.8774    125.0688     87.9252   2.0202759651e+01   4.0210238150e+01    0.3966047    0.2242421 -43.34  0.001171286    1.713    0.416
       226 -12.9376     54.2996     84.8965   4.3022112047e+01   5.4877223469e+01    0.6839265    0.5320219 -74.34  0.002887883    1.408    0.290
       227 -10.2678    134.9709     84.4040   1.6852158505e+01   3.8726431802e+01     0.291604    0.2026089 -29.55  0.001159267    1.641    0.390
       228 -10.4538    189.9395     83.0254   6.6203158697e+00   2.7366401000e+01    0.2002799     0.168167 -49.31 0.0003106505    1.012    0.012
       229 -11.5454    152.0063     80.6178   1.2250008205e+01   3.5675102962e+01    0.3878586    0.2707082  11.80     0.001657    2.599    0.615
       230 -11.3726     64.3055     81.6080   3.7865689606e+01   5.4036862986e+01    0.2802088    0.2664772 -89.65 0.0002936554    1.091    0.083
       231 -10.1452     35.2945     82.3085   5.0990476831e+01   5.8161067692e+01    0.1529998    0.1057842 -32.39 0.0002687532    1.587    0.370
       232 -10.2342      9.9271     81.8469   6.3534102107e+01   6.0616787802e+01     0.230756    0.1745674 -43.35  0.000836918    1.271    0.213
       233 -11.4295     89.0340     78.7628   2.7802850811e+01   4.9928803348e+01     0.397676    0.2677248 -40.40 0.0008093877    1.541    0.351
       234 -10.9340      5.3127     80.6569   6.5707224805e+01   6.1209628550e+01    0.2211635    0.1894651  64.79 0.0007751909    1.248    0.199
       235 -10.6981      2.3125     78.6516   6.6964738837e+01   6.1899367311e+01     0.257538    0.1555394  30.20   0.00126022    1.773    0.436
       236 -10.0053    160.7727     77.9892   9.9320712169e+00   3.4228388812e+01    0.1965912    0.1508269  38.21 0.0005927222    1.610    0.379
       237 -11.1477    111.0687     77.3684   2.0683571564e+01   4.5447652650e+01    0.3160177    0.1950765 -60.84  0.001316247    1.924    0.480
       238 -11.8552     36.7399     75.8464   4.8589155460e+01   5.9646072276e+01    0.3212321    0.1864553 -75.42  0.001332891    2.104    0.525
       239 -10.7432      8.9981     76.4100   6.3079999855e+01   6.2126033910e+01    0.2751476    0.1961649 -72.30 0.0005798401    1.308    0.235
       240 -10.9093    105.4774     73.8448   2.1125465744e+01   4.7404231268e+01    0.3660289     0.301938 -59.77  0.001855075    1.232    0.188
       241  -9.3016     78.4964     75.5927   3.0460710765e+01   5.2776300416e+01    0.1493438    0.1461083  66.03 0.0001073621    1.021    0.021
       242 -10.9903     29.6214     55.2908   4.6031516508e+01   6.5551167535e+01    0.3202901    0.1821121  56.48  0.001308062    2.635    0.620
       243 -12.4826     33.9882     60.6796   4.5419996416e+01   6.3727686034e+01    0.6191079    0.2438464 -52.98  0.001978686    2.335    0.572
       244 -11.9422     27.9896     60.8795   4.8799306543e+01   6.4417017406e+01    0.3987894    0.2410578  40.48  0.001590571    1.776    0.437
       245 -11.6958     44.4520     73.1581   4.4056930168e+01   5.9274702316e+01    0.3691128    0.2590341  81.27  0.001608124    2.034    0.508
       246 -13.3989     37.5496     67.3731   4.5694780866e+01   6.1648525061e+01    0.8703202    0.5206181  41.97  0.003959079    1.775    0.437
       247 -11.1546     70.6355     70.1994   3.1632699205e+01   5.5516087793e+01    0.4799043    0.3014203 -27.58  0.001606297    2.150    0.535
       248 -11.0788     54.0264     70.5133   3.8758749207e+01   5.8428089883e+01    0.3094971    0.1977346 -37.02  0.001375418    1.713    0.416
       249 -11.6774     62.2118     68.0491   3.4334944138e+01   5.7574873183e+01    0.3377481    0.2738869  51.64 0.0009507095    1.293    0.227
       250 -10.9246     49.1431     66.0894   3.9539451844e+01   6.0255405165e+01    0.2374375    0.1947433 -21.97  0.001223179    1.331    0.249
       251  -9.8237     13.5069     66.5042   5.8580538309e+01   6.4398176129e+01    0.1374543    0.1290886 -54.45 -0.0001468276    1.037    0.035
       252 -10.2147     46.9755     62.7311   3.9424021904e+01   6.1375567024e+01    0.2042158    0.1823419  28.78 0.0004023127    1.126    0.112
       253  -9.5552     54.7176     61.9935   3.5492241949e+01   6.0260217854e+01    0.1978985    0.1873556 -38.13 0.0005080038    1.048    0.046
       254 -11.7868     18.7516     60.7966   5.4091729863e+01   6.5397220744e+01    0.3727963    0.2955426   3.89  0.001871992    1.317    0.240
       255 -11.3244     12.3321     59.8165   5.7660167925e+01   6.6181377473e+01    0.2875711    0.2314242  -5.61 0.0005294631    1.284    0.221
       256 -10.3849     42.1102     59.1416   4.0590936963e+01   6.2946779920e+01    0.2316553    0.1908304 -16.42 0.0009556094    1.309    0.236
       257 -10.0318    153.0150     57.6834   5.5941322344e+00   3.9304592432e+01    0.1895144    0.1696441  86.64 0.0003314812    1.105    0.095
       258 -11.6857     23.7642     56.3712   4.9811496495e+01   6.5974963319e+01    0.3092155    0.2973551 -48.58 0.0006812337    1.074    0.069
       259 -11.8283    111.0879     53.5590   1.2778063812e+01   4.9857857495e+01    0.5026891    0.3499478  -9.81  0.002225881    2.195    0.544
       260 -11.4604    122.0017     53.1661   1.0095764166e+01   4.7321172463e+01    0.3082209    0.2525844  -0.51  0.001581578    1.643    0.391
       261 -10.0535    115.6869     54.3054   1.1921940751e+01   4.8639533499e+01    0.1506875     0.109248 -74.87 0.0003746875    1.619    0.382
       262 -10.4255     37.4465     54.2427   4.1269170176e+01   6.4743539588e+01    0.1908574    0.1381025 -67.44 0.0009410843    1.606    0.377
       263  -9.9920    151.3138     52.6427   4.4004733785e+00   4.0470471726e+01    0.1525648   0.09552661 -65.01 0.0007044036    1.744    0.427
       264 -10.6532    106.0248     51.0102   1.3153941571e+01   5.1486460246e+01    0.2178378    0.2057599 -88.62  0.001232001    1.013    0.013
       265  -9.5499    143.6543     50.7318   5.1030223318e+00   4.2549644576e+01    0.1353593    0.1076162  34.50 0.0002471852    1.613    0.380
       266 -11.4281     30.6946     49.8096   4.3419794859e+01   6.6669046559e+01    0.3005494    0.2270759 -20.07  0.001584135    1.422    0.297
       267 -11.1291     16.3946     49.6324   5.2197735258e+01   6.8319452277e+01    0.3220206    0.2162725 -45.86  0.001044021    1.368    0.269
       268 -12.2100     97.9883     47.3085   1.3937042943e+01   5.4001351724e+01    0.5945003    0.3443498 -67.01  0.002302121    2.693    0.629
       269  -9.8427     44.2229     48.2844   3.5296975603e+01   6.4990960195e+01    0.1865056    0.1659375  69.95 0.0009433947    1.342    0.255
       270  -9.7555     78.3607     47.1458   2.0019539194e+01   5.8524486056e+01    0.2100714     0.130833 -50.77 0.0009453824    1.759    0.431
       271  -9.7318     49.9858     43.9720   3.0523013667e+01   6.4865047537e+01    0.1697289    0.1557319  27.53 0.0004823997    1.055    0.052
       272 -11.4695    128.9372     45.9998   6.2777367287e+00   4.6773056754e+01     0.352252    0.2039756 -33.91  0.000860292    1.780    0.438
       273 -11.7175     33.5469     40.0000   3.7675044157e+01   6.8376051194e+01     0.339084    0.2198315  25.26  0.001354797    1.573    0.364
       274 -10.7694     80.2445     36.8369   1.5032827288e+01   5.9813906283e+01    0.3920495    0.2166196 -41.95  0.001760214    1.888    0.470
       275 -11.1994     28.6811     37.9379   3.9737375236e+01   6.9497164878e+01     0.193753    0.1706014 -37.19 0.0007062036    1.118    0.106
       276 -10.9438     21.3312     34.9931   4.3271034945e+01   7.1062740434e+01    0.1898341    0.1694212 -36.61 0.0006393227    1.100    0.091
       277 -10.5413     86.3161     34.3265   1.2064208878e+01   5.8781145916e+01    0.1445561    0.1073117  25.44 0.0004195347    1.673    0.402
       278 -10.2506     63.7772     33.4505   1.9469884131e+01   6.4003497854e+01    0.2825874    0.1335153  55.38  0.001151356    2.204    0.546
       279 -10.2477    114.4660    249.0290   5.2618538760e+01   8.0980844813e+00     0.149705    0.1193838 -54.13 0.0004462727    1.544    0.352
       280 -11.2837      4.1181     30.5142   5.4368075485e+01   7.3698502361e+01    0.3385867    0.2950467  20.46  0.002168353    1.230    0.187
       281 -11.4540     89.8509     30.7131   9.5187626773e+00   5.8456307264e+01    0.2651264    0.1974615 -45.17 0.0006220056    1.406    0.289
       282 -11.2754     77.5313     30.6832   1.3187519755e+01   6.1361849506e+01    0.2452668    0.2058933  62.70 0.0004792352    1.149    0.129
       283 -10.5201     61.3259     28.8800   1.8242138473e+01   6.5242071613e+01     0.187552    0.1770485 -13.90 0.0007692648    1.107    0.097
       284 -11.0187     67.7174     27.6641   1.5164938572e+01   6.4025918452e+01    0.2393512    0.1707332 -19.76  0.000737438    1.640    0.390
       285 -11.7282     30.7308     31.5781   3.5412452836e+01   7.0464289266e+01     0.301302    0.2420053   9.58  0.001088642    1.250    0.200
       286 -11.8234     85.2834     23.7620   7.7370418337e+00   6.0471953230e+01    0.3020632    0.2460462  88.93 0.0004230747    1.309    0.236
       287 -10.7701     81.5826     19.7499   6.9240536025e+00   6.1853058101e+01    0.2331956    0.1646922 -75.82 0.0007368082    1.764    0.433
       288  -9.9241      1.4503     25.0642   5.4472022772e+01   7.5072092976e+01    0.1800286    0.1166653 -60.29 0.0004470147    1.514    0.340
       289 -10.2517     19.3558     23.8643   3.9213518853e+01   7.3532918331e+01    0.2067283    0.1675464  32.40 0.0006079671    1.272    0.214
       290 -11.5142     70.2216     21.2343   1.1114873220e+01   6.4337986466e+01    0.2626211    0.2180546 -34.87 0.0006920364    1.295    0.228
       291 -10.1404    100.3140     21.6452   3.1688677028e+00   5.7064937962e+01    0.1467234   0.09721065 -66.38 0.0007045111    1.737    0.424
       292 -10.5342    132.8211     17.1447   3.5594919645e+02   4.9528610390e+01     0.202859    0.1961507  -3.77 0.0004541545    1.265    0.209
       293  -9.7757     54.5048    249.4576   6.5849723310e+01   1.4468424775e+01     0.120839    0.0955082  37.35 4.975846e-05    1.012    0.011
       294  -9.9423     49.6461    249.7262   6.6948245678e+01   1.4904762292e+01    0.1120743   0.08536744  -6.70 0.0007002454    1.641    0.391
       295 -11.7978     29.7781    247.5217   7.1241376246e+01   1.7226015951e+01    0.3572081    0.2530442  52.05  0.002309386    1.190    0.160
