#   1 NUMBER                 Running object number                                     
#   2 MAG_AUTO               Kron-like elliptical aperture magnitude                    [mag]
#   3 X_IMAGE                Object position along x                                    [pixel]
#   4 Y_IMAGE                Object position along y                                    [pixel]
#   5 X_WORLD                Barycenter position along world x axis                     [deg]
#   6 Y_WORLD                Barycenter position along world y axis                     [deg]
#   7 A_WORLD                Profile RMS along major axis (world units)                 [deg]
#   8 B_WORLD                Profile RMS along minor axis (world units)                 [deg]
#   9 THETA_WORLD            Position angle (CCW/world-x)                               [deg]
#  10 FWHM_WORLD             FWHM assuming a gaussian core                              [deg]
#  11 ELONGATION             A_IMAGE/B_IMAGE                                           
#  12 ELLIPTICITY            1 - B_IMAGE/A_IMAGE                                       
         1 -13.3367     26.9981     37.5741   6.1333958513e+01   6.8986877881e+01    0.4848441    0.2214297  42.49  0.002118736    2.299    0.565
         2 -11.8397    132.0561     19.1771   1.8237069931e+01   4.9347856579e+01    0.4158479    0.1744003 -54.04  0.001783336    2.570    0.611
         3 -11.4527     81.4081     19.2178   2.8726214590e+01   6.1448231336e+01    0.1774286    0.1203874 -50.08 0.0009479552    1.676    0.403
         4 -10.7162    122.9398     11.9661   1.7347533851e+01   5.2329025205e+01    0.1552344    0.1268461  86.02 0.0003325715    1.011    0.011
         5 -11.7598     91.8820      7.7477   2.1459909656e+01   6.0258658499e+01    0.2549406    0.1422122 -58.76   0.00123857    2.155    0.536
         6 -10.9257     81.2601      8.6529   2.4354000062e+01   6.2690841001e+01    0.1275077   0.09171411 -71.73 0.0003144902    1.601    0.375
         7 -11.8023     33.3437      7.8905   4.3127271356e+01   7.2998018844e+01    0.1898021    0.1497696  46.54 0.0003306847    1.184    0.155
         8 -10.6027    115.6646      3.3537   1.5595237878e+01   5.4946757594e+01    0.1393849    0.0808694 -68.93 0.0007044328    1.793    0.442
         9 -10.7820    100.3075      2.3024   1.7701217507e+01   5.8756894865e+01    0.1275911   0.08546482  47.44  0.000358761    1.601    0.375
        10 -10.3845     49.2695      2.6577   3.2071305021e+01   7.0513539490e+01    0.1172035   0.09439505 -80.18 0.0003066298    1.608    0.378
        11 -11.7933    198.9662    241.2032   5.2347499616e+01   3.6815909102e-01    0.1520371    0.1266508  12.04 0.0004850131    1.275    0.216
        12 -12.0147    245.9795    250.1605   4.6069492649e+01  -4.8030666340e+00    0.1463256     0.104653 -11.34 0.0007820419    1.059    0.055
        13 -11.3564    237.5270    248.3665   4.7077389778e+01  -3.9365086667e+00    0.2561527   0.08443893 -43.54  0.001380751    3.139    0.681
        14 -11.8803    124.2472    250.4657   6.8194933865e+01   6.8164536529e+00    0.2001483    0.1203008  13.90  0.001134012    1.522    0.343
        15 -12.0360     83.7832    250.6444   7.7318782640e+01   1.1293478825e+01    0.2982784   0.09906901  25.11  0.001092179    2.482    0.597
        16 -15.3658     21.1398    169.9684   8.7534864096e+01   3.6220371433e+01     2.409781     1.092486  35.90   0.01042927    1.900    0.474
        17 -15.9557      7.0005    217.6913   9.4134938632e+01   2.5825945584e+01     1.713399    0.4925642  34.32  0.007230032    2.392    0.582
        18 -17.2007      4.8157    233.7618   9.5224311832e+01   2.2503940627e+01     2.077928     1.150642  85.06   0.01161292    1.873    0.466
        19 -17.1367     11.8785    238.9482   9.3708409867e+01   2.0831601851e+01     1.862252     1.246956 -18.37   0.01051059    2.157    0.536
        20 -10.8517    186.8944    241.1806   5.4490592890e+01   1.5586174340e+00    0.1486834    0.1024389  -5.68            0    1.269    0.212
        21 -11.9730    107.1289    241.0475   7.0994079602e+01   1.0412616497e+01    0.2013155    0.1681927 -32.95 0.0006670713    1.347    0.257
        22 -13.1773    103.1729    237.5492   7.1536007689e+01   1.1521308043e+01    0.4005663     0.272091   8.66   0.00227433    1.481    0.325
        23 -11.3848     97.7656    238.0634   7.2856335175e+01   1.2057697617e+01    0.1943727    0.1709841  72.36 0.0006044575    1.389    0.280
        24 -15.9762     35.9141    199.6195   8.5351558322e+01   2.7402467133e+01     3.724765     1.309615 -79.10   0.01390885    3.256    0.693
        25 -11.5585     98.9926    248.4404   7.3613545374e+01   1.0000951670e+01    0.2777785    0.1408574 -37.70  0.001365626    2.546    0.607
        26 -10.8820    239.9472    239.4483   4.5538184760e+01  -3.0477810105e+00    0.1312016   0.08259141  17.30 0.0004063789    1.528    0.345
        27 -11.3252    218.1702    237.8500   4.8680084877e+01  -9.7091372225e-01    0.1453793    0.1190035  -9.29 0.0004653069    1.187    0.157
        28 -11.2152    176.9252    235.7750   5.5619609966e+01   3.3899562911e+00    0.1721601    0.1252325  -5.78  0.000770029    1.209    0.173
        29 -10.7040    137.2206    235.9448   6.3690395730e+01   7.8078366674e+00    0.1355808    0.1002335 -48.55 0.0008381197    1.554    0.357
        30 -11.3496    122.4552    236.2999   6.6981938912e+01   9.4771958758e+00    0.2287292   0.09594633  28.03  0.001031932    1.994    0.499
        31 -16.4049     39.0060    243.8196   8.7434484659e+01   1.7334504171e+01     2.674454     1.836761 -48.70   0.01592183    1.856    0.461
        32 -11.0311    158.4849    233.4873   5.8926950108e+01   5.7749292580e+00    0.1195711   0.09903459   5.85  0.000161645    1.020    0.019
        33 -12.1585    181.5242    230.9824   5.4104649567e+01   3.6277728780e+00    0.2941144    0.2313198 -60.85  0.001956859    1.935    0.483
        34 -12.2243    178.1492    228.6790   5.4421895576e+01   4.3477516901e+00     0.193069    0.1462831 -26.31 0.0004103124    1.229    0.187
        35 -11.5815    193.9543    228.9504   5.1557182726e+01   2.6206497892e+00    0.1761103    0.1421464  -6.14  0.001271017    1.033    0.032
        36 -11.7876    150.0118    229.3206   6.0121468957e+01   7.4435395802e+00    0.1753146    0.1360776  19.88 0.0005526441    1.128    0.113
        37 -12.1084    231.9596    227.5702   4.5109585602e+01  -8.6019145509e-01    0.2460358    0.1364837 -24.35  0.001670061    1.521    0.343
        38 -12.0122    154.9515    227.5219   5.8854438666e+01   7.1680527055e+00    0.2571126    0.1247583 -19.15  0.001044334    3.493    0.714
        39 -12.3293    112.8243    227.1712   6.8110072906e+01   1.2324529886e+01    0.2422205    0.1491826 -27.40 0.0008108352    2.013    0.503
        40 -11.8082    128.7429    226.1730   6.4332202197e+01   1.0555908418e+01    0.2517899    0.1358349 -40.58 0.0008476821    2.030    0.507
        41 -12.3363    105.7161    226.2860   6.9686163627e+01   1.3368338840e+01    0.2447047    0.2041061   3.14 0.0008106737    1.184    0.156
        42 -13.3933     77.1812    219.6980   7.6028818245e+01   1.8194620219e+01    0.8428518    0.4452501  86.72  0.002729206    3.147    0.682
        43 -11.2582    222.2544    225.7536   4.6357043363e+01   2.7163054613e-01    0.1447617   0.09531546 -13.85 0.0004689497    1.292    0.226
        44 -12.6846     92.0920    225.5954   7.2907176536e+01   1.5170600623e+01      0.27317    0.2040488  52.11 0.0009513387    1.409    0.290
        45 -12.6976     80.3073    222.3576   7.5503405317e+01   1.7258693365e+01    0.3182171    0.2326925   6.72  0.001532888    1.460    0.315
        46 -12.1755     68.0258    224.7727   7.8846827168e+01   1.8190833359e+01    0.2251522    0.1864463  47.91 0.0001979416    1.135    0.119
        47 -12.7368    246.1057    220.6383   4.2065992227e+01  -1.2096338063e+00    0.2358833    0.1462556 -19.51 0.0007185754    1.297    0.229
        48 -11.0182    211.5949    222.8006   4.7661219477e+01   1.7135749194e+00    0.1426218   0.09443847 -44.70 0.0009525754    1.672    0.402
        49 -12.2794    159.9484    222.3476   5.7121054068e+01   7.4500907183e+00    0.3011123    0.1925413  27.40 0.0008486912    1.426    0.299
        50 -12.5891    124.2837    221.6595   6.4770297843e+01   1.1948402354e+01    0.3356095    0.1846293  36.56  0.001714156    1.658    0.397
        51 -12.7776    237.4569    219.4200   4.3142284020e+01  -2.8624868113e-01    0.2989324    0.1893701 -42.12  0.002144659    1.629    0.386
        52 -12.7313    173.7177    219.3675   5.3961592438e+01   6.3273689696e+00     0.301625    0.2104679 -43.95  0.001434075    1.513    0.339
        53 -12.4940     87.3951    220.6163   7.3537461947e+01   1.6763351796e+01    0.2363151    0.1966546  18.00 0.0004662556    1.118    0.106
        54 -12.9004    232.2675    218.8590   4.3834639195e+01   2.6434284888e-01    0.3147081    0.1395729 -39.96  0.001901002    1.954    0.488
        55 -11.4438    222.6243    220.1667   4.5505820770e+01   9.9975998435e-01     0.167726     0.123173  20.90 0.0008624802    1.416    0.294
        56 -11.6176    193.3991    220.2435   5.0422603652e+01   3.9812284133e+00    0.1479427    0.1025354 -46.93 0.0009534724    1.644    0.392
        57 -14.0028     64.6536    215.4486   7.8863473496e+01   2.0595877150e+01     1.023554    0.3917612  34.03  0.003419154    2.067    0.516
        58 -11.5926     75.3555    212.0956   7.5722191185e+01   2.0059481321e+01    0.3176922     0.217557  31.11  0.001160894    1.256    0.204
        59 -13.2737     60.2925    207.2998   7.9261892931e+01   2.2933695066e+01    0.5027425    0.4145897  31.83  0.001545145    1.075    0.070
        60  -9.7900     64.7537    203.2985   7.7654902641e+01   2.3324872600e+01    0.2772232    0.2017691  10.54 0.0006822583    1.473    0.321
        61 -12.8828     84.6858    215.3399   7.3651734313e+01   1.8208536686e+01    0.6156589    0.3538689  24.29  0.002771437    1.569    0.362
        62 -11.9348     79.5421    212.6174   7.4683965964e+01   1.9431606501e+01    0.3649578    0.2380235  31.79  0.001265935    1.313    0.239
        63 -11.0412     62.4816    200.3547   7.7981178132e+01   2.4279911569e+01     0.167571    0.1293385  76.32 0.0001158652    1.418    0.295
        64 -13.8277    136.5379    200.3611   5.9012795378e+01   1.4441051695e+01    0.5057476    0.2784773 -40.97  0.002474393    1.914    0.477
        65 -12.5334    145.2155    216.8015   5.9445100102e+01   1.0215767451e+01    0.3276899    0.3113805   7.26   0.00224783    1.170    0.145
        66 -13.5820    140.1049    211.9920   5.9891706400e+01   1.1747359862e+01    0.6478493    0.4029434 -48.34  0.003415579    1.712    0.416
        67 -14.4345    145.5648    201.9450   5.7224627970e+01   1.2913206698e+01    0.8205442    0.5569224  70.73  0.003851511    2.832    0.647
        68 -13.5016    107.8110    214.9409   6.7819669245e+01   1.5360001626e+01    0.4428787    0.3255281  80.55   0.00202636    1.937    0.484
        69 -12.0022    208.0300    215.3547   4.7179250458e+01   3.1512175196e+00    0.1798041    0.1220857 -23.95 0.0003153732    1.260    0.206
        70 -12.2249    248.3726    214.0357   4.0813821880e+01  -5.6155248505e-01    0.2243275    0.1759701 -52.68  0.001397041    1.980    0.495
        71 -12.5827    119.0288    213.4889   6.4935919467e+01   1.4197633389e+01     0.392767    0.1718593  40.16  0.001137679    2.181    0.542
        72 -11.5978    156.2002    212.9321   5.6560394950e+01   9.5295143936e+00    0.2751396    0.1921702 -67.83 0.0009362888    2.178    0.541
        73 -13.5803    159.3457    206.3323   5.4936599176e+01   1.0300111748e+01    0.4016071    0.3002056   4.80  0.001230752    1.309    0.236
        74 -12.1716    124.9758    212.7504   6.3439353502e+01   1.3567921943e+01     0.208571     0.187713 -36.69 0.0004273831    1.205    0.170
        75 -12.4072    123.3639    209.8074   6.3418205948e+01   1.4356362946e+01     0.215144    0.1993556 -32.24 0.0005186874    1.166    0.143
        76 -12.2145    113.3663    210.3920   6.5886968298e+01   1.5558564202e+01    0.2484881    0.1892116  21.11 0.0007713967    1.191    0.160
        77 -13.2305    229.0966    206.6763   4.2541074578e+01   2.2372922785e+00    0.3371333    0.2251252 -42.81 0.0006670161    1.527    0.345
        78 -11.4062     90.8803    210.1854   7.1479451269e+01   1.8530898533e+01    0.1941861    0.1640703  39.87 0.0002571814    1.100    0.091
        79 -12.0516    242.1354    207.9964   4.0821748704e+01   7.9696278993e-01    0.1552878    0.1144273 -21.06 0.0003314848    1.019    0.019
        80 -12.7152    103.7626    206.7785   6.7787876270e+01   1.7575181464e+01     0.365579    0.2590733  39.52  0.001326451    1.310    0.236
        81 -11.2829     68.1342    207.6686   7.7182500183e+01   2.1921421220e+01    0.2580005    0.1400248  29.50  0.001180812    1.586    0.369
        82 -11.2316     71.5001    206.5133   7.6159778824e+01   2.1773656634e+01    0.2974773    0.2267917  71.70  0.001627799    1.471    0.320
        83 -11.5028    205.0402    206.1067   4.6308291495e+01   4.8540621265e+00    0.1655037    0.1352803 -13.55 0.0003074025    1.012    0.012
        84 -12.5432    116.9774    205.4382   6.4347912397e+01   1.6085742277e+01    0.2697279    0.2336525  83.06   0.00117423    1.455    0.313
        85 -13.0159     89.7442    202.1608   7.0809737720e+01   2.0426679913e+01    0.5899696     0.308346 -45.49  0.001189177    2.191    0.543
        86 -13.4714     93.1530    192.6163   6.8682406624e+01   2.2102213905e+01     1.053707     0.494024  46.28  0.002829125    2.202    0.546
        87 -13.4601     93.9369    182.9826   6.7140793959e+01   2.4195687651e+01    0.5231494    0.3261046 -60.90  0.002488682    1.738    0.425
        88 -12.5204    180.0254    207.9819   5.1080234963e+01   7.4482797193e+00    0.2836007    0.1635106  19.44   0.00136984    1.767    0.434
        89 -11.1085    110.2748    203.3133   6.5704264329e+01   1.7430294212e+01    0.1340159   0.09995469 -16.33 0.0001590883    1.559    0.359
        90 -13.5538    122.2989    196.1799   6.1746309605e+01   1.7256765971e+01    0.4824108    0.3408012 -87.70  0.002369993    2.192    0.544
        91 -11.7096    212.1772    199.6797   4.4142963028e+01   5.0352059418e+00    0.1868662    0.1385419 -42.53 0.0009122036    1.392    0.281
        92 -12.2290     84.0949    198.6320   7.1880136265e+01   2.1958581438e+01    0.3881182    0.2569366  73.27  0.001089916    1.982    0.496
        93 -12.4950     81.8086    193.5474   7.1876393949e+01   2.3422591614e+01    0.6730086    0.2567363  38.88  0.001546646    2.271    0.560
        94 -12.6449     64.3924    183.6807   7.5619950825e+01   2.8032142731e+01     1.603675    0.7736374   1.91  0.004919306    4.428    0.774
        95 -12.9726     70.2358    187.1699   7.4341767028e+01   2.6440509334e+01    0.7430404    0.2443221  41.65  0.002623953    2.706    0.631
        96 -12.7057     75.3491    186.1580   7.2759398861e+01   2.6014270894e+01    0.8019745     0.330264 -54.51  0.003162616    2.529    0.605
        97 -12.9069    219.5324    198.1717   4.2734056919e+01   4.4533285977e+00    0.2091927    0.1635658 -28.43 0.0004014334    1.111    0.100
        98 -12.8508    179.9219    197.5350   4.9496048563e+01   9.2092387099e+00    0.2737736    0.2429958  39.64  0.001018673    1.368    0.269
        99 -11.5541    166.3155    196.1274   5.1944245876e+01   1.1213528351e+01     0.212447    0.1710963 -15.17 0.0006385946    1.182    0.154
       100 -13.1385    161.3084    191.6411   5.2259494866e+01   1.2700035308e+01    0.4333712    0.2959439  54.91     0.002292    2.054    0.513
       101 -12.3026    201.9824    195.5744   4.5208425099e+01   6.8344585308e+00    0.1873114    0.1336454 -34.98  0.001229084    1.249    0.200
       102 -13.6672    190.0044    194.0570   4.7076787527e+01   8.5288566067e+00    0.4274209    0.3242417  39.62  0.001439012    1.540    0.351
       103 -12.3759    173.0679    195.7385   5.0537345515e+01   1.0396898448e+01    0.2192265     0.163033 -32.19 0.0004101328    1.266    0.210
       104 -13.4120    151.8098    195.1095   5.4817833884e+01   1.3355333950e+01    0.4208117      0.25354  31.99  0.001322829    1.584    0.369
       105 -11.0798     63.2000    194.8644   7.7209676027e+01   2.5485308821e+01    0.1757848     0.154416  -9.54 0.0002257941    1.293    0.226
       106 -10.9538     69.7267    193.8965   7.5268648351e+01   2.4905013446e+01    0.1765222    0.1625062  64.72 0.0002878126    1.110    0.099
       107 -11.5358    212.3972    193.2030   4.3103160437e+01   5.9932933675e+00    0.1561373    0.0967687 -47.77 0.0009490161    1.703    0.413
       108 -12.8212    134.1038    190.1999   5.8030509439e+01   1.6803887780e+01    0.3449203    0.2086472   7.62  0.001553249    2.216    0.549
       109 -12.5955     50.8673    190.0387   8.0247561101e+01   2.8106426093e+01    0.3947744    0.2519945  11.20 0.0009748801    1.753    0.429
       110 -11.0782    234.4830    189.9888   3.9222339161e+01   4.0418678552e+00    0.1390173   0.08629067 -56.75 0.0008095961    2.477    0.596
       111 -11.7127    174.0315    188.5109   4.9192141103e+01   1.1540872209e+01    0.1870176    0.1172935  31.49  0.001034958    1.599    0.375
       112 -11.6653    152.3095    188.3451   5.3637494908e+01   1.4570152275e+01    0.1373266    0.0951333 -14.12 0.0007044795    1.702    0.412
       113 -12.2907    111.1015    187.9311   6.3317428830e+01   2.0607525327e+01    0.5389804    0.1838773  29.45  0.001908835    2.832    0.647
       114 -12.4114     43.3499    186.6926   8.2133787328e+01   2.9769827912e+01    0.2819092    0.2377605  70.40  0.000776948    1.168    0.144
       115 -12.1541    194.4934    186.6497   4.5086291449e+01   9.1896880246e+00    0.2180259    0.1413903  34.55 0.0009738065    1.648    0.393
       116 -12.0482    156.9157    185.9998   5.2269830781e+01   1.4364088221e+01    0.2387378    0.1725208 -37.43  0.001354113    1.358    0.263
       117 -13.0921    127.6645    186.3901   5.8963547559e+01   1.8521316218e+01    0.2823796    0.2448672  65.48  0.001627816    1.373    0.272
       118 -13.3289    121.2585    186.5226   6.0548282141e+01   1.9432115611e+01     0.420608    0.2409817  29.40  0.001288017    1.654    0.395
       119 -11.8019    247.5905    185.7233   3.6744237759e+01   3.2867443344e+00    0.2010828    0.1403768   0.62  0.001482074    1.535    0.348
       120 -11.6980    210.4461    182.5140   4.1717080871e+01   7.8800571324e+00    0.1705161   0.09188558 -33.86 0.0006399543    1.662    0.398
       121 -11.9865    164.0685    185.0838   5.0627149993e+01   1.3527381307e+01    0.2140976    0.2004602  -6.52 0.0008692749    1.067    0.063
       122 -12.4431    167.7027    182.4541   4.9452960376e+01   1.3501833377e+01    0.2566445    0.1113926 -42.63  0.001148879    2.224    0.550
       123 -13.0409     89.7479    183.0473   6.8303067114e+01   2.4776209583e+01    0.4581544    0.3016225 -67.23  0.001043362    1.703    0.413
       124 -12.7646     49.7745    183.1048   7.9878997936e+01   2.9941136772e+01    0.4669462    0.2381313  40.25  0.001743993    1.719    0.418
       125 -12.4767    202.0997    182.4785   4.3092611958e+01   8.9141941607e+00    0.2606315    0.2001255   9.33  0.001064205    1.342    0.255
       126 -11.1378    198.4387    180.4679   4.3386947043e+01   9.7067808368e+00    0.1635934     0.104146 -49.13 1.519817e-05    1.628    0.386
       127 -13.3824    118.4076    179.9705   6.0234184498e+01   2.1266430487e+01    0.5061442    0.3238086  58.59  0.001376434    2.042    0.510
       128 -11.8187    142.1239    181.1545   5.4727091369e+01   1.7458967262e+01     0.201902     0.171632  -6.77 0.0003342757    1.201    0.167
       129 -11.2911    246.2590    179.5861   3.5978978078e+01   4.2731482518e+00     0.126056   0.09135603   7.66 0.0004325079    1.528    0.346
       130 -11.9293    191.4109    178.1981   4.4240480809e+01   1.1004576051e+01     0.167246    0.1084888 -51.31  0.000585501    1.657    0.397
       131 -14.3423    127.7101    174.7604   5.7069251255e+01   2.0971997985e+01    0.8255483    0.5101445 -88.63  0.003111924    3.518    0.716
       132 -13.0321    126.6807    166.6676   5.5941508142e+01   2.2878592818e+01    0.3516322    0.2349779 -12.23   0.00151277    2.190    0.543
       133 -12.3003     62.0891    177.1843   7.5532156203e+01   2.9927199076e+01    0.3699265    0.2194703  18.39  0.001088073    1.781    0.439
       134 -10.9665    239.1454    185.1614   3.7814461273e+01   4.2362795450e+00    0.1306414    0.1120566 -37.09 0.0002461124    1.298    0.230
       135 -13.6616    148.9781    175.3291   5.2208401716e+01   1.7596900053e+01    0.5016877    0.3226168  55.47  0.001016595    2.068    0.516
       136 -12.5033    137.5126    176.9986   5.5099789222e+01   1.8998775700e+01    0.2560779    0.1966906  28.77 0.0004765675    1.259    0.206
       137 -12.8925    105.7143    176.2893   6.2951568239e+01   2.4001908206e+01    0.2983945    0.2419227  19.19 0.0007636661    1.235    0.190
       138 -11.9759    247.9368    175.9787   3.5196736668e+01   4.6001704704e+00    0.1587003    0.1211441 -29.56 0.0002988202    1.028    0.027
       139 -12.2608    224.2700    174.8081   3.8319201856e+01   7.4145892422e+00    0.2251448     0.177196 -53.05 0.0007162536    1.505    0.336
       140 -11.2673    212.1931    176.3955   4.0437739916e+01   8.6299933346e+00    0.1347341    0.1087211  41.28 0.0002896757    1.524    0.344
       141 -13.5674    131.0428    169.2674   5.5322998936e+01   2.1624602899e+01    0.4212306    0.2401306  41.40  0.001623352    1.732    0.423
       142 -10.8369    242.5233    175.4513   3.5834777344e+01   5.2527696015e+00    0.1070223   0.08349997 -28.47 0.0001443144    1.022    0.021
       143 -15.4600     70.2345    241.5875   7.9750149089e+01   1.4511205577e+01     1.805294     1.592057  74.84   0.01178263    1.301    0.232
       144 -13.0112     83.3099    165.5325   6.7591211174e+01   2.9905502456e+01    0.3667177     0.231158 -58.15  0.001010739    1.657    0.396
       145 -13.2144     87.7105    165.0134   6.6216342711e+01   2.9378028125e+01    0.3166033    0.2391794  37.30  0.001385315    1.233    0.189
       146 -13.3415     90.4370    172.1627   6.6529116446e+01   2.7248760873e+01    0.5319805    0.3115468 -50.59   0.00121959    1.808    0.447
       147 -12.5889     91.8339    166.1765   6.5204506693e+01   2.8474371532e+01    0.2689056    0.2046475  26.40 0.0002781696    1.286    0.222
       148 -11.4674    235.1382    171.0404   3.6145243235e+01   6.7120457808e+00    0.1924322    0.1067009 -21.41  0.001099694    2.067    0.516
       149 -11.4396    191.6759    171.6794   4.3090651090e+01   1.2079924074e+01    0.1263786   0.08749776 -12.43 0.0007046157    1.678    0.404
       150 -11.3847    166.1656    170.8306   4.7783128339e+01   1.5885157167e+01    0.1737606     0.141502  -7.65 0.0002357869    1.292    0.226
       151 -12.0906    160.0302    168.9684   4.8721917118e+01   1.7164427472e+01    0.2969798    0.1756389 -37.90  0.001475524    1.703    0.413
       152 -13.0131    153.0497    169.8487   5.0366504833e+01   1.8061934799e+01    0.3169993    0.2519018 -41.27 0.0007573475    1.234    0.190
       153 -12.7351    156.8965    165.7808   4.8818768432e+01   1.8266936936e+01    0.3112302    0.2493406  27.36   0.00058896    1.264    0.209
       154 -13.8127    152.0011    165.0583   4.9746026573e+01   1.9176736979e+01    0.4974333    0.3322448  26.74  0.001819781    1.588    0.370
       155 -12.8955     61.9545    169.9018   7.4671999875e+01   3.1773169385e+01    0.4746523    0.2877619  87.76  0.002048027    2.072    0.517
       156 -12.3112    197.1207    170.7001   4.1974637509e+01   1.1505919460e+01    0.2470044    0.1550418 -35.60  0.001432052    1.437    0.304
       157 -11.2547     74.5892    169.6547   7.0794993143e+01   3.0137469871e+01    0.3126175     0.144618 -62.68  0.001238812    2.258    0.557
       158 -12.0548     72.2774    165.6346   7.0926501965e+01   3.1462313151e+01    0.5790984    0.1360067 -59.19  0.001738849    3.873    0.742
       159 -12.3240     54.1745    168.0475   7.6864632071e+01   3.3225654191e+01    0.2597574    0.2075967  -6.19  0.001295904    1.483    0.326
       160 -12.4800     56.8363    164.4990   7.5585722786e+01   3.3805362030e+01     0.411902    0.2005152 -87.48  0.001486372    2.909    0.656
       161 -15.8216     11.4822    185.5397   9.1470237654e+01   3.3078705739e+01     4.905228    0.6034985  36.66    0.0154796    3.838    0.739
       162 -10.6208     53.2995    177.6032   7.8235142722e+01   3.0904661827e+01    0.1610967   0.09573366  59.74 0.0007003411    1.813    0.448
       163 -11.8103     50.3140    165.2885   7.7759246205e+01   3.4403627434e+01    0.3798711     0.169471 -57.67   0.00141087    2.267    0.559
       164 -13.1107     47.8564    161.5178   7.8104826023e+01   3.5674496134e+01    0.5301001    0.2539923  49.21  0.002116665    2.094    0.522
       165 -12.3524    212.2388    164.0498   3.8364183260e+01   1.0589332340e+01    0.2241308    0.1674549 -49.32 0.0003422242    1.364    0.267
       166 -12.5876    199.2081    165.3993   4.0709556553e+01   1.2112698391e+01    0.2267862    0.1920598  84.56  0.001213976    1.758    0.431
       167 -13.3597     66.7341    163.4002   7.2323632070e+01   3.2789065072e+01    0.5136092    0.2717055  27.43   0.00215372    1.810    0.448
       168 -13.5254     37.8509    161.5895   8.1384748560e+01   3.6780352738e+01    0.5975927    0.2896297  25.61  0.002401348    1.938    0.484
       169 -12.3635     29.4708    161.4371   8.4127436653e+01   3.7675410413e+01    0.2940151    0.2372308   3.90 0.0007045962    1.384    0.278
       170 -11.8598     21.2047    149.0734   8.5792073491e+01   4.1714665708e+01    0.4122707    0.1985917 -54.72  0.001726283    2.135    0.532
       171 -13.2089     26.8935    154.7446   8.4360326401e+01   3.9690251920e+01     0.763657    0.2926037  44.56   0.00288289    2.416    0.586
       172 -13.8778     40.6003    148.4744   7.8968015755e+01   3.9948080775e+01    0.6658967    0.4756254   7.57  0.002700552    1.588    0.370
       173 -13.3103     31.2309    147.1532   8.2087037439e+01   4.1293175321e+01    0.6232785    0.2418453  34.76  0.001709774    2.244    0.554
       174 -15.9588     17.4581    211.7140   9.1150456249e+01   2.6303759004e+01     1.568056    0.7147355  48.54  0.007438316    1.843    0.457
       175 -12.8090      4.6022    159.3028   9.2157412175e+01   4.0287084575e+01    0.3854508    0.3191788  37.82  0.001303145    1.148    0.129
       176 -13.4319      3.6247    153.2507   9.2134576915e+01   4.1936686220e+01    0.7604506    0.2928738 -72.91  0.003057949    2.423    0.587
       177 -14.1902     76.9979    154.3694   6.7767120098e+01   3.3618517758e+01    0.5168101    0.4658706 -16.27 0.0004831018    1.247    0.198
       178 -11.3573    105.1713    158.7833   6.0206141229e+01   2.8136906695e+01    0.2294892    0.1957511  59.18 0.0008150641    1.227    0.185
       179 -12.0132     95.4267    158.9535   6.2989440125e+01   2.9656023998e+01    0.2662987    0.2105421  22.60 0.0003488321    1.294    0.227
       180 -12.4413    117.3379    158.0367   5.6794215144e+01   2.6314469915e+01     0.266064    0.2072261   3.58   0.00132642    1.552    0.356
       181 -11.4162    157.3344    157.2972   4.7182972467e+01   1.9866040775e+01     0.136773    0.1029483  -8.05 0.0006437267    1.648    0.393
       182 -12.1736    190.4887    155.4600   4.0449760032e+01   1.5058712761e+01    0.2319111     0.109617 -53.64  0.001036625    2.439    0.590
       183 -13.6310     62.7142    153.0184   7.2124043074e+01   3.5999699686e+01    0.5002841    0.3120484 -53.14  0.002259058    1.680    0.405
       184 -11.7063     20.4402    154.4570   8.6527904889e+01   4.0348033128e+01     0.233938    0.2194181  67.33  0.000556709    1.028    0.027
       185 -11.7138    237.6774    153.8318   3.2985251725e+01   8.9490679060e+00    0.1947387    0.1529056  19.47  0.001066962    1.527    0.345
       186 -12.1399    211.9308    153.2903   3.6553795295e+01   1.2365619371e+01    0.2054738    0.1428478 -48.10 0.0004665745    1.358    0.264
       187 -12.7136     88.9144    153.4387   6.3967111181e+01   3.2024756588e+01    0.3619763    0.2811677  53.85  0.001689875    1.306    0.234
       188 -13.6953    168.3057    150.6959   4.3697873590e+01   1.9369330768e+01    0.4918218    0.3168548  44.67  0.002583652    1.663    0.399
       189 -11.7562     50.9781    153.0315   7.6010931990e+01   3.7520070005e+01     0.231227    0.2045104  51.36 0.0004219569    1.063    0.059
       190 -11.9739    249.1908    151.9385   3.1209318967e+01   7.8544290924e+00    0.1558979    0.1333442 -29.42 0.0003285617    1.120    0.107
       191 -13.4181     26.0885    149.2328   8.4103800885e+01   4.1233259081e+01    0.5156814    0.4017611  52.23  0.001865772    1.215    0.177
       192 -11.0834    225.2821    151.6971   3.4315174485e+01   1.0833087676e+01    0.1059843   0.08235754 -60.84            0    1.553    0.356
       193 -12.7896    108.7919    149.3721   5.7505103625e+01   2.9738577449e+01    0.3904473    0.2817847 -50.18 0.0009768313    1.428    0.300
       194 -12.5690     69.2445    151.3842   6.9756121945e+01   3.5509249653e+01    0.2773935    0.1793382  39.64 0.0007431136    1.439    0.305
       195 -12.1563     54.8186    150.6727   7.4402629212e+01   3.7655838752e+01    0.2357662    0.1905051   9.94  0.001188495    1.358    0.264
       196 -12.8375    138.4046    149.5388   4.9953291535e+01   2.4614097401e+01    0.2929804    0.2467243  30.65 0.0008900901    1.206    0.171
       197 -12.3995     96.1176    149.2608   6.1096301815e+01   3.1884088046e+01    0.2669235    0.2039308 -45.48  0.001313127    1.394    0.283
       198 -12.9272     84.3457    149.7566   6.4723725332e+01   3.3653737017e+01    0.2887352    0.2787579  80.24  0.001036988    1.054    0.051
       199 -13.2928     82.7683    145.2469   6.4428571488e+01   3.5028257085e+01    0.4046137    0.2948519  36.21  0.001779055    1.301    0.231
       200 -12.2901     12.7148    149.6348   8.8790017299e+01   4.2253945388e+01    0.7140505    0.1698604  19.06   0.00223061    3.901    0.744
       201 -13.4453     14.0528    136.0491   8.7190998682e+01   4.5785908590e+01    0.5860789    0.2539991  62.56  0.002200112    2.673    0.626
       202 -13.1986      9.4132    146.5493   8.9711140308e+01   4.3316277638e+01    0.4417968    0.3365318  79.18  0.001727851    1.261    0.207
       203 -14.1735     14.9820    141.2016   8.7303961116e+01   4.4332127574e+01    0.8068439    0.4611277  30.04  0.002354578    1.651    0.394
       204 -11.6137    146.9661    148.7556   4.7831500040e+01   2.3310765673e+01     0.236736    0.1925468 -47.33 0.0004957614    1.210    0.174
       205 -12.1915    123.0463    143.5011   5.2565922287e+01   2.8608594715e+01    0.2675549    0.1973983 -35.05 0.0005592942    1.511    0.338
       206 -12.6927    121.0120    146.9747   5.3770262331e+01   2.8186735702e+01    0.3569507    0.2271791  39.85  0.001660087    1.531    0.347
       207 -12.6301    118.5590    143.7629   5.3788950138e+01   2.9340866305e+01    0.2759553    0.2623976 -33.25 0.0004562741    1.095    0.087
       208 -12.0559    151.3721    145.7043   4.6263570776e+01   2.3178924405e+01    0.2300216    0.2178981  -9.76 0.0002848052    1.080    0.074
       209 -13.1887    102.0180    142.7205   5.8160238674e+01   3.2463970782e+01    0.7152141     0.371867  60.53  0.002482594    3.021    0.669
       210 -13.2637     70.4778    142.8809   6.7976593295e+01   3.7514327081e+01    0.4036139    0.2952275 -52.39 0.0004561451    1.431    0.301
       211 -12.2148     57.8580    143.8657   7.2379454180e+01   3.9042994563e+01    0.2309674    0.2013637 -20.37 0.0005173796    1.312    0.238
       212 -12.4617     51.4874    143.3386   7.4498558221e+01   4.0013246347e+01     0.363437    0.2231612  31.13  0.001631229    1.535    0.349
       213 -11.1619    222.9700    141.0738   3.2793991161e+01   1.2795270053e+01    0.2534082    0.1387019 -61.77  0.001164382    2.933    0.659
       214 -11.4569    178.1940    142.3423   4.0216957887e+01   1.9323790517e+01    0.2149137    0.1684818  54.38 0.0009056793    1.460    0.315
       215 -13.4076    169.9129    159.1684   4.4950783829e+01   1.7510755049e+01     0.343727    0.2861406  66.16  0.002027863    1.529    0.346
       216 -12.6960     95.2284    140.0269   5.9641792671e+01   3.4271636562e+01    0.4145897    0.2366668 -32.15  0.001570898    2.571    0.611
       217 -12.4353     35.6990    138.5470   7.9475998238e+01   4.3138895698e+01    0.2758537    0.1796395  17.45 0.0007630822    1.605    0.377
       218 -13.0033     45.3410    136.2113   7.5650807846e+01   4.2667793137e+01    0.5516453    0.3247954  87.18  0.002263261    2.084    0.520
       219 -12.1180     38.7647    140.9971   7.8678703562e+01   4.2148791705e+01    0.2145338    0.1511149 -70.67 0.0002183475    1.428    0.300
       220 -12.5476     41.5465    139.4924   7.7480650598e+01   4.2237931181e+01     0.296007    0.2325169 -16.29 5.333271e-05    1.515    0.340
       221 -11.4540    131.9361    140.0733   4.9646340958e+01   2.7779532562e+01    0.2248386    0.1772603  -8.51 0.0006155801    1.641    0.391
       222 -11.7312     30.1606    139.7109   8.1634973412e+01   4.3395484435e+01    0.2411768    0.1629069  44.68 0.0007005006    1.412    0.292
       223 -11.1737     77.3117    139.2993   6.5111996610e+01   3.7386719087e+01     0.151659    0.1184202 -19.99 0.0002497245    1.603    0.376
       224 -13.2680    119.3224    135.1288   5.1852555046e+01   3.1156702347e+01    0.4251366    0.3812834 -83.46  0.002311934    1.189    0.159
       225 -11.1228     27.6731    136.3040   8.2157150399e+01   4.4553664031e+01    0.1580917   0.09780739  55.08 0.0004354586    1.646    0.392
       226 -10.9511    209.6985    134.3112   3.3480451066e+01   1.5781504001e+01    0.1165123   0.08813963 -67.63 0.0003921124    1.607    0.378
       227 -12.4197    101.7104    134.2291   5.6576563978e+01   3.4540213559e+01    0.4180517    0.2152787  27.67  0.001588572    2.294    0.564
       228 -13.2186     60.9692    133.4511   6.9620008912e+01   4.1342457106e+01    0.4274124    0.2748894  14.31  0.001844964    1.831    0.454
       229 -11.8275    175.1772    133.1423   3.8979805598e+01   2.1525085647e+01    0.1778344    0.1487426 -67.44 0.0003990308    1.299    0.230
       230 -12.0782    128.5003    133.1912   4.9087454929e+01   2.9902322995e+01    0.2426576    0.1979939  42.64 0.0004324393    1.219    0.180
       231 -11.6678      1.8335    136.9329   9.1758538085e+01   4.6366046981e+01    0.2191647     0.173732 -46.17  0.001211063    1.349    0.259
       232 -11.3567     54.3074    133.2659   7.1958819525e+01   4.2309509668e+01    0.1470287    0.1152636 -22.82            0    1.533    0.348
       233 -13.7483     82.0622    128.7027   6.1553882488e+01   3.9285901772e+01    0.5727029    0.4338312 -85.68  0.002711673    1.541    0.351
       234 -13.0934     26.8000    124.9536   8.1119223542e+01   4.7693791048e+01    0.4091008    0.3296074  14.92  0.001578061    1.291    0.225
       235 -13.5851     36.2563    130.5407   7.8214699331e+01   4.5228801596e+01      0.53629     0.434993  56.50  0.001757394    1.217    0.178
       236 -12.0059     32.4831    126.0345   7.9042331643e+01   4.6839843221e+01    0.2047136    0.1925085  87.57 0.0003674532    1.048    0.046
       237 -12.3551      2.5875    131.3875   9.1104198162e+01   4.7799723164e+01    0.2380017    0.2218666 -57.12 0.0003033002    1.116    0.104
       238 -11.1996    230.0941    130.6272   2.9997738052e+01   1.3426534187e+01    0.1449147    0.1294797 -37.42 0.0004263993    1.105    0.095
       239 -12.1115      7.9677    131.3056   8.9067100889e+01   4.7488897895e+01    0.1952571    0.1782967  23.99 0.0005155779    1.131    0.116
       240 -11.5498    102.1008    130.0960   5.5613748784e+01   3.5451431044e+01    0.2248588    0.2057548  -8.65 0.0004505995    1.243    0.196
       241 -12.1664     45.9642    128.6479   7.4282480880e+01   4.4607519718e+01    0.3218599    0.2077824  83.63 0.0009278366    1.850    0.459
       242 -11.6109     19.3255    131.7219   8.4791033631e+01   4.6532928009e+01    0.2428417    0.2089149  18.25  0.001342454    1.200    0.166
       243 -10.9541     50.2962    129.6565   7.2834062787e+01   4.3791703197e+01    0.1610631    0.1074984  62.51 0.0007032866    1.667    0.400
       244 -11.5043    187.7868    127.9669   3.5731524108e+01   2.0329564625e+01    0.1775154    0.1490611 -44.79   0.00031982    1.070    0.065
       245 -10.6044    130.4954    128.4645   4.7594061186e+01   3.0557439334e+01    0.1431418    0.1398151  82.84 0.0001148986    1.004    0.004
       246 -11.9477    121.8784    127.4997   4.9575862768e+01   3.2390468379e+01     0.304713     0.230242 -19.17  0.001437319    1.781    0.439
       247 -11.9956     64.6272    127.7728   6.7321968796e+01   4.2287500131e+01    0.2751208    0.1893253  72.51 0.0002726623    1.765    0.433
       248 -13.6360     60.2203    124.9615   6.8387899565e+01   4.3664860637e+01    0.5075142     0.288315  42.11  0.002153579    1.682    0.405
       249 -11.6100    169.3750    126.0498   3.8634897147e+01   2.3861937234e+01    0.1904083    0.1632604 -45.74 0.0004346365    1.094    0.086
       250 -11.0588    109.5055    126.5118   5.2722877861e+01   3.4932412065e+01    0.1502355    0.1428722  68.01 0.0008103935    1.028    0.027
       251 -12.2618      5.7222    122.0131   8.9164524517e+01   5.0119434777e+01    0.2465724    0.1661411 -67.15 0.0006185409    1.418    0.295
       252 -12.3602     74.9865    125.0234   6.3188169727e+01   4.1376860199e+01    0.2273385    0.2189797  57.12 0.0003386592    1.013    0.013
       253 -10.9281    125.8285    123.7683   4.7748700180e+01   3.2461750372e+01    0.1998035    0.1691299  85.70 0.0004153056    1.319    0.242
       254 -12.5186     20.7980    122.9778   8.3251454817e+01   4.8764600410e+01    0.3197403    0.2433352   7.25 0.0003913351    1.414    0.293
       255 -12.6561     15.5790    123.3145   8.5365831988e+01   4.9095215793e+01    0.2660322    0.2289197  50.56  0.000629504    1.136    0.120
       256 -13.0008    104.3541    121.8932   5.3198359569e+01   3.6964070099e+01    0.3979594    0.3206759  67.26  0.001798447    1.344    0.256
       257 -12.3974    100.0430    118.5225   5.3729779391e+01   3.8558545543e+01    0.4069839    0.2769872  79.41  0.001383197    2.092    0.522
       258 -11.9001     10.6355    123.1968   8.7318198907e+01   4.9485245220e+01    0.2059302    0.1176094 -64.93 0.0006674521    1.663    0.399
       259 -12.0493     67.2852    117.3226   6.4344180198e+01   4.4563769434e+01    0.2315898    0.2159218 -12.24 0.0002534961    1.186    0.157
       260 -12.9036     64.9844    121.9870   6.6102852016e+01   4.3726992486e+01    0.4520716    0.2475531  31.38  0.001721277    1.770    0.435
       261 -13.5740     64.4750    118.5466   6.5612548941e+01   4.4688301666e+01     0.591715    0.2038139  31.31   0.00194684    2.794    0.642
       262 -11.5401    189.0568    121.4959   3.4239856885e+01   2.1250749833e+01    0.1711224    0.1272845  49.98 0.0003464835    1.500    0.333
       263 -10.8687    224.4330    120.5255   2.8913013891e+01   1.5786366881e+01     0.116797    0.0949892 -44.25 0.0001633991    1.008    0.008
       264 -10.6260    179.0730    120.0080   3.5628335038e+01   2.3249239782e+01    0.1521673    0.1388976 -52.16 0.0003299036    1.002    0.002
       265 -13.2644     78.2114    119.2510   6.0903634435e+01   4.2290796778e+01    0.3817849    0.3016892  42.43  0.001378536    1.209    0.173
       266 -12.7790     72.2446    119.1073   6.2940861664e+01   4.3317077768e+01    0.3194116    0.2130094  44.57  0.001424849    1.447    0.309
       267 -11.5484     94.2589    117.7326   5.5327107619e+01   3.9819355429e+01    0.2750956    0.1904037 -59.73  0.001264362    1.507    0.337
       268 -13.2305     18.5102    115.0095   8.3226553373e+01   5.1094051113e+01    0.4622442    0.2918233  86.56  0.002160184    1.704    0.413
       269 -12.1212     22.3335    117.7097   8.1986816644e+01   5.0047846923e+01    0.2789854    0.2110162  36.88 0.0002843889    1.291    0.225
       270 -11.7086     24.0237    115.0295   8.0938304089e+01   5.0615374007e+01    0.4210457    0.2676924  46.80  0.001202594    1.580    0.367
       271 -12.6326      9.1534    117.5488   8.7371850561e+01   5.1098110442e+01    0.3927211    0.1346104  15.03  0.001410735    2.992    0.666
       272 -11.7388    210.8742    117.1236   3.0091901469e+01   1.8395763826e+01    0.1780796    0.1464021 -61.66 0.0004069122    1.209    0.173
       273 -11.2219    196.9270    115.4842   3.1801662808e+01   2.0947444605e+01    0.1692354    0.1248154  51.97 0.0007932536    1.538    0.350
       274 -12.0606    120.4061    114.2730   4.7018620914e+01   3.5587891853e+01    0.2682496    0.2507614  57.07  0.000453233    1.050    0.047
       275 -12.7168    103.8056    114.3269   5.1656608207e+01   3.8818468524e+01     0.525898    0.2825267  37.23  0.001627293    1.893    0.472
       276 -11.8828    115.9935    113.0043   4.7903016035e+01   3.6737984701e+01    0.2269998    0.2200055  65.79 0.0005178412    1.035    0.034
       277 -12.0466    109.5044    112.0028   4.9468921921e+01   3.8239254573e+01    0.3173782    0.2199761  39.10 0.0003393239    1.453    0.312
       278 -11.5802    113.3390    110.2250   4.7977864526e+01   3.7877549897e+01    0.2788484    0.1869744 -54.88 0.0007888175    1.528    0.345
       279 -13.0817     83.0909    111.2560   5.7492184134e+01   4.3405012887e+01    0.5632067    0.2442849 -55.88 0.0006586074    2.374    0.579
       280 -13.5883     63.4300    112.9796   6.4867145143e+01   4.6271322537e+01    0.6498616    0.3090136  21.79  0.002310993    2.623    0.619
       281 -11.4799     89.9971    111.2411   5.5207534072e+01   4.2150215217e+01    0.2698745    0.2077555  86.85 0.0008088473    1.565    0.361
       282 -12.2689     53.7390    110.5385   6.8083144643e+01   4.8336204716e+01     0.494248    0.2378071  31.13  0.001951613    1.981    0.495
       283 -12.7619    170.1929    109.3504   3.4966538009e+01   2.6809082951e+01    0.2390172    0.2106763 -57.63 0.0002725097    1.046    0.044
       284 -13.1928     62.1822    107.9289   6.4269271228e+01   4.7745433726e+01    0.5595194    0.2514856 -52.68  0.001791849    2.239    0.553
       285 -10.9965    216.4743    109.4768   2.7885197894e+01   1.8723142876e+01    0.1195447   0.09934691 -48.59  7.77876e-05    1.001    0.001
       286 -10.8915    155.4780    108.4876   3.7584922034e+01   2.9805963573e+01    0.1889959    0.1681873  -0.17 -7.846769e-06    1.417    0.294
       287 -11.5115    158.2379    106.4209   3.6573367985e+01   2.9656592187e+01    0.2506728    0.1384848  55.66 0.0009136173    1.945    0.486
       288 -11.2229    121.8640    108.2419   4.5227411625e+01   3.6599037317e+01     0.215563    0.1892688  81.82  0.000575252    1.175    0.149
       289 -11.0566    209.5037    107.4838   2.8425188930e+01   2.0163887450e+01    0.1226332    0.1020037 -53.76 -1.132343e-05    1.048    0.046
       290 -11.0046     92.4065    107.5101   5.3557015633e+01   4.2577620434e+01    0.1474819    0.1465467  35.51 -0.0002840703    1.080    0.074
       291 -11.7071      1.9768    107.0226   8.9397519859e+01   5.4318009531e+01    0.2358268     0.143894 -39.54   0.00113707    1.712    0.416
       292 -13.2557     10.0550    104.7353   8.5624425452e+01   5.4451562801e+01    0.5023157    0.4162446  40.85  0.002313767    1.216    0.178
       293 -12.7221      8.8145     97.7968   8.5357104521e+01   5.6358763837e+01    0.3392064    0.2443769  74.28   0.00131259    1.484    0.326
       294 -11.8025    197.0173    103.7476   2.9432888922e+01   2.2890828798e+01    0.1668971     0.150666 -61.38 0.0002685889    1.053    0.051
       295 -11.7979    229.5183    103.1733   2.5108090647e+01   1.7658408990e+01    0.1666982    0.1513827 -78.24 0.0003135621    1.217    0.178
       296 -12.0591    153.4512    101.3635   3.6373318875e+01   3.1564547874e+01    0.4956694    0.2414841 -60.50  0.001771846    2.765    0.638
       297 -12.5047     78.8588    101.5355   5.6663985839e+01   4.6502907240e+01    0.3191143    0.2749686  79.36 0.0005693696    1.244    0.196
       298 -12.5098     76.5587     97.0265   5.6371267877e+01   4.7989316173e+01    0.2776285    0.2497057  33.42 0.0005607544    1.118    0.106
       299 -12.1948     31.8074     99.1168   7.5083833414e+01   5.4052311870e+01    0.5562768    0.3009105 -34.20  0.002262024    2.289    0.563
       300 -10.9825    194.3218    100.3301   2.9126921474e+01   2.3932413291e+01    0.1200476   0.09909145  -5.94 0.0007049199    1.695    0.410
       301 -13.1814    163.3022     99.1752   3.3977605761e+01   2.9998823442e+01    0.3695939    0.2639072  39.31  0.001098047    1.678    0.404
       302 -11.0790    208.5211     99.5383   2.6998608632e+01   2.1589547627e+01     0.121987    0.1025032 -53.49 0.0001258463    1.004    0.004
       303 -11.8332     93.4456     99.2533   5.1200728862e+01   4.4279635711e+01    0.3718058    0.1739885  44.56  0.001425736    2.044    0.511
       304 -11.8711     58.7142     97.5383   6.3297433215e+01   5.0884845959e+01    0.4695344    0.2768092  43.30  0.002044725    1.647    0.393
       305 -11.6562     25.7476     97.2358   7.7483984265e+01   5.5159567006e+01    0.3856794    0.1903558 -48.42  0.001610527    2.042    0.510
       306 -11.8767     83.4266     94.7571   5.3374362371e+01   4.7243001860e+01    0.2917889    0.1504703 -59.02   0.00114298    2.153    0.536
       307 -12.2810     65.8185     94.8371   5.9843701437e+01   5.0391436431e+01    0.2245266    0.2091129  -6.11 0.0006669994    1.184    0.155
       308 -10.5571    243.4527     94.4037   2.2017064046e+01   1.6848715514e+01    0.1097313   0.08530749 -49.98 7.609577e-05    1.015    0.015
       309 -12.5383     78.5770     92.8701   5.4587040198e+01   4.8590645583e+01    0.2520386    0.2010807  63.04 0.0006603778    1.319    0.242
       310 -12.4650    189.1158     91.4423   2.8026265171e+01   2.6349080908e+01    0.2817985    0.1892201 -86.34 0.0008956585    1.907    0.476
       311 -11.4666     41.2335     91.7793   6.9407627076e+01   5.4819580912e+01    0.2519467    0.1807933  41.40 0.0005713629    1.368    0.269
       312 -10.6626    249.5102     91.5872   2.0928566457e+01   1.6365313330e+01    0.1082261   0.08294201 -49.59 6.898661e-05    1.015    0.015
       313 -10.6995    138.9681     90.4637   3.6798216370e+01   3.6638526327e+01    0.1996245    0.1209186  77.47 0.0008077231    2.410    0.585
       314 -10.4896    121.6544     90.2886   4.0827788349e+01   4.0372206463e+01    0.1517157    0.1115324  85.61 0.0004201445    1.654    0.396
       315 -11.3292      3.2795     88.4035   8.6844954629e+01   5.9115749992e+01      0.26744    0.1408922 -62.31  0.000889033    1.735    0.424
       316 -12.0536    149.1461     87.9146   3.4047297068e+01   3.4956553770e+01    0.2216714    0.1792441 -78.17  0.001102589    1.264    0.209
       317 -12.7501      9.5130     86.8385   8.3567114393e+01   5.9157837638e+01     0.370828    0.2785721 -13.13 0.0009186833    1.402    0.287
       318 -11.7608    177.7136     86.6008   2.8694266958e+01   2.9339815775e+01    0.2319947    0.1395741 -60.33 0.0005698722    1.728    0.421
       319 -12.4909     54.6023     85.9210   6.2166987314e+01   5.4358192775e+01    0.4737561    0.3500143  18.77  0.001756816    1.469    0.319
       320 -13.1642     61.4235     84.5194   5.8950294315e+01   5.3584662580e+01    0.6190063    0.3973235  -7.56    0.0014302    2.808    0.644
       321 -10.7434    126.0142     84.9901   3.8371507919e+01   4.0477298457e+01    0.1767015    0.1635546  86.03 0.0009923242    1.002    0.002
       322 -12.1181    150.1603     83.0801   3.2664316335e+01   3.5615025425e+01    0.2372681    0.2258356 -27.22  0.000827208    1.262    0.207
       323 -10.5862    133.4385     84.3976   3.6489949799e+01   3.8977613446e+01    0.1436575     0.129025  88.19 3.616608e-05    1.050    0.048
       324 -11.7303    112.1344     83.0710   4.1400071919e+01   4.3868841144e+01    0.3342989    0.2000487  54.87  0.001145859    1.635    0.388
       325 -12.3068    160.4267     84.8575   3.1183551430e+01   3.3138713895e+01    0.2519975    0.1590137  36.32  0.001171607    2.254    0.556
       326 -12.4655    182.4709     81.0041   2.6728934810e+01   2.9324244680e+01    0.3049599    0.1835225 -64.20 0.0008066801    1.805    0.446
       327 -13.1069      8.1723     75.5201   8.2524240021e+01   6.2108705960e+01    0.7954347     0.152118 -63.31  0.002581225    3.697    0.730
       328 -10.8227     11.6830     71.6698   7.9948220120e+01   6.2828493900e+01      0.13599    0.1341661   6.33 0.0003613624    1.053    0.050
       329 -11.7286    153.6627     79.0379   3.1006510997e+01   3.5578746433e+01    0.1892663    0.1620968 -57.58 0.0003381801    1.113    0.102
       330 -11.4529    112.5137     78.6936   4.0091358470e+01   4.4651377738e+01    0.3339967    0.2268817 -82.74  0.001471719    2.011    0.503
       331 -11.8990     88.8303     78.9618   4.7226593084e+01   4.9654298155e+01    0.2947442    0.2459823  45.88   0.00116336    1.148    0.129
       332 -12.4650     86.1463     74.4268   4.6794860550e+01   5.1151892316e+01    0.4126603    0.2465236 -48.41  0.001005829    1.773    0.436
       333 -11.1715     51.7606     79.0092   6.1590910019e+01   5.6439056576e+01    0.2228004    0.1978051 -10.37 0.0004449559    1.236    0.191
       334 -11.4733     55.2530     77.9641   5.9772096223e+01   5.6128791035e+01    0.2244861    0.2052297  36.83 0.0003487996    1.043    0.042
       335 -11.2393    227.7780     76.7929   2.0348664662e+01   2.1771894264e+01    0.1586482    0.1317792 -49.74 0.0004365283    1.122    0.109
       336 -11.8264    161.4889     76.9557   2.9109268352e+01   3.4271546410e+01    0.2061046    0.1776554  78.28 0.0007861395    1.131    0.116
       337 -12.6358     75.4196     75.1909   5.0829255175e+01   5.3139994011e+01    0.3488235    0.2274312 -38.47  0.001587708    1.792    0.442
       338 -10.4876     48.5207     76.5263   6.2377184497e+01   5.7515208069e+01     0.144071    0.1371731  39.31 0.0002117746    1.022    0.021
       339 -12.1160    150.5661     73.5462   3.0210005928e+01   3.7192313160e+01    0.2725296    0.2231755 -33.60  0.001128707    1.422    0.297
       340 -11.1831    115.8021     74.8174   3.8145871765e+01   4.4670881991e+01    0.2059055    0.1663333 -89.26 0.0005973936    1.316    0.240
       341 -10.7838    214.6943     73.6489   2.1103751988e+01   2.4446388931e+01    0.1076143   0.09225114  -8.57  2.77299e-05    1.707    0.414
       342 -11.7472    105.8323     72.4846   4.0149424615e+01   4.7323272994e+01    0.2640397    0.2235005 -78.93 0.0004912417    1.232    0.188
       343 -11.7643    204.0344     72.0231   2.1973022095e+01   2.6602886911e+01    0.1481629    0.1226051 -62.41 0.0003913113    1.013    0.013
       344 -11.6020      2.4893     70.1062   8.4776742716e+01   6.3770614167e+01    0.3862338    0.2123304  80.76  0.001733767    2.255    0.557
       345 -13.8076    241.6106     66.9151   1.7225252997e+01   2.0898326182e+01    0.2720084    0.2084225 -55.09 0.0008697297    1.022    0.022
       346 -11.0454    171.9454     69.3430   2.5622536866e+01   3.3320807720e+01    0.1758857    0.1526312  88.82 0.0004916182    1.099    0.090
       347 -11.4312     72.6998     68.6803   4.9873728562e+01   5.5044921239e+01    0.2388132    0.2203462   7.55 0.0007996575    1.221    0.181
       348 -12.4453     52.9563     68.1706   5.7957163439e+01   5.8718122225e+01    0.2335089    0.2102526 -65.61 0.0004374537    1.196    0.164
       349 -12.3664    225.3314     67.2845   1.8765793077e+01   2.3509710853e+01    0.2026367    0.1634817 -55.75 0.0003060001    1.058    0.055
       350 -11.5361     64.6758     68.5512   5.3012234834e+01   5.6592620089e+01    0.2551801    0.1376147  35.64 0.0006897858    1.826    0.452
       351 -11.0528     98.0112     66.9914   4.0769767341e+01   5.0094688518e+01    0.2214987     0.166843 -89.10            0    1.600    0.375
       352 -12.0414     60.1053     66.9497   5.4429893584e+01   5.7761124229e+01    0.2162762    0.2060949  24.32 0.0004548088    1.060    0.057
       353 -11.4055    199.0219     65.5114   2.1186335138e+01   2.8498710948e+01    0.1643154    0.1152166  71.62 0.0004079965    1.502    0.334
       354 -11.2509    178.9296     64.2618   2.3440286583e+01   3.2663712435e+01    0.1713031    0.1501201 -79.41 0.0002932184    1.065    0.061
       355 -12.0136     10.0048     63.2284   7.9252231180e+01   6.4995905258e+01    0.2160353     0.166674 -30.45 0.0004903271    1.264    0.209
       356 -11.8900     13.4884     62.0012   7.6953151179e+01   6.5030065291e+01    0.2598847    0.2007955 -42.23  0.001471482    1.248    0.199
       357 -11.5815     45.4004     61.7972   5.9552531277e+01   6.1320243390e+01    0.2024705    0.1269541 -42.73  0.000952347    1.719    0.418
       358 -11.5577    109.2230     59.8011   3.5440731902e+01   4.8888720533e+01    0.2697567    0.1839425  68.26  0.001312943    1.476    0.322
       359 -11.9811     41.2717     60.0265   6.1058127526e+01   6.2327462631e+01    0.1998144     0.189876  23.16  0.001186498    1.015    0.015
       360 -13.5932    192.7181     57.8865   2.0267545094e+01   3.0823377881e+01    0.2926682    0.2431246 -59.25 0.0007730493    1.077    0.072
       361 -11.6043     18.2366     58.3932   7.3300799167e+01   6.5468795448e+01    0.3198325     0.172708 -54.58  0.001527243    1.777    0.437
       362 -11.8830    159.9723     57.3187   2.4517558395e+01   3.7751695685e+01    0.1881905    0.1572367  86.78 0.0005957828    1.097    0.089
       363 -12.6057     23.9329     55.4495   6.9155020850e+01   6.5566649938e+01    0.3275639    0.2201065  -6.69   0.00107493    1.700    0.412
       364 -12.1465     40.8393     54.2902   5.9422758414e+01   6.3623790401e+01    0.2631907    0.1668961 -71.54  0.001209923    2.159    0.537
       365 -12.6368    116.1799     53.9403   3.1930731511e+01   4.8277033872e+01    0.2222168    0.1772804 -87.96 0.0005968023    1.268    0.211
       366 -12.3889    131.2698     51.4008   2.7928863894e+01   4.5170565877e+01    0.3680569    0.2706526 -13.89  0.001831903    2.136    0.532
       367 -10.5456     54.6603     57.2568   5.3682031371e+01   6.0754210070e+01    0.1419065     0.105178  62.28 0.0003135537    1.580    0.367
       368 -11.5839    175.8797     50.8510   2.0704400628e+01   3.5272944841e+01    0.1805734    0.1278466 -69.88 0.0003758961    1.293    0.226
       369 -13.7041     30.6520     49.7623   6.3488376829e+01   6.6009398389e+01    0.4199394    0.2998771  50.70  0.001290508    1.587    0.370
       370 -12.0212     99.8131     50.0013   3.4844882609e+01   5.2712079253e+01    0.2410537    0.1575112 -73.04  0.001089389    2.038    0.509
       371 -12.1209     18.9842     48.5246   7.0117842450e+01   6.7622375912e+01    0.3327313    0.1565119 -50.57 0.0007548314    2.047    0.512
       372 -11.0760    219.5390     47.4676   1.5406788226e+01   2.7179911280e+01    0.1156876   0.08935096 -61.06 8.204075e-05    1.011    0.011
       373 -11.3656     41.1908     47.3612   5.6820664599e+01   6.4996003748e+01    0.2049012     0.114765  42.59 0.0009498909    1.721    0.419
       374 -11.6134    143.3480     44.0312   2.3664517956e+01   4.3468785424e+01    0.4015776     0.138123 -31.27  0.001387807    3.979    0.749
       375 -11.4940     95.1932     44.8405   3.4398328728e+01   5.4613101665e+01    0.1965967    0.1612008  38.40  0.001074124    1.355    0.262
       376 -11.1319     90.2941     43.6979   3.5428288240e+01   5.5915867607e+01    0.1397472    0.1050141 -87.12 0.0003350068    1.574    0.365
       377 -13.0814     23.7356     41.8256   6.4948325249e+01   6.8532620650e+01    0.2902769     0.236127 -85.09   0.00134469    1.600    0.375
       378 -12.1665    139.6024    247.5609   6.4585830265e+01   5.5949685656e+00    0.2817863    0.1811363 -46.73  0.001734851    1.762    0.432
       379 -10.3691    124.4460     39.5498   2.5752198718e+01   4.8537549095e+01    0.1374814    0.1191742  85.00 0.0001092868    1.006    0.006
       380 -12.2870      8.8178     36.4567   7.3256888943e+01   7.1142744153e+01    0.2617524    0.2014432  13.52 0.0009178009    1.216    0.177
       381 -12.0618    225.4723     36.0236   1.2687169091e+01   2.7560970344e+01    0.1863609    0.1390703 -81.36 0.0003163499    1.229    0.186
       382 -13.2095     31.1067     32.0982   5.6572973457e+01   6.9465011324e+01    0.3813047    0.3374031 -11.06   0.00183786    1.145    0.127
       383 -11.3868    106.5691     32.2840   2.7176472526e+01   5.3806696622e+01    0.2400357    0.1263655 -42.22  0.001118652    2.020    0.505
       384 -12.4142     96.4238     30.7941   2.9105536146e+01   5.6417496758e+01    0.3155563     0.286952   4.84 0.0009316308    1.412    0.292
       385 -12.0943     96.4915     27.5270   2.7901543359e+01   5.6842667735e+01    0.2568083    0.1827259  75.41 0.0007250253    1.329    0.248
       386 -13.1445     78.6231     31.5928   3.4565949096e+01   6.0414549923e+01    0.3837151    0.2567066  85.21  0.001078971    2.011    0.503
       387 -10.9388     67.5787     33.5752   3.9272764369e+01   6.2530311134e+01    0.1361428    0.1209729  55.49 3.812567e-05    1.026    0.026
       388 -12.8246     43.9307     32.6669   4.9534300058e+01   6.7294413398e+01    0.4253273    0.2529684  27.28  0.002050972    1.833    0.455
       389 -11.0942    175.5549     31.2879   1.6065020093e+01   3.7962696287e+01    0.1995241     0.133936  55.15  0.001155789    1.771    0.435
       390 -11.7915     23.8097     31.1634   6.0844722870e+01   7.0645414901e+01     0.178084    0.1408124  -8.78 0.0004846568    1.302    0.232
       391 -13.0712     36.3561     40.1823   5.6765167293e+01   6.7153666471e+01    0.4332075    0.2522431  26.31  0.001059321    1.713    0.416
       392 -12.0077     60.2639     28.0176   3.9846669750e+01   6.4916539354e+01    0.1776344    0.1690362  51.62 0.0002819355    1.082    0.076
       393 -12.2952     45.7235     25.8915   4.5580346681e+01   6.8098853877e+01    0.2999859    0.2404953  76.45  0.001324452    1.652    0.395
       394 -13.6279     88.3192     24.2911   2.8814167622e+01   5.9193080866e+01    0.4401342    0.2691733  60.27 0.0006330018    1.413    0.292
       395 -12.7713      4.5319     24.1396   7.2397034578e+01   7.4010432047e+01    0.2367585    0.2080342 -33.28 0.0004857628    1.125    0.111
       396 -11.5172     67.4955     24.4967   3.5490935264e+01   6.3893120266e+01    0.1352689    0.1182473  59.24 -9.047488e-07    1.040    0.039
       397 -10.5853    167.2459     23.6619   1.5076894468e+01   4.0708965971e+01    0.1294153   0.07542354 -62.78 0.0001775489    1.559    0.359
       398 -12.5554    115.3420    247.0379   6.9779307563e+01   8.4017600006e+00    0.4341585    0.1536684 -43.29  0.001856224    3.392    0.705
       399 -10.2354    226.2991    246.3022   4.8520666510e+01  -2.7667568447e+00    0.1043024   0.05920515 -11.88 0.0001951226    1.584    0.369
       400 -10.6034     31.3738     15.8519   4.8718238784e+01   7.2184542812e+01     0.161227    0.1141496 -23.57 0.0004228989    1.647    0.393
       401 -11.6045    153.0265    246.0507   6.1633603925e+01   4.3688745332e+00    0.1706466    0.1377845   5.41 0.0003059422    1.018    0.017
       402 -11.4492     85.4779     10.4826   2.4049238964e+01   6.1500328375e+01    0.1325725    0.1113025  74.71 9.452822e-05    1.042    0.040
       403 -15.4758      8.6432    199.2253   9.2946311647e+01   2.9970832893e+01      1.33628     1.078391 -41.72  0.007992418    1.522    0.343
       404 -11.1263     93.8335    243.6082   7.4333012632e+01   1.1470613973e+01    0.1849798   0.09202288  35.05 0.0003050948    1.637    0.389
       405 -10.8847    159.3189    241.8064   5.9836220559e+01   4.3532968960e+00     0.161499    0.0935372 -35.84 0.0009456976    1.762    0.432
       406 -11.7228    143.2958    242.1903   6.3166597063e+01   6.0627710673e+00    0.2126195     0.138054  14.58 0.0004062938    1.353    0.261
       407 -12.6741    147.9091    239.1166   6.1822467853e+01   6.0493029378e+00    0.2695275    0.1766786  16.16 0.0007367308    1.327    0.246
