#   1 NUMBER                 Running object number                                     
#   2 MAG_AUTO               Kron-like elliptical aperture magnitude                    [mag]
#   3 X_IMAGE                Object position along x                                    [pixel]
#   4 Y_IMAGE                Object position along y                                    [pixel]
#   5 X_WORLD                Barycenter position along world x axis                     [deg]
#   6 Y_WORLD                Barycenter position along world y axis                     [deg]
#   7 A_WORLD                Profile RMS along major axis (world units)                 [deg]
#   8 B_WORLD                Profile RMS along minor axis (world units)                 [deg]
#   9 THETA_WORLD            Position angle (CCW/world-x)                               [deg]
#  10 FWHM_WORLD             FWHM assuming a gaussian core                              [deg]
#  11 ELONGATION             A_IMAGE/B_IMAGE                                           
#  12 ELLIPTICITY            1 - B_IMAGE/A_IMAGE                                       
         1 -13.1732    180.9098     31.6012   6.9091931523e+01   3.6222849654e+01     1.256289    0.9848953  23.93  0.005193368    1.686    0.407
         2 -11.9859    185.1751     25.0848   6.6770945514e+01   3.5939311430e+01    0.5853875    0.4929261  80.24  0.001146044    1.023    0.022
         3 -10.7203    202.4385      1.8453   5.9071002094e+01   3.4210816370e+01    0.5110934    0.1675661  71.93  0.002046088    2.543    0.607
         4 -10.1486    178.1494    218.6656   1.1405740949e+02   1.8103224707e+00    0.3087291    0.1641049  21.27   0.00116144    2.958    0.662
         5 -19.4430     33.6645    138.5307   1.3567928063e+02   4.3530624632e+01     19.80869     2.737074 -66.97   0.04902517    6.870    0.854
         6  -9.3991     84.8595    205.6888   1.3244832405e+02   2.1200717477e+01    0.2939552    0.2096433 -31.28  0.001455585    2.330    0.571
         7  -8.2186    164.6858    204.3378   1.1442782800e+02   7.0784505193e+00    0.1465629    0.1122823  75.15 0.0007047075    1.695    0.410
         8  -9.7103    115.4089    201.1962   1.2497511412e+02   1.7067162720e+01    0.2004555    0.1335749 -74.99 0.0009550747    1.724    0.420
         9 -10.3680    194.8361    194.1519   1.0598552398e+02   3.1325959404e+00    0.5525782    0.4238695  21.72  0.002400621    1.341    0.254
        10  -9.6065    190.1923    189.3996   1.0603167984e+02   4.9541525128e+00    0.4668899    0.2807223 -68.85  0.001691416    3.362    0.703
        11  -9.3782     93.1709    198.2695   1.2959792791e+02   2.1530999657e+01    0.2536789    0.1602609  81.98 0.0005974605    1.899    0.474
        12  -9.5646      1.4291    250.2742   1.5176451068e+02   2.2585986511e+01    0.1449927   0.07697585 -87.86 0.0009883217    1.492    0.330
        13  -8.6898     90.2351    193.4110   1.2957941201e+02   2.3109715071e+01    0.2033515    0.1151037  51.55 0.0008038337    1.680    0.405
        14  -9.1913    139.3226    216.2658   1.2199983411e+02   9.5339750749e+00    0.2755144    0.1715321 -81.79  0.001171755    2.582    0.613
        15  -9.5632    207.7668    184.0063   1.0125043492e+02   2.4976056650e+00    0.3658834    0.2455834 -43.76  0.001192813    1.558    0.358
        16  -9.8795    210.7631    181.2198   1.0006430343e+02   2.4288003251e+00    0.4408771    0.2984394 -20.32   0.00207287    1.719    0.418
        17  -8.9122     92.2239    185.1360   1.2789225233e+02   2.4695247824e+01    0.2487474    0.1859129  61.72 0.0003923597    1.287    0.223
        18  -8.9851     87.0674    182.9517   1.2878751067e+02   2.6037977787e+01    0.2074905    0.1741761 -22.22 0.0006763362    1.679    0.404
        19  -9.0093     99.1998    180.8665   1.2554893000e+02   2.4525776505e+01    0.2894516    0.2006806  36.60   0.00127725    1.515    0.340
        20 -10.5313     96.4578    163.3981   1.2324410350e+02   2.9141183231e+01    0.7470728    0.4211572  18.39 0.0002807327    3.267    0.694
        21 -10.1423     87.3318    178.2968   1.2801225084e+02   2.7090750192e+01    0.2721379    0.2205648  47.53 0.0004515468    1.231    0.187
        22 -11.4448     90.0604    173.4721   1.2657714375e+02   2.7795029713e+01     0.794299    0.3396596 -53.01  0.002457445    2.318    0.569
        23 -10.0618    197.8214    175.4972   1.0155219313e+02   6.1154990814e+00    0.4042669    0.3210196 -55.66  0.001234094    1.439    0.305
        24  -9.8517    115.6337    211.5177   1.2647408422e+02   1.4803908015e+01    0.3762067    0.2211949  67.43  0.000599233    2.101    0.524
        25 -10.0033    102.1709    169.8278   1.2294491613e+02   2.6618357293e+01    0.2700936    0.2177338  47.38 0.0008973313    1.222    0.181
        26  -9.2962    125.7258    172.5615   1.1759832277e+02   2.1617695682e+01    0.2210553    0.1360973  52.20  0.000949204    1.633    0.388
        27  -9.5788    203.2324    167.6573   9.8744288949e+01   6.5351488292e+00    0.3667946    0.2917878  81.74  0.001740723    1.762    0.432
        28 -10.8319    101.0116    156.0940   1.2070836997e+02   3.0111197171e+01    0.6278376     0.383545 -39.55  0.001591437    1.969    0.492
        29  -9.7157    134.2647    145.6331   1.0985255982e+02   2.6168534113e+01    0.7484004    0.1766714 -52.59   0.00179911    5.089    0.804
        30  -8.6749    145.6993    146.2982   1.0711166308e+02   2.3578233824e+01    0.1591461    0.1252419  83.76  0.000165028    1.579    0.367
        31  -8.0977     10.8844    213.6540   1.4814388485e+02   2.8807235645e+01    0.1622409     0.108278  20.82  0.001014407    2.412    0.585
        32 -10.4744    110.7460    140.7508   1.1496393144e+02   3.2018459613e+01    0.5156943    0.2788545 -39.17   0.00200166    2.180    0.541
        33 -10.6668     99.9554    140.9454   1.1793999211e+02   3.3945170946e+01    0.2860818     0.285033  30.54 0.0004532835    1.084    0.078
        34  -9.7362     11.6854    137.0059   1.4120578671e+02   4.5727093657e+01    0.1801201    0.1638827 -52.08 0.0003563466    1.255    0.203
        35 -10.1100    117.2188    130.9654   1.1098296444e+02   3.3077242891e+01    0.3728914    0.2805757  15.03  0.001150156    1.736    0.424
        36 -10.1078    105.5414    129.0091   1.1375419318e+02   3.5777344586e+01    0.6141403       0.2852 -56.36  0.002284911    2.252    0.556
        37  -8.1671    143.7025    128.3015   1.0333888103e+02   2.8097667080e+01    0.1596089    0.1267806  88.00 0.0002988162    1.579    0.367
        38  -9.0205    111.9040    119.6426   1.0972142230e+02   3.6747315056e+01    0.2142112     0.193665  41.30 0.0004524047    1.125    0.111
        39  -9.8062    108.0033    211.0891   1.2809131414e+02   1.6223278164e+01    0.4769844    0.1973326  38.97  0.001927867    2.301    0.565
        40 -12.2923     11.2953    206.8618   1.4761108842e+02   3.0185679797e+01    0.4650318    0.3404254  32.67  0.002163749    1.773    0.436
        41  -9.2576    168.6457    113.5849   9.3544686731e+01   2.5502142840e+01    0.3354795    0.2618783 -86.89 0.0009705693    1.620    0.383
        42  -8.6680    205.0230    110.4413   8.5128985887e+01   1.7440012804e+01    0.2350714    0.1491608  52.60  0.001027476    1.598    0.374
        43 -10.1340     16.3874    201.0523   1.4622264661e+02   3.0925844289e+01     0.191556    0.1589197  71.50 0.0004319231    1.186    0.157
        44  -8.3815    152.3732    102.7426   9.4533321538e+01   3.1613819159e+01     0.205609    0.1518495 -32.28 0.0002960564    1.472    0.321
        45  -8.3745    134.5184    102.5034   9.9012208129e+01   3.5778918093e+01    0.1550925    0.1525839  29.51 0.0001867698    1.010    0.010
        46  -9.3529     93.1396    207.2944   1.3083995216e+02   1.9530042927e+01    0.2780719      0.19513 -68.44  0.001116258    1.442    0.307
        47  -9.1782     81.5646     76.0555   1.0704262024e+02   5.1536657819e+01    0.2126641    0.1743586  26.97 0.0002873089    1.229    0.187
        48 -10.3485    106.7867    206.1969   1.2766421936e+02   1.7488118172e+01    0.2949832    0.2776688   3.79  0.001097072    1.381    0.276
        49 -12.1116    167.4685     46.6840   7.5475782106e+01   3.7620406324e+01    0.6685827    0.5275707  -0.98  0.001610892    1.671    0.402
        50  -8.8878    170.9773    239.2923   1.1891790281e+02  -4.6096117056e-01    0.1987081    0.1516785  40.63 0.0009426521    1.107    0.096
        51  -8.5661    176.8731    235.1552   1.1706620742e+02  -8.1753149155e-01    0.1794847    0.1450171  14.87 0.0003428127    1.301    0.231
        52  -9.4410    109.5416    203.5011   1.2665242529e+02   1.7599229298e+01    0.2569217    0.1644675  44.49 0.0006984008    1.436    0.304
