#   1 NUMBER                 Running object number                                     
#   2 MAG_AUTO               Kron-like elliptical aperture magnitude                    [mag]
#   3 X_IMAGE                Object position along x                                    [pixel]
#   4 Y_IMAGE                Object position along y                                    [pixel]
#   5 X_WORLD                Barycenter position along world x axis                     [deg]
#   6 Y_WORLD                Barycenter position along world y axis                     [deg]
#   7 A_WORLD                Profile RMS along major axis (world units)                 [deg]
#   8 B_WORLD                Profile RMS along minor axis (world units)                 [deg]
#   9 THETA_WORLD            Position angle (CCW/world-x)                               [deg]
#  10 FWHM_WORLD             FWHM assuming a gaussian core                              [deg]
#  11 ELONGATION             A_IMAGE/B_IMAGE                                           
#  12 ELLIPTICITY            1 - B_IMAGE/A_IMAGE                                       
         1 -14.8194     68.3404    144.2247   1.0601454451e+02   3.7430636720e+01     4.378412     2.266755  80.03  0.004941753    4.018    0.751
         2 -13.9664    223.2694     17.5242   3.8159936271e+01   2.7246831142e+01     1.025168    0.9080765  35.71  0.002684497    1.457    0.314
         3 -13.5535    198.2959     39.9437   4.6642652136e+01   3.0503214720e+01     1.262636    0.9768456   4.94  0.002929784    1.751    0.429
         4 -13.9729    207.5259     33.7553   4.3831621891e+01   2.9042312767e+01     1.315745     1.227099  -3.20  0.006287259    1.296    0.228
         5 -12.4294    214.7247     26.2869   4.1126679536e+01   2.8231908586e+01    0.5040437    0.4074958  48.35  0.001177447    1.433    0.302
         6 -10.8526      2.3063      3.6398   9.3016571790e+01   7.3999501672e+01    0.3638472    0.0663349 -45.65  0.001451512    3.940    0.746
         7 -10.4512     50.4773      3.4999   6.7894991546e+01   6.8316694441e+01    0.2148339    0.1726573  55.32   0.00137183    1.820    0.451
         8 -10.4300     45.6328      1.7080   6.8992566610e+01   6.9274825573e+01    0.2737852    0.1652452  50.64  0.001354163    2.168    0.539
         9 -10.1535     60.6654      2.1583   6.3228338961e+01   6.6718562784e+01    0.2734102    0.1309661   5.93  0.001166989    3.003    0.667
        10 -10.4189    245.7775      1.4408   3.2833403182e+01   2.3983251854e+01    0.3368484    0.1071303  77.63  0.001429152    3.083    0.676
        11  -8.7359     90.9902      1.2169   5.3380733287e+01   6.0795510164e+01    0.1627134   0.09229234  55.50 -0.000430966    1.571    0.363
        12 -10.0158     64.9804    196.7256   1.1399583392e+02   2.5607665208e+01    0.3117277    0.2305761   6.89   0.00169222    2.197    0.545
        13 -11.7880    194.4984    248.0262   9.4127664037e+01  -3.9121159660e+00    0.4281794    0.3971139 -31.66  0.003128442    1.434    0.303
        14 -14.2821     85.2906    226.5505   1.1289603170e+02   1.6645620730e+01     2.936422     1.064854  45.85   0.01019309    2.279    0.561
        15 -15.8670     72.6185    248.0101   1.1730555407e+02   1.4433052009e+01     9.169247     2.447454  32.12   0.02839765    6.428    0.844
        16 -11.7101     67.8926    173.9752   1.1058549996e+02   3.0358434587e+01     0.298762    0.2381305 -48.02  0.000672529    1.442    0.307
        17  -9.2942     99.5091    180.5516   1.0391752531e+02   2.4119006347e+01    0.1398535    0.1277926  68.94 0.0001322482    1.007    0.007
        18 -13.8992      5.6450    186.5336   1.2573311546e+02   3.4260794518e+01    0.9538879     0.580404  84.31  0.006134919    1.311    0.237
        19 -11.2741    119.6399    174.0828   9.7996514065e+01   2.2130053121e+01    0.3492685    0.2411447  42.59  0.001462241    1.384    0.278
        20 -10.7012    138.4647    171.9505   9.3091267990e+01   1.9119863343e+01    0.4289241    0.2555397  63.31  0.001638669    2.417    0.586
        21 -13.4811     64.9221    160.1171   1.0940491704e+02   3.4036107094e+01     0.546776    0.4209837 -37.88  0.001915422    1.600    0.375
        22 -11.6383     77.4810    164.1333   1.0680756390e+02   3.1329856391e+01    0.4612865    0.3306099 -85.60 0.0004066143    1.455    0.313
        23 -12.4489     84.3617    157.7464   1.0401721142e+02   3.1827410782e+01    0.9580585    0.7726829 -56.68  0.002396639    1.227    0.185
        24 -10.0599    174.5076    248.4715   9.7964999766e+01  -9.0436980133e-01    0.1787221    0.1206134 -58.96 0.0008922059    2.272    0.560
        25 -10.5818     98.6218    143.1700   9.7530835068e+01   3.3023175053e+01    0.3795573     0.250783 -43.11 0.0009006219    1.600    0.375
        26  -9.8813    101.4819    140.0009   9.6101777074e+01   3.3289483065e+01    0.3241808    0.2184583 -33.37 0.0009519043    1.810    0.447
        27 -12.2303     86.8424    141.7830   1.0048107160e+02   3.5298980843e+01    0.2910331    0.2553752 -43.41 0.0004130834    1.196    0.164
        28 -10.5659     81.4947    141.3459   1.0187551545e+02   3.6235663472e+01    0.3883585    0.2131853  60.84  0.001009196    2.501    0.600
        29 -10.3256    109.5072    131.5131   9.2042821696e+01   3.3866348173e+01    0.3600975     0.277728   0.34  0.001288613    1.758    0.431
        30 -10.3655    106.4846    131.4839   9.2872991320e+01   3.4430900292e+01    0.3805461    0.2975697 -66.09  0.001857112    1.340    0.254
        31 -11.9172     46.2969    129.4406   1.0976975229e+02   4.3773176160e+01    0.3665799    0.2241136  36.69  0.001891643    1.794    0.443
        32  -9.9640    136.0000    128.9988   8.4353788991e+01   2.9180014078e+01    0.2642179   0.08891662 -46.50  0.000803621    2.951    0.661
        33 -10.4056     97.0516    127.6932   9.4676454906e+01   3.7019542358e+01     0.283518    0.2404077 -19.02 0.0006360388    1.374    0.272
        34  -9.7511     78.9604    128.4750   1.0006990919e+02   3.9765940018e+01    0.2116598    0.1451379  35.11 0.0008243431    1.569    0.362
        35 -10.5660    116.3366    125.7068   8.8797263091e+01   3.3930217309e+01    0.3561419    0.2513674 -63.92  0.001588804    1.591    0.371
        36 -11.2402     32.4551    129.2503   1.1371026787e+02   4.5215983512e+01    0.3945065    0.1191208 -61.24  0.001563776    2.518    0.603
        37 -10.3665    135.6108    123.7880   8.3159628632e+01   3.0432593775e+01    0.2281697    0.1482581 -55.92 0.0007472672    1.679    0.405
        38 -16.1584      6.7024    238.9635   1.2828652369e+02   2.3677167955e+01     2.659844     1.479442 -78.67   0.01858222    1.653    0.395
        39  -9.9350    106.9132    119.9691   9.0044358264e+01   3.7078586653e+01    0.2209852    0.2125878 -36.70 0.0003352656    1.034    0.033
        40  -9.5031    168.1013    113.0373   7.2433733445e+01   2.5472719683e+01    0.2599478    0.1984396 -78.47  0.001128756    1.804    0.446
        41 -10.3866    135.0000    112.5350   8.0397042542e+01   3.3062827685e+01    0.3573674   0.08932551 -44.49 0.0009363576    3.948    0.747
        42  -9.7662    205.5397    110.2216   6.4017864139e+01   1.7418535464e+01    0.2635455    0.2119541  48.51 0.0006128415    1.310    0.237
        43  -9.7063    159.3712    162.7932   8.6339630509e+01   1.6963938222e+01    0.2026419    0.1406015 -34.76 0.0002857863    1.541    0.351
        44  -9.9458    174.6375    148.7996   7.9783638306e+01   1.6698717045e+01    0.2729567     0.197087 -49.67 0.0007085719    1.476    0.322
        45 -10.7868    133.6825    143.7890   8.8417897607e+01   2.6309182945e+01     1.127692    0.2585242 -53.86  0.002344016    7.201    0.861
        46  -9.0986     57.6632     97.3212   9.9851744542e+01   5.0236894687e+01    0.1388973    0.1069724  77.36 0.0007050214    1.710    0.415
        47 -14.6561     10.3220    206.5834   1.2602087081e+02   2.9624253552e+01     1.015533    0.7185187  24.67  0.002755572    1.934    0.483
        48 -10.2160     72.3426     83.1706   9.1086240302e+01   5.1452227103e+01    0.4301928    0.2566882  61.17  0.001691857    3.020    0.669
        49  -9.4238     48.7503     62.9404   9.3662683400e+01   5.8986420045e+01    0.1839481    0.1495795 -40.74 0.0003341153    1.096    0.088
        50  -9.9290    133.3201    172.3085   9.4383555698e+01   2.0013181235e+01    0.1468082    0.1169095  -4.16 0.0003287247    1.641    0.391
        51 -10.5382     13.3908     59.9336   1.0726021781e+02   6.2811915827e+01    0.1988587    0.1798859 -56.29 0.0004360165    1.203    0.169
        52 -11.5348    195.8464    238.3699   9.2405338824e+01  -2.8049805097e+00    0.4568581    0.3014807  -6.62  0.002604998    1.807    0.447
        53 -13.9782     40.4204    234.8596   1.2220712873e+02   2.0869929927e+01      1.20194    0.5803875  71.08  0.006721671    1.993    0.498
        54 -16.3200     28.5050    176.3010   1.2006680451e+02   3.4439351460e+01     8.826626      3.29625  83.36   0.03064345    4.363    0.771
        55 -11.4240     72.8236    230.8193   1.1577989998e+02   1.7565235243e+01    0.4397022     0.283721  33.41   0.00258142    1.661    0.398
        56 -10.6911    137.7010     43.7951   5.8476474685e+01   4.5227086691e+01    0.3113194    0.2419769 -89.18 0.0005558387    1.629    0.386
        57 -10.6397    140.7305     38.1580   5.5903650072e+01   4.5250452428e+01    0.3734373    0.2601922 -81.15  0.001035973    2.024    0.506
        58  -9.9313    137.2976     35.6511   5.5781041571e+01   4.6426944772e+01    0.2604484    0.2008961 -57.49 0.0007821027    1.537    0.349
        59  -9.7410    189.6008     15.2325   4.1066911274e+01   3.5599106193e+01    0.1705807    0.1325939  -9.46 0.0007484205    1.612    0.380
        60 -13.8248     36.2715    207.2392   1.2101008804e+02   2.6848221102e+01    0.9592881    0.7535491   6.55  0.001546186    2.086    0.521
        61 -11.8524     62.9370    179.3763   1.1245529623e+02   2.9768394240e+01    0.4044487    0.3062244 -26.71  0.001457953    1.993    0.498
        62 -11.3675    183.5206    215.5062   9.1103004669e+01   2.6414788531e+00    0.3623989    0.2191539  56.36  0.001694037    2.338    0.572
        63  -9.2349     62.9391    201.2893   1.1492546256e+02   2.4887952614e+01    0.1691749    0.1398275  66.42  0.000353555    1.044    0.042
        64 -10.7125    192.0952    192.2736   8.5163488232e+01   5.0341760712e+00    0.5620495    0.3484872 -61.40  0.002398001    2.831    0.647
