#   1 NUMBER                 Running object number                                     
#   2 MAG_AUTO               Kron-like elliptical aperture magnitude                    [mag]
#   3 X_IMAGE                Object position along x                                    [pixel]
#   4 Y_IMAGE                Object position along y                                    [pixel]
#   5 X_WORLD                Barycenter position along world x axis                     [deg]
#   6 Y_WORLD                Barycenter position along world y axis                     [deg]
#   7 A_WORLD                Profile RMS along major axis (world units)                 [deg]
#   8 B_WORLD                Profile RMS along minor axis (world units)                 [deg]
#   9 THETA_WORLD            Position angle (CCW/world-x)                               [deg]
#  10 FWHM_WORLD             FWHM assuming a gaussian core                              [deg]
#  11 ELONGATION             A_IMAGE/B_IMAGE                                           
#  12 ELLIPTICITY            1 - B_IMAGE/A_IMAGE                                       
         1 -11.7265     25.4664     54.7963   8.9989367397e+01   6.3694091916e+01     1.305842    0.7114219 -24.34  0.006546312    1.854    0.461
         2 -10.6659    116.2945     34.1724   4.9402555643e+01   5.1035783468e+01    0.6654927       0.4517 -26.14  0.003384981    1.650    0.394
         3 -12.5655    105.0944     20.7499   4.7351988835e+01   5.5082870839e+01    0.4249269    0.2558328  55.35 0.0004182072    1.424    0.298
         4 -12.4612    107.8086     28.8806   4.9587279769e+01   5.3593100191e+01    0.4656144    0.3646208  24.60  0.002693422    1.340    0.254
         5 -11.0480     18.9036     27.4474   8.3077903247e+01   6.9250803695e+01    0.6392031    0.2723478 -46.35  0.001667388    2.368    0.578
         6  -9.8220     15.8523     17.9150   8.0510328554e+01   7.1028434994e+01    0.4310524    0.2291101  11.56  0.001381416    1.833    0.454
         7 -10.8949      7.7862     15.4272   8.4073680981e+01   7.2166923680e+01    0.5064098    0.2659594  -1.87 0.0008032673    1.937    0.484
         8 -10.9783      5.5489     35.4816   9.3559114213e+01   6.8977981549e+01    0.7084617    0.4121951 -35.24  0.004166098    1.347    0.257
         9 -11.3585     14.7487     11.2141   7.7895281196e+01   7.2093447740e+01    0.3600643    0.3032536   6.85  0.002673514    1.334    0.251
        10  -9.6536     15.1488      4.3957   7.4114819453e+01   7.2932196871e+01    0.1991331    0.1630647  -3.41 0.0004729194    1.260    0.207
        11 -10.4096     18.2229      1.8442   7.0955576653e+01   7.2867369577e+01      0.29777    0.1562128  21.00   0.00147541    1.679    0.404
        12 -11.0403     24.9922      6.9562   6.9994815224e+01   7.1408170557e+01    0.2256926     0.175099  20.06 0.0003136095    1.231    0.188
        13 -10.2383     21.1886      5.8189   7.1449049291e+01   7.2032779426e+01     0.270042    0.1873081  -7.46  0.001603787    1.197    0.164
        14 -11.0000     72.0263     29.4184   6.0236263041e+01   6.1052832614e+01    0.5604344    0.4419561  64.83  0.003148514    1.711    0.415
        15 -10.5503     49.4130     23.0678   6.6225965017e+01   6.5851870827e+01    0.5963777    0.3356899  15.08  0.002119292    2.037    0.509
        16  -9.6640     26.6215     21.8544   7.6474220090e+01   6.9249936157e+01    0.4689475     0.240574 -27.27  0.002540785    1.845    0.458
        17  -9.9066     30.7164     12.2340   6.9740665450e+01   7.0003560788e+01    0.3109837    0.2055252  32.53 0.0007735716    1.447    0.309
        18 -11.4227     28.3673     30.7804   7.9530917278e+01   6.7690641664e+01    0.8621908    0.4119805 -16.93  0.001345663    2.879    0.653
        19 -11.7073     40.0557     16.5302   6.7342101528e+01   6.8130653134e+01     1.114205    0.3492867  30.90  0.001868419    3.715    0.731
        20  -9.5700     79.0213     11.4680   5.0579270271e+01   6.1608103261e+01    0.2394668     0.171502  -8.75 0.0006905206    1.533    0.347
        21  -8.8024     75.5554     12.5055   5.2041448175e+01   6.2218904111e+01    0.2066473    0.1882512  22.55 0.0006138539    1.141    0.124
        22  -9.4070     69.6185     11.7564   5.3587746588e+01   6.3471950430e+01    0.2379964    0.1448558  54.74 0.0005713869    1.601    0.375
        23 -11.5055     69.1269     16.4316   5.5771011764e+01   6.3102230795e+01    0.5920865    0.3970956  39.36  0.003471809    1.251    0.201
        24 -11.5996     61.9650     17.1885   5.8614741482e+01   6.4373636542e+01    0.5109074    0.2645369  30.78 0.0003574519    1.846    0.458
        25 -10.2189    131.5795     21.8967   4.2283862629e+01   4.8846796427e+01    0.3844494    0.2507989  -6.21  0.001988861    2.101    0.524
        26 -10.8693    166.2486     18.1015   3.5955183783e+01   4.1073156077e+01     0.311724    0.2753333  13.39  0.001065258    1.493    0.330
        27 -10.3614    219.3841     19.0468   3.0740058353e+01   2.9193363577e+01    0.4553354    0.2583579 -84.79  0.002610333    1.677    0.404
        28  -9.3507    229.0189      9.3305   2.8069223082e+01   2.8315482192e+01    0.1737622    0.1454617 -50.68 0.0006724683    1.305    0.234
        29 -10.8419    237.0410      4.9998   2.6719550540e+01   2.7203931614e+01    0.3712287    0.3307332  12.03  0.001781886    1.926    0.481
        30  -9.6668    225.8579     16.3084   2.9670139427e+01   2.8179563364e+01    0.2597213    0.1589662 -33.07  0.001575424    1.830    0.454
        31 -11.1946    230.7559     14.5285   2.8954321092e+01   2.7397356847e+01    0.3455935    0.2126019 -89.38  0.001628771    1.442    0.307
        32 -10.3966    149.8528     17.2673   3.7947561984e+01   4.5004746204e+01     0.466434    0.2973851  77.35  0.002028277    1.451    0.311
        33  -9.7975    148.4818     12.5049   3.6800286739e+01   4.5790196175e+01    0.3160819    0.2560661  57.14  0.002004443    1.183    0.155
        34  -9.9144    144.8895     12.5374   3.7321687585e+01   4.6631359834e+01    0.2880573    0.2269143  57.53  0.001020939    1.178    0.151
        35 -11.1858    133.0110     12.4624   3.9125233519e+01   4.9429264994e+01    0.2583615    0.2324718 -61.98 0.0003623135    1.223    0.182
        36  -9.9605    128.4683     12.5180   3.9899409142e+01   5.0487988335e+01    0.4659809    0.2157062 -27.02  0.001569977    2.463    0.594
        37  -9.5464    127.4598      8.0000   3.8652963618e+01   5.1119785519e+01     0.372614    0.1166076  59.92  0.001101431    2.420    0.587
        38  -9.0551     51.5220     12.4800   6.0466357058e+01   6.6739413137e+01     0.258107    0.1391223 -31.10  0.001412105    2.024    0.506
        39  -9.6502    211.0897     15.0153   3.0593560360e+01   3.1381076249e+01    0.3074419    0.1451958 -49.93  0.001185671    1.868    0.465
        40 -11.0542    217.8407      4.4829   2.7901782380e+01   3.1089726566e+01    0.6249869     0.319758 -31.61  0.002429897    2.197    0.545
        41 -10.9989    209.5006      4.6919   2.8559484964e+01   3.2803963690e+01    0.6145641     0.269567 -54.03  0.002147506    2.038    0.509
        42  -9.8066    116.8203     15.0847   4.2868058785e+01   5.2959905089e+01    0.2713925    0.2116922  12.06   0.00107219    1.517    0.341
        43 -11.0257    175.8424     13.1813   3.3576734691e+01   3.9361834379e+01    0.7344806     0.285313  74.33  0.003256734    2.380    0.580
        44 -10.0218    184.4350     12.5283   3.2509031996e+01   3.7477009277e+01    0.2684576    0.1910417 -59.90  0.000831305    1.320    0.243
        45  -9.4416     84.0401     14.4053   5.0342554818e+01   6.0290779615e+01    0.2380216    0.1762958  34.43  0.001165044    1.180    0.152
        46  -9.1437     87.2874      6.9803   4.6521908878e+01   6.0260314943e+01    0.3263901    0.2383956  10.64  0.002003584    1.493    0.330
        47 -11.3725     91.8912      2.8644   4.3806478470e+01   5.9590338764e+01    0.2609681    0.2215433 -73.30 0.0007837622    1.508    0.337
        48 -10.8415     97.0558     11.9418   4.6030224944e+01   5.7712849701e+01    0.4769824    0.2874682 -14.84 0.0008167471    1.971    0.493
        49  -9.4599    101.8415     11.1357   4.4632383309e+01   5.6721346314e+01    0.2763319    0.2013783  77.36   0.00160519    1.512    0.339
        50  -9.9170     92.9857      8.0833   4.5544757743e+01   5.8937594295e+01    0.3241656    0.1735951  54.03  0.001228206    1.516    0.340
        51  -9.4265    245.2588     10.6704   2.7247148862e+01   2.5018597271e+01    0.2280814    0.1213178 -47.33  0.000886376    1.543    0.352
        52 -10.1169    166.9918      9.0197   3.3525169313e+01   4.1803448425e+01    0.5075146    0.3116293  43.79  0.002785294    1.960    0.490
        53 -12.0220    177.5350      3.0701   3.0946674745e+01   3.9950030389e+01    0.3957896    0.2028902  61.61 0.0003945006    1.767    0.434
        54 -11.1576      6.7730      8.6859   8.1424457321e+01   7.3237976389e+01    0.2976016    0.1865872 -29.31 0.0008220827    1.370    0.270
        55 -10.3286    202.4731      7.3044   2.9670868860e+01   3.4035199914e+01    0.3010932     0.188393 -63.52  0.001849939    1.417    0.294
        56  -9.8620    191.7727      9.0587   3.0994646131e+01   3.6191682473e+01    0.3009101    0.2827741 -89.98  0.001861978    1.244    0.196
        57 -10.9097    195.5404      3.7082   2.9466752914e+01   3.5893238798e+01    0.5065573    0.2356967  72.41  0.002022369    1.849    0.459
        58  -9.0286    120.0364      9.4064   4.0381790015e+01   5.2723974854e+01    0.2239766    0.1688801  19.50  0.001341815    1.572    0.364
        59  -8.1661     37.9409      9.8232   6.5041774276e+01   6.9235854083e+01    0.1520907   0.07590374  37.33 0.0008182722    1.753    0.430
        60  -9.3252    223.9576      8.6325   2.8289656637e+01   2.9407312023e+01    0.2472271    0.1236618 -47.98  0.001391391    1.702    0.413
        61  -9.2309    183.8264      6.6725   3.1191975771e+01   3.8196113484e+01    0.3146802    0.1859903  42.82  0.001134399    2.308    0.567
        62  -9.3366     80.9993      3.0478   4.6566761944e+01   6.1906070040e+01    0.3867562    0.1508797  37.22  0.001365945    2.525    0.604
        63 -11.5304     74.0029      4.5034   4.9113735599e+01   6.3235677939e+01    0.4613386    0.2950571  -6.44  0.002009818    1.761    0.432
        64  -8.9828     69.5453      1.5456   4.9148406121e+01   6.4368099776e+01    0.2016232    0.1456046  41.18 0.0009357107    1.102    0.093
        65  -9.9614     63.1202      7.1546   5.3705092712e+01   6.5153675875e+01    0.2888506    0.2298496  87.17  0.001366386    2.102    0.524
        66  -9.2957     49.6158      7.3759   5.8794485884e+01   6.7589140524e+01    0.3350887    0.1903308  30.80  0.001723176    1.501    0.334
        67 -10.2645    153.2067      5.3161   3.4188605635e+01   4.5336768927e+01    0.2904409    0.2173621  38.70  0.001080307    1.576    0.366
        68 -12.1557    161.0880      2.5133   3.2518862134e+01   4.3754049096e+01     0.437503    0.2641199  68.54 0.0006431832    1.389    0.280
        69 -10.5270    106.6856      6.2636   4.1861942686e+01   5.6040058101e+01    0.4464083    0.3175404  50.67  0.001749668    1.177    0.151
        70  -9.0168    108.7996      1.2912   3.9718314063e+01   5.5943522991e+01    0.1885544    0.1013279  65.37 0.0003007588    1.569    0.363
        71  -9.8725    247.9901      4.7634   2.6018974845e+01   2.5151656812e+01    0.1944841    0.1265651 -86.99 0.0002110433    1.304    0.233
        72 -10.9067    249.9740      1.5268   2.5335934344e+01   2.5128570723e+01    0.1923928    0.1379543 -69.39 0.0003404586    1.003    0.003
        73 -10.3033    126.7727      2.3229   3.6990395037e+01   5.1739956067e+01    0.4343433    0.2031405  42.85   0.00209388    2.229    0.551
        74  -9.1980     37.7335      3.5418   6.1940690945e+01   6.9929525463e+01    0.2784974    0.2135347  39.74  0.001898678    1.411    0.291
        75 -10.4695     30.6449      2.5622   6.4776614576e+01   7.1106360957e+01    0.2249707    0.1856305 -30.91  0.001593592    1.662    0.398
        76  -9.8745    135.5246      1.8199   3.5538802549e+01   4.9746105300e+01    0.2570332    0.1805123 -88.67  0.001046018    1.421    0.296
        77 -10.6106    115.6385      1.9555   3.8707902746e+01   5.4335458790e+01    0.2208487    0.1570965  60.58  0.000300686    1.150    0.131
        78  -8.6285    144.5788      2.1997   3.4421248603e+01   4.7608097147e+01    0.1981457     0.124584 -66.40  0.001096906    1.778    0.438
        79  -8.4092    120.0593      1.7401   3.7884760087e+01   5.3336073962e+01    0.1699685    0.1378611  65.46 0.0004061304    1.031    0.030
        80  -9.2292     50.9801      1.5427   5.5421092342e+01   6.7885907206e+01    0.2865742    0.1097927  46.00  0.001043594    2.100    0.524
        81  -8.9198    186.7480      1.1395   2.9646309615e+01   3.8067746601e+01    0.2886243   0.06045711  70.58  0.001060192    3.717    0.731
        82  -8.3132      3.3116      2.2526   8.0274736090e+01   7.4432010850e+01    0.1116841   0.06421737  -6.26 0.0003715566    1.519    0.342
        83 -10.3300      4.2072    116.5013   1.1209288911e+02   5.0857359796e+01    0.3724134    0.2989598 -22.74  0.001721226    1.393    0.282
        84  -9.5724    201.3849    249.6561   8.1561798178e+01  -6.7049478512e+00    0.2347937    0.1706443   4.85 0.0006109614    1.158    0.137
        85 -10.3333    115.8708    248.6023   9.9458562616e+01   5.5617273625e+00    0.2620405    0.2377697 -72.67 0.0009827557    1.291    0.225
        86 -10.8590      4.1833    109.9223   1.1119193129e+02   5.2506190553e+01    0.4920604     0.307777  62.30  0.002553905    2.033    0.508
        87 -11.0142     21.0928    107.0574   1.0472228756e+02   5.2140353666e+01    0.9660657    0.3021352 -65.02  0.003576677    2.684    0.627
        88 -10.3978     16.1597    107.8619   1.0664409888e+02   5.2294854807e+01    0.2986475    0.2369856 -66.47 0.0002521453    1.121    0.108
        89  -9.7480    221.5743    119.2959   5.2249051888e+01   1.3465631232e+01    0.2827267    0.2505308  36.46 0.0008976376    1.325    0.245
        90  -9.2810     93.7572    119.1298   8.2219782836e+01   3.9712362292e+01     0.281515    0.2481788 -13.63 0.0009150874    1.195    0.164
        91  -8.4357     85.2917    120.3673   8.5232190699e+01   4.0876283821e+01    0.1657865    0.1155842 -24.66 0.0007026448    1.713    0.416
        92 -10.3812     45.2100    119.5006   9.8550455256e+01   4.6724662951e+01     0.390823    0.2693903  26.03  0.001234622    1.595    0.373
        93 -10.3722     47.8070    114.5347   9.6618271184e+01   4.7698611235e+01    0.3764598    0.3383704 -74.07  0.001343774    1.167    0.143
        94  -8.8705    104.1973    119.2217   7.9010448855e+01   3.7761276827e+01    0.2828802     0.194348  33.72  0.001165062    1.515    0.340
        95  -9.8068     55.8657    118.2932   9.4617935713e+01   4.5762713683e+01    0.4319765    0.2261764  49.30  0.001297913    2.480    0.597
        96  -9.9053     32.6464    118.1391   1.0263989047e+02   4.8357383565e+01    0.2390126    0.1597067 -41.59 0.0004985001    1.419    0.295
        97 -10.9022     33.3017    113.9689   1.0163244164e+02   4.9361373099e+01    0.3831619    0.2713085  86.12 0.0003620761    1.753    0.430
        98  -8.6573    239.2800    117.3360   4.9163391224e+01   1.0606202062e+01    0.1286987    0.0971676 -16.85 0.0007005305    1.616    0.381
        99  -9.4014     70.4865    116.3330   8.9162266169e+01   4.4236829891e+01    0.2482494    0.2097694 -89.56 0.0002521765    1.425    0.298
       100  -9.1809     80.7678    115.7723   8.5578140575e+01   4.2766908586e+01    0.2067618    0.1817328  72.22 0.0008129408    1.352    0.260
       101  -9.7057     28.0067    115.7349   1.0382061278e+02   4.9387921161e+01    0.1936335    0.1691348 -54.61 0.0004205218    1.018    0.018
       102 -10.1950     62.0985    113.1503   9.1292359652e+01   4.6237835564e+01    0.4016223    0.2117845 -56.69  0.001675399    1.775    0.437
       103  -8.1013    162.2835    113.6856   6.2179386842e+01   2.6797602207e+01    0.1539629    0.1211849 -76.44 0.0002883071    1.578    0.366
       104  -9.5712     76.0612    111.9157   8.6188443905e+01   4.4475366632e+01    0.2134023     0.201218 -84.93            0    1.190    0.160
       105  -8.0176    171.7107    111.7363   5.9634437290e+01   2.5135267664e+01    0.1441502    0.1198541   3.87 0.0001782558    1.497    0.332
       106  -8.9693    233.7104    111.3710   4.8703641774e+01   1.2638717162e+01    0.1405053    0.0919258 -62.21 0.0007022774    1.717    0.418
       107  -9.3493     57.9704    108.0295   9.1532682346e+01   4.8070237665e+01     0.215419    0.1952167 -35.35 0.0003004666    1.020    0.020
       108  -9.1000     91.8652    106.4104   7.9494077179e+01   4.3105922769e+01    0.2550216    0.2023642 -26.59 0.0007090461    1.316    0.240
       109 -10.0269     37.2550    106.0520   9.8609780743e+01   5.0972995344e+01    0.3588062    0.1315764 -49.88   0.00138159    2.256    0.557
       110 -11.2544     39.9934    102.7195   9.6867714215e+01   5.1518359656e+01    0.9731083    0.4807539  -8.78  0.003218581    3.664    0.727
       111  -9.9419     40.1187     99.0930   9.5992968611e+01   5.2393707483e+01    0.3207546    0.2454753 -13.01   0.00107594    1.394    0.283
       112  -9.5484    132.1746    104.0222   6.6948653619e+01   3.5472896301e+01    0.2553578    0.2233311  43.81 0.0003337584    1.158    0.136
       113  -9.5010    108.0241    104.0104   7.3772026223e+01   4.0560769904e+01    0.2384383    0.2233075 -45.25 0.0005561498    1.075    0.070
       114 -10.8856    101.6899    102.7705   7.5364966254e+01   4.2093970650e+01    0.4876377    0.3183481  34.26  0.001006557    1.586    0.370
       115  -9.6474     33.8350    103.2813   9.9286593143e+01   5.1995348005e+01    0.2876395    0.1684373 -50.03  0.001163749    1.450    0.311
       116 -10.1861    119.1697    102.9089   7.0201055053e+01   3.8508771543e+01    0.3644848    0.2692085   0.89 0.0003893643    1.849    0.459
       117  -8.9301     95.6273    102.5105   7.7206215623e+01   4.3313864095e+01    0.3971477    0.2008955 -55.08  0.001484012    2.212    0.548
       118  -9.9559     85.2818    102.2728   8.0530291795e+01   4.5247214261e+01    0.3936573    0.2430637  38.88 0.0005606519    1.674    0.402
       119 -10.5292     51.8571    101.5069   9.2172657332e+01   5.0455685407e+01    0.4811962    0.3163638 -77.58  0.002147028    2.061    0.515
       120 -10.1401     77.0935    102.4164   8.3355275672e+01   4.6598742168e+01    0.6277128    0.2345577  25.46  0.001849201    4.010    0.751
       121  -9.0185     79.5021     98.5406   8.1458598822e+01   4.7104989226e+01    0.3134459     0.257941 -74.95   0.00109705    1.521    0.342
       122 -10.3994     79.4674     95.2367   8.0537399842e+01   4.7868035841e+01    0.4420657     0.323532   0.76   0.00205839    1.655    0.396
       123  -9.6077     66.4552    102.4509   8.7101815947e+01   4.8243605772e+01    0.1487118    0.1378329 -33.19 2.141053e-05    1.021    0.020
       124 -10.0102      7.2890     98.4949   1.0830274642e+02   5.5159971831e+01    0.5398366    0.3016199  36.62   0.00276427    2.170    0.539
       125  -9.2180      6.5854     94.1992   1.0783142247e+02   5.6241565901e+01    0.2729977    0.2357741  37.12  0.001712642    1.421    0.296
       126 -10.5261      2.1871     79.3544   1.0683865480e+02   5.9971561086e+01    0.4061769    0.2449664 -75.64  0.002188986    1.718    0.418
       127  -9.2653      2.4177     92.4805   1.0912826901e+02   5.6866888178e+01    0.2028798    0.1510466 -70.71 0.0005740024    1.227    0.185
       128 -10.6246      2.2384     87.3274   1.0830531638e+02   5.8104084929e+01    0.6091012    0.1390328 -61.43  0.001966682    2.825    0.646
       129  -8.3663    177.1844    101.3896   5.5912385182e+01   2.5975430240e+01    0.1886605    0.1429497  67.52 0.0002501247    1.481    0.325
       130 -11.7620    117.5369     97.9573   6.9264971329e+01   3.9925816408e+01    0.4753045    0.3512882  16.32 7.888457e-05    1.681    0.405
       131  -8.0985     59.7028    100.3757   8.9002503431e+01   4.9702666021e+01    0.1464588    0.1163382  81.00 0.0007025799    1.748    0.428
       132  -8.9351    127.1404    102.0465   6.7747768565e+01   3.6991168888e+01    0.2360815    0.2079576  -0.23 0.0003429774    1.255    0.203
       133  -8.2605     63.0163     98.9448   8.7420200734e+01   4.9579917141e+01    0.1802396    0.1527296 -43.27 0.0003378141    1.094    0.086
       134  -9.2353     16.4745     98.6096   1.0487459655e+02   5.4564723539e+01    0.2568791    0.1859221 -48.10 0.0007840361    1.155    0.134
       135  -9.2501     13.0497     95.4024   1.0557682653e+02   5.5572137348e+01    0.2739245     0.172571 -61.61  0.001019218    1.327    0.246
       136  -8.8487    184.2262     96.8128   5.3420200497e+01   2.5287157021e+01    0.2166004    0.1886076 -66.05 0.0004882458    1.143    0.125
       137  -9.2824    149.8918     97.1487   6.0659423465e+01   3.2943576058e+01     0.223205    0.2035624 -81.86   0.00115859    1.176    0.150
       138  -9.8657    125.6421     96.9256   6.6711611235e+01   3.8401736816e+01    0.2831786    0.2469608 -80.46  0.001035735    1.352    0.260
       139  -8.6239     59.3318     97.2414   8.8321241905e+01   5.0501209960e+01    0.1457592    0.1057086 -16.04 0.0001851519    1.540    0.351
       140  -8.2886    171.4803     96.5061   5.5805134731e+01   2.8182762152e+01    0.1477722    0.1432951 -30.97 8.621083e-06    1.081    0.075
       141  -9.0020    154.3279     96.0294   5.9338684615e+01   3.2158888111e+01    0.2103351    0.1981036 -48.81 0.0004514622    1.041    0.039
       142  -9.5664     86.9782     96.0383   7.8205116890e+01   4.6374318966e+01    0.2350864    0.2198088 -11.27 0.0005565432    1.022    0.022
       143  -9.4198     22.8369     94.2739   1.0157080927e+02   5.5153295573e+01    0.2794162    0.2224292 -87.22  0.001389646    1.491    0.329
       144  -9.8408     39.6319     87.8304   9.3427120433e+01   5.5130428831e+01    0.3306094    0.2397089 -36.18 0.0007985442    1.235    0.190
       145 -10.9884     27.0932     87.0228   9.8265601033e+01   5.6532533054e+01    0.7585693    0.3876774 -31.90  0.001768461    2.025    0.506
       146 -10.2652     31.6049     93.9669   9.8085475348e+01   5.4478406850e+01    0.3459833    0.2571403 -73.62  0.001158472    1.490    0.329
       147  -9.5470     33.9680     90.5302   9.6350423236e+01   5.5074836481e+01    0.3064232    0.1821494 -26.07 0.0009893267    1.819    0.450
       148  -8.5413    165.5462     94.5207   5.6503828449e+01   2.9901952669e+01    0.1491249    0.1435555 -58.68 0.0003259433    1.009    0.009
       149  -9.8072     47.0477     91.9353   9.1577273327e+01   5.3330610682e+01    0.3393601     0.208265 -53.11 0.0008520027    1.485    0.327
       150  -9.3071     44.4690     88.4951   9.1683821706e+01   5.4436813990e+01    0.2588468    0.2203791 -27.48 0.0007601411    1.063    0.059
       151  -9.1340    139.5057     92.4860   6.1858478077e+01   3.6224155677e+01    0.1511485    0.1501764  -6.93 0.0008104649    1.013    0.013
       152  -9.0999    104.4399     90.9612   7.1099548617e+01   4.4133392083e+01    0.3487042    0.2075344  49.23 0.0003487956    1.805    0.446
       153 -10.3300    105.0571     85.3753   6.9227294696e+01   4.5165455604e+01    0.7226396    0.3197742 -44.00  0.002693347    2.273    0.560
       154  -9.6740     65.8107     85.5587   8.2636892203e+01   5.2239841669e+01    0.4839534    0.2579705  25.88  0.002050533    2.052    0.513
       155 -10.8418     65.4063     76.6225   8.0054573413e+01   5.4223874650e+01    0.5793138     0.441146 -32.90  0.002152105    1.233    0.189
       156 -11.5805     80.8474     83.5792   7.6593581442e+01   5.0189790831e+01    0.3933407    0.3056194  -8.46 0.0005016416    1.417    0.294
       157 -10.1302     71.3768     89.0431   8.1615129320e+01   5.0596425093e+01    0.5431417    0.2479609 -50.20  0.001304326    2.137    0.532
       158 -11.1771     72.9897     79.4471   7.8116255615e+01   5.2409269041e+01     0.618596    0.5558456 -40.05  0.002412058    1.149    0.130
       159  -8.9483    114.0464     90.5410   6.8111006483e+01   4.2225980088e+01    0.2341436    0.1500401  44.25 0.0006415229    1.560    0.359
       160 -10.4670     86.4215     88.9390   7.6306801844e+01   4.8042633462e+01    0.4279445    0.3499579 -14.74  0.002174818    1.282    0.220
       161  -9.5752     86.9464     83.5493   7.4485882703e+01   4.9092471654e+01    0.2715839    0.2140207 -38.46 0.0003900849    1.242    0.195
       162  -8.3288     52.4975     90.5116   8.9097789270e+01   5.2989025409e+01    0.1421738    0.1313953 -34.57 0.0008095354    1.072    0.067
       163  -9.9815      7.3604     89.3203   1.0665055408e+02   5.7370308992e+01    0.3014604    0.1862562  38.41 0.0008674062    2.019    0.505
       164 -10.2330    118.8549     84.4045   6.4914490545e+01   4.2427111153e+01     0.427763    0.2777041  38.28  0.001903601    1.574    0.365
       165 -10.5821    123.7515     86.4209   6.4173856643e+01   4.0953922413e+01    0.4052309    0.3535576  28.03  0.001150543    1.180    0.152
       166 -10.7060    129.6144     84.7624   6.2134135962e+01   3.9969651549e+01     0.639343    0.4039802  16.75  0.002406907    2.680    0.627
       167  -8.9074     97.6850     88.3568   7.2430169049e+01   4.6032475603e+01    0.2190354    0.1591075 -60.22 0.0006698874    1.667    0.400
       168  -8.7040     95.6499     85.2872   7.2147453664e+01   4.7073181694e+01    0.2461396    0.1890973 -66.71 0.0007945946    1.697    0.411
       169  -9.2041     14.4025     87.3874   1.0346878651e+02   5.7407303987e+01    0.3517015    0.1466656 -38.50   0.00153495    2.220    0.550
       170 -10.5351     51.5384     82.9039   8.7349233005e+01   5.4845304095e+01    0.4072162    0.3557049  56.57  0.001172315    1.472    0.320
       171 -10.9056     44.6775     81.9523   8.9820764501e+01   5.5908099035e+01      1.06281    0.3410969  29.61  0.003878762    3.183    0.686
       172 -13.1284     52.9225     74.5438   8.4297254935e+01   5.6482183129e+01    0.8443886     0.411179 -58.74    0.0010836    2.597    0.615
       173 -11.4414     45.1890     68.7514   8.5670879127e+01   5.8702658962e+01    0.3147101    0.2257193 -26.51 0.0002322758    1.289    0.224
       174 -10.2624    155.1002     85.2219   5.6222796551e+01   3.4044166428e+01    0.2971475    0.2696123   0.43 0.0004539331    1.265    0.210
       175 -10.4391    151.2976     80.5720   5.5760329462e+01   3.5775076846e+01    0.4799131    0.2892369  63.23  0.001321306    1.852    0.460
       176 -10.3183    142.4796     83.5015   5.8591130587e+01   3.7277460740e+01    0.5440354    0.3352998  70.11  0.001270064    2.210    0.547
       177  -9.4551     19.1703     80.8243   1.0006681925e+02   5.8609895836e+01    0.4712128    0.2884322  34.87   0.00247989    1.958    0.489
       178  -8.7552     13.0126     77.9917   1.0200707181e+02   5.9685897517e+01    0.2520059    0.1224784 -48.03 0.0008371468    1.614    0.381
       179  -9.9267    124.1573     79.9129   6.2119729436e+01   4.2119054476e+01    0.5039935    0.2963639  68.79  0.001881637    2.667    0.625
       180  -9.5558    118.9237     75.7106   6.2243958436e+01   4.4068455583e+01    0.3458322    0.2620645  80.63  0.001016483    1.818    0.450
       181  -9.5477     77.3213     62.0714   7.0771371654e+01   5.5048261628e+01    0.3508233    0.2022687  47.55 0.0003375178    1.911    0.477
       182  -9.1738     97.0575     63.5621   6.4684240743e+01   5.0942442418e+01    0.2631505    0.1768001  55.64 6.131792e-05    1.676    0.403
       183  -9.7770     93.6812     79.1324   7.0865268736e+01   4.8710954279e+01    0.3366706    0.2513443  17.74 0.0008898827    1.485    0.327
       184  -9.7624     86.9887     68.0533   6.9464345755e+01   5.2144417305e+01    0.3472972    0.2663983  36.98  0.001105294    1.269    0.212
       185 -10.5995     94.2457     70.5923   6.7921517576e+01   5.0247410305e+01    0.8210214    0.4976798 -53.84  0.003012732    2.078    0.519
       186  -9.0396     89.0024     77.9837   7.2043093524e+01   4.9844094828e+01    0.2184471    0.2114484   0.04  0.001231839    1.079    0.073
       187 -10.1237     89.0904     73.2314   7.0477435075e+01   5.0760317872e+01     0.517159    0.3451717 -28.01  0.002428336    1.598    0.374
       188  -9.4505     83.4249     65.2067   6.9712396747e+01   5.3347721184e+01    0.2546973    0.2326047 -24.91  0.000580456    1.117    0.105
       189  -9.3498     82.5686     61.5137   6.8731440595e+01   5.4173893694e+01    0.3501843    0.2516142  -5.42  0.001643007    1.631    0.387
       190 -10.3663    168.0197     78.4106   5.1744242212e+01   3.2273523789e+01    0.2814544    0.2534699 -23.69   0.00034437    1.232    0.188
       191 -10.3552    169.8800     73.4258   5.0070699295e+01   3.2693417641e+01    0.3371741    0.2313337 -36.30  0.001318435    1.492    0.330
       192  -9.6428    159.9169     78.7339   5.3432292642e+01   3.4097731750e+01    0.2441373    0.1816204  39.78  0.001191621    1.483    0.326
       193  -9.2175    136.9942     78.9841   5.8592320024e+01   3.9375396825e+01    0.2374973    0.1840964 -81.83  0.000503954    1.670    0.401
       194  -9.5137    110.9934     77.3630   6.4986218498e+01   4.5491440941e+01    0.3682567    0.2767988 -39.84  0.001809364    1.354    0.261
       195  -8.9660    111.3007     71.3646   6.3004007659e+01   4.6536352413e+01    0.3747292    0.1994441 -22.81  0.001377954    2.757    0.637
       196 -10.4254    179.0159     75.2809   4.8918340476e+01   3.0276830629e+01    0.3447926    0.3155765 -55.62  0.001305497    1.059    0.055
       197  -9.4395    175.0289     75.0046   4.9550236402e+01   3.1237945983e+01     0.215558    0.1980975 -77.44 0.0003283359    1.037    0.035
       198 -11.8212     40.3437     39.3262   7.7267609485e+01   6.4813865154e+01    0.3010421    0.1983027  -5.11 0.0008739195    1.542    0.351
       199  -9.5122     34.0102     41.9544   8.1293774018e+01   6.5171020386e+01     0.411018    0.1985761  17.41  0.001916011    2.294    0.564
       200 -11.2847      7.8763     51.2704   9.7451715583e+01   6.5782499227e+01    0.6730045    0.3951021   4.50  0.001926842    1.756    0.431
       201 -11.0392     36.8235     48.1118   8.2304533655e+01   6.3742367607e+01     1.281056    0.7227016  22.33  0.005159566    1.758    0.431
       202 -11.0204     14.2417     39.5564   9.0345170405e+01   6.7587220506e+01    0.5935485    0.3931533 -32.27  0.002824167    1.218    0.179
       203 -10.1226     15.6918     60.2420   9.6282575415e+01   6.3403090292e+01     0.467993    0.2347639 -50.83  0.002406838    1.643    0.391
       204 -11.7477     28.1589     63.5690   9.1512651947e+01   6.1654441877e+01    0.8640782    0.4718985 -63.31  0.002121896    2.264    0.558
       205 -10.6734     32.2503     59.5845   8.8401084440e+01   6.2061046482e+01    0.6167681    0.2859454 -54.09  0.002802145    2.188    0.543
       206  -9.9061     16.4914     46.7042   9.1682980161e+01   6.6062726742e+01    0.3029222     0.185697  -4.26 0.0009277103    1.622    0.383
       207  -8.1458     57.0063    248.9820   1.1214858609e+02   1.3500746142e+01    0.1379489    0.1147085  61.52            0    1.024    0.023
       208 -12.1148     23.7125     47.0853   8.8214028653e+01   6.5350268393e+01    0.7695301    0.4019519 -36.36 0.0008275445    1.645    0.392
       209 -12.4597      2.4098     66.1937   1.0395188625e+02   6.2929016824e+01     0.406806    0.2282729 -61.65  0.000326519    1.548    0.354
       210 -11.7978      6.8832     60.8632   1.0058903151e+02   6.3847584055e+01     2.029854    0.9049923  46.65  0.007935189    4.536    0.780
       211  -8.5059    141.5047     75.4999   5.6511074228e+01   3.8959378595e+01    0.2108267    0.1380317  43.23 0.0009531071    1.562    0.360
       212 -10.4496    145.7086     75.0279   5.5421596233e+01   3.8063591957e+01    0.3777607    0.3046593 -47.04  0.001946787    1.259    0.206
       213  -9.5270    146.0394     70.4911   5.4041371879e+01   3.8768229503e+01    0.3309638    0.2168434  49.60  0.001552168    1.493    0.330
       214  -8.1537     82.2518     76.6258   7.3911854187e+01   5.1373142664e+01    0.1400173    0.1175861 -76.25 0.0002896244    1.642    0.391
       215  -8.7897     37.5120     75.9519   9.1077277905e+01   5.8051145118e+01    0.2031741    0.1175761 -47.94 0.0008045324    1.512    0.339
       216  -8.4199     18.5755     76.2259   9.9217912969e+01   5.9704208809e+01    0.3219776    0.1197945 -43.29  0.001263858    2.213    0.548
       217  -8.5650     18.6427     71.9728   9.8122045191e+01   6.0652158397e+01    0.2831334    0.1524154 -48.29 0.0009088976    1.499    0.333
       218  -8.6338    133.5064     75.5273   5.8419128794e+01   4.0803749963e+01    0.1473872    0.1440239  55.64 2.884198e-05    1.010    0.010
       219  -8.9705     84.4774     72.4959   7.1797483368e+01   5.1777966387e+01    0.2269045    0.1802537  22.24 0.0007499676    1.250    0.200
       220 -10.4919     79.9569     70.0887   7.2573445515e+01   5.3075341998e+01    0.2508786    0.2310545  21.01 0.0003354294    1.090    0.082
       221 -11.6961    135.3372     64.9855   5.4819655970e+01   4.2192164298e+01     0.682691    0.5902349  34.45  0.003713389    1.200    0.167
       222 -10.5655    142.1023     58.9532   5.1511074647e+01   4.1565969297e+01    0.4658307     0.293046 -24.90  0.002140783    1.902    0.474
       223 -10.1867    140.8430     68.2033   5.4524073668e+01   4.0371272263e+01    0.2597812     0.249338  55.60 0.0003726062    1.021    0.020
       224  -9.9917    143.7717     65.7690   5.3161420679e+01   4.0087285216e+01    0.3426605     0.257543 -85.52  0.001137226    1.671    0.401
       225  -9.6032    102.8675     69.7787   6.4966890271e+01   4.8626959519e+01    0.4535923    0.3751518  20.33   0.00238317    1.242    0.195
       226  -9.7562     37.3296     69.4205   8.9235478482e+01   5.9483015901e+01    0.3948126    0.2261729 -45.02  0.001978694    1.528    0.346
       227  -8.3819     23.6765     71.3000   9.5733483406e+01   6.0400164460e+01    0.1193601    0.1026401  64.95 0.0007026638    1.630    0.386
       228 -10.3391    173.5246     68.9104   4.8225299381e+01   3.2592828998e+01    0.2617177    0.2399436 -65.49 0.0003653234    1.042    0.040
       229  -9.9105    136.9471     55.7160   5.1650329873e+01   4.3276577845e+01    0.4845095    0.2273795 -41.44    0.0020039    2.220    0.549
       230  -9.3826    157.0533     68.4761   5.1178157911e+01   3.6515901063e+01    0.2263151     0.190028 -40.73  0.000526536    1.215    0.177
       231 -11.0864     56.3134     56.7467   7.6946513652e+01   5.9519866814e+01    0.4611851    0.3601276  65.63 0.0002606448    2.148    0.534
       232  -9.0892    119.1252     67.5864   5.9649474195e+01   4.5473518836e+01    0.2925901    0.1985662 -14.56  0.001303543    1.940    0.484
       233  -9.3213     75.3177     66.0261   7.2862176103e+01   5.4678885338e+01    0.2320565    0.1977377  25.83 0.0004834259    1.136    0.120
       234  -9.0045    175.1601     62.2108   4.6195121294e+01   3.3274197215e+01    0.2724867    0.1983367 -21.11  0.001092387    1.724    0.420
       235 -10.1795    152.6071     60.7326   4.9877090229e+01   3.8805165520e+01    0.5290732    0.3237802  31.91  0.002134684    2.281    0.562
       236  -8.7433    110.1822     62.8202   6.0555986929e+01   4.8271094645e+01    0.2053906    0.1903886  56.52 0.0004933156    1.127    0.113
       237 -10.6272     79.3129     54.4108   6.7336467869e+01   5.6009634542e+01     0.347157    0.2526682  13.39 0.0005717191    1.472    0.321
       238  -9.2135     65.3835     61.8670   7.5148968126e+01   5.7147930474e+01    0.2784192    0.2189496  -0.11  0.001451967    1.257    0.204
       239  -8.5820     62.2764     62.3187   7.6520522312e+01   5.7562444292e+01    0.2109221    0.1735792  -6.31 0.0005160448    1.133    0.117
       240  -9.6490    193.6597     60.0535   4.2806493841e+01   2.9377506420e+01    0.4059774    0.1837351 -41.66  0.001750022    2.052    0.513
       241  -9.5715    197.3086     59.9549   4.2271049466e+01   2.8578857802e+01    0.2267561    0.2061786  60.29 0.0003617479    1.234    0.190
       242 -10.6344    167.7327     59.6072   4.6767834797e+01   3.5408555898e+01    0.5384768     0.344959  47.33  0.002452218    1.661    0.398
       243  -9.2085    167.8788     56.1420   4.5813478111e+01   3.5895266296e+01    0.2360712    0.1995123  14.37  0.001297008    1.551    0.355
       244  -8.6377    106.2783     66.3590   6.2834858330e+01   4.8511818646e+01    0.2074803     0.134651  54.60  0.000945221    1.635    0.389
       245  -9.8739    161.3291     60.1623   4.8059993805e+01   3.6831159854e+01    0.3264934    0.2399299  30.09 0.0006729502    1.756    0.430
       246 -10.3357    131.0925     59.6398   5.4174723614e+01   4.4042684654e+01    0.4986538    0.3958726  85.63   0.00256185    1.505    0.336
       247  -9.0917    124.8763     57.1621   5.4881838492e+01   4.5871621545e+01    0.2691593    0.1977041  71.79 0.0005261453    1.565    0.361
       248  -8.9872    114.3818     60.7659   5.8729601933e+01   4.7681900774e+01    0.2375723    0.1611267  44.36 0.0005948497    1.398    0.285
       249  -9.1010     40.0525     58.8898   8.4660543088e+01   6.1320480198e+01    0.2314838    0.1761051 -37.82   0.00134304    1.211    0.174
       250  -9.2227    181.6521     57.2016   4.3871360937e+01   3.2531760470e+01    0.3193098    0.2005271 -52.90  0.001590847    1.579    0.367
       251  -9.3542     65.0181     56.3770   7.3333772281e+01   5.8207258457e+01    0.5028573    0.2531344  19.18  0.001935498    2.887    0.654
       252  -9.6306     61.3991     52.3347   7.3272214446e+01   5.9508792034e+01    0.2760636    0.2255692  -2.05  0.001202913    1.119    0.106
       253 -11.1224     68.6228     48.2448   6.8930827919e+01   5.8970167423e+01    0.4738474    0.3821484 -61.19 0.0003853795    1.823    0.451
       254 -12.4988     62.2670     44.3311   6.9873262348e+01   6.0690701510e+01    0.4667425    0.3171307  34.37 0.0005267662    1.389    0.280
       255 -10.1917    145.9915     52.7006   4.8866019717e+01   4.1584278808e+01    0.3788433    0.2924999 -85.49  0.001493658    1.486    0.327
       256  -9.5686    127.4069     39.6831   4.8730331922e+01   4.7764920885e+01    0.2993718    0.2857021 -31.03  0.001297469    1.149    0.130
       257  -9.6833    130.6999     35.0986   4.6588834165e+01   4.7565988123e+01    0.4140114    0.2784974 -50.88 0.0008567203    1.704    0.413
       258 -10.1016    117.5023     52.1041   5.5079498676e+01   4.8332250173e+01     0.395732    0.2541527 -45.84  0.001502448    1.742    0.426
       259 -10.3794    122.5749     50.2190   5.3216416798e+01   4.7446490498e+01    0.4404931    0.3628735  48.91  0.001544356    1.126    0.112
       260 -11.3170    127.2653     46.8885   5.1057481104e+01   4.6831254861e+01    0.5669559    0.3819507 -63.56  0.002696427    1.979    0.495
       261 -10.0019    131.0022     46.0024   4.9950089546e+01   4.6078657696e+01    0.2367383    0.2107076  17.01            0    1.246    0.198
       262  -8.4777     96.6836     48.6800   5.9635524642e+01   5.3429396313e+01    0.1973202    0.1683457  12.13  0.000632567    1.172    0.147
       263  -9.5449     93.1163     55.1457   6.3016293793e+01   5.3167271365e+01    0.4692417     0.307735  34.14  0.001725169    1.491    0.329
       264  -9.6497     93.6273     51.1318   6.1436814784e+01   5.3697022149e+01    0.4201828    0.2233635  54.46  0.001398005    2.046    0.511
       265  -8.8299    106.6963     52.9935   5.8247033032e+01   5.0616154269e+01     0.190182    0.1776681   0.40 0.0003701921    1.088    0.081
       266 -10.1469     71.8712     60.2881   7.2131886176e+01   5.6341055602e+01    0.4946468    0.2688005  31.36  0.002230366    1.859    0.462
       267  -9.4011     87.3577     48.8578   6.2601318503e+01   5.5329339979e+01    0.2941197    0.1775404  42.90  0.000877514    1.540    0.351
       268 -11.6090     54.1720     61.2141   7.9407483008e+01   5.8999186425e+01     1.066543    0.6739128  65.90  0.002514849    4.624    0.784
       269  -8.1304    232.5438     51.5100   3.6224474506e+01   2.2380156044e+01    0.1256352    0.1005461 -64.39 8.747247e-05    1.014    0.014
       270  -9.8642    175.0377     50.1303   4.3071127458e+01   3.5088575688e+01    0.3179874    0.2536766  10.71  0.001712993    1.808    0.447
       271 -10.8173    153.6528     47.7694   4.5990341787e+01   4.0464673061e+01    0.3830988    0.2977177  61.97 0.0006365325    1.200    0.167
       272  -9.8354    159.6941     50.4183   4.5661497161e+01   3.8658603217e+01    0.3479827    0.1506407  61.08 0.0008639727    2.187    0.543
       273  -9.7210    164.0922     46.7940   4.3922768078e+01   3.8123514715e+01    0.4119359    0.2402507  39.51  0.001231792    2.191    0.544
       274  -8.7844    145.4021     58.8143   5.0777979459e+01   4.0807500560e+01    0.2293731    0.1941864  26.09 0.0004780562    1.358    0.264
       275  -9.4760    201.9400     47.1044   3.8647814447e+01   2.9402425830e+01    0.2015423    0.1859161 -37.14 0.0003668935    1.282    0.220
       276  -8.7138    197.0013     48.5029   3.9590266512e+01   3.0301840985e+01     0.190965    0.1208888  66.31  0.001001985    1.541    0.351
       277  -9.1396    182.1650     48.3108   4.1549050133e+01   3.3691587272e+01    0.2090944    0.1588953  54.38   0.00102718    1.384    0.278
       278 -10.2100    114.7487     46.7824   5.4011855413e+01   4.9731801710e+01     0.332117      0.26642   9.02  0.000919882    1.435    0.303
       279  -9.7245    113.0231     41.3673   5.2619934767e+01   5.0867331912e+01    0.2319985    0.1998601 -19.82 0.0001314087    1.263    0.208
       280  -8.0011     79.3138     48.3070   6.5091132587e+01   5.6994552067e+01     0.142629   0.09959221  10.70  0.000702623    1.624    0.384
       281  -9.1789    234.9195     47.0228   3.5073283176e+01   2.2530353767e+01    0.1796127     0.145135 -64.86 0.0003630702    1.018    0.018
       282 -10.2099    145.9488     45.9140   4.6882057135e+01   4.2552558571e+01    0.3238989    0.2374967 -37.72 0.0005795286    1.446    0.309
       283  -8.8479    144.5065     41.5274   4.5861828163e+01   4.3481981902e+01    0.2471241    0.2369186 -50.38 0.0009409563    1.127    0.112
       284  -8.8819    162.2852     54.4312   4.6314142038e+01   3.7466238841e+01    0.2447375    0.1581434 -58.53  0.001081081    1.714    0.417
       285  -9.3006    245.2708     44.9771   3.3719956588e+01   2.0809557698e+01     0.170753    0.1302408 -60.16 0.0008737575    1.038    0.037
       286 -11.1342    106.8235     43.5597   5.4969990579e+01   5.1962985141e+01     0.421008    0.3387456  32.21 0.0004548753    1.200    0.167
       287 -10.1233    103.7883     38.3683   5.3960384782e+01   5.3332233275e+01    0.2897025     0.222919 -25.13 0.0009212708    1.412    0.292
       288 -10.8134     79.6498     43.1523   6.3033843483e+01   5.7710740527e+01    0.4437183    0.3234928  64.55    0.0017049    1.906    0.475
       289  -9.2957      3.0235     43.2141   9.7487889132e+01   6.7671833836e+01     0.267156    0.2169033 -86.96  0.001148415    1.910    0.477
       290  -8.8068    185.4803     44.4436   4.0122755913e+01   3.3460056927e+01    0.1321417    0.1172083 -84.66 0.0001398621    1.018    0.018
       291  -9.5910    178.0355     43.9956   4.1046921344e+01   3.5235758293e+01     0.279759    0.1772249  74.34 0.0008788602    1.544    0.352
       292 -10.5253     93.3523     39.1719   5.7184533791e+01   5.5484934712e+01    0.8526911    0.4921352 -22.10  0.002988742    2.004    0.501
       293  -8.6907    202.4994     42.9764   3.7629043897e+01   2.9839688195e+01    0.1971638    0.1525707  82.19 0.0003790591    1.209    0.173
       294  -8.8842     86.2706     43.5857   6.1007252601e+01   5.6334733100e+01    0.2385616    0.1257875  49.83 0.0003786845    1.850    0.459
       295  -8.8629     70.9845     43.0268   6.6047395762e+01   5.9362319227e+01    0.2302999    0.1505117   5.32  0.001124761    1.858    0.462
       296  -9.3686    223.5584     34.3387   3.3537442217e+01   2.6488151544e+01    0.3133664    0.1825402 -51.46  0.001807307    1.471    0.320
       297 -11.1653    234.8804     29.8577   3.1638892786e+01   2.4771323704e+01    0.3288287    0.2152027  56.54 0.0006254444    1.885    0.469
       298 -10.7453    228.0536     40.0604   3.4301276715e+01   2.4833104404e+01    0.4650406     0.297415 -32.85  0.002160613    1.736    0.424
       299 -10.7114    222.6413     40.6804   3.4954233538e+01   2.5856232481e+01    0.2465231    0.2009418 -61.71 0.0002830009    1.067    0.063
       300  -9.6044    227.1153     33.1804   3.2973699539e+01   2.5908893066e+01    0.2138972    0.1429618 -53.91 0.0002679372    1.264    0.209
       301  -9.5804    120.7184     37.8566   4.9617043061e+01   4.9557277086e+01    0.4825801    0.2709615 -38.19  0.001756044    1.934    0.483
       302  -9.4341    163.0165    246.2660   8.8914245741e+01  -8.9123725957e-01    0.1732436   0.09924888  30.14 0.0008877188    1.522    0.343
       303  -8.6370      1.3844    244.1816   1.2285860310e+02   2.0532347007e+01    0.1578044   0.08328804  80.97 0.0005044753    1.627    0.385
       304  -9.0118    244.9141    242.2495   7.2199849280e+01  -1.0876839542e+01     0.163755    0.1205317   1.10 0.0007701002    1.102    0.093
       305 -10.0280    101.6063     26.5887   5.0304698189e+01   5.5239386192e+01    0.4275999    0.1912429  59.24  0.001802724    2.130    0.531
       306  -9.8531     42.3895     30.8658   7.2787579327e+01   6.5849921342e+01    0.3796209     0.252299 -46.86  0.002117527    1.983    0.496
       307  -8.6756     49.6878     39.9326   7.3324900450e+01   6.3391349567e+01    0.2534616    0.1388029  -1.08  0.000908236    2.881    0.653
       308 -10.2543     50.2876     35.2049   7.1121726212e+01   6.4028904311e+01    0.4402606    0.4135759  42.66  0.001438245    1.474    0.322
       309  -9.0326    127.4644    240.4869   9.5838627093e+01   5.4044331748e+00    0.1338035    0.1168676  35.42  0.000178568    1.052    0.050
       310  -8.7722    140.9270    237.2943   9.2386423890e+01   3.9901361368e+00    0.2270125   0.07927787  48.09 0.0007028761    4.284    0.767
       311  -9.5383    187.5688    235.4656   8.2044639244e+01  -2.5722211972e+00    0.2427971    0.1114468  21.95  0.001039157    2.394    0.582
       312  -8.8783    221.9455    233.4793   7.4899236680e+01  -6.8770745515e+00    0.1800793    0.1084266  24.66 0.0006937663    1.562    0.360
       313  -9.8261     12.0633     32.3178   8.8803376976e+01   6.9058984534e+01    0.1881042     0.155727 -13.56 0.0003603586    1.141    0.123
       314  -8.9222     32.0322    232.3302   1.1607727054e+02   1.9935164466e+01    0.1705602    0.1350592  57.55 0.0004523662    1.090    0.082
       315  -9.7219    186.8466    230.7116   8.1399566547e+01  -1.6613974960e+00    0.2168985    0.1487915   8.59  0.001088985    1.430    0.301
       316  -8.6592    177.9525    231.0000   8.3317468399e+01  -4.1470613027e-01    0.2219163   0.06890593  33.83 0.0008071561    2.975    0.664
       317  -8.9585    162.7111    225.6117   8.5722288306e+01   2.8662866577e+00    0.3301558    0.2286316  83.19  0.001346907    3.534    0.717
       318  -9.1301    223.9930    225.0428   7.3046344528e+01  -5.8287690774e+00    0.1923992     0.153077  -4.68  0.000535874    1.031    0.030
       319  -8.7321    203.2753     39.0097   3.6632373440e+01   3.0192998791e+01    0.1742979     0.142707 -59.94 0.0003678728    1.108    0.097
       320  -9.5323    158.0319     39.0353   4.2783602007e+01   4.0587512928e+01    0.1988727    0.1803618  76.92            0    1.023    0.023
       321 -10.1093    178.4269     37.0668   3.9231927992e+01   3.6049020703e+01    0.3066324    0.2231671  61.11  0.001162485    1.334    0.250
       322  -8.7095    149.8118     38.2735   4.3953915867e+01   4.2638025116e+01    0.3072417    0.1414816  55.08 0.0008207244    1.956    0.489
       323  -9.8952    136.9364     37.6693   4.6147299590e+01   4.5774018035e+01     0.433111    0.2121132  50.38 0.0009161482    1.883    0.469
       324 -10.7374    145.4800     29.6169   4.2184474102e+01   4.4713215915e+01    0.6946097    0.3814624  47.31  0.002574526    1.831    0.454
       325  -9.3383     71.1560     36.8925   6.3568724795e+01   6.0223186834e+01    0.3879291    0.2329979  51.02  0.001940394    1.825    0.452
       326  -9.6560     74.5121     34.4787   6.1418681340e+01   5.9919858313e+01    0.2747904    0.2300625  31.58 0.0009376801    1.085    0.079
       327 -10.6577     79.4606     30.4788   5.8163677490e+01   5.9467955821e+01     0.622804    0.4621872 -85.55  0.002831187    2.585    0.613
       328  -8.2329    143.4653    225.5714   9.0032566464e+01   5.8690902200e+00    0.1391068    0.1226868  14.42 0.0001181949    1.045    0.043
       329  -8.8154    238.7866     37.3676   3.2791584014e+01   2.3056147021e+01    0.1560273   0.09941854  64.18 0.0007183172    1.723    0.420
       330  -9.1960    186.1692     36.2542   3.8020045918e+01   3.4372597963e+01    0.3179619    0.1514487 -47.81   0.00149634    2.031    0.508
       331  -9.7898    184.0150     31.5752   3.7143909316e+01   3.5444236369e+01    0.2972236    0.1979712 -87.51  0.001197513    1.490    0.329
       332  -9.2949    183.2457     27.0645   3.6133948792e+01   3.6156790172e+01    0.2931507    0.1527828 -49.54 0.0009677515    1.876    0.467
       333  -8.4118    165.6866     36.3492   4.0855675985e+01   3.9116529998e+01    0.1421234   0.09271697 -69.26 0.0007046496    1.722    0.419
       334 -10.5140     87.7206     33.9151   5.6903907839e+01   5.7353341912e+01    0.5544958    0.3440207   8.52  0.002611426    2.189    0.543
       335  -9.4752     93.8140     30.0328   5.3654090834e+01   5.6544301357e+01    0.2454275    0.1646447  42.48 0.0003669889    1.311    0.237
       336 -10.1835     56.5324     35.2335   6.8512296259e+01   6.3028019712e+01     0.353882    0.2208809 -43.80  0.001863072    1.945    0.486
       337  -9.2426     60.9016     34.1931   6.6329744929e+01   6.2440239695e+01    0.4117201    0.2061092 -32.09  0.001991064    2.051    0.512
       338  -9.3491     63.3068     31.3318   6.4208464919e+01   6.2412558682e+01    0.3700448    0.2379302 -20.21  0.002019308    1.612    0.380
       339 -10.2466    209.6996     32.8664   3.4569905144e+01   2.9583891820e+01    0.3670543    0.3165791  58.28   0.00244526    1.395    0.283
       340  -8.8217    146.1648     34.0731   4.3370162989e+01   4.4025028665e+01    0.1979374    0.1705723  48.97 0.0005404525    1.173    0.148
       341  -8.8108    132.1522    225.1884   9.2566927025e+01   7.7167094733e+00    0.1840997    0.1579929  57.77 0.0004156277    1.303    0.232
       342  -9.4685     89.2402    220.6967   1.0201855864e+02   1.5211692821e+01    0.2494028    0.2340346  -9.79 0.0009894921    1.234    0.190
       343  -8.1074    206.6775    217.7090   7.5085804120e+01  -2.2755095738e+00     0.136612   0.08961389  -5.13 0.0007012752    1.609    0.378
       344  -9.9528     34.6451     31.7524   7.6826404992e+01   6.6768645769e+01    0.2783296    0.1874821  13.58  0.001369718    1.349    0.259
       345  -8.1865    110.6674    214.3378   9.6012061686e+01   1.3396944232e+01    0.1494967    0.1048547  64.87 7.417388e-05    1.742    0.426
       346 -10.3042     37.0166     26.6236   7.3442279333e+01   6.7221703820e+01    0.3061632    0.2376686 -30.28  0.001078439    1.369    0.270
       347 -10.2533     40.9580     21.3596   6.9195780389e+01   6.7383341962e+01    0.2451342    0.2165668  11.26 0.0004585342    1.257    0.205
       348  -9.1234    242.6666    210.0045   6.6958569147e+01  -5.8422542971e+00    0.1828021    0.1733348 -28.39 0.0007939746    1.514    0.340
       349  -9.9700    248.0530     30.5147   3.0726976923e+01   2.2156228579e+01    0.2279612    0.1477554 -45.85 0.0009158059    1.350    0.259
       350  -9.7432    133.9363     29.5361   4.4220653167e+01   4.7458995335e+01    0.3959845    0.2611476  10.71  0.001924015    2.265    0.558
       351  -8.5896    189.4332     28.2972   3.5709796186e+01   3.4606875981e+01    0.1657306    0.1067657 -50.49  0.000752592    1.475    0.322
       352  -9.5374    222.5392     26.8322   3.2074636792e+01   2.7627244325e+01    0.2039749    0.1780075  59.79 0.0007851279    1.455    0.313
       353  -9.8721    212.8509     26.1032   3.2795598943e+01   2.9737821684e+01    0.2510502    0.1654001  63.48 0.0007783275    1.571    0.364
       354  -9.5570    161.2001     27.0024   3.8998152986e+01   4.1288274415e+01    0.1934682    0.1650613  44.49 0.0007170389    1.315    0.240
       355  -8.6944    241.8722     25.8745   3.0315563821e+01   2.3899073395e+01    0.1599859    0.1391177 -86.43 0.0005772017    1.251    0.201
       356  -7.9711    230.4985    209.5437   6.9048071539e+01  -4.1936029847e+00    0.1318503    0.1019231 -12.20  0.000338577    1.060    0.057
       357  -8.8445    194.5986    209.6103   7.6060562930e+01   9.3147141054e-01    0.2678472    0.1156506  21.62 0.0009544257    3.317    0.698
       358  -9.8340    123.9757    206.0089   9.1481224327e+01   1.3121142551e+01    0.2052991    0.1944979  20.04  0.001169638    1.019    0.019
       359  -8.1696     95.2954    205.3339   9.8464699828e+01   1.7828774392e+01    0.1429395     0.110373 -23.54 0.0004841438    1.643    0.391
       360 -10.7215     62.1669     22.3465   6.0806722176e+01   6.3751235499e+01    0.4122944    0.2573408  14.65  0.002207864    1.731    0.422
       361  -9.3742     34.9128    200.8313   1.1283129589e+02   2.6863518096e+01    0.2726443    0.1438852  74.76  0.001050135    2.116    0.528
       362 -10.7679      2.0459     25.2821   9.1743566742e+01   7.1019430535e+01    0.2059193    0.1468397 -34.43 0.0003294027    1.170    0.146
       363  -9.9958    233.3173     23.8261   3.0577424108e+01   2.5813227941e+01    0.4353284    0.1965287 -81.77  0.001952288    2.625    0.619
       364  -9.7012    204.7700     24.4544   3.3207557290e+01   3.1665132326e+01    0.2038846    0.1928033 -60.26 0.0005596301    1.271    0.213
       365  -8.7807    221.4991    198.5584   6.8661964806e+01  -1.0942076677e+00    0.1344798    0.1105187 -14.16 0.0001551358    1.009    0.008
       366  -9.6909    249.1012     36.8593   3.1842023990e+01   2.1157026057e+01    0.1938972    0.1229902 -62.96  0.001234767    1.288    0.223
       367 -10.2175    173.9721     22.9671   3.6239812120e+01   3.8755894308e+01    0.2787188    0.2473859  55.58 0.0009386016    1.260    0.206
       368  -9.2130    169.4553     22.8833   3.6787619660e+01   3.9813878150e+01     0.261043    0.1571329 -50.05  0.001016715    1.685    0.407
       369  -9.8963    153.6623     22.8928   3.8967365585e+01   4.3521482775e+01    0.2561322    0.2085024  48.33 0.0006126383    1.289    0.224
       370 -10.1146    117.1233     21.9324   4.5102752892e+01   5.2218193262e+01    0.2757986     0.199206  -9.95 0.0005190581    1.681    0.405
       371 -10.2720     84.8852     21.3281   5.2857507418e+01   5.9415906130e+01    0.3469357    0.2726003 -59.95  0.000893307    1.820    0.450
       372  -8.7808     80.2607     22.6556   5.4776361021e+01   6.0225347736e+01    0.1919173    0.1710134  -9.19 0.0005490283    1.209    0.173
       373  -8.9352     80.3604     19.2875   5.3383227950e+01   6.0566886346e+01    0.1718112    0.1215591   6.46 0.0004905928    1.541    0.351
       374  -9.5240     75.0480     22.9795   5.6566392181e+01   6.1234830397e+01    0.1884181    0.1577084  24.97 0.0003196349    1.023    0.023
       375  -9.0617     11.3074     23.1682   8.5477042403e+01   7.0653755031e+01    0.1538885    0.1140161 -21.24  0.001044029    1.079    0.073
       376  -8.3682    188.3527     21.8061   3.4290581155e+01   3.5599569669e+01    0.1568526    0.1194816 -20.75 0.0009285728    1.711    0.416
       377  -7.8442     57.2838     22.3038   6.2660050453e+01   6.4624747301e+01     0.128614   0.08373165  13.56 0.0003407279    1.558    0.358
       378  -9.1953      7.5766    194.9969   1.1877752084e+02   3.0899799633e+01    0.3216662    0.1430524  40.34  0.001601497    2.115    0.527
       379  -8.4536    241.9901    193.7589   6.4063203071e+01  -3.1316157922e+00    0.1463447    0.1030452  26.08 0.0004471809    1.542    0.351
       380 -10.0513     17.9771    174.5297   1.1456609884e+02   3.5048889472e+01    0.3062216    0.2030211 -34.08  0.001072809    1.964    0.491
       381 -11.5524      9.4709    165.7476   1.1596665316e+02   3.7965427264e+01    0.8826705    0.4561826 -15.45  0.003721504    3.499    0.714
       382 -10.1045     15.1599    165.0433   1.1438984488e+02   3.7695832326e+01    0.2363602    0.2226879   5.11 0.0002812475    1.313    0.239
       383  -9.7524     19.3664    164.3100   1.1318108138e+02   3.7532277379e+01    0.3287436    0.1633788 -40.01 0.0008749851    2.547    0.607
       384  -9.2336    193.2055     20.0424   3.3367586004e+01   3.4710008275e+01    0.1718263    0.1517468  63.42 0.0003380726    1.294    0.227
       385  -9.1734    196.0279     16.4649   3.2270260973e+01   3.4477735050e+01    0.3006781    0.1612195  63.07  0.001640029    1.767    0.434
       386 -10.8081    182.0214     18.5682   3.4209534500e+01   3.7389093736e+01    0.3408184    0.2019704  59.84  0.000964604    1.619    0.382
       387  -8.7953    143.7081     19.6694   3.9566023937e+01   4.6212529843e+01    0.2165494    0.1605202  88.16  0.000809742    1.349    0.259
       388  -8.8044    144.4193     16.4968   3.8533449228e+01   4.6362410494e+01    0.2046987    0.1779064 -51.46 0.0006280998    1.255    0.203
       389  -9.9486     24.3199    162.7079   1.1165023599e+02   3.7509854409e+01     0.258726    0.1950492  63.20  0.001226998    1.350    0.259
       390  -9.6932     22.7104    159.6858   1.1175664370e+02   3.8434492536e+01    0.2586001    0.1904239 -33.21 0.0008513652    1.623    0.384
       391 -12.3714     41.4905    162.3416   1.0677969097e+02   3.5899140426e+01     2.546135    0.7283424  51.56 0.0009511688    6.750    0.852
       392  -8.8474    139.9178     19.0656   3.9993885978e+01   4.7169204392e+01    0.1924499    0.1598932 -76.11 0.0006037464    1.257    0.205
       393  -8.5085    125.5752     17.9372   4.2130761487e+01   5.0653907293e+01    0.4261404    0.2179423  69.70   0.00202068    1.882    0.469
       394 -12.1543     35.8323    158.8544   1.0793535975e+02   3.7408045250e+01    0.8639386    0.4283895  52.41  0.003244062    2.320    0.569
       395 -10.0330      8.0560    161.9674   1.1599444838e+02   3.9029147662e+01    0.2008563    0.1618168 -74.40  0.000495593    1.070    0.066
       396 -10.7465      2.0474    156.5077   1.1710897588e+02   4.0830180071e+01    0.6198922    0.1686436 -71.34  0.002363617    2.766    0.638
       397  -9.2804    199.4965     18.4892   3.2391756665e+01   3.3493832783e+01    0.2901886     0.172476 -28.29  0.001613576    2.015    0.504
       398  -8.2103     53.2375     16.3984   6.1601711475e+01   6.6015354946e+01    0.1829695    0.1431574   0.80  0.001182298    1.171    0.146
       399  -9.4196    248.9712    154.0067   5.5198434620e+01   2.6358949066e+00    0.2050506    0.1403873 -15.06 0.0005390033    1.652    0.395
       400  -9.2933     45.8578    151.7146   1.0397894472e+02   3.8211406074e+01    0.2327297     0.175251 -57.93 0.0002992055    1.212    0.175
       401 -10.7281      2.6686    146.8560   1.1603790211e+02   4.3237994558e+01    0.3253061    0.3090971 -32.91 0.0007660015    1.262    0.208
       402  -9.2541      9.2441    147.5891   1.1424003650e+02   4.2615332338e+01    0.2405802    0.1487402 -35.73 0.0006928901    1.891    0.471
       403 -10.4236     15.1901    143.3958   1.1203050911e+02   4.3265986842e+01    0.4515277    0.2398175 -34.31  0.002066831    2.318    0.569
       404  -9.7769    243.0707     14.8527   2.8157825576e+01   2.4963611690e+01    0.1845917    0.1149359 -65.68 0.0007389116    1.276    0.216
       405  -9.9501     21.0510    140.4621   1.0989657811e+02   4.3570571958e+01    0.3260131     0.287974 -24.41  0.001983052    1.296    0.228
       406 -10.3372     19.9487    150.6081   1.1149123572e+02   4.1022581849e+01    0.4203251    0.1855537 -58.88  0.001229195    1.893    0.472
       407  -8.5423    111.4929     15.0319   4.3929652706e+01   5.4188206199e+01    0.1596617    0.1288829 -12.05 0.0004340487    1.440    0.306
       408 -11.4226     14.2528    150.6639   1.1313854200e+02   4.1459032201e+01      0.52998    0.2968763   5.89  0.001183624    2.447    0.591
       409  -9.4172     35.8737    149.1318   1.0659459908e+02   3.9956132079e+01    0.2104424    0.1758464  82.25 0.0002704371    1.205    0.170
       410  -8.1397     63.0319    148.7885   9.8291301699e+01   3.6869956155e+01    0.1794972     0.121739  30.51  0.000831724    1.576    0.365
       411  -8.3232     55.8038    145.2170   9.9884700438e+01   3.8747766728e+01    0.2214087     0.124468  10.62 0.0008363262    2.510    0.602
       412  -9.2992    241.3616    143.8502   5.4327720039e+01   5.5904635600e+00     0.200145    0.1050822 -32.71 0.0008531413    1.755    0.430
       413  -9.2629     38.4562    143.2008   1.0493025829e+02   4.1255115742e+01    0.2287815    0.2005581  27.91  0.000281743    1.281    0.219
       414  -8.5097     91.7782     13.6371   4.7970988116e+01   5.8712642991e+01    0.1682957    0.1096672  64.43  0.000418582    1.539    0.350
       415  -9.5458      1.4736    139.4348   1.1563774151e+02   4.5197961793e+01    0.3811331   0.09198282 -70.10 0.0009988177    2.984    0.665
       416  -9.7835     12.3277    136.5122   1.1206081540e+02   4.5250485661e+01    0.3306251    0.1436191 -76.29   0.00141359    2.079    0.519
       417  -9.6550     15.4902    135.4884   1.1095923085e+02   4.5288916688e+01    0.2918295     0.146986 -41.09  0.001327576    2.107    0.525
       418 -10.1418      3.2474    133.9765   1.1452689251e+02   4.6482743087e+01    0.2878635    0.2264059  15.43  0.001000357    1.555    0.357
       419 -10.8993      8.5177    133.0108   1.1280505306e+02   4.6405454975e+01    0.5624431    0.2465342 -48.62   0.00254113    2.086    0.521
       420  -8.5602    246.3064    139.6547   5.2725567279e+01   5.5372754380e+00    0.1308745   0.09289439 -60.95 0.0004338401    1.695    0.410
       421 -10.0984     41.4621    138.5471   1.0324985488e+02   4.2166319403e+01    0.3333019       0.2308  49.85  0.001471424    1.619    0.382
       422 -10.6360     41.6445    132.7804   1.0221943428e+02   4.3661557399e+01    0.5708672    0.2254987 -59.92  0.001459694    2.121    0.529
       423  -8.8848    152.8618     31.7106   4.1568604342e+01   4.2715905077e+01    0.2674299    0.1484454 -58.36  0.001229916    2.183    0.542
       424  -9.8537     34.8647    135.7502   1.0489647285e+02   4.3572805001e+01    0.3981349    0.1703703 -49.43 0.0008452712    2.128    0.530
       425  -8.9774    236.0106    136.5478   5.3654998780e+01   7.7700132743e+00    0.1789822    0.1358131  45.76  0.000747495    1.579    0.367
       426  -8.5544     58.5026    135.5195   9.7259445068e+01   4.0960042162e+01    0.2389481    0.1661147 -35.76 0.0007711794    1.541    0.351
       427 -10.4001     60.4852    131.0550   9.5738284512e+01   4.1869041550e+01    0.4358015    0.3728027  42.96 0.0009009069    1.268    0.211
       428  -8.9270    248.9861    134.0154   5.1195587046e+01   6.0883747920e+00     0.200265    0.1419962 -18.30 0.0004832635    1.626    0.385
       429  -9.0158    230.6793    136.9895   5.4590912976e+01   8.5969665802e+00    0.1991591    0.1547394 -38.11 0.0005522883    1.087    0.080
       430  -9.7501     21.0868    132.0832   1.0874066358e+02   4.5744845704e+01    0.3818325    0.2317179  55.75  0.001117954    1.971    0.493
       431  -8.4234     29.1978    132.4100   1.0619042329e+02   4.4975955540e+01      0.17372    0.1276709  40.88  0.000479562    1.522    0.343
       432  -9.7224     18.2161    127.2418   1.0897215082e+02   4.7217189098e+01    0.5183768    0.1531662 -51.48   0.00118579    2.731    0.634
       433  -9.3589      2.3313    129.9331   1.1435202735e+02   4.7563615837e+01    0.1979629    0.1736196  54.86  0.000619095    1.303    0.233
       434 -10.0556     34.4324    127.4782   1.0367899705e+02   4.5775458359e+01     0.384107    0.2041243 -84.20   0.00155122    2.398    0.583
       435  -9.5364     50.8630    126.8588   9.8086217927e+01   4.4170884423e+01    0.2233659    0.1833158 -37.08 0.0005440617    1.206    0.171
       436  -9.9894     45.1049    125.8279   9.9817357045e+01   4.5101001404e+01    0.3309082    0.2317891  41.49 0.0008166552    1.589    0.371
       437  -8.8498    241.4926    124.0358   5.0237220109e+01   9.0567615104e+00    0.2154144     0.110156 -41.74  0.001036463    1.606    0.377
       438 -10.5740     61.7097    121.1222   9.3238877431e+01   4.4272247989e+01    0.4187796    0.2335204 -44.92 0.0004345309    1.700    0.412
       439 -10.6929      7.2298    122.8532   1.1193776203e+02   4.9078346325e+01    0.2976353    0.2343809 -49.01 0.0007209567    1.183    0.155
       440  -9.3391     71.9033    123.0868   9.0262441530e+01   4.2318149385e+01    0.2215416    0.2102248 -43.57 0.0003108629    1.018    0.018
       441  -9.4263    236.8466    121.6937   5.0425995477e+01   1.0268680865e+01    0.1999702    0.1720884   8.12  0.001208282    1.454    0.312
       442 -10.1843     38.4186    123.6276   1.0166389298e+02   4.6381704395e+01    0.4436024    0.2636212 -17.44  0.001931486    2.293    0.564
       443  -9.7047     29.2155    120.7369   1.0428023041e+02   4.8000752139e+01    0.2270552    0.2001997  85.78 0.0005044662    1.225    0.184
       444  -9.2088      8.0252    105.9951   1.0925251759e+02   5.3271731513e+01    0.2263825    0.1171371 -44.95 0.0006436341    1.688    0.408
       445 -10.6834     13.1349    113.8129   1.0867378427e+02   5.1000990748e+01    0.4887454    0.3066656 -37.20  0.001561609    1.581    0.367
       446 -11.3431     21.4050    119.6988   1.0676697005e+02   4.8913891201e+01    0.5183227    0.4005983  68.45  0.002895115    1.509    0.337
