#   1 NUMBER                 Running object number                                     
#   2 MAG_AUTO               Kron-like elliptical aperture magnitude                    [mag]
#   3 X_IMAGE                Object position along x                                    [pixel]
#   4 Y_IMAGE                Object position along y                                    [pixel]
#   5 X_WORLD                Barycenter position along world x axis                     [deg]
#   6 Y_WORLD                Barycenter position along world y axis                     [deg]
#   7 A_WORLD                Profile RMS along major axis (world units)                 [deg]
#   8 B_WORLD                Profile RMS along minor axis (world units)                 [deg]
#   9 THETA_WORLD            Position angle (CCW/world-x)                               [deg]
#  10 FWHM_WORLD             FWHM assuming a gaussian core                              [deg]
#  11 ELONGATION             A_IMAGE/B_IMAGE                                           
#  12 ELLIPTICITY            1 - B_IMAGE/A_IMAGE                                       
         1 -10.4029     16.4183     66.5599   1.2570807815e+02   6.0576649879e+01     1.430154    0.3724451 -66.11  0.004498902    2.896    0.655
         2 -11.1859     23.6803     32.6175   1.1377966937e+02   6.7613120766e+01     1.851936    0.3681587 -45.56  0.004937926    3.534    0.717
         3 -10.2688     10.2427     18.9205   1.1632816486e+02   7.1325631125e+01      1.31203    0.3541276 -29.33  0.003731973    7.193    0.861
         4 -10.2179      4.8509     41.7128   1.2572634281e+02   6.6755847768e+01     0.789484    0.3226234 -70.97  0.002856966    2.175    0.540
         5 -10.0730    130.0168     48.8599   7.8869679409e+01   4.6547515663e+01     1.168265    0.4217686 -23.85  0.003284807    4.010    0.751
         6 -10.7305    134.1002     30.8574   7.1140255522e+01   4.8136800133e+01    0.4616188    0.3079215  -0.88  0.002067952    1.776    0.437
         7  -9.2431     78.1745      3.9446   7.4910067105e+01   6.4380294846e+01    0.5520199    0.2833807  -7.83  0.001461401    2.269    0.559
         8 -10.2005     69.6875     40.8090   9.5586183152e+01   6.0415705079e+01     1.111284    0.4238552 -38.58  0.003811135    2.491    0.599
         9 -10.2531     73.5706     17.3670   8.3502684064e+01   6.3610655552e+01     1.204513    0.2620828 -33.81  0.003694171    4.331    0.769
        10  -9.3550    102.1428      8.1971   6.9630007465e+01   5.8612770773e+01    0.4724334    0.3032217 -69.74 0.0007502877    2.966    0.663
        11  -9.2209     96.2013     14.7334   7.4389701652e+01   5.9253169060e+01    0.8105173    0.2875351 -17.78  0.002618265    3.818    0.738
        12  -9.1479     96.5492      4.3091   6.9335155443e+01   6.0306188447e+01     0.412663    0.2583732 -37.85  0.002024322    1.858    0.462
        13  -9.6876    103.1272     19.9458   7.4696818881e+01   5.7041594703e+01    0.8941519    0.3120975 -22.24  0.002113154    3.319    0.699
        14  -9.7684     63.8880      3.2352   7.9952261546e+01   6.7272474282e+01    0.5458602    0.2791496 -30.95  0.002667098    1.928    0.481
        15  -9.8679     60.7190     31.7543   9.5577323110e+01   6.3493295483e+01    0.9698475    0.3648773 -33.87  0.003506082    2.796    0.642
        16 -10.3117     50.7788     15.6244   9.2564401414e+01   6.7732025710e+01     1.399754    0.7248777  -2.57  0.005150475    3.808    0.737
        17  -9.5905     63.0837     21.1323   8.9671128628e+01   6.4914577133e+01    0.5461785    0.3226723 -53.69  0.001477816    2.763    0.638
        18  -9.8772     64.3531     13.3138   8.5204093756e+01   6.5870727051e+01    0.3935657     0.341102   4.63 0.0006229428    1.077    0.071
        19 -10.1654     46.3287     29.8633   1.0136505968e+02   6.5853023746e+01    0.5313631    0.3564165 -67.64   0.00255497    2.576    0.612
        20 -10.3948    152.5530     28.5172   6.6377000162e+01   4.3665698911e+01    0.5901551    0.4208075 -29.16  0.002605805    1.446    0.309
        21  -9.2806    120.4333     15.9183   6.8382771961e+01   5.3360803628e+01    0.4828902    0.2216531  16.00  0.001457668    4.290    0.767
        22  -8.4242    111.3698     21.5038   7.3055001467e+01   5.4918316558e+01    0.4046337    0.2200323 -25.75  0.001474315    1.869    0.465
        23  -8.8436    112.2529     15.5856   7.0268073091e+01   5.5405693983e+01    0.3513241    0.2046041 -34.66  0.000628884    1.840    0.456
        24  -9.0662    114.2717     10.0828   6.7368926135e+01   5.5501032553e+01    0.3462068     0.217049  35.00  0.001046955    1.524    0.344
        25  -8.4310    136.2207      1.6615   5.9353720684e+01   5.0672913115e+01    0.3840616     0.171134  73.80  0.001477195    2.437    0.590
        26  -9.6660    132.0054      6.0397   6.1855370985e+01   5.1396148182e+01    0.4430386    0.3081491  27.20  0.001903597    1.468    0.319
        27 -10.1590    131.5874     16.4955   6.6106904185e+01   5.0478065006e+01    0.5108003     0.323383  59.12  0.002399053    1.482    0.325
        28 -10.6355     37.3905      9.9305   9.6479244113e+01   7.0489075560e+01    0.8581712    0.3753242 -47.90  0.002163554    2.691    0.628
        29  -9.3945     31.0687     12.1951   1.0118521801e+02   7.0854105627e+01    0.3327776    0.2329728  46.68  0.001352231    2.216    0.549
        30  -9.4085     24.9222     11.0643   1.0419603733e+02   7.1689277905e+01    0.6252182    0.2594118  21.08  0.002965745    2.727    0.633
        31  -9.6133      2.2818     14.3345   1.1948632548e+02   7.2653446913e+01    0.6394837    0.2229989 -67.78  0.002707139    3.285    0.696
        32  -8.6690     19.4389      8.7780   1.0640273484e+02   7.2603338811e+01    0.3637996    0.2082671  -5.66  0.001545343    1.936    0.483
        33  -9.6567     18.2341      3.8733   1.0466056106e+02   7.3575754936e+01    0.4716217    0.3322048  31.97  0.002475232    1.794    0.443
        34 -10.0489      6.3450      5.2479   1.1321761440e+02   7.4211946801e+01    0.4494786    0.2867371 -25.36  0.001630147    1.324    0.245
        35  -9.3665      2.5303      3.4952   1.1503470990e+02   7.4754478033e+01    0.3026372    0.1576276 -45.66  0.001810608    1.409    0.290
        36  -9.6035     85.2838     13.0547   7.7098710678e+01   6.1835161378e+01    0.4322779    0.2721823 -52.30  0.001451712    2.501    0.600
        37  -7.7821     80.8180     13.2182   7.8734002862e+01   6.2741723906e+01    0.2588557    0.1406204 -40.21   0.00116995    2.149    0.535
        38  -8.6851    141.8643     12.3745   6.2465352300e+01   4.8232646525e+01    0.2420098    0.1907159 -36.96 0.0006888512    1.381    0.276
        39  -8.8825    126.9567      9.0977   6.4102597367e+01   5.2413132679e+01    0.3015549    0.1809316  33.81 0.0006602048    1.676    0.404
        40  -8.6618    125.1722     12.9298   6.6057871755e+01   5.2487530849e+01    0.2668864    0.2072629 -32.41 0.0005509747    1.396    0.284
        41  -7.9961     68.2561      8.9420   8.1291105353e+01   6.5749825565e+01    0.1882446     0.152211  -1.37 0.0003751946    1.077    0.072
        42  -8.4926    104.3284      2.1665   6.6253491471e+01   5.8674401674e+01    0.3427199    0.1922095  40.98 0.0008915169    1.591    0.371
        43  -8.8140    110.2722      7.9755   6.7418234440e+01   5.6690121547e+01    0.2495591    0.1852252 -30.15 0.0006987741    1.459    0.315
        44  -8.9200    109.3995      3.2665   6.5515872298e+01   5.7347552908e+01    0.4387133    0.2563635 -53.44  0.001881428    2.551    0.608
        45  -9.0890     87.9345      3.2618   7.1352822048e+01   6.2358215422e+01    0.4968217     0.288546  30.63  0.001618309    1.654    0.395
        46  -8.0397    125.9277      4.8200   6.2555134334e+01   5.3069630855e+01    0.3341956     0.172004  35.96   0.00102469    1.970    0.492
        47  -8.4918    121.0004      5.7637   6.3976881342e+01   5.4237995436e+01    0.3103046    0.1918091  79.79  0.001382879    2.028    0.507
        48  -8.2666    143.1581      5.1286   5.9495535631e+01   4.8560765558e+01    0.1933062    0.1638974 -61.50 0.0004610167    1.347    0.257
        49  -9.0248    115.4527      4.3758   6.4602547080e+01   5.5754918535e+01    0.2850564    0.2361174 -40.78 0.0007470896    1.404    0.288
        50 -10.1194    140.6766    118.3384   9.7088109585e+01   3.1056967958e+01     0.535146     0.362859 -60.18   0.00131404    1.899    0.473
        51  -9.5991    217.9906    249.9929   1.0507440148e+02  -2.5049886807e+00    0.2748636   0.08600504  41.02  0.001298628    2.779    0.640
        52 -11.1781    199.3022    248.1747   1.0802970767e+02   2.5450370362e-01    0.6869851    0.2702919  34.03  0.003708503    1.884    0.469
        53  -9.9467    159.9815    249.0546   1.1510100126e+02   5.7240468269e+00    0.2507209    0.1631877  15.62  0.001311375    1.706    0.414
        54  -8.9135    140.9556    111.4567   9.5294920287e+01   3.2386130952e+01    0.3462524    0.2627972 -50.39  0.001405864    1.435    0.303
        55 -10.0796     91.8881    112.9458   1.0931238187e+02   4.1302523060e+01    0.5892583    0.4198546  86.44  0.001631716    1.987    0.497
        56  -8.8420     92.1185    104.2535   1.0725945965e+02   4.3237613388e+01    0.7990869    0.4557737  12.73  0.002936222    3.156    0.683
        57  -7.8322      1.3319    116.2754   1.3670963068e+02   4.9927100732e+01    0.2223122   0.08227243 -74.41 0.0008439444    2.102    0.524
        58  -7.4560    164.6607    116.3331   9.0767788106e+01   2.6347440695e+01    0.1513067    0.1247031 -86.43 0.0007051661    1.747    0.428
        59 -10.2338     78.0142    113.0001   1.1348467835e+02   4.3400855800e+01    0.5494054    0.3418258 -83.85  0.001779706    2.292    0.564
        60  -9.7457     81.1343    100.2608   1.0974656100e+02   4.5884226650e+01    0.8522525    0.3575811 -46.53 0.0008094741    2.323    0.570
        61 -10.0777     14.8941    112.1508   1.3249199580e+02   5.0073077702e+01    0.5435565    0.2398644  67.14   0.00234466    2.829    0.646
        62  -8.7495    153.1391    115.1782   9.3203406196e+01   2.9058519356e+01    0.2363315    0.2036513   0.29 0.0007194541    1.208    0.172
        63  -7.7297    167.2227    114.1594   8.9628450826e+01   2.6189325608e+01    0.1976818    0.1843414 -74.66 0.0005152192    1.313    0.238
        64  -7.8312    188.7122    113.0072   8.4676480092e+01   2.1654472653e+01    0.2056276    0.1821108 -12.96 0.0002415957    1.086    0.079
        65 -10.4717     63.0243     96.1180   1.1471323533e+02   4.9357983912e+01      0.72708    0.4086243 -77.82  0.001768862    2.434    0.589
        66  -8.8974     64.8758     86.2612   1.1182612199e+02   5.1413304963e+01    0.6959588    0.3817803  -9.09  0.002363088    4.256    0.765
        67  -9.1135     66.8652    104.3081   1.1518041291e+02   4.6948913967e+01     0.559073    0.3099277 -26.85  0.002235671    2.931    0.659
        68  -9.9994     65.4695    111.0938   1.1694920739e+02   4.5539097551e+01    0.6499873    0.4363461  67.03  0.002403652    1.863    0.463
        69  -9.4628     59.1602    109.6560   1.1864025963e+02   4.6650807761e+01    0.2697491    0.2208959  81.83 0.0008903979    1.305    0.234
        70  -8.3840     54.7503    112.8273   1.2055872190e+02   4.6415006818e+01    0.3279763    0.1806744  53.82  0.001538651    2.140    0.533
        71  -9.0927    158.7083    111.7152   9.0981707873e+01   2.8513649372e+01    0.2726344    0.2619843  76.11 0.0006750037    1.209    0.173
        72  -8.7413     34.6278    111.4472   1.2650664173e+02   4.8744681204e+01    0.3065919    0.1886304 -23.86  0.001564173    2.321    0.569
        73 -11.3501     20.7619    100.9502   1.2942754702e+02   5.2282560912e+01      1.41827     0.753617  85.06  0.005031685    2.101    0.524
        74 -10.4068     32.9327     63.8324   1.1845299889e+02   6.0032697668e+01     1.457991    0.4963461 -32.72  0.004328359    5.710    0.825
        75 -10.6328     24.8927     78.6722   1.2465709904e+02   5.7217201433e+01    0.7948748    0.5826289 -55.91  0.003428776    1.151    0.131
        76 -10.1760     34.4678     90.6694   1.2335155821e+02   5.3652032574e+01    0.6825169    0.3053088 -86.42  0.002408885    3.571    0.720
        77 -10.0056     36.7135     81.1775   1.2078527520e+02   5.5689666209e+01    0.8928772    0.4177995 -23.88  0.003398833    3.787    0.736
        78  -8.2758    250.0076    111.3445   7.3508637476e+01   9.1964875505e+00    0.1796871    0.1571183  17.63 0.0002860129    1.145    0.126
        79  -8.0321    149.8045    110.1996   9.2744623226e+01   3.0744913952e+01    0.2117873    0.1753448  -0.56 0.0002857974    1.319    0.242
        80  -8.0810    244.2365    107.9705   7.3584425305e+01   1.0756853184e+01    0.1846632    0.1024631 -28.06 0.0004858921    1.615    0.381
        81 -10.8601     44.7008    102.3996   1.2195414153e+02   4.9938249643e+01    0.7907298    0.3976413  69.01  0.002944097    3.463    0.711
        82  -9.1029     40.0132    106.6069   1.2413352604e+02   4.9396994873e+01    0.2871802    0.1652638 -74.93 0.0007070211    1.646    0.393
        83  -9.5966      6.3860    104.1580   1.3422815388e+02   5.2412893968e+01    0.4576041    0.2869708  58.53  0.001714563    1.678    0.404
        84  -8.5971    165.9089    104.2094   8.7326586287e+01   2.8307919999e+01    0.3046023    0.2073772 -45.53 0.0005300657    1.597    0.374
        85  -9.5339    149.4364    103.3790   9.1030538562e+01   3.2151630776e+01    0.4195104    0.2933917 -48.55 0.0009511378    1.570    0.363
        86  -7.6422    249.5138    104.5011   7.1987674093e+01   1.0203484333e+01    0.1352456    0.1167225 -14.38 -2.303052e-05    1.042    0.040
        87  -8.3444     73.9975    102.3049   1.1248205773e+02   4.6452145796e+01     0.319492    0.1622769 -48.02 0.0009155551    1.881    0.468
        88  -9.2091    158.7172    100.6752   8.8044430374e+01   3.0588733391e+01    0.4466407    0.2404224 -50.47 0.0007636448    2.297    0.565
        89  -9.1351    149.6603     96.3853   8.9051094341e+01   3.3446910797e+01    0.5074107    0.3842361  15.21  0.002345987    1.522    0.343
        90  -9.4844     94.3401     97.2826   1.0485964910e+02   4.4435291167e+01    0.3488073    0.2818418 -67.14 0.0006292812    1.374    0.272
        91  -8.8189     95.9983     90.8495   1.0264915011e+02   4.5577702435e+01     0.526135    0.3201645 -15.02  0.001962214    2.913    0.657
        92  -9.0155    239.8539     97.1194   7.1647268668e+01   1.3113545365e+01    0.2045481     0.184722 -43.99 0.0005243126    1.260    0.206
        93  -9.9814    138.4439     91.4145   9.0497788801e+01   3.6919619145e+01     0.795697    0.4391145 -41.11  0.002447478    1.831    0.454
        94  -9.1149    140.5082     83.1256   8.7510829892e+01   3.8050589747e+01    0.4842731    0.2962424 -45.43  0.001231336    1.742    0.426
        95  -8.6705    164.5305     94.4786   8.4972900978e+01   3.0391629615e+01    0.2681096    0.2478094 -25.65 0.0006246854    1.095    0.087
        96  -8.3641    248.4699     94.4476   6.9758486449e+01   1.1746667151e+01    0.1349835     0.118099 -17.20 1.921774e-05    1.038    0.037
        97 -10.1117      4.4782     89.7236   1.3335615291e+02   5.5831451842e+01    0.5859332    0.2544667  81.82    0.0018908    2.729    0.634
        98  -9.4656      5.0486     79.2796   1.3193526686e+02   5.8216478037e+01    0.7064009    0.2789163 -32.92  0.003192635    3.195    0.687
        99 -10.3891    186.0084    246.5768   1.1015319830e+02   2.3082762045e+00    0.2872844    0.1738338  44.16  0.001840346    1.588    0.370
       100  -9.6511    169.5715    249.6025   1.1344959294e+02   4.2962868462e+00    0.2895914   0.07748692  41.31  0.001256407    2.860    0.650
       101 -12.0012    239.9819    244.1887   1.0059069704e+02  -4.8798398794e+00    0.2340071    0.1666778  15.72 0.0003210828    1.081    0.075
       102 -10.8319     22.0339     53.7296   1.2064384805e+02   6.3149933168e+01     0.823336    0.4332562  86.80  0.002821244    3.718    0.731
       103 -10.1126     13.2209     45.4839   1.2264749036e+02   6.5526481619e+01    0.7213834    0.3019897 -24.47  0.002673911    3.035    0.670
       104  -7.3812     18.5165    245.0027   1.3964437845e+02   2.3627839305e+01    0.1072681   0.06994259 -55.95 0.0005746639    2.330    0.571
       105  -9.6469      6.9176     32.5282   1.2245309972e+02   6.8664750577e+01     0.293561    0.2089597 -18.99 0.0009258167    1.438    0.305
       106  -9.9478      7.3036     28.4154   1.2109468946e+02   6.9521716018e+01    0.3243895    0.2658877  25.06  0.001055911    1.534    0.348
       107  -9.0831    174.2574     90.0466   8.1567074919e+01   2.8891873449e+01     0.301676    0.2428643  -6.15 0.0004773448    1.321    0.243
       108  -8.7876    108.8602     90.8638   9.8683865045e+01   4.3201561516e+01    0.5370736    0.2353904  29.35   0.00174506    3.278    0.695
       109  -9.2538    113.4092     88.7588   9.6726334766e+01   4.2755221418e+01    0.3781488    0.3079728 -63.91  0.001242129    1.452    0.311
       110  -9.1868    150.6768     88.7958   8.6629559006e+01   3.4646794344e+01    0.3760393    0.2244798 -39.52  0.001178483    1.696    0.410
       111  -7.5511     78.0000     89.9744   1.0827109171e+02   4.8712786460e+01    0.2365581   0.07696419 -53.77 0.0006656185    2.903    0.656
       112 -10.2966     47.9072     84.4489   1.1741212066e+02   5.3840426230e+01    0.6534982    0.3891196 -76.94  0.001858002    1.954    0.488
       113  -9.0035     48.9669     77.0547   1.1534807480e+02   5.5448515064e+01    0.5446978    0.3327168 -28.02  0.002661245    1.954    0.488
       114  -8.6967    170.5462     83.2684   8.0421898467e+01   3.0936489507e+01    0.3675219    0.1531789 -31.80  0.001278313    2.468    0.595
       115 -10.2014     85.3585     86.5795   1.0493447947e+02   4.8328363441e+01    0.4489821    0.3632157 -75.90 0.0009378139    1.496    0.332
       116  -8.8714    163.4154     86.9396   8.3074716231e+01   3.2000423714e+01    0.3356763    0.2306586 -44.24  0.001043388    1.554    0.356
       117  -7.6660    249.3492     86.3336   6.7693443676e+01   1.2643134523e+01    0.1425613   0.09612296  13.85 0.0007047898    1.775    0.437
       118 -10.3685    103.9319     82.6821   9.7836416608e+01   4.5887632888e+01    0.5527282    0.3177136 -54.50 0.0009000556    1.978    0.495
       119  -9.6829    104.9918     71.4560   9.4024093197e+01   4.8002110479e+01    0.7877593     0.595233  -4.53  0.003746748    1.580    0.367
       120  -9.5490     87.5038     78.8388   1.0203691864e+02   4.9680715793e+01     0.673608    0.3860161  15.72  0.002127175    2.739    0.635
       121  -9.9157    230.2799     81.7201   6.9239595762e+01   1.7253678834e+01    0.3077381    0.2565448 -26.47  0.000189354    1.109    0.098
       122  -9.6476    234.3253     78.0059   6.7711228520e+01   1.6883801754e+01    0.3533118    0.2689702  12.37  0.001082831    1.452    0.311
       123  -8.8693    156.4301     69.2743   7.9320866990e+01   3.6740957453e+01    0.5064668    0.3036568 -39.04  0.001603153    1.700    0.412
       124  -8.8188    157.6587     83.5335   8.3404231974e+01   3.3971013390e+01    0.3715657    0.2300296 -40.24  0.001357452    1.651    0.394
       125  -9.5879    157.3906     77.3791   8.1614389363e+01   3.5120692246e+01    0.6442454    0.2907768 -40.40  0.001477577    2.261    0.558
       126  -9.3118    139.9440     75.8948   8.5428665005e+01   3.9529363444e+01    0.6829532    0.4013639 -40.62  0.001844292    1.732    0.423
       127  -8.8770    118.9890     80.5111   9.2631791036e+01   4.3305233104e+01    0.3810808    0.2522668 -53.30 0.0009125428    1.740    0.425
       128  -8.0086    119.5453     76.4849   9.1217030949e+01   4.3988267201e+01    0.2795813    0.2398226  -8.18 0.0005779167    1.207    0.172
       129  -7.6796     63.4861     82.0006   1.1126253949e+02   5.2576320992e+01    0.2073638    0.1275613 -57.16 0.0006147003    1.519    0.342
       130  -8.4182    149.9247     80.9358   8.4476302356e+01   3.6268569230e+01    0.3070964    0.2041339 -46.80 0.0006680756    1.651    0.394
       131  -7.3121    150.3441     77.3328   8.3272539105e+01   3.6817753076e+01    0.1631682    0.1506171  13.00 0.0008330235    1.047    0.045
       132  -9.1567     74.1370     79.0412   1.0670417089e+02   5.1763660304e+01    0.6902497    0.2606896 -51.95  0.001565419    2.459    0.593
       133  -9.4606    240.3905     79.8067   6.7316580794e+01   1.5348087370e+01    0.2863809    0.2017778   8.46   0.00106717    1.657    0.397
       134  -8.0259     68.5672     79.8296   1.0889036921e+02   5.2387236053e+01    0.1980493    0.1305615 -66.04 0.0009440471    1.699    0.411
       135  -8.8130    166.3248     78.7512   8.0009843153e+01   3.2723874903e+01    0.2579333    0.2336726 -59.20 0.0006916557    1.266    0.210
       136  -8.1519    184.2135     78.0754   7.6097682302e+01   2.8488593094e+01    0.2455501    0.1967596  14.13 0.0007879856    1.346    0.257
       137  -8.0145    173.8438     78.6147   7.8354905734e+01   3.0920683859e+01    0.2088295     0.149378  64.08 0.0005973602    1.609    0.379
       138  -9.8049    127.2977     75.2027   8.8602856469e+01   4.2543495562e+01    0.7599087     0.312864 -38.61 0.0008051844    2.431    0.589
       139  -8.7680    130.5934     64.8190   8.4299927149e+01   4.3714067397e+01    0.6606197    0.2622212 -36.08  0.002291798    2.525    0.604
       140 -10.2399     82.2202     70.0432   1.0119904575e+02   5.2465571952e+01     1.153608    0.4081755 -42.13  0.002958016    2.776    0.640
       141 -10.3420     90.2712     38.0647   8.6688444418e+01   5.7157150549e+01     1.147936    0.4484782  31.09  0.003512775    4.054    0.753
       142  -9.3408     88.0967     56.3689   9.4530606592e+01   5.4242709774e+01    0.9473379    0.3632573 -34.25  0.002829553    3.006    0.667
       143 -10.1452     85.1780     48.1478   9.2530299550e+01   5.6351400610e+01    0.4042048    0.3276521 -60.25  0.001030947    1.594    0.373
       144 -10.1160     73.2870     57.3572   1.0032184433e+02   5.6578706407e+01     1.069547    0.3263908 -42.46  0.003502071    3.108    0.678
       145  -9.3050     79.8614     46.6230   9.3907841822e+01   5.7597425577e+01    0.4905559    0.2892937 -27.94 0.0007949725    1.771    0.435
       146  -9.1119    169.3387     71.9607   7.7311686696e+01   3.3116871129e+01    0.4793187    0.2381874 -24.18  0.001769215    2.294    0.564
       147  -8.5926    162.8029     72.8826   7.9008981204e+01   3.4572421331e+01    0.3339613      0.20226 -46.15 0.0007260183    1.840    0.457
       148  -9.3099    115.3494     72.1636   9.1071703349e+01   4.5730865406e+01    0.6126683    0.3202506 -34.73  0.001981862    1.972    0.493
       149  -9.5004     44.2660     53.5577   1.1088594544e+02   6.1247456741e+01     0.609916    0.4242525  66.30  0.003055976    2.359    0.576
       150 -10.5426     55.0850     70.8890   1.1147304137e+02   5.6163425525e+01    0.6919777    0.4509171  64.26  0.001175116    2.416    0.586
       151 -10.0286     62.3049     60.8528   1.0573517528e+02   5.7460592265e+01    0.6032199    0.3009922  28.02  0.001028497    2.241    0.554
       152  -7.8102    239.4867     72.4356   6.5599707922e+01   1.6514413649e+01    0.1362881    0.1235924 -26.97 6.150894e-05    1.044    0.043
       153  -8.6223    231.8651     71.2353   6.6330093249e+01   1.8330908551e+01    0.2664687     0.179094  36.00 0.0008586134    1.644    0.392
       154  -9.2438    147.0320     69.2832   8.1545891137e+01   3.9028369764e+01    0.4155556     0.279145 -55.62 0.0009096392    1.916    0.478
       155  -8.1370    147.4174     63.5879   7.9602082854e+01   3.9904520566e+01    0.3609895    0.2215337  18.03  0.001361734    2.373    0.579
       156  -9.1083     55.5886     63.2109   1.0911267958e+02   5.7820368143e+01     0.529303    0.2820105  22.48  0.001964826    2.200    0.545
       157  -7.6799     95.0000     54.9708   9.1634036049e+01   5.3202507855e+01    0.2799388    0.1788063 -36.90   0.00110098    1.515    0.340
       158  -9.7295     94.7969     68.1794   9.6272573358e+01   5.0636174129e+01    0.4345978    0.2708039 -51.44 0.0008854242    1.732    0.423
       159  -9.4415     97.0564     58.9902   9.2385024241e+01   5.2032145797e+01    0.7865838    0.4260179 -17.79  0.002743196    3.118    0.679
       160  -7.8495     23.2829     69.0447   1.2346737684e+02   5.9568890172e+01    0.1752515    0.1344867 -64.74 0.0003832786    1.114    0.102
       161  -9.0794    121.2547     66.1278   8.7344664939e+01   4.5600176048e+01    0.3732314    0.2866526 -52.93  0.001476191    1.512    0.338
       162  -8.0897    122.1724     61.0524   8.5348537154e+01   4.6320967268e+01     0.326174    0.2147259 -15.31  0.001343523    1.837    0.456
       163  -9.3174    138.3474     65.3687   8.2441662226e+01   4.1792198912e+01     0.675456    0.2739928 -32.43  0.001231687    2.575    0.612
       164  -9.5173    138.9453     55.7751   7.9041402291e+01   4.3267258019e+01      0.75656    0.2829539 -36.55   0.00122198    2.646    0.622
       165  -9.3078    141.8372     47.1588   7.5323265166e+01   4.3901371921e+01    0.5672234    0.3020603 -28.30   0.00197072    1.928    0.481
       166 -10.1100     49.9545     54.4177   1.0873154981e+02   6.0421173580e+01    0.7528883    0.3449768 -62.50  0.002624369    2.709    0.631
       167  -8.1229    170.9580     65.0328   7.4849514150e+01   3.3819808659e+01    0.1860814    0.1773897   0.03 0.0003860287    1.024    0.024
       168  -9.3513    109.9839     63.9326   8.9956035549e+01   4.8454892509e+01     0.359594    0.2906966 -60.95 0.0006934463    1.540    0.351
       169  -8.9274    110.5709     58.3001   8.7808877607e+01   4.9382934494e+01     0.395068     0.282794   3.72 0.0008596416    1.735    0.424
       170  -8.2851    157.1599     63.0209   7.7161059161e+01   3.7589704765e+01    0.2352321    0.2272219   8.50   0.00125505    1.030    0.029
       171  -8.3611    164.5008     60.0789   7.4628064656e+01   3.6212941190e+01    0.2353836    0.1506062 -30.80  0.001023852    1.567    0.362
       172  -8.3673    152.6138     59.4848   7.7034549811e+01   3.9291125764e+01    0.3795344    0.1546524 -27.12  0.001265806    2.749    0.636
       173  -8.9610    146.4939     59.0059   7.8301790461e+01   4.0887425633e+01    0.2699563    0.2368903 -25.30 0.0007404683    1.146    0.128
       174  -9.3594    147.1973     54.3389   7.6558978179e+01   4.1458148598e+01    0.5184157    0.2787912 -16.68  0.001924786    2.400    0.583
       175  -8.7463    139.4461     39.5962   7.3162750426e+01   4.5603201966e+01    0.4599127    0.3419321 -31.25  0.001618566    1.379    0.275
       176 -10.1628    149.6073     46.9485   7.3473037878e+01   4.1970672769e+01      1.02114    0.2711719 -34.15   0.00280827    3.522    0.716
       177  -8.4411    129.9743     57.9334   8.2109760685e+01   4.5061973261e+01    0.2577406    0.2190507 -32.53 0.0004621332    1.194    0.162
       178  -8.8158      4.0657    237.3112   1.4173025402e+02   2.6115356558e+01    0.1535103    0.1290067  65.53 0.0004208256    1.290    0.225
       179  -9.0139    132.9417     35.9766   7.3356757835e+01   4.7742726668e+01    0.3787203     0.285879 -41.52 0.0004620132    1.449    0.310
       180 -10.2108    188.4475    234.0972   1.0805240320e+02   3.4079122319e+00    0.2653442     0.231061 -48.34  0.001654173    1.746    0.427
       181  -9.7735     56.4598     43.3538   1.0212380679e+02   6.1902521020e+01    0.9276172    0.4741999 -10.36  0.002890718    5.042    0.802
       182  -8.5668    122.8652     41.0382   7.7850762160e+01   4.9477908194e+01    0.5154997    0.2867406  10.32  0.001736821    3.271    0.694
       183  -9.4440    118.3393     54.6946   8.4200425407e+01   4.8311591913e+01    0.5585505    0.3541894 -35.14  0.001413065    1.573    0.364
       184  -8.9867    121.1199     46.8939   8.0543446491e+01   4.8976981976e+01    0.3597913    0.2329486 -39.98 0.0004768419    1.621    0.383
       185 -10.1712    162.0500     53.2166   7.2919689184e+01   3.7874447604e+01     0.479639    0.4115782 -45.43  0.001816638    1.251    0.201
       186  -8.4094    105.6486     49.6421   8.6166676050e+01   5.1989681286e+01    0.3644545    0.2272482  12.50  0.001456114    2.321    0.569
       187  -9.9363    153.3185     40.9828   7.0607754343e+01   4.1864276276e+01    0.4600789    0.3193663 -32.49  0.001395347    1.470    0.320
       188  -8.4542    157.6849     49.0239   7.2439454477e+01   3.9605966694e+01    0.2307594    0.2050032 -59.82 0.0004864699    1.277    0.217
       189  -9.0665    112.1585     45.8564   8.2731676463e+01   5.1203132594e+01    0.6324801    0.2947956 -25.06  0.001111857    2.524    0.604
       190  -8.7100    105.4556     53.4347   8.7641722383e+01   5.1357724603e+01    0.3167707    0.2584661 -63.06 0.0006419882    1.605    0.377
       191  -8.2518     40.6516     34.7247   1.0606582946e+02   6.5581277049e+01    0.2503527    0.1982367  -5.14 0.0008273346    1.248    0.199
       192  -9.9661     37.7761     42.1607   1.1012026934e+02   6.4360883529e+01    0.3969561    0.3102503  85.57  0.001808972    1.990    0.497
       193 -10.3272     35.9039     37.9592   1.0955159359e+02   6.5423072351e+01    0.4683605    0.2655248 -33.74 0.0003827504    1.633    0.387
       194  -7.2695    117.6848    229.6577   1.2081958536e+02   1.4426945660e+01    0.1089847   0.08419252   8.31 0.0007047937    1.709    0.415
       195  -7.5146      2.2447    223.9964   1.4163871032e+02   2.8440082822e+01    0.1199786   0.06612408  88.89 0.0004431318    1.597    0.374
       196  -9.9914     76.1085     31.8379   8.9255960599e+01   6.0900819970e+01    0.5028858    0.3892487  66.96  0.001121348    2.026    0.506
       197 -10.1181    152.2498    221.3964   1.1314601518e+02   1.0558037167e+01    0.2086514    0.1712207  31.06 0.0002308264    1.053    0.050
       198  -9.1992     72.2327     25.7310   8.8035721757e+01   6.2597670416e+01    0.5100864    0.3328491   9.95  0.002267845    1.781    0.439
       199  -9.8264     79.3816     23.9803   8.4448520003e+01   6.1534899736e+01    0.5896022    0.3137819  23.61  0.001829308    2.393    0.582
       200  -9.0462     84.7137     21.8858   8.1526268200e+01   6.0782455216e+01    0.3129845    0.2436282 -16.44 0.0009569993    1.218    0.179
       201  -9.1645    110.2684     33.0770   7.8221671451e+01   5.3617860824e+01    0.4506865    0.2416298 -44.36  0.001238127    2.223    0.550
       202  -8.1014    110.2258     27.0540   7.5729950472e+01   5.4470822809e+01    0.2745745    0.2103239 -15.10  0.001405179    1.311    0.237
       203  -9.0151    104.9396     41.1084   8.3079746691e+01   5.3581008332e+01    0.3883221    0.2627596 -48.72 0.0008945166    1.785    0.440
       204  -8.6685    105.8706     36.2012   8.0812839797e+01   5.4149181396e+01    0.3362399     0.237676  28.71 0.0008646821    1.425    0.298
       205  -8.8554     53.3492     38.8775   1.0177783472e+02   6.3208196027e+01    0.5617127    0.1759435 -39.78  0.002010886    3.072    0.674
       206  -9.2150    144.1382     36.5885   7.1009725245e+01   4.4822668080e+01    0.4368639    0.2694526 -63.52 0.0008313952    2.564    0.610
       207  -8.8772    118.9593     34.7247   7.6446190818e+01   5.1340418450e+01    0.3120097    0.2088513 -25.27 0.0007206101    1.515    0.340
       208  -9.5202    100.9805     32.5511   8.0817145347e+01   5.5784897104e+01    0.5592733    0.2551646 -30.51  0.001534144    2.192    0.544
       209  -7.7074     25.6936    216.0192   1.3721800467e+02   2.7740792679e+01    0.1399111     0.104396  71.83 0.0003693282    1.094    0.086
       210  -9.9748     10.3393    207.6053   1.3965141444e+02   3.0603031630e+01    0.3936797    0.2080451  26.20  0.002576768    2.207    0.547
       211  -7.8460    153.8548    206.8519   1.1082560160e+02   1.2475244963e+01    0.1669054    0.1291685  49.35  0.001035591    1.313    0.238
       212  -9.3166    192.3091    194.8756   1.0126611157e+02   7.9070254275e+00    0.7291564    0.3823001 -57.63  0.002551138    5.758    0.826
       213  -9.0265     91.4193     26.3708   8.1254968058e+01   5.8751723542e+01    0.3581036    0.2555318 -52.10   0.00126424    1.903    0.475
       214  -8.7189     91.8960     21.2173   7.8760576547e+01   5.9373572833e+01    0.3527943    0.2234292  19.75   0.00093633    1.754    0.430
       215  -8.9737    153.1738     34.5569   6.8392023076e+01   4.2753918346e+01    0.3251066    0.1938828  65.84  0.001216109    1.759    0.432
       216  -7.5849     28.8217    174.9256   1.3422496918e+02   3.5224812390e+01    0.1330868    0.1223424 -13.36 0.0004962463    1.529    0.346
       217  -7.1420    171.2640    171.7274   1.0139251133e+02   1.5134406387e+01    0.1214397    0.1059456  63.51 0.0002274527    1.469    0.319
       218  -8.3475    230.4743    168.7166   8.9230845549e+01   5.0065973859e+00    0.3445927      0.10879 -37.79  0.001308189    3.482    0.713
       219  -9.4665    245.7278    166.5747   8.6176232364e+01   2.7418852282e+00    0.3494455    0.2118207  37.81    0.0010335    1.606    0.377
       220  -9.5111    246.2335    161.7253   8.5112899295e+01   3.2655637671e+00    0.2643239    0.2075531  15.56 0.0002459174    1.103    0.094
       221  -8.9593    101.3072    162.9933   1.1594046334e+02   2.8847250747e+01    0.2105448    0.1746211  37.62  0.000303326    1.150    0.131
       222  -8.6903     42.1766     27.8929   1.0255352548e+02   6.6734300476e+01    0.2650267    0.1474939 -33.50 0.0002444885    1.615    0.381
       223  -9.3137    224.8254     33.0677   5.7207720056e+01   2.4690178160e+01    0.3187969    0.2431647 -27.84  0.001167588    1.259    0.206
       224  -8.7829    157.5598     91.0059   8.5609202585e+01   3.2642796314e+01    0.4089381    0.2113643 -31.18  0.001570762    2.053    0.513
       225  -8.2873    167.5279    159.2118   9.9779512019e+01   1.7959196602e+01    0.2313576    0.1731704  34.25 0.0003252709    1.201    0.168
       226  -9.0708    144.3292     26.0713   6.7118188702e+01   4.6104273780e+01    0.2473107    0.2282177 -24.79 0.0009327392    1.142    0.125
       227  -8.7399    128.4262     25.1659   7.0253445508e+01   5.0286049637e+01     0.404043    0.2552983 -21.69  0.001318084    1.644    0.392
       228  -9.3212    119.0425     21.6306   7.1103271729e+01   5.3047423300e+01    0.3195989    0.2751799 -31.59 0.0007513406    1.258    0.205
       229  -9.0370    246.2106    156.7720   8.4100592256e+01   3.8966392067e+00    0.2255579    0.1707913  -4.17 0.0002692582    1.106    0.096
       230  -7.5585     23.5117    157.4983   1.3417527497e+02   3.9322208354e+01    0.1147766   0.09451438  80.34 0.0001442495    1.011    0.011
       231 -10.3460    214.2177    154.8603   8.9350345447e+01   9.8170267497e+00    0.2503647    0.2148656  17.57 0.0003264941    1.084    0.078
       232  -8.4354    133.5915    145.5082   1.0490866188e+02   2.6942576764e+01    0.4594721    0.1439068 -50.93  0.001490347    3.651    0.726
       233  -8.7062     40.9365     20.6380   9.9943227307e+01   6.8218405856e+01    0.2270746    0.1615133 -38.49 0.0002930923    1.274    0.215
       234  -8.0405    119.0381     27.7901   7.3636636479e+01   5.2273113835e+01    0.2702475     0.183537  -4.45  0.001129893    1.654    0.395
       235  -9.4832     66.9963    144.4527   1.2191908959e+02   3.7674179740e+01    0.5043192    0.2817484  62.82  0.002380261    2.151    0.535
       236 -10.0545    239.2681    144.5900   8.2683052435e+01   6.6947380150e+00     0.508754    0.2540675  17.42  0.002027775    2.945    0.660
       237  -9.1445    233.3116    137.0247   8.2032742154e+01   8.8183894844e+00    0.2316025    0.1800763  28.82 0.0001856918    1.228    0.186
       238  -7.7573     45.2350     15.7129   9.5352494323e+01   6.8508186391e+01    0.1805198    0.1272536 -10.44  0.001033544    1.332    0.249
       239  -7.3426    219.2430    136.0108   8.4287806057e+01   1.1643414948e+01    0.1725173    0.1106987 -27.11 0.0003279496    1.496    0.331
       240  -7.4269    161.5712    136.5459   9.6309293517e+01   2.3226207721e+01    0.1471986    0.1361141  19.26 6.998172e-05    1.018    0.018
       241  -9.8493    134.4244    131.7704   1.0180538001e+02   2.9572501864e+01    0.5469688    0.4904122  55.90  0.002994145    1.181    0.153
       242  -9.9776    139.7508    103.5834   9.3543065170e+01   3.4222678596e+01    0.6898421    0.3818023 -37.09  0.001754759    1.868    0.465
       243  -9.8766    116.9717    125.8596   1.0506020987e+02   3.4106795968e+01    0.8014523    0.6269463 -62.86  0.002638443    1.424    0.298
       244 -10.3565    128.4458    100.6506   9.5762899687e+01   3.7210167853e+01     1.037552    0.5497591 -26.41  0.002528705    2.714    0.632
       245 -10.6565    123.7872     91.1185   9.4402786326e+01   4.0143281795e+01     1.246736    0.6262957 -33.89  0.003465847    2.225    0.551
       246 -10.5563    131.8296    119.8320   9.9730897506e+01   3.2542982026e+01    0.8262976    0.5400862  74.93  0.003077223    2.878    0.652
       247 -10.6163    133.4949    109.4410   9.6720441629e+01   3.4352634638e+01    0.8843722    0.4408015 -43.20  0.002232408    2.042    0.510
       248  -9.9823    108.4379    114.2610   1.0480035274e+02   3.8183030468e+01    0.6447643    0.4259282 -83.98  0.001426294    2.630    0.620
       249 -11.0585    121.5102    110.4857   1.0022437693e+02   3.6545204616e+01     1.289018    0.6485425 -47.51   0.00354858    2.026    0.506
       250  -8.4506    112.2592    133.7733   1.0798927464e+02   3.3243388237e+01    0.2956835    0.2173746  72.40  0.001076863    1.778    0.438
       251  -8.0824    155.3280     12.3367   6.0121373972e+01   4.4682399818e+01    0.1595283   0.09821676  34.71 0.0007051863    1.727    0.421
       252  -7.4419     87.0695    134.0000   1.1485226681e+02   3.7276557812e+01    0.2276181   0.07640154  34.64 0.0008077229    2.979    0.664
       253  -9.8033     98.4772    128.6108   1.1069140186e+02   3.6705518896e+01    0.5845336    0.3584759  73.57  0.002203234    2.796    0.642
       254  -8.0041     82.0190    129.8001   1.1550791065e+02   3.8965706779e+01    0.3652492    0.1749806 -76.78  0.001277582    3.562    0.719
       255 -10.5942     70.1407    126.5262   1.1830907284e+02   4.1348149670e+01    0.6269495    0.5289899 -40.03  0.001632583    1.294    0.227
       256 -10.0326     58.3234    124.6303   1.2140340901e+02   4.3247757503e+01    0.6067752    0.3288246  74.31   0.00254731    2.805    0.644
       257 -10.7449    109.1855    100.9657   1.0131379003e+02   4.0959629834e+01     1.051854    0.8289252 -89.58  0.005039539    1.750    0.429
       258  -9.8561     27.1674    122.9617   1.3011002005e+02   4.6693178391e+01    0.5277938    0.2748693  67.02  0.002177172    2.197    0.545
       259  -9.4821     41.3506    121.9138   1.2592595942e+02   4.5684470958e+01    0.4498911    0.2158612 -82.90  0.002022599    2.340    0.573
       260  -8.1481    152.3483    122.0800   9.5104728554e+01   2.7887404438e+01    0.2920156    0.1387392 -34.01   0.00108406    2.387    0.581
