#   1 NUMBER                 Running object number                                     
#   2 MAG_AUTO               Kron-like elliptical aperture magnitude                    [mag]
#   3 X_IMAGE                Object position along x                                    [pixel]
#   4 Y_IMAGE                Object position along y                                    [pixel]
#   5 X_WORLD                Barycenter position along world x axis                     [deg]
#   6 Y_WORLD                Barycenter position along world y axis                     [deg]
#   7 A_WORLD                Profile RMS along major axis (world units)                 [deg]
#   8 B_WORLD                Profile RMS along minor axis (world units)                 [deg]
#   9 THETA_WORLD            Position angle (CCW/world-x)                               [deg]
#  10 FWHM_WORLD             FWHM assuming a gaussian core                              [deg]
#  11 ELONGATION             A_IMAGE/B_IMAGE                                           
#  12 ELLIPTICITY            1 - B_IMAGE/A_IMAGE                                       
         1  -8.9572     91.9558     26.3698   2.4099858478e+01   5.8506381225e+01     0.249506    0.1916029 -50.21 0.0006367909    1.515    0.340
         2  -7.9729     83.9641     11.0120   1.9490920942e+01   6.2182645669e+01    0.1674744    0.1425984  48.00 0.0004448481    1.050    0.048
         3  -8.6272     55.8582      9.8042   2.8798027809e+01   6.8389402798e+01    0.2157059    0.1624394 -55.36 0.0005893799    1.918    0.479
         4  -8.0325     47.5586     10.0501   3.2717774811e+01   6.9932747012e+01    0.1612101    0.1070659 -53.31 0.0004966996    2.353    0.575
         5 -11.2600    237.5809      2.6797   3.5704607853e+02   2.6117673851e+01    0.6079413     0.340113 -28.83  0.003570928    1.804    0.446
         6 -10.9985    245.8800      3.9703   3.5688596995e+02   2.4343208663e+01     0.547435    0.3380187  77.17  0.003528151    1.679    0.405
         7  -8.3932     90.7974      8.9351   1.6656060260e+01   6.0780703091e+01    0.2171619    0.1425541 -54.57  0.001073307    1.956    0.489
         8  -8.0721    101.4841      7.9874   1.3684463603e+01   5.8271793457e+01    0.1845597   0.09948059 -50.36 0.0004587657    2.340    0.573
         9  -8.3793     70.6396      6.3000   2.1286774283e+01   6.5684348292e+01    0.1916381     0.151163 -66.59   0.00101498    1.756    0.431
        10  -8.4579     33.8328      5.4919   3.7257473368e+01   7.2877936457e+01    0.2318066     0.156312 -47.14  0.001295799    2.009    0.502
        11  -8.4483     79.4332      3.8259   1.7303681345e+01   6.3936954584e+01    0.2294549    0.1225943 -27.93  0.001115531    2.017    0.504
        12  -8.2287     62.5109      1.4593   2.1487170785e+01   6.7921442204e+01     0.203157    0.1217311  68.11 0.0006905092    2.015    0.504
        13  -7.7370     39.6734      1.3304   3.1377939391e+01   7.2413552417e+01     0.111422    0.1010491 -73.22 0.0007051002    1.708    0.414
        14  -9.3249    224.4931    245.5166   4.7688524576e+01  -4.9697475789e+00    0.2379671    0.1565418 -13.33  0.001057911    1.348    0.258
        15 -10.3787    248.7937    241.3078   4.3092301865e+01  -7.1887448642e+00    0.4280483    0.1776498 -33.66  0.001696444    2.367    0.577
        16  -8.5787    247.9711    234.0080   4.2114087292e+01  -6.3011076553e+00    0.2196787    0.1191617 -16.24  0.001118508    1.638    0.390
        17  -9.9676    246.9010    228.1568   4.1375493913e+01  -5.5222254309e+00    0.4829336    0.1661159 -30.72  0.002253437    2.698    0.629
        18  -9.5994    223.5177    242.0384   4.7343998512e+01  -4.4544554385e+00    0.2014681    0.1805612 -21.92  0.001029731    1.639    0.390
        19  -8.6767     35.2139    247.4233   8.5113161509e+01   1.8718999296e+01    0.1692552   0.07284561  42.44 0.0009524597    1.665    0.399
        20  -9.5457    146.6300    245.4455   6.2164795162e+01   4.9754435566e+00     0.209279    0.1677172  63.42 0.0009120828    1.735    0.424
        21  -9.5589    120.1391    245.2645   6.7530665573e+01   8.6085449067e+00     0.274233    0.1926554  71.20  0.001635229    2.028    0.507
        22  -8.6384    201.9611    243.3601   5.1313374728e+01  -2.0138408235e+00    0.1797892    0.1545932 -38.18 0.0008146036    1.680    0.405
        23  -8.6713    169.0019    243.2569   5.7470907210e+01   2.2689454611e+00    0.1800481    0.1576238  50.50 0.0005910035    1.545    0.353
        24  -8.1063     67.4767    244.5275   7.8394115879e+01   1.5566005329e+01    0.1196429   0.09174472  47.18 0.0008095576    1.011    0.011
        25  -9.6001     77.6735    242.7506   7.6133656223e+01   1.4622008104e+01    0.2231779    0.1220718  71.60  0.001161803    2.400    0.583
        26  -8.0913    153.3938    242.1527   6.0399317058e+01   4.5424412522e+00    0.1447895    0.1182006 -66.88 0.0009525728    1.838    0.456
        27  -8.3060     88.1503    242.1549   7.3886042849e+01   1.3389079862e+01    0.1633682     0.118445  59.73 0.0006483552    1.363    0.266
        28  -9.0563    182.9800    239.3512   5.4252935403e+01   9.4762856090e-01    0.3299098    0.2617873 -38.43   0.00164795    1.578    0.366
        29  -9.3309    159.8432    239.9015   5.8821864131e+01   3.9913566108e+00     0.221777    0.1957074 -74.75 0.0009872273    1.738    0.425
        30  -9.2465     29.5721    241.2865   8.5932500186e+01   2.0427865812e+01    0.2545863   0.07823556  41.83  0.001262921    2.179    0.541
        31  -8.7882      3.4949    240.4939   9.1015749927e+01   2.3085224420e+01    0.2516422   0.08134873  54.92 0.0009005135    2.213    0.548
        32  -9.4698    242.5224    236.4838   4.3362379724e+01  -5.9793425517e+00    0.3885796    0.1693809  -9.52  0.001748816    3.652    0.726
        33  -8.0816     37.0282    240.5054   8.4387443444e+01   1.9787225218e+01    0.1812851   0.04992842  47.70 0.0008101761    2.582    0.613
        34  -8.6898    193.9412    239.2966   5.2193266449e+01  -4.7730672440e-01    0.1619502    0.1213945  16.17 0.0004570919    1.040    0.039
        35  -8.2215    145.9922    239.4707   6.1549291893e+01   5.9674362471e+00    0.1689412   0.08379734  48.61 0.0004696413    2.378    0.580
        36  -9.8543    231.1491    235.8870   4.5136156239e+01  -4.6229056572e+00    0.3716293     0.199521 -32.43  0.001883732    1.872    0.466
        37  -8.9037    135.4113    238.3218   6.3575692990e+01   7.6198110187e+00    0.1386039    0.1207702 -80.37 0.0006415109    1.581    0.367
        38  -9.0463    128.9564    238.2748   6.4909559670e+01   8.5269518066e+00     0.178236    0.1359743  31.36 0.0007264129    1.053    0.050
        39  -8.3257    123.9749    239.0000   6.6033480070e+01   9.1003291100e+00    0.2139309   0.05747774  33.84 0.0008083309    2.983    0.665
        40  -9.2320     82.5766    238.4816   7.4734421043e+01   1.4759385979e+01    0.4023324   0.09935115  32.35   0.00150587    3.323    0.699
        41  -9.1803     71.4263    238.3648   7.7089536209e+01   1.6191202862e+01    0.3101162    0.0748058  36.32  0.001245062    2.868    0.651
        42  -8.3440     52.9876    238.4854   8.0976642081e+01   1.8382535344e+01    0.1789573   0.05899884  48.56 0.0008087324    2.415    0.586
        43  -9.2185     14.6507    237.9869   8.8759220720e+01   2.2522837449e+01    0.3549221   0.06190185  31.71    0.0014388    3.723    0.731
        44  -9.0300    216.5417    235.4971   4.7570688399e+01  -2.8364369412e+00     0.188481    0.1562631   0.59 0.0008084617    1.218    0.179
        45  -9.5726    213.5424    231.5623   4.7500535988e+01  -1.9736341380e+00    0.2577894    0.2408521 -83.51   0.00103502    2.133    0.531
        46  -8.9852    203.0558    234.3961   4.9805786109e+01  -1.0091137545e+00    0.2521438    0.1615512 -47.99 0.0009970865    2.317    0.568
        47  -9.7481    175.6694    233.2229   5.4787984077e+01   2.7901799272e+00    0.3965978    0.2370553 -55.30  0.002145258    2.661    0.624
        48  -8.0979    170.2646    235.6264   5.6183569803e+01   3.1850644826e+00    0.1070152    0.0912005  56.51  0.000530192    1.666    0.400
        49  -9.3253    108.4448    234.1240   6.8773484701e+01   1.2075457617e+01    0.2641985    0.1797533  71.78  0.001051272    1.975    0.494
        50  -8.5746     78.4722    234.4255   7.5253424936e+01   1.6023658273e+01    0.1958745    0.1120208 -89.83  0.001027891    2.370    0.578
        51  -8.0730    122.7928    233.9658   6.5695039001e+01   1.0102635759e+01    0.1919435    0.1324813  67.38  0.001073727    2.014    0.503
        52  -8.2655     99.7772    233.9868   7.0621158899e+01   1.3286545780e+01    0.2000286    0.1233906  65.17  0.001071457    2.033    0.508
        53  -8.7214     93.4188    232.8170   7.1874952068e+01   1.4355128542e+01    0.3972642    0.1602366  57.70  0.001478931    3.967    0.748
        54  -8.0872      7.6765    234.6915   9.0015473749e+01   2.3791504035e+01   0.09269024   0.08381628 -40.88 0.0002705434    1.649    0.393
        55  -8.1242    145.6290    233.3240   6.0833146992e+01   6.9779959181e+00    0.1254022   0.08590606  54.07 0.0007032944    1.810    0.448
        56  -9.4539     68.2319    232.0908   7.7263120445e+01   1.7750947731e+01    0.3614679    0.1412831  57.98  0.001516416    3.079    0.675
        57  -8.5166     38.3472    233.7042   8.3734718812e+01   2.0923336692e+01    0.1283961   0.06329024  54.81 0.0007033069    1.674    0.403
        58  -8.2924    194.3567    232.2872   5.1090911528e+01   4.0192021057e-01    0.1381196    0.1074114 -36.89 0.0004725867    1.571    0.363
        59  -9.4330    186.5042    230.5823   5.2316873931e+01   1.6872979100e+00    0.2883413    0.2383964 -76.32   0.00156379    2.377    0.579
        60  -8.2236    132.4757    232.4908   6.3469176683e+01   8.9803391938e+00    0.1263257    0.1019012  36.26 0.0001479985    1.088    0.081
        61  -9.2690    236.1200    229.6396   4.3350770497e+01  -4.4656368056e+00    0.3860635    0.1425076 -30.17  0.001941497    2.618    0.618
        62  -9.9916    149.2677    225.9095   5.9081986538e+01   7.6453933495e+00    0.5374821    0.3846683  79.76  0.002781674    2.738    0.635
        63  -8.9660    140.2084    230.1375   6.1544024293e+01   8.2637470128e+00    0.2421313    0.1331871  49.68  0.001218204    2.070    0.517
        64  -7.9710      1.4624    230.4895   9.1104883935e+01   2.5143573702e+01    0.1131132    0.0804572  59.17 0.0003790178    1.030    0.029
        65  -7.7488    191.5255    249.5236   5.4072028252e+01  -1.4852023750e+00    0.1145874   0.08703101  16.26 8.032998e-05    1.045    0.043
        66  -8.7333    162.0573    227.7827   5.6715926431e+01   5.5067744316e+00    0.3117316    0.1648664  50.13  0.001479455    2.561    0.610
        67  -9.1564    127.8859    227.1408   6.3774666660e+01   1.0539368247e+01    0.2740196    0.1642565  53.76  0.001196729    1.952    0.488
        68  -8.3581    223.3363    226.6373   4.5031966244e+01  -2.5705223050e+00    0.2094057   0.08656231 -27.00 0.0007782599    2.548    0.608
        69  -7.6782    120.2706    227.6230   6.5476402741e+01   1.1549567802e+01    0.1243269   0.08874872  61.55 0.0006996105    1.687    0.407
        70  -8.1090    111.5154    227.4933   6.7363776186e+01   1.2817667511e+01    0.1276954    0.1053808  36.36 0.0001760207    1.002    0.002
        71  -8.9253    206.0190    225.4034   4.7898300928e+01  -2.0784860698e-01    0.2292046    0.1531997 -40.91  0.001054789    1.825    0.452
        72  -8.1863    199.8319    226.0766   4.9135265190e+01   5.1886338108e-01    0.1646368    0.1466829  10.01 0.0006915004    1.283    0.220
        73  -8.0619     48.9979    226.4902   8.1007551795e+01   2.1130972874e+01    0.1747546   0.06497504  49.85 0.0006177504    2.234    0.552
        74  -8.7460    180.5719    224.1672   5.2501956533e+01   3.4270592527e+00    0.2524232    0.1700609  48.86 0.0008714498    1.938    0.484
        75  -9.0818     94.2387    224.3613   7.0824203360e+01   1.5803706641e+01    0.3352744    0.1851587  60.01  0.001368127    2.152    0.535
        76  -8.1826     11.6713    225.2891   8.8860627327e+01   2.5238609062e+01    0.1238199   0.05923859  55.50 0.0004227962    1.618    0.382
        77  -8.1179      6.4924    225.5021   8.9929267048e+01   2.5666739266e+01    0.1148834   0.08425696  59.50 0.0008105882    1.016    0.016
        78  -8.7836    216.3742    223.1664   4.5696032915e+01  -1.2539687451e+00    0.1793147    0.1742467   3.80  0.000737026    1.631    0.387
        79  -8.7069    104.7733    223.5503   6.8393615240e+01   1.4487092005e+01    0.2671459    0.1687848  84.59  0.001336192    2.477    0.596
        80  -8.3708    173.0182    222.9826   5.3813308177e+01   4.6751342323e+00    0.1761841    0.1475607  57.99 0.0006938863    1.706    0.414
        81  -9.5241    238.7905    221.1000   4.1562036664e+01  -3.7574978786e+00    0.2196661    0.1577396 -32.75 0.0008746696    1.589    0.371
        82  -9.6061    225.7748    221.6838   4.3829976337e+01  -2.2493309696e+00    0.2629133    0.1967622  40.89  0.001583134    1.821    0.451
        83  -8.4775    163.1708    222.3910   5.5711567357e+01   6.1870920815e+00    0.1831935   0.09965765  40.77 0.0007699896    1.728    0.421
        84  -7.7565    140.4974    222.4832   6.0461287478e+01   9.4956308141e+00    0.1287936    0.1069711  33.27 0.0004184606    1.076    0.071
        85  -9.3055    120.2977    218.9021   6.4383850923e+01   1.3101695033e+01    0.4627237    0.2427364  60.98  0.001902298    3.234    0.691
        86  -8.2573    202.5241    219.9432   4.7679693451e+01   1.0005507310e+00    0.1657947    0.1093636 -31.63 0.0006964078    1.554    0.357
        87  -8.6150    158.8436    220.1712   5.6275299556e+01   7.1740015685e+00     0.188802    0.1559032  41.52 0.0009417057    1.289    0.224
        88  -8.1967     82.6434    220.2806   7.3003007651e+01   1.8159147469e+01    0.2088304    0.1221551  59.41   0.00108541    1.802    0.445
        89  -7.6988     43.6762    220.3281   8.1748836011e+01   2.2960757738e+01     0.133426   0.06988136  57.64 0.0003662907    1.695    0.410
        90  -8.1946     18.7602    220.7525   8.7180107913e+01   2.5472082494e+01    0.1952961   0.05352029  39.95  0.000891957    2.458    0.593
        91  -9.3238    192.2852    221.1368   4.9782224050e+01   2.2331447498e+00    0.2411703    0.2253284 -77.92 0.0008349664    1.776    0.437
        92  -8.4253    210.2437    218.9767   4.6119716612e+01   9.9677109957e-02    0.1629422    0.1290939  -7.23 0.0004136665    1.115    0.104
        93  -9.3287    233.0406    245.9484   4.6322826083e+01  -5.9845495651e+00    0.4118695     0.188413 -17.99  0.001783652    2.411    0.585
        94  -9.2958    132.7886    215.7248   6.1202692906e+01   1.1817205674e+01    0.4454174    0.2733303  76.30  0.001784736    3.927    0.745
        95  -8.4342     61.9501    217.2090   7.7410929332e+01   2.1438087756e+01    0.2607415    0.1267666  70.74  0.001030507    2.683    0.627
        96  -8.6248     51.4656    217.4588   7.9803511593e+01   2.2649405228e+01    0.2319144     0.127869  60.10 0.0009815331    1.703    0.413
        97  -8.6749    169.4650    216.1270   5.3488987020e+01   6.2549788194e+00    0.2511686    0.2089324 -86.26  0.001015486    2.060    0.515
        98  -9.0764    232.2798    214.4653   4.1559942185e+01  -2.1428705318e+00    0.2518531     0.182171 -41.81  0.001068963    1.866    0.464
        99  -8.3972    142.6839    216.1164   5.9103138423e+01   1.0259876637e+01    0.1780002     0.160998  81.75   0.00067566    1.451    0.311
       100  -7.9890     86.9645    215.2939   7.1500637537e+01   1.8554028033e+01    0.2234455   0.05608951  46.98 0.0007022936    4.100    0.756
       101  -8.1447    185.4185    214.1872   5.0006819218e+01   4.2248866016e+00     0.151702    0.1189251 -48.00 0.0006417185    1.673    0.402
       102  -7.9640    154.2870    214.6411   5.6409844375e+01   8.7628786575e+00    0.1214893   0.09824619  62.80 0.0003501691    1.681    0.405
       103  -9.0502     93.2565    213.9163   6.9901037804e+01   1.7951997188e+01    0.3449723    0.1538353  52.77  0.001472454    2.480    0.597
       104  -9.4132    213.9212    212.1211   4.4344846523e+01   5.4313152420e-01     0.300704    0.2257648  47.94  0.001426464    1.952    0.488
       105  -9.1190     32.4553    213.7070   8.3812354364e+01   2.5533897607e+01    0.2145215   0.09613124  29.82   0.00107376    2.072    0.517
       106  -7.7847    106.3148    212.6467   6.6748494935e+01   1.6327035744e+01    0.1370215   0.09062771  60.73 0.0005472195    1.736    0.424
       107  -9.2866     72.1141    211.1084   7.4510093090e+01   2.1391862588e+01    0.4054287    0.1735681  57.76  0.001672244    2.794    0.642
       108  -9.0419    204.1320    210.6372   4.5875950959e+01   2.0901012181e+00    0.2031794    0.1823074 -50.51 0.0006746599    1.668    0.400
       109  -9.3878    175.2703    209.7623   5.1312938889e+01   6.4035581335e+00    0.3090564     0.228135  63.50  0.001430238    2.294    0.564
       110  -8.6141    147.8858    210.4969   5.7157446763e+01   1.0445317370e+01    0.2318837    0.1793666 -79.56  0.001022808    2.017    0.504
       111  -8.3426    192.2104    210.1909   4.8046201323e+01   3.8456825851e+00    0.1516877    0.1469125  14.63 0.0006923147    1.393    0.282
       112  -8.5704    116.0809    209.9359   6.4164129375e+01   1.5401174971e+01    0.2732288    0.1662209  61.29 0.0009719346    2.174    0.540
       113  -9.5878    100.6234    207.5861   6.7439529786e+01   1.8153224775e+01    0.5433834    0.3023781  72.76  0.002227635    3.183    0.686
       114  -8.2054     85.6069    209.4225   7.1175829702e+01   1.9920538879e+01    0.2437513    0.1400701  73.79  0.001120171    2.441    0.590
       115  -8.6735    161.7859    212.1429   5.4456395118e+01   8.0469624285e+00    0.1874525    0.1647362  45.61 0.0009125118    1.322    0.244
       116  -9.2012    236.5425    207.9739   3.9774233088e+01  -1.8457195069e+00    0.2626379    0.2057985 -49.80  0.001356073    2.121    0.528
       117  -9.4873    246.6420    206.9110   3.7967038556e+01  -2.9536876083e+00    0.2586423    0.1584543 -30.63  0.000972793    1.513    0.339
       118  -8.2293    139.0189    207.9699   5.8720179485e+01   1.2261169938e+01    0.2039384     0.153861  62.86 0.0008972166    1.720    0.419
       119  -7.7815    156.3372    207.6829   5.4913258892e+01   9.6308006265e+00    0.1273908   0.09876594  58.86 0.0006458284    1.701    0.412
       120  -8.6750    108.8731    205.9866   6.5307197046e+01   1.7250542573e+01    0.2806769    0.1749119 -48.86  0.001019316    1.841    0.457
       121  -7.7102     80.6339    206.2936   7.2005560762e+01   2.1248366722e+01    0.1426677   0.08391534  56.58 0.0007028654    1.715    0.417
       122  -9.4393     12.5931    203.8106   8.7722555501e+01   2.9556498285e+01    0.3568179    0.2047233  78.57  0.002098166    1.557    0.358
       123  -8.1616     56.0220    204.9882   7.7726864418e+01   2.4707391455e+01    0.2167503    0.1233144  62.15 0.0008607118    1.746    0.427
       124  -9.2119    194.6663    203.2190   4.6413439176e+01   4.5407115769e+00    0.2602537     0.233918 -30.61  0.001328004    1.343    0.255
       125  -9.8109    192.4636    197.1540   4.5796899926e+01   5.8074406221e+00    0.4576528    0.3741787 -65.71  0.001978338    1.987    0.497
       126  -9.0840    183.5668    203.6402   4.8648048645e+01   6.1294617931e+00    0.2612232    0.2178971  56.16 0.0009855088    1.681    0.405
       127  -9.7178    164.0016    202.9686   5.2538613605e+01   9.2465899638e+00    0.4500091      0.25808  51.20  0.001382135    2.269    0.559
       128  -8.4400    131.2729    204.0884   5.9882654869e+01   1.4182172878e+01    0.2544903    0.1549195  55.58  0.001213028    2.034    0.508
       129  -9.3839    250.1747    201.8940   3.6564671817e+01  -2.7548446911e+00    0.3133844    0.1336901 -30.59  0.001227147    2.049    0.512
       130  -9.1962    243.3810    200.8175   3.7450772600e+01  -1.7826935028e+00    0.2716219    0.1607229 -28.84  0.001052703    1.491    0.329
       131  -8.4573    211.0206    201.9450   4.3151660622e+01   2.3728309361e+00    0.1662373    0.1576618  85.89 0.0009570777    1.772    0.436
       132  -8.8114    140.2844    200.7273   5.7341530261e+01   1.3390657427e+01    0.3017308     0.218371  77.16  0.001327457    2.261    0.558
       133  -8.0648     79.8357    201.1841   7.1630997097e+01   2.2430512433e+01    0.2385783    0.1109423  60.77  0.000814621    2.902    0.655
       134  -9.2278    149.4923    198.3616   5.4918552985e+01   1.2355472078e+01    0.3760889    0.2757668 -89.62  0.001412221    2.449    0.592
       135  -8.7142    123.8255    199.0270   6.0847813841e+01   1.6322237959e+01     0.259979     0.192191 -89.50  0.001057255    1.947    0.486
       136  -9.1300    237.1055    198.3048   3.8031052785e+01  -6.5577863655e-01    0.2446811     0.141272 -35.12 0.0009584322    1.677    0.404
       137  -8.2903    176.8621    198.6038   4.9147178142e+01   7.9725810977e+00    0.1888265    0.1547136 -39.03 0.0003850771    1.368    0.269
       138  -9.1409    112.8310    198.1773   6.3311468219e+01   1.8208818274e+01    0.3889158    0.2130606  57.93  0.001679167    2.392    0.582
       139  -8.8518     88.9202    198.5051   6.9112105088e+01   2.1719687695e+01    0.3266874    0.1980753  78.14  0.001504712    2.321    0.569
       140  -9.0795     61.2089    197.0364   7.5733828806e+01   2.5787802608e+01    0.3925864    0.1629709  60.19  0.001511042    3.077    0.675
       141  -8.2578    202.1875    197.2562   4.3963936272e+01   4.3382756517e+00    0.1529977    0.1443454 -23.91 0.0005392801    1.361    0.266
       142  -8.7395    215.8195    195.3498   4.1143252018e+01   2.6462267868e+00    0.2540586    0.1562034 -48.98  0.001037725    2.281    0.562
       143  -9.2893    245.8153    193.3869   3.5776962241e+01  -1.1271630494e+00    0.2353926    0.2118075 -79.75  0.001333213    2.285    0.562
       144  -8.9352    224.4757    193.7812   3.9354068070e+01   1.6554781162e+00    0.2980791    0.1055077 -42.26  0.001266307    3.137    0.681
       145  -8.8581    184.9729    194.6648   4.6834180394e+01   7.3556926709e+00    0.2215682    0.1826449 -38.65 0.0005825027    1.365    0.267
       146  -9.1169    161.2115    194.2649   5.1687401016e+01   1.1203645787e+01    0.2537158    0.1896028  67.30  0.001300804    2.086    0.521
       147  -8.2555    230.8300    193.8725   3.8293290292e+01   7.7331245792e-01    0.1519369    0.1308999 -20.80 0.0005190519    1.291    0.225
       148  -8.5600     76.8552    193.9528   7.1535997077e+01   2.4399558160e+01    0.2090491    0.1544383  59.86 0.0004833516    1.300    0.231
       149  -9.1319     43.9957    193.4185   7.9636015716e+01   2.8652211490e+01     0.425371    0.1589712  56.94  0.001687263    2.897    0.655
       150  -8.4906    198.9853    191.5402   4.3557702480e+01   5.6964439907e+00     0.219187    0.1732611 -47.62  0.000652372    1.608    0.378
       151  -8.2909    172.2978    191.4242   4.8850158087e+01   9.9087893002e+00    0.2011509       0.1654 -66.36 0.0006780931    1.750    0.428
       152  -8.0905    205.3665    191.2032   4.2302021247e+01   4.7863760395e+00    0.1666322    0.1125373 -42.42 0.0009392042    1.666    0.400
       153  -9.0682    139.4646    190.2717   5.5857944883e+01   1.5504942744e+01    0.3206895    0.2395282  71.00  0.001438572    1.916    0.478
       154 -10.1629     92.5281    188.9935   6.6999851942e+01   2.3233776576e+01    0.9644129    0.1856433  42.59  0.002768699    4.437    0.775
       155  -9.2245    155.9593    187.4376   5.1659488863e+01   1.3303698719e+01    0.2928379    0.2019212 -64.59 0.0008151491    2.098    0.523
       156  -8.4307    148.3040    188.7471   5.3591478748e+01   1.4332831580e+01    0.2295768    0.1687366 -63.35  0.001034759    1.783    0.439
       157  -8.8308    129.1826    188.3760   5.7947157602e+01   1.7572572604e+01    0.2721299    0.1996528  73.87  0.000846213    1.931    0.482
       158  -8.3237    237.4338    188.1656   3.6190299533e+01   6.6622115003e-01    0.1730319    0.1001568 -30.77 0.0008741049    1.532    0.347
       159  -8.8808    216.5001    187.6699   3.9649313081e+01   3.6723960673e+00    0.2209163    0.1959433 -34.15 0.0008139159    1.386    0.278
       160  -8.8343    191.4585    187.1793   4.4221554398e+01   7.5582089716e+00    0.2638477     0.211665 -65.58 0.0009122533    1.970    0.492
       161  -9.3941    120.4560    185.7915   5.9624688307e+01   1.9531695958e+01    0.4352154    0.2405622 -70.68   0.00178101    2.803    0.643
       162  -8.1402     50.1525    188.1418   7.7629631317e+01   2.9130482668e+01     0.189839    0.1310491  59.23 0.0005229163    1.318    0.241
       163  -8.3148     34.6027    188.2987   8.1546910829e+01   3.0834351113e+01    0.2195919    0.1190202  62.35  0.001108815    1.754    0.430
       164  -8.2081    230.4812    186.9889   3.7122452288e+01   1.7791675963e+00    0.1806415    0.1051148 -34.04  0.001024907    1.595    0.373
       165  -8.5934    164.8436    186.5837   4.9574696587e+01   1.1981564467e+01    0.2357634    0.1840409 -67.91 0.0007751274    1.857    0.461
       166  -8.9666    109.7168    185.9921   6.2287124961e+01   2.1224874219e+01    0.3781492     0.225525  63.05  0.001281431    2.299    0.565
       167  -8.9143     54.3594    186.1879   7.6370155006e+01   2.9070825374e+01    0.3611066    0.1767096  71.58  0.001244622    2.653    0.623
       168  -9.3714    249.3842    185.5208   3.3830606075e+01  -5.5138480657e-01    0.2206122    0.1783634 -37.92 0.0008998883    1.543    0.352
       169  -7.8741     28.6653    186.7208   8.2905490541e+01   3.1803940083e+01    0.1154342    0.0955316 -35.55 0.0002802351    1.611    0.379
       170  -8.6558    202.7935    184.4356   4.1552535908e+01   6.2262771229e+00    0.2233733    0.1649767 -50.79 0.0006779148    1.783    0.439
       171  -8.6429    182.9749    184.5790   4.5433493938e+01   9.3493185577e+00    0.2281066    0.1824087 -52.88 0.0006257587    1.588    0.370
       172  -8.8040     66.5216    184.4698   7.3060737261e+01   2.7917911995e+01    0.3074546    0.1583058  61.85  0.000884787    2.274    0.560
       173  -8.8323    224.0602    183.3774   3.7550106743e+01   3.2052495624e+00    0.2480092    0.1517202 -39.62 0.0007004904    1.688    0.408
       174  -8.9154    210.1809    183.6609   4.0048784238e+01   5.2160588898e+00    0.2765668    0.1615543 -27.86   0.00061382    1.644    0.392
       175  -8.8841    174.2534    183.5354   4.7033563750e+01   1.0961661055e+01    0.2513958    0.2179909  85.03 0.0008125553    1.730    0.422
       176  -8.1444    197.1750    183.2152   4.2390315525e+01   7.2984517612e+00    0.1609579    0.1586716 -57.91 0.0004357668    1.394    0.282
       177  -8.6612     44.4384    182.4648   7.8558806275e+01   3.1098380697e+01    0.3113455    0.1410176  58.89  0.001048291    2.334    0.571
       178  -8.0465      1.8141    183.5756   8.9281455253e+01   3.4898049836e+01    0.1729801   0.08618483  42.47 0.0009455487    1.711    0.415
       179  -7.9964    235.4722    181.4935   3.5300630914e+01   1.8586168084e+00    0.1207074   0.09928285 -10.50 -1.87703e-05    1.068    0.063
       180  -9.1441    147.2848    180.2862   5.2352226122e+01   1.6128640075e+01    0.2887895     0.241796 -81.73 0.0007994311    1.616    0.381
       181  -7.8269     90.3758    181.2881   6.6488396445e+01   2.5259878209e+01    0.1392112    0.1086207  -8.68 0.0007018818    1.725    0.420
       182  -9.6487     26.1986    179.7251   8.3016669828e+01   3.3659040380e+01    0.5720266    0.1995983  68.95   0.00197071    4.040    0.752
       183  -8.2317    240.6814    180.3161   3.4248473586e+01   1.3055386778e+00    0.1046967   0.09380911 -48.97 0.0007039507    1.654    0.396
       184  -9.3129    191.2479    178.1054   4.2584465836e+01   9.0906420878e+00    0.2361932    0.2213404 -31.61 0.0004401951    1.254    0.203
       185  -8.5068    137.7024    179.1568   5.4382687332e+01   1.7996105959e+01    0.2144269    0.1808328  86.59  0.001109314    1.543    0.352
       186  -8.6444    250.5119    172.8264   3.1354018543e+01   1.0012128230e+00    0.2184866     0.141301 -31.55 0.0007438496    1.345    0.257
       187  -9.1594    248.8772    176.9994   3.2367788123e+01   6.5394466800e-01    0.2326622    0.2201694 -36.85  0.001272216    1.546    0.353
       188  -8.4078    247.3172    173.6815   3.1995466396e+01   1.3157723360e+00    0.1767644   0.09410951 -25.15 0.0005421911    1.665    0.399
       189  -8.8186    205.0156    177.4606   3.9838530567e+01   6.9832045757e+00     0.232536    0.1737118 -46.88 0.0005897938    1.606    0.377
       190  -8.9200     36.9849    178.2466   8.0113007655e+01   3.2904861840e+01    0.3338128    0.1279604  75.86  0.001093686    4.293    0.767
       191  -8.4937    231.1206    176.5091   3.5091991697e+01   3.1841034933e+00    0.2550117    0.1395697 -37.21 0.0009357329    1.719    0.418
       192  -8.4754    217.6478    177.1611   3.7505801554e+01   5.0774039429e+00    0.1857656    0.1494602 -41.43 0.0007213672    1.447    0.309
       193  -9.2523    183.1714    176.1193   4.3818644591e+01   1.0767736899e+01    0.2596239    0.2124488 -47.58 0.0006242917    1.422    0.297
       194  -8.3843    129.0792    177.0259   5.6077410788e+01   1.9909658672e+01     0.223957    0.1702167  72.08  0.000670355    1.741    0.426
       195  -7.9520     97.3219    177.3492   6.4120109839e+01   2.5075506350e+01    0.1431959    0.1099365 -17.20  0.000704887    1.744    0.426
       196  -8.5390     88.8188    176.5378   6.6217998565e+01   2.6569567538e+01    0.2666329    0.1813815  84.82 0.0008606493    1.857    0.461
       197  -9.2045     58.4718    174.9884   7.4092789568e+01   3.1165932486e+01    0.5066305    0.2424115  69.63  0.001936447    2.990    0.666
       198  -8.7287     55.6722    170.3545   7.4316855905e+01   3.2621223961e+01    0.3246446    0.1786786  68.50  0.001433986    2.139    0.532
       199  -9.2034    158.8703    174.9411   4.8759931594e+01   1.5152756232e+01    0.3417618    0.2490107  78.13  0.001041465    2.436    0.590
       200  -8.0517     13.3506    176.6933   8.6080705485e+01   3.5535675725e+01    0.1384402   0.07194889  58.03 0.0007042649    1.708    0.415
       201  -9.1034    103.7598    174.3405   6.1987356798e+01   2.4722901547e+01    0.4290117      0.20666  55.99  0.001531011    2.811    0.644
       202 -10.3635     75.9351    170.7589   6.8842293379e+01   2.9810418464e+01      1.01557    0.4393096 -82.88  0.003057972    4.792    0.791
       203  -8.3370    224.3308    174.0682   3.5769445616e+01   4.5382934407e+00     0.179294    0.1393781 -24.72 0.0005356317    1.157    0.136
       204  -9.4742    175.8024    172.1688   4.4580096070e+01   1.2721798630e+01    0.3341967    0.2487793 -44.62  0.001201502    1.446    0.308
       205  -8.1042    143.1719    172.7487   5.1942823657e+01   1.8337419598e+01    0.2281083     0.152383  73.16  0.000857535    2.697    0.629
       206  -8.9169     45.1421    171.0800   7.7263881372e+01   3.3704616143e+01    0.3274633    0.1618658  66.63  0.001259472    2.366    0.577
       207  -8.8579    230.5398    170.1366   3.3986463227e+01   4.1983095347e+00    0.2280771    0.1072202 -38.12 0.0009261817    1.971    0.493
       208  -8.3317    134.6398    171.3967   5.3730211564e+01   2.0115837520e+01    0.2112902    0.1660399  66.99   0.00104952    1.583    0.368
       209  -9.5846    121.0624    169.8372   5.6805306344e+01   2.2815521326e+01     0.468595    0.2994966 -80.52  0.001679809    2.550    0.608
       210  -8.3770    237.2920    169.4367   3.2762575672e+01   3.3145197996e+00    0.1900694    0.1352807 -45.05 0.0007136104    1.674    0.403
       211  -8.5201    205.8688    169.9656   3.8245064608e+01   8.0489731473e+00    0.2324991    0.1621486 -37.53 0.0006453354    1.415    0.293
       212  -8.4969    198.1891    169.9112   3.9671298024e+01   9.3158022416e+00    0.1877857    0.1782503 -36.49 0.0005311872    1.277    0.217
       213  -8.2766    244.4766    169.0699   3.1570992280e+01   2.3465821570e+00    0.1809171    0.1008718 -33.19 0.0005271825    1.549    0.354
       214  -9.1279    167.0113    168.4735   4.5736207878e+01   1.4941846274e+01    0.2928375    0.2259814  64.13  0.001235501    1.778    0.438
       215  -8.5275    149.6798    169.2149   4.9763796423e+01   1.7890635462e+01    0.2082792    0.1828223 -81.14  0.000708421    1.450    0.310
       216  -8.3293    218.8481    168.1995   3.5585811428e+01   6.2655016211e+00    0.1791129    0.1634883 -26.53 0.0005799595    1.246    0.197
       217  -8.1652    211.4205    167.9370   3.6842555145e+01   7.4801380261e+00    0.1732209    0.1083998 -56.12 0.0008048414    2.541    0.606
       218  -7.7373     88.6768    168.3811   6.5044217338e+01   2.8473660293e+01    0.1565621    0.1029876  67.53 0.0007020548    1.838    0.456
       219  -9.0377    191.9115    166.6513   4.0242117431e+01   1.0922601373e+01    0.2430391    0.1878294 -39.92 0.0005246368    1.337    0.252
       220  -8.7057    184.9915    166.4292   4.1571618187e+01   1.2152530013e+01    0.2451406    0.1847392 -51.90 0.0006804059    1.588    0.370
       221  -8.3632    111.4891    167.0998   5.8777476953e+01   2.5059422250e+01    0.2412773    0.1895694  60.03     0.001028    1.367    0.268
       222  -9.2701    137.9453    164.9950   5.1737426702e+01   2.0860788571e+01    0.6677681    0.2589174  51.86   0.00204028    3.940    0.746
       223  -9.8324     94.9312    162.6072   6.2425207702e+01   2.8836410538e+01    0.8144653    0.4191511  71.91  0.002346164    5.030    0.801
       224  -8.5824     20.9859    166.5004   8.3392707126e+01   3.7275665161e+01    0.2832252   0.08857367  34.21  0.001171262    2.687    0.628
       225  -8.2924    234.1241    164.8582   3.2394288823e+01   4.4431409613e+00    0.1793028     0.154118 -33.78 0.0006722971    1.292    0.226
       226  -8.7807    212.7711    163.4335   3.5717377889e+01   7.9798205380e+00    0.2356447    0.1636316 -33.53 0.0005362201    1.338    0.253
       227  -8.6153    159.4991    164.0057   4.6515146131e+01   1.7145791308e+01    0.2261711    0.1949152 -86.04 0.0007168304    1.564    0.361
       228  -9.0512     33.7213    163.2283   7.9624874289e+01   3.6843781074e+01    0.5871603    0.1417014  48.01  0.001893763    4.060    0.754
       229  -8.5251    246.3783    162.7468   3.0086370374e+01   2.9675151640e+00    0.2112127    0.1262011 -25.04 0.0004971981    1.444    0.308
       230  -8.6728    204.7679    162.6958   3.7016208527e+01   9.4165323838e+00     0.246396    0.1688693 -43.10 0.0006425744    1.529    0.346
       231  -9.2107      3.6498    162.3316   8.7751698742e+01   3.9680522613e+01    0.4032835    0.1320169  51.46  0.001593056    2.726    0.633
       232  -7.8199     58.9701    163.0000   7.2507618467e+01   3.3983245431e+01    0.2214577   0.07619649  29.64 0.0006242764    2.870    0.652
       233  -9.0715    177.3644    160.3368   4.1911778944e+01   1.4599617197e+01    0.2854142     0.233429 -61.00  0.000768179    1.557    0.358
       234  -8.6301    151.6644    160.6651   4.7636893544e+01   1.9242730460e+01    0.2664302    0.2060817  85.58 0.0008851817    1.971    0.493
       235  -8.7768    227.5120    159.1480   3.2354104968e+01   6.3029665102e+00    0.2700391    0.1801805 -51.39  0.001051955    1.968    0.492
       236  -8.3772     60.7502    160.1581   7.1633082949e+01   3.4447605881e+01    0.2534734    0.1232923  63.83 0.0009483369    2.795    0.642
       237  -9.9252    249.6435    157.1353   2.8529273448e+01   3.2938210405e+00    0.3419012    0.2649981 -52.24  0.001327565    1.753    0.430
       238  -9.3670    245.4580    158.4915   2.9409921166e+01   3.7027813926e+00    0.3827235    0.1803064  21.97  0.001613035    3.514    0.715
       239  -8.5507    236.9793    158.6937   3.0747657493e+01   4.9228627035e+00    0.1697862    0.1459045  -6.50  0.000527748    1.078    0.073
       240  -9.4058    105.5650    157.6786   5.8679412892e+01   2.8214514696e+01     0.417866    0.2824069  81.55   0.00113838    2.173    0.540
       241  -8.7004    196.7097    157.8614   3.7548651287e+01   1.1603949431e+01    0.2355609    0.1779715 -51.68 0.0008298371    1.582    0.368
       242  -9.2462    167.5285    157.0906   4.3342466137e+01   1.7007806537e+01    0.2914439    0.2325794 -71.88 0.0008512145    1.745    0.427
       243  -7.9198    128.2641    158.6460   5.2913177616e+01   2.3971746305e+01    0.1454207     0.116234  81.81 0.0003949089    1.623    0.384
       244  -8.5937    218.0806    156.3443   3.3376888781e+01   8.2433263666e+00    0.2536277     0.153652 -48.61 0.0007893732    1.961    0.490
       245  -8.0754    188.0305    157.5295   3.9168086763e+01   1.3192091156e+01    0.1916168    0.1325366  40.63 0.0003808023    1.477    0.323
       246  -8.7159    157.6060    156.0629   4.5338373153e+01   1.9058599121e+01     0.235714    0.2018467  49.83 0.0007441959    1.250    0.200
       247  -9.0892    119.5151    155.0744   5.4473386077e+01   2.6350173117e+01    0.3844458    0.2636914  85.75  0.001545498    2.323    0.569
       248  -9.0041     81.5695    154.6293   6.4846237284e+01   3.2844779320e+01    0.4142072    0.2168819  60.51   0.00143816    2.581    0.613
       249  -8.6826     49.6356    155.1251   7.4195088687e+01   3.7082134057e+01     0.377892    0.1935977  63.86  0.001503973    2.349    0.574
       250  -9.0162    243.0094    154.5441   2.9012523851e+01   4.6287585618e+00    0.1690909    0.1420608 -12.75 0.0003793451    1.048    0.046
       251  -8.0629    204.6472    155.2244   3.5527405386e+01   1.0676940001e+01    0.1870474    0.1148325 -28.22 0.0004638397    1.584    0.369
       252  -8.5782    144.8166    154.8678   4.8078925570e+01   2.1706615984e+01    0.2316236    0.1815173  75.42  0.001113465    1.744    0.427
       253  -9.6183    132.8036    152.7981   5.0607342263e+01   2.4404498717e+01    0.4434326    0.3101287  67.64  0.001177917    1.977    0.494
       254  -8.7974    133.5153    147.9879   4.9436139181e+01   2.5315532014e+01    0.3502653    0.2062574 -29.22    0.0012727    2.286    0.563
       255  -8.9571     67.8493    153.6954   6.8672186580e+01   3.5081234762e+01    0.3701328    0.1856409  60.42  0.001378957    2.608    0.617
       256  -8.9514     20.2099    153.1308   8.2533076236e+01   4.0602748118e+01    0.1874268    0.1323739  65.98 0.0007008212    1.306    0.234
       257  -9.2291      8.2145    152.8139   8.5915892127e+01   4.1641033411e+01    0.2693118   0.06177101  29.38  0.001015657    3.527    0.716
       258  -9.7082    242.7594    149.9256   2.8143585571e+01   5.3377447883e+00    0.2461821    0.2188184 -25.63  0.001692794    1.183    0.155
       259  -8.9657    189.4662    150.1176   3.7340209470e+01   1.4250965988e+01    0.2888176    0.2073837 -58.73 0.0009853762    1.842    0.457
       260  -8.0668    182.4233    151.1773   3.8970667663e+01   1.5354686785e+01    0.1938578    0.1300302 -51.06 0.0006678704    1.700    0.412
       261  -8.4475     98.3030    150.4522   5.9360322129e+01   3.1148543727e+01     0.243881    0.1785427 -89.27 0.0006312397    1.719    0.418
       262  -9.5336     29.5410    150.6001   7.9584730464e+01   4.0379655157e+01    0.3880919    0.1823706  63.09  0.001638946    2.398    0.583
       263  -9.4399    248.9157    149.0936   2.7077222847e+01   4.5403368258e+00    0.2825949    0.1495153 -32.98 0.0007296134    1.578    0.366
       264  -9.2753    233.7214    147.6602   2.9069004563e+01   7.0715847666e+00    0.2863128    0.1805826 -49.04 0.0008316908    1.879    0.468
       265  -8.2263    213.0122    149.6827   3.2893440227e+01   1.0160026170e+01    0.1770921    0.1571051   5.10 0.0003582157    1.090    0.082
       266  -8.2246    162.4198    150.2603   4.3039428776e+01   1.9296536016e+01    0.1949407    0.1386085 -54.20 0.0005684154    1.602    0.376
       267  -8.6384    198.8255    148.9978   3.5310733182e+01   1.2754183226e+01    0.1991669    0.1808915 -56.02 0.0005623795    1.328    0.247
       268  -9.7663     89.3323    146.2761   6.1157945922e+01   3.3648375063e+01    0.6702183    0.3762057  88.09  0.002237893    3.578    0.720
       269  -9.4131     39.9742    147.9993   7.6192229905e+01   3.9966803492e+01    0.4964829     0.211549  56.81  0.001904694    2.779    0.640
       270 -10.2294     55.2933    144.9572   7.1140457646e+01   3.8938968049e+01    0.8061258     0.349492  63.85  0.002539446    4.055    0.753
       271  -8.4708    223.2838    146.9012   3.0583211287e+01   8.8792862425e+00    0.1818855    0.1471186 -24.49 0.0003233851    1.077    0.072
       272 -10.3527    148.7712    145.0356   4.5062305004e+01   2.2994215812e+01    0.5547693    0.3937554 -84.88  0.001605006    2.406    0.584
       273  -9.9610    106.5925    144.3512   5.5859209595e+01   3.1146855346e+01    0.7000551    0.4021549  70.42  0.002302943    3.364    0.703
       274  -8.0729     77.9813    146.9596   6.4613509178e+01   3.5272295112e+01    0.2372539    0.1666459  68.33 0.0007697047    1.636    0.389
       275  -9.3269     13.5199    146.2619   8.3905910240e+01   4.2853349903e+01    0.3361472    0.1556941  59.95  0.001522478    2.200    0.545
       276  -7.5166    206.6377    146.3173   3.3316491110e+01   1.1821860786e+01    0.1300693    0.1086972 -76.45 0.0007041745    1.767    0.434
       277  -7.9517    175.5115    145.9999   3.9290044434e+01   1.7615797005e+01    0.1903668    0.1257463 -64.82 0.0007865987    2.347    0.574
       278  -9.7152    139.0692    144.9261   4.7395744977e+01   2.4908417754e+01    0.3653837    0.2717912 -78.15  0.001210749    1.895    0.472
       279  -8.2423    240.4641    145.0441   2.7515443428e+01   6.4066688432e+00    0.1911887    0.1053687 -35.04 0.0005515497    1.551    0.355
       280  -9.6646    124.9902    142.6068   5.0498655500e+01   2.8134397272e+01    0.4814131    0.3225895 -88.11  0.001541382    2.597    0.615
       281  -8.7848    247.1628    143.5342   2.6234095303e+01   5.6017388877e+00    0.2260622    0.1441718 -30.66 0.0005835246    1.305    0.233
       282  -8.8930    165.3591    143.9099   4.1016837756e+01   1.9978259896e+01    0.2638518    0.2365693  62.15  0.000778751    1.282    0.220
       283  -9.2310    243.0270    140.7110   2.6267474229e+01   6.6486718093e+00    0.4230516    0.1205297 -38.91  0.001641477    2.998    0.666
       284  -8.3935    182.0122    141.5077   3.6970214286e+01   1.7210503141e+01      0.22006    0.1814363 -36.73 0.0004935085    1.180    0.153
       285 -10.2382     69.5379    140.8702   6.6128888484e+01   3.8042006634e+01    0.4447158    0.2995865  84.63  0.002032972    1.805    0.446
       286  -9.2184      2.9397    141.8058   8.6684109980e+01   4.4708760932e+01     0.331378    0.1287056  58.19  0.001271859    2.623    0.619
       287  -9.9921     23.3471    138.1453   8.0186228384e+01   4.4085099703e+01    0.5443704    0.2774926  55.46  0.002299361    2.031    0.508
       288  -8.3621    207.5002    137.5706   3.1297318440e+01   1.3137755390e+01    0.2288868    0.1173253 -46.62 0.0006524169    2.069    0.517
       289  -8.6290    172.2601    138.0056   3.8213964543e+01   1.9769539861e+01     0.244242    0.2059689  83.87  0.000702647    1.583    0.368
       290  -8.9147    139.3315    137.2477   4.5643153093e+01   2.6508297928e+01    0.3616677    0.2204607  -3.12  0.001139721    3.950    0.747
       291  -9.0670    248.6274    134.9630   2.4314362668e+01   6.6207520182e+00    0.2741778    0.1554413 -41.05 0.0009091852    1.599    0.374
       292  -9.1087    250.7908    129.7934   2.2976072186e+01   7.0338703856e+00    0.4429914   0.09612501 -32.96  0.001397725    4.535    0.779
       293  -8.3021    162.3309    136.0712   3.9938963655e+01   2.2128056836e+01    0.2118764    0.1835666 -44.23  0.000982691    1.171    0.146
       294  -8.9244     38.8668    135.9325   7.5025325474e+01   4.3152428582e+01    0.2585524      0.17325  76.72 0.0007841576    1.579    0.367
       295  -7.7336    188.2464    135.6432   3.4433426206e+01   1.7083442888e+01    0.1376886    0.1089199 -63.00 0.0004463601    1.596    0.374
       296  -8.4158    150.9883    135.3220   4.2374321170e+01   2.4570400864e+01    0.2455696    0.1189989  24.20 0.0007036873    4.198    0.762
       297  -7.7836     95.6515    135.2749   5.7166536325e+01   3.5253901632e+01     0.157044    0.1140722  66.01 0.0002718513    1.632    0.387
       298 -10.1748     83.4412    133.0151   6.0401780796e+01   3.7871564726e+01    0.5449337    0.3181527 -73.76  0.001528494    2.136    0.532
       299  -8.7285    179.2094    133.6666   3.5787895392e+01   1.9216619507e+01    0.2507714    0.1860428 -48.60 0.0006946743    1.409    0.290
       300  -7.9663    237.6700    133.3360   2.5547079924e+01   8.6035592863e+00    0.1243317   0.09421763 -58.77 0.0007052083    1.730    0.422
       301  -7.9120    231.4577    133.5838   2.6527270537e+01   9.5940437953e+00    0.1282246     0.110228 -22.83 0.0001092481    1.014    0.014
       302  -9.9357    132.1647    131.0796   4.6060028544e+01   2.9291469933e+01    0.5025449    0.3213042 -71.67  0.001151279    2.414    0.586
       303  -8.7503    112.6507    132.9999   5.1770093456e+01   3.2689622652e+01    0.2671478    0.2091624  70.39 0.0007639706    1.526    0.345
       304  -9.0980    143.1007    131.5517   4.3407396643e+01   2.6966872489e+01    0.3014103     0.231515 -76.19 0.0007884568    1.736    0.424
       305  -7.9744     32.2993    131.3177   7.6546533718e+01   4.5004110070e+01    0.1392584    0.0965191 -42.33 0.0004879673    1.616    0.381
       306  -9.5084     13.1242    129.4491   8.2555276579e+01   4.7105987389e+01    0.4566401    0.1852112  55.81  0.001866674    2.738    0.635
       307  -8.5106    247.1081    129.9153   2.3502664729e+01   7.5940700090e+00    0.1908447    0.1446187 -43.12 0.0005851088    1.303    0.232
       308  -8.7000    197.7227    137.4324   3.3030581040e+01   1.4963213449e+01    0.2653916     0.167071 -51.32 0.0009107689    1.829    0.453
       309  -8.3177    192.8393    130.0843   3.2305502110e+01   1.7191400190e+01    0.2092445    0.1840637 -56.70 0.0004894444    1.276    0.217
       310  -9.0941    168.2522    129.1198   3.7036828687e+01   2.2295561012e+01    0.3381551    0.2458923 -67.24 0.0005737972    1.864    0.464
       311  -9.3223    152.7753    128.8670   4.0455826512e+01   2.5538048771e+01    0.4161486    0.2573797 -62.62  0.001228712    2.246    0.555
       312  -9.9236     99.4163    127.9188   5.4480350793e+01   3.6359989455e+01     0.592187    0.3800948  80.92  0.001875668    2.652    0.623
       313  -9.5082     73.2282    129.1989   6.2865045391e+01   4.0436494205e+01    0.3417408    0.2362733  74.84    0.0009985    1.808    0.447
       314  -8.4495      1.5919    129.8263   8.6245208804e+01   4.7766895989e+01    0.1860829    0.1023157  84.02 0.0009394089    1.673    0.402
       315  -7.6424    220.3833    129.7061   2.7433772541e+01   1.2117995335e+01    0.1290789    0.1031407 -71.01 0.0007017588    1.759    0.432
       316  -8.1022    211.5050    128.9735   2.8733717939e+01   1.3844333521e+01    0.1942525    0.1066916 -54.93 0.0008094995    2.531    0.605
       317  -8.9171     50.3132    128.6559   7.0239651596e+01   4.3717763893e+01      0.32869    0.1975822  70.94  0.001423606    2.083    0.520
       318 -10.4234     44.4016    123.3912   7.1378625348e+01   4.5770079665e+01    0.8585153    0.4213571  75.39  0.002961501    3.480    0.713
       319  -9.7395    117.8249    125.1028   4.8518867372e+01   3.3511220167e+01    0.5517601    0.3573328  72.67  0.001435733    2.503    0.600
       320  -8.9905    179.0927    124.3670   3.3661778261e+01   2.0981266938e+01    0.2706503    0.2037537 -49.27 0.0005464173    1.374    0.272
       321 -10.3044     28.7807    122.4694   7.6571258938e+01   4.7612202691e+01    0.7449474    0.3173575  66.58  0.002549961    3.704    0.730
       322  -7.9736    188.5756    123.8167   3.1675405270e+01   1.9158577260e+01    0.1996701    0.1282388 -48.57 0.0004334819    1.620    0.383
       323  -8.7652    171.9595    121.4271   3.4427271548e+01   2.3014041776e+01    0.2644538    0.1990942 -54.22 0.0004261312    1.445    0.308
       324  -9.1287    158.4881    121.3162   3.7330311066e+01   2.5876124455e+01    0.3084158      0.23084 -77.71  0.000856185    1.902    0.474
       325  -8.2368     83.8251    122.3555   5.8075800616e+01   4.0452953345e+01    0.2095373    0.1444955  24.68 0.0009393397    1.629    0.386
       326  -9.8349    141.5712    118.3400   4.0605593006e+01   3.0094623011e+01    0.4740272     0.304637 -66.56  0.001102332    2.209    0.547
       327  -9.2738     71.0921    119.7448   6.1677167060e+01   4.3147795539e+01    0.3264754    0.2170767  76.92  0.001183343    2.045    0.511
       328  -9.4384    130.5175    118.1056   4.3375514751e+01   3.2486610956e+01    0.4021867     0.279314 -84.43  0.001386739    2.337    0.572
       329  -9.7702      3.4566    117.6026   8.4648301389e+01   5.0729522337e+01    0.5332303    0.1902446  57.81  0.002014547    3.401    0.706
       330  -7.7648    231.6924    117.3762   2.3047308453e+01   1.2058553935e+01    0.1337914   0.09298526 -58.19 0.0007029299    1.778    0.437
       331  -8.1932    185.6134    115.8017   3.0348506851e+01   2.1213907038e+01    0.2019162    0.1280352 -47.66 0.0003436126    1.598    0.374
       332  -9.7000    109.4242    113.9947   4.8226894358e+01   3.7746490235e+01    0.5034671    0.3325884 -76.65   0.00137573    2.265    0.559
       333  -8.8349    192.9075    114.6671   2.8720976924e+01   1.9913950638e+01    0.2893171    0.1688475 -51.12  0.000680231    1.885    0.470
       334 -10.4531     60.4675    125.2717   6.6291597307e+01   4.3276180282e+01    0.7075188     0.389461  70.89  0.002630253    2.850    0.649
       335  -9.0595    175.4055    112.3280   3.1503811764e+01   2.4006594559e+01    0.4755824    0.2582186 -62.70  0.001634145    3.324    0.699
       336  -8.1297    167.4196    114.2044   3.3621117564e+01   2.5365944423e+01    0.2063107    0.1376117 -50.69  0.000337614    1.574    0.365
       337  -9.8881     92.7822    112.4326   5.2935689889e+01   4.1306754326e+01    0.4789766    0.3317974 -81.01  0.001346811    1.974    0.494
       338  -9.7357     79.0533    112.5025   5.7432981090e+01   4.3691852392e+01    0.5144626    0.3404583  83.90  0.001815932    2.285    0.562
       339  -9.5077    121.9039    112.3524   4.4246220987e+01   3.5567069596e+01     0.345956    0.2684314 -65.10 0.0006587389    1.461    0.315
       340  -8.8850    159.2065    111.7249   3.4785205064e+01   2.7632418710e+01    0.2649944     0.197315 -52.79 0.0007226517    1.413    0.292
       341  -9.6706     14.4065    111.2985   8.0185692473e+01   5.1641888276e+01    0.3477654    0.1622871  63.18  0.001403019    2.652    0.623
       342  -9.6416    133.6446    108.9064   4.0204316403e+01   3.3811148307e+01    0.5468904    0.2729865 -46.56  0.001589457    2.021    0.505
       343  -9.2135     66.2041    110.2798   6.1332383718e+01   4.6271914165e+01    0.3628969    0.2502407  87.26  0.001209198    1.899    0.473
       344  -9.1758      9.7388    110.3111   8.1742641920e+01   5.2203038160e+01    0.3330148    0.1189768  58.56  0.001143922    3.957    0.747
       345  -8.0104    182.7685    109.0833   2.9259991469e+01   2.3030339265e+01    0.1934795    0.1155018 -40.28 0.0005898888    1.588    0.370
       346 -10.8958    248.6671    105.8476   1.8315016903e+01   1.0850619944e+01    0.5967749    0.2585364 -28.94  0.002713038    2.226    0.551
       347  -8.7006      3.9881    108.7523   8.3632874899e+01   5.2936562284e+01    0.1532226    0.1123008  14.97 0.0006982745    1.599    0.374
       348  -8.4222    250.1444    114.8529   2.0005630981e+01   9.3005328729e+00    0.1667378    0.1349074  -6.91  0.001068392    1.313    0.239
       349 -10.8560     22.8001    102.7497   7.5927235912e+01   5.3200791533e+01    0.6599085    0.3475403  66.28  0.001785874    2.476    0.596
       350  -9.6044    150.6180    102.9846   3.4467044761e+01   3.1272613434e+01    0.4837701    0.2835764 -60.18  0.001369055    2.295    0.564
       351  -9.2550    139.7929    104.3197   3.7425923471e+01   3.3423784503e+01    0.3531844    0.2613534 -77.61 0.0008655137    1.856    0.461
       352 -10.2942     45.7301    102.1766   6.7082375598e+01   5.1067881298e+01    0.7657039    0.4013677  69.03   0.00271128    3.388    0.705
       353  -8.5576    166.7740    104.1236   3.1205698341e+01   2.7435202916e+01    0.2289342    0.1967838 -63.22 0.0005956145    1.256    0.204
       354  -8.2300     93.3310    104.3546   5.0727288393e+01   4.3134561809e+01    0.1622412    0.1217039 -14.29 0.0007045289    1.783    0.439
       355  -8.4211      6.9241    103.1633   8.1968932658e+01   5.4187764672e+01    0.2039542    0.1585288  69.24 0.0005672756    1.309    0.236
       356  -8.0329    175.5260    102.0050   2.8888274440e+01   2.5891331302e+01    0.2244577    0.1395485 -41.32 0.0004587716    1.541    0.351
       357  -9.3974    128.3802    101.6339   3.9640895182e+01   3.6515861472e+01    0.3161938     0.257782 -78.33 0.0007676702    1.487    0.328
       358  -8.5259    159.8365    100.7644   3.1807451277e+01   2.9629883234e+01    0.2794625    0.1847268 -62.55 0.0005889813    1.933    0.483
       359 -10.2057    108.9314     98.7600   4.4354280918e+01   4.1323110274e+01    0.6348309    0.3922477  67.58  0.001424939    2.496    0.599
       360  -9.0232     82.1687     99.7994   5.3257076258e+01   4.6260255478e+01    0.3351112    0.2384574 -83.13  0.001009191    1.912    0.477
       361  -9.8032     64.0808     95.8526   5.8728195598e+01   5.0187091592e+01    0.5413919    0.3369881  79.89  0.001714197    2.811    0.644
       362  -8.9618     95.0065     96.8575   4.8173958789e+01   4.4567344846e+01    0.2950924    0.2457015 -78.62 0.0007349437    1.397    0.284
       363  -8.2901      7.3433     97.3184   8.1118614508e+01   5.5643510557e+01    0.1408122   0.08155955 -44.09 0.0007049236    1.719    0.418
       364  -8.2287    165.0155     94.0183   2.8914278398e+01   2.9725412635e+01    0.2342528    0.1773639 -69.16 0.0004723334    1.599    0.375
       365  -8.3435    189.3413    108.1394   2.7802707536e+01   2.1807046136e+01     0.210796    0.1217107 -46.36 0.0006147486    1.713    0.416
       366  -8.1929    176.5326     92.7790   2.6310118306e+01   2.7331411125e+01    0.2095277     0.131571 -49.21 0.0005431359    1.616    0.381
       367  -9.1289    139.0943     92.2085   3.4260879283e+01   3.6047867582e+01    0.3432759    0.2444921 -76.12 0.0007202735    1.984    0.496
       368  -9.9302    124.0763     91.0166   3.7809413774e+01   3.9711072914e+01    0.4959166    0.4086746  34.37  0.001432483    1.269    0.212
       369  -8.4463    107.4273     92.6423   4.3075738470e+01   4.2996021005e+01    0.2651018    0.1925871  20.74  0.001162608    1.720    0.419
       370  -8.9572     47.4229     91.8634   6.4192841373e+01   5.3465007848e+01    0.4545559    0.2029565  15.65  0.001609334    3.289    0.696
       371  -9.3469     34.9661     89.7791   6.8773422859e+01   5.5391996816e+01    0.4761354    0.2679474  86.20  0.001651465    2.661    0.624
       372  -9.6303      5.2634     91.8091   8.1248667243e+01   5.7144610780e+01    0.2791241     0.167789  54.52  0.001446567    1.878    0.467
       373  -8.1323    157.5636     91.0442   2.9677389869e+01   3.1996476585e+01    0.2352476    0.1454304 -40.80 0.0007796697    1.586    0.370
       374  -8.9829     23.7707     89.7670   7.3387854108e+01   5.6424419778e+01    0.3049666    0.1684374   8.06  0.001411129    2.231    0.552
       375  -8.0064    150.9903     88.9636   3.0544681131e+01   3.3919045498e+01     0.189331    0.1697749 -42.17 0.0004234478    1.106    0.096
       376  -9.9047     86.5315     86.4340   4.8034136779e+01   4.8588364128e+01    0.5081638    0.3542366  80.33  0.001182395    2.302    0.566
       377  -8.2885     77.8306     87.7676   5.1499103640e+01   4.9877092858e+01    0.2221648     0.195914 -20.23 0.0004938678    1.210    0.173
       378  -7.8528    164.2157     86.9609   2.7164401031e+01   3.1201377400e+01    0.1993855    0.1187642 -39.19 0.0004210739    1.636    0.389
       379  -8.3461     65.0332     87.3113   5.6140380768e+01   5.2116180844e+01    0.2357845    0.1244425   8.49 0.0007045864    4.290    0.767
       380  -9.5824     48.5700     84.2594   6.1886534952e+01   5.5198401333e+01    0.5181713    0.3092637  64.74   0.00171929    2.638    0.621
       381  -8.2511    157.9760     83.7415   2.7556788255e+01   3.3248298949e+01    0.2037298    0.1952279  88.25 0.0003808813    1.049    0.046
       382  -9.6091    104.7847     82.9062   4.0982090330e+01   4.5663729706e+01    0.4004363    0.2959806 -75.30 0.0008031054    1.834    0.455
       383  -8.9834    140.9181     82.2590   3.0941161278e+01   3.7560941222e+01    0.3688512    0.2040147 -49.92 0.0008929136    1.944    0.486
       384  -9.8003     10.2334     81.3887   7.7684767123e+01   5.9476482086e+01       0.4107    0.2028778  68.43  0.001706598    2.921    0.658
       385  -7.7358     64.2791     82.6310   5.5128115248e+01   5.3346989890e+01    0.1483056    0.1157641  83.16 0.0005211894    1.687    0.407
       386  -9.4721     24.7262     80.6980   7.1228049162e+01   5.8613526272e+01    0.4211144    0.2485781  78.20  0.001394927    2.409    0.585
       387  -8.2811    150.4941     80.5574   2.8254104024e+01   3.5603634012e+01    0.2657938    0.1339978 -48.86  0.000869855    2.124    0.529
       388  -8.6946     74.8429     80.5843   5.0485458667e+01   5.2061590377e+01    0.2841654     0.199656 -72.26 0.0007421817    1.856    0.461
       389  -8.4781    119.4563     80.1535   3.5824603282e+01   4.2978174629e+01    0.2464886    0.2123941  89.53 0.0007883675    1.341    0.254
       390  -8.2408    166.9173     79.3480   2.4526226439e+01   3.1915739196e+01    0.1969993     0.191336  77.91 0.0004619523    1.042    0.041
       391  -8.1739    184.3983     77.7829   2.0955931307e+01   2.8103176962e+01    0.1975338    0.1359606 -26.03 0.0007065401    1.576    0.365
       392  -7.9038    157.4370     76.5086   2.5608196823e+01   3.4669169936e+01    0.1513166    0.1413448 -70.15 6.837196e-05    1.067    0.062
       393  -9.1805    128.0513     75.0931   3.1949152935e+01   4.1966620296e+01    0.3331056    0.2332892 -56.59 0.0006510801    1.606    0.377
       394  -8.2901    140.6077     75.3186   2.8939779045e+01   3.8929584740e+01    0.2339245    0.1760543 -73.18   0.00076314    1.648    0.393
       395  -9.8437     63.0231     73.6224   5.2950244309e+01   5.5633869555e+01    0.4126365    0.2852698 -66.92 0.0009340613    1.725    0.420
       396  -9.4693     82.5129     72.5075   4.5113295335e+01   5.2434947414e+01    0.4090682    0.2918045 -78.81 0.0009881515    2.142    0.533
       397  -8.3576    163.4933     73.0794   2.3420055444e+01   3.3807033869e+01    0.2301462    0.1412559 -40.26  0.001021617    1.584    0.369
       398  -8.4855    115.6681     72.9075   3.4595377733e+01   4.5276712541e+01    0.2158377    0.1949223 -43.48 0.0005183574    1.125    0.111
       399  -8.7098    105.7915     71.3551   3.6985408334e+01   4.7817196545e+01    0.3444262    0.1951859 -56.06 0.0008904637    2.199    0.545
       400  -8.9104     95.1382     71.1096   4.0283944378e+01   5.0176413064e+01       0.3167    0.2100212 -51.11 0.0009611898    1.602    0.376
       401  -7.9326     42.5415     72.5304   6.1348610454e+01   5.8771771582e+01    0.1366559    0.1310621 -71.52 0.0001288166    1.119    0.106
       402  -9.2713     51.5637     69.7607   5.6570053106e+01   5.8237484612e+01    0.4010347    0.2490393 -78.45  0.001257773    2.560    0.609
       403  -9.1256     16.8224     69.9531   7.2569787010e+01   6.1861818127e+01    0.2377489    0.1724638  84.85 0.0008272554    1.619    0.382
       404  -8.7585    147.1172     68.1554   2.5302387540e+01   3.8623350518e+01    0.2745315    0.2105427 -55.52 0.0007508012    1.368    0.269
       405  -8.5835    138.6215     65.9531   2.6506388274e+01   4.1081899703e+01    0.2926194    0.1726562 -49.78 0.0007139006    1.823    0.452
       406  -8.5906    121.6081     65.7455   3.0628350761e+01   4.5232540063e+01     0.260235    0.1859645 -49.14 0.0004623225    1.472    0.321
       407  -8.6828    110.1475     63.6197   3.3085118511e+01   4.8312411439e+01    0.2522486    0.2044973 -52.95 0.0005003503    1.319    0.242
       408  -8.5083     37.4290     64.1388   6.1283719438e+01   6.1336478887e+01    0.2400316    0.1674379  66.68 0.0009664962    2.098    0.523
       409  -8.2136    158.4490     61.9591   2.1142488256e+01   3.6871456426e+01    0.2211954     0.141423 -38.35 0.0005559552    1.545    0.353
       410  -8.1447     64.6200     62.6813   4.8698397856e+01   5.7781806340e+01    0.1545283     0.110003  -7.93 0.0007024013    1.821    0.451
       411  -9.1487     97.8618     60.6484   3.5786433957e+01   5.1643310044e+01    0.3436824    0.2548528  63.15  0.001304416    1.538    0.350
       412  -9.6271     73.3944     59.5685   4.4064106831e+01   5.6864010309e+01     0.409103    0.2564297 -54.34  0.001289896    1.806    0.446
       413  -9.8824     23.5978     56.3236   6.5835539813e+01   6.4542468589e+01    0.4589781    0.2855691  76.32   0.00204506    2.800    0.643
       414  -9.5261      7.4597     57.1020   7.4431447195e+01   6.5514105307e+01    0.2895164    0.2101315  73.06  0.001106364    1.728    0.421
       415  -8.2783    130.6418     57.3735   2.5589036248e+01   4.4498811505e+01     0.223598    0.1703387 -74.77   0.00068498    1.601    0.375
       416  -8.5440    168.2269     55.7903   1.7581486072e+01   3.5427315285e+01    0.1913056    0.1666076  34.97 0.0004380069    1.318    0.241
       417  -8.0849    140.1175     56.1553   2.3050402957e+01   4.2349916371e+01    0.2054322    0.1700768 -68.20  0.000406639    1.303    0.233
       418  -8.7656    119.0680     55.5972   2.7858636721e+01   4.7622212768e+01     0.287899    0.2000897 -54.78 0.0006216058    1.637    0.389
       419  -8.5927     44.0692     55.4853   5.5340744789e+01   6.2450958376e+01    0.2454433    0.1905476 -68.00 0.0008136367    1.534    0.348
       420  -9.1209     62.7846     54.0785   4.6352355485e+01   5.9877731450e+01    0.4294967    0.2056826 -53.99  0.001474543    2.470    0.595
       421  -8.9000     54.0896     53.5785   4.9983681412e+01   6.1405071994e+01    0.3430755    0.2056799 -64.48  0.001473862    2.375    0.579
       422  -9.0868    249.8198     54.3882   7.2338640548e+00   1.7754865957e+01    0.1888516    0.1524375  63.32 0.0008091942    1.478    0.323
       423  -8.4378    105.5023     52.9605   3.0666778807e+01   5.1293256967e+01    0.2165143    0.1472567 -38.25 0.0004161249    1.516    0.341
       424  -9.3602     92.5223     50.5203   3.3779255880e+01   5.4661611257e+01    0.3842111    0.2516594 -55.45  0.001029287    1.894    0.472
       425  -8.5305    144.6449     48.8203   1.9748295186e+01   4.2352612291e+01    0.2144926    0.1273654 -44.18 0.0007552032    1.711    0.415
       426  -7.7714    120.6897     47.3150   2.4536029432e+01   4.8570623591e+01    0.1508721    0.1144652 -74.17 0.0006525086    1.634    0.388
       427  -8.2459    112.4587     46.9424   2.6513936092e+01   5.0636777174e+01    0.2137881    0.1446977 -38.16 0.0008343582    1.532    0.347
       428  -8.9298     82.0951     46.3198   3.5715352194e+01   5.7639441431e+01    0.2612588    0.2080716 -47.35 0.0006372948    1.366    0.268
       429  -8.4234     45.1332     44.6008   5.0775261960e+01   6.4573097834e+01     0.221965    0.1794638 -52.48 0.0008239229    1.336    0.251
       430  -9.0902     16.7873     44.6608   6.6030009366e+01   6.7732673031e+01    0.2437073    0.1683263 -71.49 0.0006574265    1.628    0.386
       431  -8.0196    132.6317     42.7709   2.0204586601e+01   4.6272173140e+01    0.1955269    0.1323416 -43.87 0.0002687679    1.529    0.346
       432  -8.7089     58.1954     42.4816   4.3741962540e+01   6.2914136783e+01    0.2679165    0.1814634 -58.85   0.00102047    1.951    0.488
       433  -9.6185      5.1961     42.1164   7.2026817314e+01   6.9065000822e+01    0.2832845    0.1932326 -82.65   0.00124111    1.728    0.421
       434  -9.0395     69.6880     41.3135   3.8366547017e+01   6.1017826882e+01    0.2966701    0.2307695 -67.49 0.0009402897    1.813    0.448
       435  -8.4011    105.9089     41.1529   2.6121059652e+01   5.3109691726e+01    0.2213522    0.1940199 -76.97 0.0005074374    1.309    0.236
       436  -8.1780     36.8643     40.6083   5.3418428843e+01   6.6499735591e+01    0.1768651     0.118705  39.14 0.0005964444    1.656    0.396
       437  -7.8586    160.5468     39.5124   1.3995649240e+01   3.9658285367e+01    0.1431201    0.1310201 -80.32 9.971072e-05    1.024    0.024
       438  -8.4498     95.7789     38.0365   2.7829677304e+01   5.5966134713e+01    0.2162489    0.1893912 -68.12  0.000522121    1.342    0.255
       439  -8.1431     80.5487     36.5000   3.2195691744e+01   5.9599518909e+01    0.1396155    0.1332485  27.04 2.848987e-05    1.052    0.049
       440  -9.1720     26.2307     35.3777   5.7229501435e+01   6.8810516191e+01    0.2577792    0.2164629 -75.00 0.0008712759    1.585    0.369
       441  -8.1645    126.0367     35.3434   1.9014503639e+01   4.8975958502e+01    0.2037641    0.1767222  65.18 0.0004621684    1.085    0.079
       442  -8.7258    111.9750     34.5209   2.1975401147e+01   5.2598641279e+01    0.2707816    0.1932175 -51.20 0.0007773308    1.578    0.366
       443  -8.7777     48.6410     33.2148   4.4164814483e+01   6.6187798534e+01    0.2103982    0.2005421 -45.18 0.0006342593    1.262    0.208
       444  -8.4419    119.3716     33.1613   1.9696918772e+01   5.0945585245e+01      0.20319    0.1267262 -43.45 0.0005146605    1.711    0.416
       445  -8.4152     60.8060     32.2262   3.8064921336e+01   6.4243044555e+01    0.1923874     0.188888  77.31 0.0007854105    1.258    0.205
       446  -8.6322     72.4104     31.2589   3.2882633384e+01   6.2121839539e+01    0.2127805    0.1742553  75.49 0.0006503413    1.625    0.385
       447  -8.9076     12.9821     30.2857   6.3352806383e+01   7.1087571411e+01    0.2562819     0.176875 -76.28  0.001082989    1.978    0.494
       448  -8.7693    101.9708     29.6347   2.2638762417e+01   5.5698754890e+01    0.2529395    0.1934488 -62.20  0.000849193    1.599    0.375
       449  -8.8841     81.5977     27.2931   2.7784185880e+01   6.0737364708e+01    0.2736353    0.2193489 -73.74 0.0008275086    1.717    0.418
       450  -9.0102      3.8650     27.3361   6.8307338239e+01   7.2321961645e+01    0.1987158    0.1550584 -64.82 0.0007516862    1.360    0.265
       451  -8.4524    208.4870     27.5024   4.8160580705e+00   2.9640746535e+01    0.1299725    0.1108714 -64.68 -2.856804e-05    1.006    0.006
       452  -9.5170    211.1401    246.9058   5.0189289278e+01  -3.5665361340e+00    0.2626821    0.1742032 -50.31  0.001328378    2.695    0.629
       453  -8.6661     48.5399     21.3764   3.8438662603e+01   6.8161448053e+01    0.2086308    0.1879538 -55.22  0.000647807    1.462    0.316
       454  -7.8124     34.3197     22.7015   4.6726771677e+01   7.0174976170e+01    0.1145074    0.1043912  69.78 0.0007021255    1.619    0.382
       455  -8.5056    120.9679     21.5097   1.4988984062e+01   5.1983315791e+01    0.2085651    0.1294706  64.61 0.0003368594    1.478    0.324
       456  -8.8948     63.8510     21.1467   3.1445580158e+01   6.5334894287e+01    0.2742598    0.1789808 -46.81 0.0009664026    1.891    0.471
       457  -8.9687     74.1894     19.3795   2.6649409642e+01   6.3412817495e+01    0.2628513    0.2084901 -50.60 0.0006777011    1.549    0.355
       458  -8.2130     87.7646     17.2005   2.1264464571e+01   6.0616964145e+01     0.207931      0.16674 -52.21 0.0006636688    1.483    0.326
       459  -7.6817    112.9976     16.7451   1.4798286628e+01   5.4523289855e+01    0.1771835    0.1104457  63.64 0.0004631976    1.454    0.312
       460  -8.1103     97.3354     15.1458   1.7753707595e+01   5.8567377920e+01    0.1923818    0.1181337 -38.13  0.000593108    1.785    0.440
       461  -8.3212      7.4952     15.4966   6.0874476934e+01   7.4424261497e+01    0.1196587   0.09983119 -23.87 0.0008101568    1.050    0.048
       462  -7.8163     17.4620     13.9911   5.2885243418e+01   7.3769184271e+01    0.1474384    0.1105114 -74.51 0.0004885062    2.415    0.586
       463  -8.1117    184.9213    250.0000   5.5354272434e+01  -7.1341916784e-01    0.1899807   0.05231528  33.36 0.0007999103    2.925    0.658
       464  -9.0455    175.6573    247.4494   5.6752631614e+01   8.1399059924e-01    0.2562041    0.2071737  71.13  0.001444032    2.353    0.575
       465  -9.0385    132.4647    247.9771   6.5316535043e+01   6.5137553627e+00    0.2808977    0.1768843  57.99 0.0008871123    2.129    0.530
       466  -8.4798    113.0483    248.4809   6.9327343646e+01   9.0443270479e+00    0.1996199    0.1569482  74.30 0.0008752196    1.619    0.382
       467  -8.5657     93.7337    249.3446   7.3375096998e+01   1.1438953721e+01    0.1957647    0.1072577  54.40   0.00108848    1.837    0.456
       468  -9.7869     65.4291    248.8871   7.9131554769e+01   1.5044121050e+01    0.3983026   0.07706477  42.17  0.001580012    3.197    0.687
       469  -9.3294    242.9664    246.3043   4.4760491183e+01  -7.1053707574e+00    0.3034681    0.1250373 -27.39  0.001767119    2.304    0.566
       470  -8.8266    218.5939    246.6069   4.8852709511e+01  -4.4122614824e+00    0.2761479   0.09675105 -36.53  0.001411409    3.027    0.670
       471  -8.5566    155.9961    247.9527   6.0618070318e+01   3.3457178326e+00    0.1701643    0.1263635  50.16 0.0004819465    1.636    0.389
       472  -9.2676    103.9418    246.9752   7.1050028723e+01   1.0499338272e+01    0.3007595     0.189189  89.69  0.001674989    2.501    0.600
       473  -8.9723     21.1059    247.8749   8.7890778985e+01   2.0083383414e+01    0.2348065    0.1074588  37.61  0.001403017    1.658    0.397
