#   1 NUMBER                 Running object number                                     
#   2 MAG_AUTO               Kron-like elliptical aperture magnitude                    [mag]
#   3 X_IMAGE                Object position along x                                    [pixel]
#   4 Y_IMAGE                Object position along y                                    [pixel]
#   5 X_WORLD                Barycenter position along world x axis                     [deg]
#   6 Y_WORLD                Barycenter position along world y axis                     [deg]
#   7 A_WORLD                Profile RMS along major axis (world units)                 [deg]
#   8 B_WORLD                Profile RMS along minor axis (world units)                 [deg]
#   9 THETA_WORLD            Position angle (CCW/world-x)                               [deg]
#  10 FWHM_WORLD             FWHM assuming a gaussian core                              [deg]
#  11 ELONGATION             A_IMAGE/B_IMAGE                                           
#  12 ELLIPTICITY            1 - B_IMAGE/A_IMAGE                                       
         1 -13.6950    135.7684    127.5027   9.4138410628e+01   3.9338774338e+01  0.004912376 0.0006579017  85.55  0.004130267    8.329    0.880
         2 -14.4601    156.1156     56.3743   9.4158425410e+01   3.9289664862e+01  0.003295814  0.002972957 -15.84  0.002685519    1.107    0.096
         3 -14.8966    168.2839     41.5972   9.4169557783e+01   3.9279422349e+01  0.003393667  0.002595206 -56.11  0.005258468    1.250    0.200
         4 -14.5137    184.5473     12.2837   9.4184713894e+01   3.9259141461e+01  0.005298631  0.001478385 -13.36  0.005943871    3.534    0.717
         5 -14.4697    183.2796      7.1366   9.4183752346e+01   3.9255601283e+01  0.006204186  0.001679068 -10.36  0.007904712    3.666    0.727
         6 -11.0682     21.9222    242.1892   9.4034730420e+01   3.9418294992e+01 0.0004781952 0.0003916684 -73.08   0.00103689    1.182    0.154
         7 -19.9223     65.4024    171.0340   9.4075194408e+01   3.9369087639e+01   0.04865244    0.0173507  88.77    0.0705193    2.798    0.643
         8 -12.5598    180.5087    193.3851   9.4175803691e+01   3.9383951201e+01  0.001022684 0.0006405074  58.93  0.001481955    1.661    0.398
         9 -12.1398    169.7831    195.4124   9.4166304845e+01   3.9385401880e+01 0.0009142025 0.0004752552  81.89   0.00158666    1.941    0.485
        10 -13.8833    165.6521    187.1724   9.4162914895e+01   3.9379744583e+01  0.002015505  0.001172257  51.89  0.003710968    1.801    0.445
        11 -13.2548    170.1172    182.6425   9.4166978706e+01   3.9376601092e+01  0.001499444 0.0008744128   2.34  0.002139508    1.744    0.427
        12 -12.6682    176.0158    186.0371   9.4172068143e+01   3.9378910661e+01  0.001104119 0.0006305441  67.58 0.0009806218    1.808    0.447
        13 -10.2768    103.3457    194.4987   9.4107865961e+01   3.9385088188e+01 0.0009721734 0.0004638614 -18.66  0.001558459    2.065    0.516
        14 -11.2452    153.2228    193.5920   9.4151785842e+01   3.9384228992e+01 0.0007720504 0.0006334831  24.01 0.0007953284    1.267    0.211
        15 -12.7589    202.2693    223.2442   9.4194072636e+01   3.9404414502e+01 0.0008918229 0.0005520287  74.18  0.001525504    1.648    0.393
        16 -10.5455     32.2535    188.2709   9.4045496023e+01   3.9381102723e+01 0.0006169499 0.0004193767 -28.97 0.0008957314    1.433    0.302
        17 -11.4504    153.4557    186.3110   9.4152208465e+01   3.9379210916e+01 0.0006152918 0.0005640317  14.89 0.0005666097    1.129    0.114
        18 -11.2544     15.3616    220.1317   9.4029640611e+01   3.9403123067e+01 0.0007370613 0.0004113149 -52.17  0.001336639    1.702    0.412
        19 -10.5369    150.4432    180.2760   9.4149738142e+01   3.9375067110e+01 0.0004912754 0.0003198133  73.96 0.0006853981    1.566    0.361
        20 -13.2108    204.5290    176.2832   9.4197445203e+01   3.9372043846e+01  0.001971673 0.0008480881  64.31  0.003097901    2.444    0.591
        21 -11.6000    201.5263    169.0367   9.4195016868e+01   3.9367066141e+01  0.001176917 0.0004727977  51.92  0.001565107    2.658    0.624
        22 -12.3655    204.4989    165.9116   9.4197724113e+01   3.9364897280e+01  0.001634441 0.0008975331  71.12  0.001951676    1.872    0.466
        23 -11.0329    198.8995    178.1488   9.4192437073e+01   3.9373358580e+01 0.0008804468 0.0005143626  56.75   0.00101732    1.787    0.440
        24 -13.1581    194.0519    167.3743   9.4188490031e+01   3.9365959251e+01  0.001975974 0.0009418635  71.99  0.001660648    2.166    0.538
        25 -10.1762    136.9271    179.4951   9.4137868949e+01   3.9374594036e+01 0.0005087772 0.0003430967  -4.89 0.0003847682    1.495    0.331
        26 -12.4935    132.6975    169.0786   9.4134460511e+01   3.9367436615e+01  0.001198829 0.0007304344  68.02  0.002258056    1.691    0.409
        27 -12.4673    143.1805    174.5533   9.4143519326e+01   3.9371158931e+01  0.002409043 0.0008732746 -55.73  0.003595659    2.560    0.609
        28 -12.6218    137.7675    171.2859   9.4138854861e+01   3.9368933455e+01  0.001230838 0.0009036338  89.00  0.001983039    1.353    0.261
        29 -10.8955      7.7567    175.8007   9.4024327972e+01   3.9372608180e+01 0.0005108789 0.0004524927  12.97 0.0003658824    1.165    0.142
        30 -12.2226    126.4904    172.9003   9.4128884447e+01   3.9370099237e+01  0.001367276 0.0006939775  32.89  0.001892488    2.068    0.516
        31 -12.9982    172.9587    188.7125   9.4169298611e+01   3.9380769431e+01  0.001060587  0.001004336 -84.39  0.001589113    1.053    0.050
        32 -10.5059    119.1882    220.2707   9.4121029312e+01   3.9402773474e+01 0.0008859537 0.0003949605  -5.36  0.001429302    2.256    0.557
        33 -12.0266    230.1395    166.5292   9.4220263610e+01   3.9365187072e+01 0.0008645049 0.0004946469  75.00  0.001547428    1.783    0.439
        34 -11.8363    119.0065    240.3840   9.4120261508e+01   3.9416633181e+01 0.0006880877 0.0004532578 -89.56 0.0009063201    1.503    0.335
        35 -11.4831    122.4670    165.5759   9.4125565371e+01   3.9365071241e+01 0.0006899178 0.0005776496  29.91  0.000339482    1.245    0.197
        36 -10.6568     23.2871    165.9794   9.4038297266e+01   3.9365779671e+01  0.001061435 0.0004105984 -15.99  0.001268273    2.554    0.608
        37 -10.1662    139.5227    249.9562   9.4138036685e+01   3.9423132485e+01 0.0005268754 0.0004630335  -4.41 0.0008186027    1.152    0.132
        38 -11.0449    189.9715    157.5119   9.4185191814e+01   3.9359184448e+01    0.0014308 0.0005439764 -39.69  0.002171551    2.484    0.597
        39 -10.6681    188.8277    154.1759   9.4184284252e+01   3.9356891613e+01  0.001000931 0.0006014895 -19.78  0.001885271    1.640    0.390
        40 -11.9292    120.7651    157.2427   9.4124319476e+01   3.9359337254e+01 0.0006847187 0.0005632053 -64.37 0.0007381907    1.168    0.144
        41 -11.7614    134.5739    108.7070   9.4137924393e+01   3.9325828937e+01  0.002818989 0.0003383825 -89.24  0.002341902    8.432    0.881
        42 -14.1182    143.6906    143.4892   9.4144898881e+01   3.9349751855e+01  0.002887596  0.001077142  63.90  0.004203361    2.854    0.650
        43 -14.3569    133.9674    145.5843   9.4136283691e+01   3.9351241956e+01  0.003770404   0.00111567  79.58  0.004896546    3.522    0.716
        44 -10.2470     13.6282    238.8064   9.4027533350e+01   3.9415997032e+01 0.0003642976 0.0002256728 -32.33 0.0006738505    1.564    0.361
        45 -10.4923    167.3010    155.6736   9.4165303434e+01   3.9358032064e+01 0.0003768793 0.0002406882  47.78 0.0002596566    1.638    0.390
        46 -10.7968    110.7579    211.7187   9.4113867533e+01   3.9396919633e+01 0.0004609715 0.0003651401  55.17 0.0003210578    1.311    0.237
        47 -11.3992    174.2769    148.3480   9.4171657513e+01   3.9352949494e+01  0.001033108 0.0006059685  64.66   0.00167632    1.766    0.434
        48 -10.5048     19.4776    223.3011   9.4033165205e+01   3.9405290569e+01 0.0004224801 0.0003014108 -57.04 0.0005306638    1.339    0.253
        49 -12.7746     13.2373    143.9815   9.4030139542e+01   3.9350662716e+01 0.0009073173 0.0008123334  66.48  0.002079551    1.149    0.129
        50 -12.5155      4.5249    120.3500   9.4023212411e+01   3.9334414451e+01  0.001381118 0.0007742305 -13.00  0.002495423    1.776    0.437
        51 -12.7028      9.0442    139.2601   9.4026598292e+01   3.9347426167e+01 0.0009686061 0.0008041086 -23.43 0.0005561211    1.185    0.156
        52 -11.6932    152.5227    139.0222   9.4152800874e+01   3.9346631102e+01 0.0007709061 0.0005175346  54.31  0.001518278    1.552    0.356
        53 -10.2557      9.8660    211.5682   9.4025069948e+01   3.9397244306e+01 0.0003603408 0.0002038561 -67.24 0.0003436077    1.687    0.407
        54 -12.6966      3.8063    130.8374   9.4022253805e+01   3.9341643205e+01  0.001007449 0.0007657329  77.24  0.001430297    1.333    0.250
        55 -11.9633    160.5896    127.8931   9.4160227602e+01   3.9338923028e+01 0.0009907547 0.0006806419  66.02  0.001717451    1.499    0.333
        56 -12.4187      2.6302    126.2557   9.4021362183e+01   3.9338490943e+01  0.001136586 0.0007402028 -69.36  0.001928193    1.474    0.322
        57 -10.3539     13.6212    233.1383   9.4027703689e+01   3.9412091671e+01 0.0005398822 0.0004127389 -44.18  0.001136086    1.255    0.203
        58 -10.7367    168.0702    113.0339   9.4167248092e+01   3.9328647179e+01 0.0009290731 0.0004106236  44.84  0.001471536    2.401    0.584
        59 -12.1982      4.2140    112.2176   9.4023192364e+01   3.9328812334e+01  0.001368938 0.0007244955 -18.02  0.002325444    1.866    0.464
        60 -11.8870     15.0439    109.8520   9.4032788630e+01   3.9327139750e+01  0.001207565 0.0004095039 -13.78  0.001710135    2.920    0.658
        61 -12.5733    106.0740    204.2038   9.4109972735e+01   3.9391762965e+01  0.001053922 0.0009396084 -75.96  0.001413418    1.094    0.086
        62 -13.8581    118.7349    110.3951   9.4123946641e+01   3.9327066663e+01  0.002215964 0.0009262105  17.70   0.00346589    2.484    0.597
        63 -10.8117    205.4175    110.1098   9.4200173702e+01   3.9326441634e+01 0.0007670003 0.0005191294 -12.47 0.0009271854    1.473    0.321
        64 -10.1245    153.5181    202.0436   9.4151793005e+01   3.9390051118e+01 0.0005381806 0.0003392034  88.00   0.00102101    1.578    0.366
        65  -9.9318    138.5552    200.0669   9.4138683778e+01   3.9388761158e+01 0.0006193765 0.0004096524  39.94  0.001205401    1.582    0.368
        66 -11.0232     15.1565    156.9510   9.4031424679e+01   3.9359591353e+01 0.0006846755  0.000480859 -14.34 0.0005239584    1.416    0.294
        67 -10.9240     97.3373     80.3201   9.4106043995e+01   3.9306441990e+01  0.001259039 0.0004639009  12.87  0.001842941    2.803    0.643
        68 -10.2339     19.6114    231.1076   9.4033040390e+01   3.9410668784e+01 0.0004705856 0.0002939013 -64.33 0.0005071122    1.529    0.346
        69  -7.6977     16.4397    249.9347   9.4029662355e+01   3.9423653540e+01 0.0004704489 0.0003373244 -86.55 0.0009505026    1.375    0.273
        70 -11.0600    133.7833    247.2472   9.4133064654e+01   3.9421293105e+01 0.0004580907 0.0004254653 -74.80 0.0003200024    1.053    0.050
        71 -10.5505    150.7730    245.5992   9.4148073027e+01   3.9420076303e+01  0.000526719 0.0004292958 -69.89 0.0004179657    1.184    0.155
        72 -10.2431    112.5334    196.6290   9.4115886936e+01   3.9386514097e+01  0.001075263 0.0004270946 -37.55  0.001548917    2.392    0.582
        73 -10.6757     13.3545     59.7581   9.4032858464e+01   3.9292630866e+01 0.0005870825 0.0005001365  47.04 0.0004508166    1.223    0.183
        74 -13.0177    172.4813     33.8864   9.4173474558e+01   3.9274088156e+01   0.00111338  0.000892533 -58.36 0.0009020509    1.194    0.162
        75 -10.3223    134.3033     29.8937   9.4140050156e+01   3.9271524197e+01 0.0005877059 0.0004569302  21.04 0.0005489598    1.334    0.251
        76 -11.1755    125.0769    243.5441   9.4125510660e+01   3.9418782410e+01  0.000512941 0.0003939523 -82.69  0.001077817    1.276    0.217
