#   1 NUMBER                 Running object number                                     
#   2 MAG_AUTO               Kron-like elliptical aperture magnitude                    [mag]
#   3 X_IMAGE                Object position along x                                    [pixel]
#   4 Y_IMAGE                Object position along y                                    [pixel]
#   5 X_WORLD                Barycenter position along world x axis                     [deg]
#   6 Y_WORLD                Barycenter position along world y axis                     [deg]
#   7 A_WORLD                Profile RMS along major axis (world units)                 [deg]
#   8 B_WORLD                Profile RMS along minor axis (world units)                 [deg]
#   9 THETA_WORLD            Position angle (CCW/world-x)                               [deg]
#  10 FWHM_WORLD             FWHM assuming a gaussian core                              [deg]
#  11 ELONGATION             A_IMAGE/B_IMAGE                                           
#  12 ELLIPTICITY            1 - B_IMAGE/A_IMAGE                                       
         1 -14.7068     68.4379    144.3914   1.0296318924e+02   3.7553047225e+01     5.315254     2.688653  68.85  0.002844872    3.742    0.733
         2 -14.2984    217.1512     25.6248   3.8411531248e+01   2.8174071466e+01     1.264017    0.9317373  37.78   0.00713717    1.896    0.473
         3 -14.4424    204.1248     38.5356   4.2969964716e+01   2.9584403565e+01     2.101773     1.436744  37.95  0.008042142    1.970    0.492
         4 -12.8561    242.3878      3.2177   3.1494645368e+01   2.5182118838e+01    0.7488342    0.3312652  77.55  0.003946176    2.090    0.522
         5  -9.9666      2.0000      3.5067   9.1141573612e+01   7.4241134085e+01    0.2309307   0.05113776 -47.82 0.0009416908    3.991    0.749
         6 -10.2644     56.6834      1.6783   6.1978512478e+01   6.7511835538e+01    0.2024171    0.1285313  39.42  0.001218998    1.354    0.262
         7 -10.2016     47.9618      2.4733   6.5906477478e+01   6.8903278238e+01    0.1753604     0.100848  39.08 0.0005102733    1.549    0.355
         8 -10.9653    109.7173    201.1012   1.0126987130e+02   1.7728073957e+01    0.5152838    0.2855422 -40.84  0.001806425    2.372    0.578
         9 -11.2510    139.4622    248.7276   1.0126163991e+02   3.8761122554e+00    0.3340801    0.2631524 -72.13  0.002114814    1.676    0.403
        10 -14.2261     20.6376    221.3107   1.2270899158e+02   2.5307243364e+01    0.8455262    0.6617067  45.69  0.004404336    1.325    0.245
        11 -15.7535      9.4294    207.7673   1.2411444264e+02   2.9228856538e+01     3.070336      1.44937 -57.60   0.01542906    2.456    0.593
        12 -13.8796     38.3797    202.3542   1.1769832891e+02   2.7446385024e+01    0.8327811    0.6625916 -55.46  0.001467247    1.517    0.341
        13 -15.2246     48.4139    191.9808   1.1448981853e+02   2.8616631526e+01     2.969803      1.62373  82.69   0.01257408    2.003    0.501
        14  -8.7097     90.2580    181.3064   1.0304384127e+02   2.5320039783e+01    0.1319461    0.1094464 -30.89 0.0001938077    1.518    0.341
        15 -10.8126    144.0701    178.6709   8.9366250478e+01   1.6495852343e+01    0.2868965    0.2216022 -37.10  0.001438426    1.403    0.287
        16 -12.6767     85.8100    155.0572   9.9950735914e+01   3.2333329941e+01     1.513762    0.7047703 -62.74  0.001520705    2.181    0.542
        17 -12.4802     78.7922    161.2782   1.0290286412e+02   3.1880356383e+01    0.6539209    0.4797531  56.97 0.0008116952    1.385    0.278
        18 -13.6992     66.8812    157.0952   1.0546388288e+02   3.4610705216e+01    0.7145964     0.564432  -4.25  0.003745677    1.745    0.427
        19 -16.7588      7.6021    241.6615   1.2616468755e+02   2.2595815488e+01     9.659716     2.308945 -77.25   0.04325747    3.717    0.731
        20 -12.2394     69.5373    170.8205   1.0677945406e+02   3.0887458480e+01    0.4795555    0.4246532 -58.28  0.001574795    1.199    0.166
        21  -9.9154    149.5074    177.0620   8.7772637710e+01   1.5809520291e+01    0.2127194    0.1483763 -50.55  0.000455365    1.520    0.342
        22  -9.9969    187.8187    173.8853   7.8540758862e+01   9.1119111044e+00    0.3609809    0.1677948 -54.92   0.00126664    3.212    0.689
        23  -9.6954    196.8663    174.2604   7.6730191218e+01   7.3418248770e+00    0.2287787    0.1870834  57.05  0.001210946    1.495    0.331
        24 -10.1762    146.5966    171.8343   8.7444235528e+01   1.7490777855e+01     0.210843    0.1449828 -62.52 0.0009479118    1.734    0.423
        25 -11.0321    136.9777    168.2765   8.9077677787e+01   2.0123852067e+01    0.4927872    0.3217228 -66.87  0.002132664    1.934    0.483
        26 -13.6598     57.6999    240.9980   1.1685881814e+02   1.7092342893e+01    0.7449743    0.4415525 -86.41 0.0004638991    1.740    0.425
        27 -11.2164    207.9222    195.2625   7.8650261228e+01   1.6536199990e+00    0.3475074    0.1769126 -36.86  0.001236622    1.965    0.491
        28 -16.4235     38.6400    248.7157   1.2099268961e+02   1.7946705947e+01     9.840539     3.419243  25.17   0.03046077    7.837    0.872
        29 -11.6007     32.5305    155.5824   1.1449845837e+02   3.9015330509e+01    0.3797646    0.2237268 -76.36  0.001574202    1.498    0.333
        30 -11.1524    133.5764    143.8544   8.4808675559e+01   2.6356004507e+01     1.165767    0.2986667 -54.56  0.002673844    5.839    0.829
        31 -10.6314    174.3888    148.6415   7.6037172920e+01   1.6834461875e+01    0.3547849    0.3021026 -78.84  0.001456146    1.465    0.317
        32 -11.8550     54.5933    146.6486   1.0727262296e+02   3.8794158471e+01    0.5891266    0.3148037 -55.60  0.002734797    1.731    0.422
        33 -10.5698     31.8567    144.1503   1.1330731950e+02   4.1882306400e+01    0.3409575    0.2551301  -6.27  0.001922189    1.847    0.459
        34 -10.7857    100.6985    139.9247   9.2875190840e+01   3.3562258324e+01     0.573602    0.3826791 -18.62  0.002310853    2.388    0.581
        35 -12.2914     87.7146    139.9647   9.6591045211e+01   3.5753592028e+01    0.3019329    0.2547319 -50.88 0.0004098357    1.171    0.146
        36 -10.9840     81.1255    140.9879   9.8691547911e+01   3.6542728461e+01    0.4599015    0.2724482  69.49  0.001801596    2.546    0.607
        37 -11.5712    192.6940    193.8601   8.1456507757e+01   4.5224403983e+00    0.7688096    0.4238163 -64.09  0.002532816    4.839    0.793
        38 -11.2501     23.6285    136.3648   1.1465086713e+02   4.4532996601e+01    0.3003074    0.1453123 -78.48  0.001115902    1.917    0.478
        39  -9.4550     28.8903    136.2987   1.1313842286e+02   4.4090711536e+01    0.1711805    0.1563044 -75.62 0.0003497317    1.087    0.080
        40 -11.3403    135.6433    127.8327   8.0518971697e+01   2.9598764531e+01    0.6154108    0.1784914 -48.79  0.001745101    3.557    0.719
        41 -10.3890    105.9787    131.1918   8.9464888835e+01   3.4724163353e+01    0.3984892    0.3054854 -56.21  0.001502329    1.294    0.227
        42 -10.2839    110.1916    130.5899   8.8128274990e+01   3.4079317724e+01     0.338999     0.264485  10.46 0.0009596511    1.617    0.382
        43 -10.7557     60.6271    198.1369   1.1231656877e+02   2.5686356646e+01    0.2629983    0.2077782  40.35 0.0009221973    1.292    0.226
        44 -11.5582     44.1872    129.0159   1.0754621689e+02   4.4385593855e+01    0.3724351      0.26654  50.69  0.002014711    1.524    0.344
        45 -10.0907    160.4365    127.7522   7.4323732129e+01   2.4239651494e+01    0.3276288    0.2317553 -66.81  0.001394367    1.828    0.453
        46 -11.0865     97.4234    126.6179   9.0909658840e+01   3.7379009900e+01     0.297231    0.2545803  -7.32 0.0005078165    1.378    0.275
        47 -11.0229     47.5024    124.6915   1.0580029672e+02   4.5096858200e+01    0.2736852    0.2047902 -45.96 0.0009798962    1.318    0.241
        48  -9.5610    116.7678    124.4365   8.4814868564e+01   3.4260626862e+01    0.2181783    0.1508492  26.19 0.0009359982    1.687    0.407
        49 -11.2349     23.8064    119.5845   1.1235712321e+02   4.8627814335e+01    0.3998365    0.1630557  42.24  0.001748336    2.765    0.638
        50 -10.0120    107.0232    119.1082   8.6305915722e+01   3.7411272913e+01    0.2191246    0.2165397  -9.95 0.0003147962    1.029    0.028
        51  -9.0280     84.5164    118.5248   9.2960085053e+01   4.1540781286e+01      0.14936     0.140997 -82.34 6.983796e-05    1.089    0.082
        52  -9.1718    168.1932    113.0366   6.8831906073e+01   2.5571748749e+01    0.2676174    0.1806752 -68.48  0.001079781    2.070    0.517
        53 -10.2960     39.9572    113.0710   1.0614032147e+02   4.8765788983e+01    0.2047086    0.1812627 -68.69 0.0004510513    1.046    0.044
        54 -10.1524    205.5191    110.2395   6.0595093860e+01   1.7695299793e+01    0.2978355    0.2337416  42.54 0.0007653937    1.372    0.271
        55 -10.7181     33.0788    109.1174   1.0769845571e+02   5.0389128928e+01    0.2359104    0.1816951 -77.92 0.0007357132    1.260    0.206
        56 -12.0553     64.6506    175.9860   1.0872572565e+02   3.0311128100e+01    0.4121169    0.2866949 -38.65  0.002098591    1.870    0.465
        57  -9.5192     45.0523    105.0249   1.0288539688e+02   5.0193876186e+01    0.2146133    0.1583122  70.79 0.0006266524    1.711    0.415
        58 -10.2547    134.6345    105.9964   7.5153011071e+01   3.4667699227e+01    0.3667119    0.1493772 -44.23  0.001242554    2.454    0.592
        59 -10.5762    247.5144    102.4946   5.2175225276e+01   1.0382560230e+01    0.1345181    0.1167876 -41.02 7.654313e-05    1.024    0.024
        60 -10.8005     38.7201    101.6970   1.0438522425e+02   5.1649124318e+01    0.3475675    0.1887826  48.88  0.001578682    2.338    0.572
        61 -11.0905    241.6036     99.5882   5.2354704526e+01   1.2007228442e+01    0.3481275    0.1047063 -41.49  0.001250901    2.815    0.645
        62  -9.8612     33.1286     96.7349   1.0534739033e+02   5.3362090752e+01    0.2375545    0.1879829  63.03 0.0009001147    1.537    0.349
        63 -10.5160     11.6548     92.8869   1.1225047558e+02   5.5877344398e+01    0.2004756     0.178346  31.27 0.0005484856    1.359    0.264
        64 -10.6381     53.0620     90.8954   9.6879220998e+01   5.2627306314e+01    0.3259119    0.1745019 -51.10  0.001510096    1.642    0.391
        65 -10.2602     42.5927     91.7290   1.0087382253e+02   5.3619781698e+01     0.323663    0.1838656  16.87  0.001544283    2.106    0.525
        66 -10.1130     73.4194     83.8920   8.7697490431e+01   5.1376814247e+01    0.2482315    0.1948984  53.05 0.0007412078    1.526    0.345
        67  -9.0847    150.9141     82.8499   6.4551333780e+01   3.5585026330e+01    0.2040886     0.179577 -85.10 0.0003295423    1.264    0.209
        68  -9.7207    159.3407     82.1733   6.2447273784e+01   3.3683184650e+01    0.2345464    0.1959493 -14.44 0.0005620171    1.387    0.279
        69 -10.0593    243.5113     77.5147   4.7210534553e+01   1.5151611495e+01    0.1337255    0.1151899 -53.67 0.0001628829    1.003    0.003
        70 -10.5313     13.4845     59.9356   1.0482876848e+02   6.3157364090e+01    0.2399481    0.1792243 -51.78 0.0004459972    1.121    0.108
        71  -9.8611    172.5327    238.7821   9.3208089572e+01   3.0305014302e-01    0.2635973     0.128809 -49.85  0.001268155    2.594    0.614
        72 -11.9024    195.1804     44.5486   4.5670265519e+01   3.0919067606e+01    0.5189726    0.4323431  46.87 0.0009481068    1.355    0.262
        73 -10.0978     65.4370    192.4030   1.1055652606e+02   2.6354189383e+01    0.2933716    0.2077568  71.88  0.001616464    1.374    0.272
        74 -10.0652    141.1970     38.7943   5.3180511981e+01   4.5074094416e+01    0.2296519    0.2128551  84.63  0.000503573    1.106    0.096
        75 -10.3397    138.1239     44.1056   5.5552836240e+01   4.5101487981e+01    0.3895825    0.2632136 -84.43 0.0006458745    2.149    0.535
        76 -10.1224      2.0000     23.9944   9.9744975743e+01   7.0868332077e+01    0.1841974   0.05278182 -55.48 5.170321e-05    2.976    0.664
        77  -9.6027    189.6676     14.9793   3.8740401544e+01   3.5877423939e+01    0.1807902    0.1567665 -65.43 0.0005352089    1.120    0.108
        78  -8.9313     72.4366    188.4840   1.0841083776e+02   2.6295416495e+01    0.1373542    0.1189493  74.03 0.0001043507    1.032    0.031
        79  -9.2249     79.8077    183.5767   1.0596423829e+02   2.6377361445e+01    0.1969668    0.1169695  48.17 0.0009378665    1.599    0.375
        80  -9.7392     99.3489    180.7516   1.0068994756e+02   2.3991936417e+01     0.239506    0.2012937  73.27 0.0005484635    1.195    0.163
