#   1 NUMBER                 Running object number                                     
#   2 MAG_AUTO               Kron-like elliptical aperture magnitude                    [mag]
#   3 X_IMAGE                Object position along x                                    [pixel]
#   4 Y_IMAGE                Object position along y                                    [pixel]
#   5 X_WORLD                Barycenter position along world x axis                     [deg]
#   6 Y_WORLD                Barycenter position along world y axis                     [deg]
#   7 A_WORLD                Profile RMS along major axis (world units)                 [deg]
#   8 B_WORLD                Profile RMS along minor axis (world units)                 [deg]
#   9 THETA_WORLD            Position angle (CCW/world-x)                               [deg]
#  10 FWHM_WORLD             FWHM assuming a gaussian core                              [deg]
#  11 ELONGATION             A_IMAGE/B_IMAGE                                           
#  12 ELLIPTICITY            1 - B_IMAGE/A_IMAGE                                       
         1 -15.5781    245.3024    130.0994   2.6946291387e+01   5.6240717218e+00     3.649793     1.437394 -28.44    0.0144872    2.480    0.597
         2 -13.4865    206.5827     47.1201   1.1624373394e+01   2.6793354606e+01     1.617256    0.6351589 -46.28  0.005524904    2.870    0.652
         3 -13.8070    188.5329     33.9763   1.0444013817e+01   3.3285543546e+01     1.393394    0.9851617 -88.43  0.006071431    1.666    0.400
         4 -15.0754     81.9019     13.1418   2.6945205854e+01   6.1968424439e+01     1.520445    0.9816866  60.87  0.007596578    2.100    0.524
         5 -13.9797     26.1965     20.4521   5.3708378496e+01   6.8795437668e+01     1.284702    0.6153497 -52.91  0.006771165    1.951    0.487
         6 -14.8457     42.6798     14.7802   4.3390120045e+01   6.8004140083e+01      2.38747     1.050634 -34.15   0.01166491    2.003    0.501
         7 -15.4977     82.0165      3.4679   2.2234025062e+01   6.3092885263e+01     2.698419    0.9385845  60.38  0.008880843    4.628    0.784
         8 -14.0603      7.3210     13.3310   6.0505234220e+01   7.1512446714e+01    0.9878243    0.6038743 -65.86  0.006079376    1.902    0.474
         9 -14.1586     16.5868      4.2501   5.1534251582e+01   7.2442527220e+01     1.456953    0.5426185  33.47  0.007314905    3.299    0.697
        10 -13.8118    237.8833     21.8895   8.6915372907e-01   2.2024086461e+01     1.741727    0.6165072 -56.97  0.005429405    4.314    0.768
        11 -14.4208    219.6470      9.8823   3.5950303545e+02   2.7857979468e+01      3.00109     1.110532 -57.82  0.009783523    3.846    0.740
        12 -14.9511    179.7850      7.1032   3.2383332424e+00   3.8640245721e+01     2.074151     1.312388 -83.19   0.00944959    1.834    0.455
        13 -13.9841     53.4190      3.0142   3.2659219709e+01   6.8222379090e+01     1.595431    0.4096685  45.74  0.005740697    4.487    0.777
        14 -11.2826      7.6646     34.6322   6.7168753296e+01   6.7353504332e+01    0.2171272     0.170641 -59.53  0.001004482    1.145    0.127
        15 -13.7173     12.5438    230.4083   8.6330026719e+01   2.6922269377e+01    0.3605566    0.2042177  87.36  0.001617095    1.454    0.312
        16 -14.7475      4.4274    244.3479   8.8042377462e+01   2.5468960751e+01     1.021194    0.6323516  83.48  0.008835356    1.304    0.233
        17 -14.6839      3.9688    218.7039   8.7218243275e+01   2.9672710883e+01    0.8529398    0.3683783  77.09  0.003527398    1.848    0.459
        18 -14.2794     15.8485    206.1159   8.4720056923e+01   3.0770207191e+01    0.9339989    0.3415646  36.64  0.004506099    2.607    0.616
        19 -12.2428     26.7918    200.0142   8.2476729675e+01   3.0804960075e+01    0.2993525     0.254585 -78.43  0.001588441    1.427    0.299
        20 -12.7511    117.0323    204.2364   6.5752521672e+01   1.8145818478e+01    0.6226065    0.2545565  50.37  0.002897346    2.155    0.536
        21 -11.8934     86.4554    204.0422   7.1663775903e+01   2.2801231680e+01    0.2888249    0.2399339  63.74  0.002054122    1.071    0.066
        22 -13.5136     94.9761    201.1968   6.9712399601e+01   2.2081171561e+01    0.5751178     0.369277  53.47   0.00253974    1.291    0.225
        23 -12.8173      3.8998    199.7913   8.6465295168e+01   3.2994338946e+01    0.3710115    0.2375718 -74.59  0.002223234    1.562    0.360
        24 -12.5557    205.1917    199.1335   4.8069688211e+01   3.6096643885e+00    0.3106696    0.2401757  -7.34  0.001929231    1.398    0.285
        25 -14.3398    126.2073    196.0810   6.2887207079e+01   1.8063550420e+01     1.116913    0.4069866  50.53  0.004599257    2.615    0.618
        26 -12.4967     21.7353    193.8449   8.3026387009e+01   3.2453452571e+01    0.3139485     0.272923 -74.82  0.001996209    1.468    0.319
        27 -14.1584    182.5070    189.2267   5.0640144994e+01   9.1372180828e+00    0.8133013    0.4630555 -38.02   0.00415344    2.046    0.511
        28 -14.6136    177.9412    171.6250   4.8377573867e+01   1.2800238377e+01     1.092149    0.7305253 -50.06  0.005607312    1.810    0.448
        29 -12.9620    231.0302    191.8577   4.2157962823e+01   2.0507006141e-02    0.3910848    0.2930744  38.61  0.002429045    1.283    0.221
        30 -13.4722    228.7249    185.0424   4.1299060165e+01   1.2792516252e+00    0.8170648     0.436105   0.07  0.003437534    3.065    0.674
        31 -12.7721    217.0710    189.3402   4.4176930304e+01   2.7945307840e+00    0.4935588    0.4781235   5.77  0.003365655    1.323    0.244
        32 -13.1615      4.4091    189.4225   8.5909061902e+01   3.4856509209e+01    0.4359511    0.2451056 -75.61  0.002028321    1.603    0.376
        33 -13.7418     91.5531    186.4406   6.8719601380e+01   2.5342026312e+01    0.8165957    0.4867182  65.71  0.004452839    1.720    0.419
        34 -11.4597    104.3956    192.7703   6.6858906476e+01   2.2191693066e+01    0.2788851    0.2180556 -55.70  0.001773953    1.509    0.337
        35 -12.8855     10.3081    183.0563   8.4516789553e+01   3.5553761259e+01    0.2976649    0.2466716  52.17  0.001972716    1.373    0.272
        36 -12.8225      7.2585    162.0632   8.3898070725e+01   3.9944484250e+01    0.4731449    0.2040353 -56.55  0.002618844    2.674    0.626
        37 -13.4296     14.6005    177.7766   8.3407682546e+01   3.6197479837e+01    0.5308909    0.2337006  68.09  0.003059935    2.025    0.506
        38 -14.0775      3.4252    173.9522   8.5321844197e+01   3.7891573833e+01     0.881487    0.3809803  62.38  0.005339053    1.942    0.485
        39 -12.2221    113.9370    154.1273   5.9142519553e+01   2.8217715954e+01    0.7068453     0.333575 -53.58  0.003091924    2.210    0.547
        40 -14.6337    104.4326    174.2472   6.4412901949e+01   2.5730908372e+01      1.20352     1.141825   3.98  0.007894669    1.372    0.271
        41 -13.3781    101.7181    161.5926   6.3162339642e+01   2.8728420973e+01     1.335275      0.40268  41.74  0.004949559    3.014    0.668
        42 -11.7827     45.0267    175.5860   7.7203747489e+01   3.3580944426e+01    0.3282286    0.2449317  63.64  0.002036274    1.136    0.119
        43 -12.8804     74.6512    173.2607   7.0729972361e+01   3.0369842808e+01    0.6534848    0.4244091  48.00  0.003687022    1.400    0.285
        44 -12.2755     69.3913    162.3373   7.0584420675e+01   3.3341895338e+01    0.7084449    0.3965192  38.00  0.003266907    1.820    0.451
        45 -13.2142     83.2730    166.8590   6.8056409559e+01   3.0469246705e+01    0.5927294    0.4742863  26.51  0.003424524    1.577    0.366
        46 -13.4978     78.9095    162.4714   6.8460126251e+01   3.2008410918e+01    0.8656181    0.6771319  16.58  0.005081482    1.836    0.455
        47 -11.9909    196.2907    167.0109   4.3835448998e+01   9.9325500359e+00    0.3995809    0.2403271 -13.90  0.001771677    2.363    0.577
        48 -12.4745    225.6592    113.3644   2.6293720515e+01   1.2208446501e+01     1.287031    0.8199778 -78.25  0.004457877    4.046    0.753
        49 -13.8013    235.1460    154.7091   3.4093523306e+01   4.1551328694e+00     1.255847    0.6817226  -7.76   0.00530584    2.581    0.612
        50 -12.4770     77.0372    216.6784   7.4603209218e+01   2.1869772226e+01    0.3966178    0.1829835  52.57  0.002253326    1.740    0.425
        51 -13.7267     18.0611    160.6083   8.1584065394e+01   3.9335985252e+01    0.6300633    0.4698078  45.29  0.003273989    1.432    0.302
        52 -10.4570     48.4666    161.4878   7.5138811829e+01   3.6098376906e+01    0.1195337   0.09742043  82.07 7.215564e-05    1.012    0.012
        53 -11.3092     36.0143    160.1603   7.7728887965e+01   3.7722876018e+01    0.2786214    0.1726569  64.39   0.00111488    1.450    0.310
        54 -14.1473    173.4492    153.0918   4.5651084408e+01   1.6883615317e+01     1.191073    0.7744946 -17.34  0.005325829    2.157    0.536
        55 -13.2960      2.0251    151.0280   8.4293850265e+01   4.2593775971e+01    0.8127072    0.1472313 -73.73  0.003312092    3.813    0.738
        56 -13.0602     13.9921    142.0737   8.1049710869e+01   4.3558299336e+01     0.388775     0.336758  74.36   0.00167426    1.191    0.161
        57 -13.0275      7.9321    142.5756   8.2446199588e+01   4.3918988211e+01    0.4572832    0.1775431 -73.42  0.002474559    2.014    0.503
        58 -11.6562     58.4496    154.8155   7.2162162882e+01   3.6339188922e+01    0.3236672    0.2617361 -10.99  0.001970743    2.006    0.501
        59 -12.9996     47.1399    147.5940   7.3944778846e+01   3.9220494477e+01    0.9356105    0.6398866 -24.27   0.00344793    2.673    0.626
        60 -13.2162     49.9994    135.3600   7.1765791434e+01   4.1595498234e+01     1.021121    0.5787321 -42.44  0.005159095    2.372    0.578
        61 -14.9765     26.6388    129.7194   7.6902729367e+01   4.5184148036e+01     1.227393    0.6228381 -73.37  0.004663541    1.622    0.383
        62 -13.5484     37.5410    136.3076   7.4953211666e+01   4.2706769276e+01    0.7070301    0.5040377  77.22  0.003063103    1.288    0.223
        63 -13.2497    220.0439    131.6771   3.1666578986e+01   1.0587589303e+01    0.7101902    0.4840245 -11.73  0.003432821    1.622    0.384
        64 -12.1112    214.3333    125.5169   3.1265561774e+01   1.2787432813e+01    0.6511788    0.4536364  56.36  0.003147975    1.602    0.376
        65 -12.8302      8.4671    132.4672   8.1540910092e+01   4.6032118439e+01    0.4356774    0.2867418 -27.77  0.002464496    2.461    0.594
        66 -10.3949     75.1282    134.5110   6.5306474736e+01   3.8617741363e+01    0.1839921    0.1268658  40.53 0.0006765992    1.507    0.336
        67 -12.4757     76.8405    125.2877   6.3305944668e+01   4.0450225459e+01    0.6853229    0.4824451 -34.83    0.0035727    1.849    0.459
        68 -12.4098    126.9757    122.8157   4.9770809746e+01   3.2392785583e+01    0.7680265    0.5202902  71.13  0.003378696    2.002    0.500
        69 -12.2231     49.6078    120.5404   6.9799325263e+01   4.4976313278e+01    0.5241686    0.2531689 -65.53   0.00231134    1.790    0.441
        70 -12.9378     54.9348    118.3008   6.8013362878e+01   4.4880756606e+01    0.6791819    0.3940905 -67.61  0.002797332    1.532    0.347
        71 -12.5436     13.5051    114.4215   7.8619012215e+01   4.9611395517e+01    0.3675996    0.2252808  69.10  0.001649428    1.646    0.392
        72 -12.7166     25.4836    111.2654   7.5049396237e+01   4.9399980900e+01    0.6429895    0.4138983 -59.86  0.003408346    1.371    0.271
        73 -12.1326    168.9375    112.7730   3.7340343493e+01   2.5327538933e+01    0.4543186    0.3768288 -49.25  0.002269835    1.292    0.226
        74 -12.2882     66.1442    110.7569   6.3586868023e+01   4.5220671260e+01    0.5833051    0.3245726 -60.42  0.002893101    1.611    0.379
        75 -14.0401    153.5557    159.1282   5.1121435864e+01   1.9805741923e+01    0.9982299    0.9104403  89.07  0.005718097    1.232    0.188
        76 -14.9945    155.0906    139.4658   4.6773025535e+01   2.3239425625e+01     1.862435     1.493891 -42.33  0.008377586    1.324    0.245
        77 -11.9344     58.6838    102.2139   6.4117436937e+01   4.8115478894e+01    0.4192454    0.3681779 -43.72  0.002225325    1.206    0.171
        78 -13.5847    236.8482     97.3662   2.0483176656e+01   1.2149337828e+01    0.6005061    0.4991408 -24.10  0.002907849    1.125    0.111
        79 -11.7233     24.5449     92.9340   7.2758316960e+01   5.3611472083e+01    0.3182911    0.2302883 -80.14  0.002040289    1.212    0.175
        80 -11.9965     23.1828     86.5326   7.2168306272e+01   5.5157985030e+01    0.3569942    0.2713164 -66.31  0.001446902    1.055    0.052
        81 -13.2376    232.2336     79.4067   1.6618670918e+01   1.5840919191e+01     1.111882    0.5369789 -46.08  0.004405306    2.271    0.560
        82 -12.8240    227.0566     65.1230   1.3616652724e+01   1.9132423166e+01    0.9665663    0.4637954 -50.15  0.003674721    2.490    0.598
        83 -11.9050      1.8062     73.7925   7.7108090242e+01   5.9295012813e+01    0.6033478     0.138666 -74.59  0.002224167    3.896    0.743
        84 -12.5981    157.4320     78.1385   3.0322013748e+01   3.4549486144e+01    0.5861159    0.4507968 -53.66  0.002729652    1.451    0.311
        85 -12.0166    193.3863     59.1021   1.7275587810e+01   2.8513373599e+01    0.3148857    0.2384823  71.18  0.001487474    1.424    0.298
        86 -12.2988     18.6278     55.8941   6.7874334064e+01   6.2247684945e+01    0.4585374    0.2999863 -33.38  0.002867224    1.547    0.354
        87 -12.3458     10.6533     54.1446   7.0560837630e+01   6.3111353256e+01    0.4219449    0.3235701  85.53  0.002872512    1.517    0.341
        88 -13.3585     28.0032    208.3642   8.2746240002e+01   2.9164005651e+01    0.5101714    0.2571957 -87.28  0.002598584    1.757    0.431
        89 -12.7330    232.4096     33.8736   4.5733281585e+00   2.1955181170e+01    0.8050613    0.4758409 -52.15  0.003753924    1.739    0.425
        90 -12.2832    239.2614     45.7189   6.8807142421e+00   1.8814734837e+01     0.415993    0.2368967  44.21  0.001732652    2.014    0.504
        91 -12.2924    234.8855     41.9735   6.4224397334e+00   2.0344645170e+01    0.6621652     0.354891 -32.08  0.002992271    1.729    0.422
        92 -11.9262    202.9884    213.8249   5.0884378051e+01   2.0915242625e+00    0.2045752    0.1768047  -1.11  0.001418965    1.247    0.198
        93 -14.5772    125.1635    183.1916   6.1282798374e+01   2.0561316527e+01     1.461432    0.6061784  49.54  0.006300508    2.226    0.551
        94 -13.5602    140.2925    173.8836   5.6623549291e+01   1.9592218375e+01     0.833314    0.6909054 -50.39  0.004151851    1.359    0.264
        95 -13.8586    128.3064    167.4055   5.8139131888e+01   2.3000875956e+01     1.284046     1.008124 -65.62  0.007317306    1.401    0.286
        96 -15.0660    164.6116    200.2319   5.5905887810e+01   1.0702497036e+01     1.002687    0.9783881 -27.29  0.005901628    1.232    0.188
        97 -15.6300    151.8578    184.7985   5.6004862233e+01   1.5524523983e+01     1.545625     1.268547  48.42  0.007172708    1.071    0.066
        98 -12.2047     79.7916    188.0342   7.1310608848e+01   2.6728792158e+01    0.3961263    0.3503295 -48.36  0.002665393    1.525    0.344
        99 -13.4628     67.3892    205.6326   7.5432569441e+01   2.5095537821e+01    0.5085794    0.3917038 -58.36  0.002868722    1.663    0.399
       100 -13.7654     69.4833    196.8424   7.4246004464e+01   2.6446036889e+01    0.8945097    0.5719069 -59.31  0.005629455    1.805    0.446
       101 -13.9791    183.4013    205.8675   5.3209568649e+01   6.5388895039e+00    0.6350798    0.4898168 -65.11  0.003805069    1.961    0.490
       102 -14.0305    144.6381    202.1615   6.0078824719e+01   1.3899541291e+01    0.8990065     0.627282 -53.11   0.00536201    1.727    0.421
