#   1 NUMBER                 Running object number                                     
#   2 MAG_AUTO               Kron-like elliptical aperture magnitude                    [mag]
#   3 X_IMAGE                Object position along x                                    [pixel]
#   4 Y_IMAGE                Object position along y                                    [pixel]
#   5 X_WORLD                Barycenter position along world x axis                     [deg]
#   6 Y_WORLD                Barycenter position along world y axis                     [deg]
#   7 A_WORLD                Profile RMS along major axis (world units)                 [deg]
#   8 B_WORLD                Profile RMS along minor axis (world units)                 [deg]
#   9 THETA_WORLD            Position angle (CCW/world-x)                               [deg]
#  10 FWHM_WORLD             FWHM assuming a gaussian core                              [deg]
#  11 ELONGATION             A_IMAGE/B_IMAGE                                           
#  12 ELLIPTICITY            1 - B_IMAGE/A_IMAGE                                       
         1 -10.1780     91.4032     23.7853   9.2015421660e+01   6.0429718935e+01    0.2073645    0.1410912 -15.72 0.0009525353    1.676    0.403
         2 -10.5657    141.0946     21.1614   7.8479485680e+01   4.7694418042e+01    0.2372245    0.1971909  34.79 0.0006151403    1.278    0.218
         3 -11.5793    241.1947     17.8024   6.6043312819e+01   2.2006143737e+01    0.4052825    0.2489607   0.22  0.002005864    2.199    0.545
         4 -10.1883    201.5667     11.9114   6.7555659657e+01   3.2133720785e+01    0.2355704    0.1804799  64.52 0.0003781138    1.329    0.248
         5  -9.8730    229.1977      9.1037   6.4649110541e+01   2.5589737584e+01    0.1836584    0.1740379  16.41 0.0005129029    1.254    0.203
         6 -10.0825    211.5689      8.6289   6.5788130283e+01   2.9906724040e+01    0.2359388     0.132802 -16.52 0.0007140791    1.932    0.482
         7  -9.3247    139.4124      5.8167   7.2663671628e+01   4.9779536580e+01    0.2001046    0.1424367   5.75 0.0005517593    1.681    0.405
         8  -8.9694     50.7016      5.3320   9.8686133072e+01   7.1780132555e+01    0.1242363    0.1055221 -64.95 0.0005062426    1.645    0.392
         9  -9.9804    249.1754      4.1786   6.2229708459e+01   2.1553784845e+01    0.1882398    0.1197261 -53.35  0.001084691    1.359    0.264
        10  -8.8865    134.0000      3.9977   7.2758261307e+01   5.1466326053e+01    0.2240648   0.08579556 -19.32 0.0006339126    2.824    0.646
        11 -10.9734    224.9728    245.5301   1.1511437517e+02  -1.3479570389e+00    0.2465512     0.225837 -28.77  0.001806594    1.946    0.486
        12  -9.4068    210.5128    246.5355   1.1756070045e+02   4.0492486652e-01    0.1460518   0.09836169 -43.90  0.001031048    2.540    0.606
        13  -9.8132    120.2097    245.4259   1.3332521588e+02   1.2786051133e+01    0.1672299   0.07207612  43.26 0.0009529172    1.661    0.398
        14 -10.2134    146.5436    242.7191   1.2820542432e+02   9.5188677513e+00    0.2016296    0.1148294 -53.77  0.001293104    2.592    0.614
        15  -9.2796    169.5249    243.4902   1.2415653462e+02   6.2324011123e+00     0.112333   0.07904119  32.06 0.0002875685    1.025    0.024
        16  -9.9623    160.2228    240.0349   1.2542443461e+02   7.9312247273e+00    0.2538266     0.176549 -85.73  0.001447982    3.571    0.720
        17 -10.0322    137.5598    240.6052   1.2964079380e+02   1.1038083239e+01    0.2622263    0.1507021  72.48  0.001209245    4.489    0.777
        18 -10.8005    232.5516    238.4533   1.1297782624e+02  -1.6787701099e+00    0.3151262    0.2101801  49.27  0.002091282    2.517    0.603
        19  -9.3148    195.4678    239.5547   1.1917606751e+02   3.0888730540e+00    0.1109947   0.07747924  26.56 0.0001687776    1.012    0.011
        20 -10.4085    204.5357    235.7620   1.1715254638e+02   2.2429957255e+00    0.2576844    0.2241173  61.99  0.001948302    2.074    0.518
        21  -9.1072    189.7145    237.3407   1.1988089205e+02   4.1114630190e+00   0.09814145   0.07592256  47.93 0.0006370783    1.637    0.389
        22 -10.8293    216.1010    233.5896   1.1494321331e+02   9.0148287368e-01    0.3108568    0.2618615  59.16  0.002280036    2.255    0.557
        23  -9.9801    195.1513    233.2007   1.1840950948e+02   3.7988902145e+00     0.193366     0.168849  43.89  0.001513921    1.570    0.363
        24  -9.7298    157.6777    231.4487   1.2489619728e+02   9.3457738965e+00    0.1814729    0.1441095 -74.28  0.001263785    2.106    0.525
        25  -9.1392    226.4592    231.5056   1.1297879429e+02  -2.6869751585e-01    0.1072924    0.0768685  20.89 0.0001418165    1.077    0.071
        26  -9.8940    186.3515    230.5498   1.1959509267e+02   5.3274655262e+00     0.225147    0.1536875  52.80  0.001099764    1.974    0.493
        27  -9.1494    230.6399    228.6723   1.1191282609e+02  -5.5143083458e-01    0.1160982   0.06152373  14.26  0.000142815    1.789    0.441
        28 -10.2871    149.8520    226.4524   1.2577460885e+02   1.1132334437e+01    0.2476886    0.1866783  85.42  0.001585175    2.284    0.562
        29  -9.8228    223.2007    227.1426   1.1288739794e+02   5.7640362183e-01    0.1768607    0.1274747  46.87  0.001224575    1.948    0.487
        30  -8.8399     49.3305    235.3284   1.4603303986e+02   2.3136101925e+01   0.09000569   0.07966539   8.46 0.0004943514    1.712    0.416
        31 -10.2730    161.9007    225.6435   1.2340709271e+02   9.4632973005e+00    0.1801219    0.1752656  11.50  0.001276552    1.372    0.271
        32 -10.1196    216.9872    223.6246   1.1340234928e+02   1.7668722217e+00    0.2476248    0.1795823 -41.06  0.001738493    2.137    0.532
        33  -9.7085    199.8346    225.0340   1.1650141151e+02   4.0186450773e+00    0.1632208    0.1333973  33.05   0.00122688    1.320    0.243
        34  -9.9947    181.5787    224.9086   1.1970339898e+02   6.6633694391e+00    0.2365524    0.1327723  39.60  0.001453955    1.427    0.299
        35 -10.2291    222.6603    216.3186   1.1139636380e+02   1.7228488205e+00     0.153539   0.09732377  41.18  0.001001034    1.634    0.388
        36 -10.1223    229.5002    222.5219   1.1120564693e+02   1.7862897969e-01    0.2052968     0.156352  22.67  0.001578865    1.199    0.166
        37 -10.5086    226.2701    220.0312   1.1135938873e+02   8.5556233457e-01    0.2455855    0.1903972  16.26  0.001225631    1.144    0.126
        38  -9.5647    173.0150    222.9891   1.2100847402e+02   8.1531604479e+00    0.1745593    0.1274564  54.89   0.00113911    1.756    0.430
        39 -10.3958    192.5822    221.0005   1.1720857492e+02   5.5111890156e+00    0.2632427    0.2139646  52.16  0.001866768    1.693    0.409
        40 -11.3695    248.6864    216.3293   1.0728786916e+02  -1.7594848456e+00    0.3603874    0.2922003 -37.44  0.002719834    2.141    0.533
        41  -9.9578    210.5031    219.3618   1.1387281726e+02   3.1134134164e+00    0.2074805    0.1517701  20.44  0.001309846    1.018    0.018
        42  -9.6596    203.9819    220.7420   1.1518411849e+02   3.8935764867e+00     0.153646   0.07539581  35.30 0.0008898605    1.559    0.359
        43 -10.3617    233.0730    214.8025   1.0948279151e+02   4.4418128450e-01    0.2352095    0.2062374 -10.39  0.001575076    1.522    0.343
        44  -9.6034    168.8252    216.1476   1.2088061563e+02   9.6453812925e+00    0.1762736    0.1375334  43.80  0.001208916    1.289    0.224
        45 -11.1447    236.9837    208.4667   1.0788355509e+02   5.3243350576e-01    0.4286443    0.3634301  70.90  0.002814913    2.824    0.646
        46 -10.5271    185.6163    213.3104   1.1737469595e+02   7.4536915495e+00    0.2552814    0.2168084 -38.61  0.001236791    1.604    0.377
        47 -10.9712    131.5772    213.1841   1.2778924687e+02   1.5739276886e+01    0.3313352    0.2011932 -63.78  0.001924017    2.375    0.579
        48 -11.7135    215.5575    210.1909   1.1165254080e+02   3.3715837106e+00    0.4147093    0.3363514   7.58  0.002800147    1.170    0.145
        49 -10.4212    204.1625    211.1546   1.1375235730e+02   4.9310772499e+00    0.2223607    0.1702147  53.22  0.001463431    1.884    0.469
        50 -10.7850    204.7445    206.6606   1.1297010891e+02   5.3580114882e+00    0.2706501    0.1661284 -11.37  0.001139168    1.889    0.471
        51 -10.2911    176.2230    210.9455   1.1877371506e+02   9.1841642536e+00     0.314889    0.2052252  59.74  0.001728958    2.433    0.589
        52 -10.8311    227.5073    209.9676   1.0963749079e+02   1.6940270652e+00    0.2787112     0.173856  12.14  0.001601663    1.413    0.292
        53 -10.0396    227.0171    205.9597   1.0909182511e+02   2.1768687836e+00    0.2484076    0.1611417  13.49  0.001346144    1.306    0.234
        54  -9.7524    191.8240    209.0418   1.1562690879e+02   7.0303001522e+00    0.1905089    0.1500163  -9.44  0.001328676    1.363    0.266
        55  -9.8548    147.7814    209.9139   1.2413107488e+02   1.3738134999e+01    0.2006332     0.168228  76.58  0.001349456    1.631    0.387
        56 -11.6154    238.6529    189.0169   1.0443961458e+02   2.2824829801e+00    0.4986907    0.3422071  -5.94  0.003372426    1.308    0.235
        57 -11.3275    231.3979    186.6458   1.0519673884e+02   3.6094509667e+00    0.3704658    0.3016984   1.25  0.002588898    1.151    0.131
        58 -10.3443    228.9901    200.6760   1.0792703028e+02   2.4487447950e+00    0.2403516    0.1624805  -5.03  0.001227238    1.388    0.280
        59 -12.2598    224.4352    192.9943   1.0741634585e+02   3.9502760127e+00    0.5052029    0.4198959 -53.08  0.003365151    2.145    0.534
        60 -12.1936    245.2258    203.4456   1.0580001207e+02  -9.9105243177e-02    0.8849468    0.4871363  50.56   0.00478982    3.054    0.673
        61 -12.1374    247.5092    192.7890   1.0369975952e+02   6.3598816824e-01     0.542498    0.3689158 -24.98  0.003768775    1.567    0.362
        62 -11.7384    243.9796    182.7528   1.0252565423e+02   2.1689595344e+00    0.6218925    0.5211418  68.63  0.004022862    2.452    0.592
        63 -10.8260    231.9279    194.9885   1.0651916741e+02   2.6267091473e+00    0.2393622    0.2067956   6.38  0.001143378    1.289    0.224
        64 -10.7675    124.3440    206.1049   1.2843417243e+02   1.7935741184e+01    0.2743798    0.1390693  44.42            0    1.574    0.365
        65 -10.9580    196.7734    204.7390   1.1408803069e+02   6.7937015436e+00    0.3926266    0.2253982  53.05  0.002049227    2.503    0.601
        66  -9.7988    184.2865    202.4861   1.1602890299e+02   9.0164021442e+00    0.2741548    0.1030233 -33.42  0.001223224    3.445    0.710
        67 -10.9166    236.0756    182.1328   1.0366002572e+02   3.4041297243e+00    0.2542518    0.2184031  38.72  0.001452385    1.519    0.342
        68 -10.0793    211.0695    201.3275   1.1103900310e+02   5.0196030719e+00    0.2241616    0.1606867  11.60 0.0009236305    1.211    0.175
        69 -10.4026    177.9439    199.1407   1.1671720059e+02   1.0465333730e+01    0.3146743    0.1960184  63.02  0.001486155    3.133    0.681
        70  -9.9449    203.3172    198.2845   1.1191163570e+02   6.5618460547e+00    0.1784661     0.153958 -26.90 0.0008652786    1.462    0.316
        71 -10.3307    148.6843    197.4974   1.2226953955e+02   1.5440194295e+01    0.2774356     0.193726 -80.88  0.001476251    2.617    0.618
        72  -9.6414    140.6764    198.3270   1.2403787566e+02   1.6604626951e+01    0.1256885   0.08667027  59.54 0.0003607104    1.692    0.409
        73 -11.2566    216.4076    195.3909   1.0916483620e+02   4.8913388987e+00    0.2717516    0.2199225 -44.45  0.001618091    1.882    0.469
        74 -10.1387    209.9987    195.5366   1.1029353128e+02   5.8556113200e+00    0.2333369    0.2193457  35.61  0.001223429    1.492    0.330
        75  -9.8321    206.6783    192.0023   1.1029591265e+02   6.7958985998e+00    0.2442942    0.1462065 -52.58  0.001212552    3.270    0.694
        76 -10.0389    164.0084    203.0223   1.1998413227e+02   1.2164142745e+01    0.1516439    0.1234945  29.32  0.001012276    1.048    0.045
        77  -9.1069     60.5251    194.5239   1.4119081292e+02   2.8934413594e+01    0.1223141   0.09240145  54.80 0.0001991884    1.024    0.023
        78  -9.2377    160.3266    193.6657   1.1934402447e+02   1.4110546673e+01    0.1229169   0.09158399  60.95 0.0007051554    1.717    0.418
        79  -9.9291    210.4965    190.2081   1.0932658608e+02   6.4121645304e+00    0.1943142    0.1566525  66.66  0.001179805    2.215    0.549
        80 -10.9452    249.6752    177.9406   1.0080699994e+02   1.8467112545e+00    0.5068468    0.1825123 -25.52   0.00244054    2.757    0.637
        81  -9.3416    191.3780    187.2194   1.1228145691e+02   9.8717576351e+00    0.1502064    0.1176383 -40.43 0.0007133537    1.622    0.384
        82  -9.6327    224.8981    184.1478   1.0583455343e+02   4.8797488782e+00    0.1704713    0.1476607  19.37 0.0007672766    1.248    0.199
        83 -10.0633    147.5644    179.7516   1.1985911300e+02   1.8444844569e+01    0.2218701    0.1290701 -41.27   0.00111673    2.072    0.517
        84  -9.3967     25.4119    178.7758   1.4821862471e+02   3.5890898341e+01      0.14869    0.0957674 -72.04 0.0009426003    1.669    0.401
        85  -9.6906    218.1692    177.6868   1.0583421937e+02   6.7037615572e+00    0.1971522    0.1587937 -27.04  0.001307542    1.421    0.296
        86 -11.2329    236.5065    196.6489   1.0605910080e+02   1.7928711066e+00    0.4035234    0.2176374  19.74  0.002276415    1.711    0.415
        87  -9.0712    211.5343    176.4987   1.0677215444e+02   7.9312929178e+00    0.1243592    0.1020003  17.90 0.0008093271    1.042    0.040
        88  -9.0479    184.3204    165.2960   1.0977810700e+02   1.4177274415e+01    0.1355566   0.09256525  14.21 0.0002972625    1.615    0.381
        89  -9.0364    243.4572    155.5516   9.7600199265e+01   5.2552887624e+00    0.1213969   0.09827225   5.17 0.0002591224    1.021    0.020
        90  -9.4416    229.1045    153.5046   9.9459483113e+01   7.8667296243e+00    0.1774546    0.1116676  38.62 0.0005036257    1.498    0.333
        91  -9.5282    118.4096    152.7212   1.2214558863e+02   2.8532986473e+01    0.1778632     0.133922 -41.71 0.0008297816    1.570    0.363
        92  -9.0406     39.6856    153.6888   1.4300128341e+02   3.9761249009e+01     0.113901   0.09408133 -40.66 0.0004009261    1.634    0.388
        93 -10.4223    133.8109    151.6176   1.1819443545e+02   2.5929747555e+01    0.2142821     0.116705  49.52 0.0009495373    1.756    0.431
        94 -10.3992    241.0475    149.3752   9.6758316667e+01   6.3685227531e+00    0.2126067    0.1796338 -24.31 0.0007658901    1.310    0.237
        95  -9.2542    214.3224    149.6930   1.0118070597e+02   1.0946468914e+01    0.1154779    0.1062275 -83.19   0.00057148    1.643    0.391
        96  -9.3615    244.9377    144.9800   9.5294025757e+01   6.2459438137e+00    0.1501527    0.1225495  10.48 0.0009917452    1.057    0.054
        97 -10.5689    248.4248    143.2207   9.4425876479e+01   5.8792506837e+00    0.2294481    0.1059013 -22.70  0.001129444    2.068    0.516
        98  -9.3326    241.7858    138.1905   9.4386048546e+01   7.5843483150e+00    0.1778167    0.1263541  10.77 0.0004439688    1.344    0.256
        99  -9.0504    162.7034    136.6699   1.0855405045e+02   2.3000599391e+01    0.1454827    0.1087335   8.80 0.0003369616    1.637    0.389
       100  -9.6065     96.0629    134.7799   1.2489287599e+02   3.6233201306e+01    0.1976326    0.1075551  40.28 0.0008740146    1.686    0.407
       101  -8.9683    121.7078    133.6849   1.1776320076e+02   3.1800706594e+01    0.1407082    0.1151077  -0.01 0.0002048991    1.596    0.374
       102 -10.0114    235.7691    130.1116   9.3601973650e+01   9.6359739359e+00    0.1937859     0.173301  46.06 0.0005196741    1.346    0.257
       103  -9.2911    231.1568    129.8638   9.4259215817e+01   1.0502725643e+01    0.1851591    0.1351455   8.90 0.0004504221    1.358    0.264
       104 -10.3594    200.9070    125.7347   9.8443768256e+01   1.6929748425e+01    0.3788643    0.1911239 -29.83  0.001670545    2.043    0.511
       105  -9.3270    186.5187    128.0493   1.0168831641e+02   1.9529525993e+01    0.2074527    0.1378595 -33.03 0.0006047633    1.557    0.358
       106  -9.3400    117.3413    125.3309   1.1719055430e+02   3.4400053326e+01    0.1490275    0.1177997   0.31 0.0007051388    1.747    0.427
       107  -9.6347    213.2724    123.0612   9.5667874738e+01   1.4832963690e+01    0.2992494    0.1500914  26.62  0.001185329    2.759    0.638
       108  -9.6595    232.1590    121.1472   9.2206141021e+01   1.1445698832e+01    0.1971364    0.1575868   4.41 0.0004924425    1.171    0.146
       109  -9.5325    171.5392    120.9878   1.0311425843e+02   2.3880544112e+01    0.2202615    0.1442721 -34.58  0.000883026    1.608    0.378
       110  -9.2962    213.4597    119.5049   9.4828751896e+01   1.5299764485e+01     0.138395     0.120681   6.80 0.0001102443    1.056    0.053
       111 -10.1498    192.4127    118.4500   9.8336692347e+01   1.9813619342e+01    0.2638105    0.2430829 -84.28 0.0008557445    1.361    0.265
       112  -9.0094    166.0000    119.0504   1.0384548502e+02   2.5422772712e+01    0.2218176   0.08462921 -39.16 0.0005041065    2.762    0.638
       113  -9.0614    226.5329    117.0122   9.2147654093e+01   1.3062522405e+01    0.1760027    0.1033222 -49.60 0.0004613888    2.306    0.566
       114  -8.9978    178.5026    115.5382   1.0036842132e+02   2.3291521475e+01    0.1470527    0.1350768  20.99 3.503641e-05    1.035    0.033
       115 -10.0669    110.0345    115.4800   1.1706208625e+02   3.7953365174e+01    0.2419973    0.1408499  41.53  0.001045934    1.633    0.388
       116  -9.5264    209.4867    114.0513   9.4237886533e+01   1.6892315230e+01     0.204286    0.1300503 -30.59 0.0005094983    1.529    0.346
       117  -9.8522    153.2742    114.1269   1.0552553656e+02   2.9119126773e+01    0.2832334    0.1989757  74.97  0.000877255    2.039    0.510
       118  -9.5944    241.6534    112.6194   8.8924291450e+01   1.0764149380e+01    0.2098254    0.1600218  87.55  0.001137494    2.209    0.547
       119 -10.1863     25.7104    111.3365   1.4325067136e+02   5.0960187476e+01    0.2463995    0.1545039 -41.16  0.001297294    2.001    0.500
       120  -9.7634    237.1171    107.2316   8.8352429332e+01   1.2301251693e+01    0.2049162     0.162734  13.33  0.001216188    1.252    0.201
       121  -9.3513    197.4579    107.0557   9.4663391251e+01   2.0496186302e+01     0.211227    0.1369626 -29.92 0.0007953618    1.534    0.348
       122  -9.2258    108.4314    106.8081   1.1550617456e+02   4.0179370993e+01     0.207604    0.1429286 -39.41 0.0007569151    1.645    0.392
       123 -10.4205    228.8414    104.3859   8.8894301797e+01   1.4292617803e+01     0.233286    0.2025011 -57.72 0.0006584493    1.421    0.296
       124  -9.3201    214.1170    104.8176   9.1274190335e+01   1.7252772995e+01    0.1902005    0.1512139  13.57 0.0004219905    1.305    0.234
       125  -9.0338    205.6637    105.6703   9.2885807092e+01   1.8926157651e+01    0.1497743    0.1036277  15.65 0.0006785727    1.730    0.422
       126 -10.5511    246.9247    102.7076   8.5984510839e+01   1.1014064486e+01    0.2823671     0.169269 -23.54 0.0004989306    1.494    0.331
       127 -10.3509    234.3555     95.2123   8.5948183577e+01   1.4391333467e+01    0.2461506    0.1546903 -35.14  0.000978086    1.485    0.327
       128  -9.4609    171.5450     96.0418   9.6838810297e+01   2.8187909873e+01    0.2164126     0.122987 -57.03 0.0008086335    2.525    0.604
       129 -10.2537    206.0209     98.4377   9.1041365418e+01   1.9914549989e+01    0.3470162    0.2782421  27.56  0.001448381    1.279    0.218
       130 -10.0425    150.8731     92.4934   1.0043129871e+02   3.3729093124e+01     0.229117    0.2121126 -37.50 0.0007403588    1.118    0.105
       131  -9.1263    227.6736     88.3290   8.5221176442e+01   1.6664171179e+01    0.1380704    0.1004257 -57.72  0.000705061    1.704    0.413
       132  -9.2701    250.6797     87.7101   8.2089880842e+01   1.2131049431e+01    0.1278855   0.09078421  14.28 0.0002604757    1.602    0.376
       133  -9.2682    245.4554     87.4793   8.2674637446e+01   1.3167402384e+01    0.1298046    0.1132935 -18.94 0.0001071679    1.012    0.011
       134  -9.6489    235.9947     86.7000   8.3698457294e+01   1.5153597860e+01     0.177657    0.1670068 -10.51 0.0004213109    1.061    0.057
       135 -10.2199    218.5121     86.0338   8.5964881366e+01   1.8936501409e+01    0.2189302    0.1298852 -26.98  0.001034456    1.602    0.376
       136  -9.7039    192.5368     84.2775   8.9664980508e+01   2.5118169033e+01    0.2891927    0.1336769 -36.51  0.001139948    2.086    0.521
       137 -10.2114    172.1129     84.2204   9.3471612778e+01   3.0051755581e+01    0.3022366    0.1906927 -59.35  0.001033934    2.118    0.528
       138  -9.5766    186.1647     81.6563   9.0078138126e+01   2.7047000452e+01    0.3817773    0.2070414 -66.56   0.00117957    4.146    0.759
       139  -9.6420    244.9760     80.9404   8.1194804899e+01   1.4063613785e+01    0.2058739    0.1440203 -54.86 0.0006604355    1.691    0.409
       140  -9.8867    240.7599     76.6800   8.0684277861e+01   1.5438006547e+01    0.3420283    0.1991374  40.28   0.00159305    1.952    0.488
       141  -9.5370    196.2883     82.6468   8.8582470910e+01   2.4478146047e+01    0.1504635    0.1100246 -60.61 0.0007024896    1.671    0.402
       142  -9.6896    158.0053     76.2566   9.4098103166e+01   3.4903691267e+01    0.2985574    0.1937687 -49.58  0.001282529    1.684    0.406
       143 -10.4940    139.7429     74.5419   9.7815638773e+01   3.9775119058e+01    0.3417476    0.1817573 -50.62  0.001192107    2.171    0.539
       144  -9.6399    207.8595     74.3959   8.4528167816e+01   2.2955724926e+01     0.201414    0.1252271  45.46 0.0005608338    1.681    0.405
       145 -10.8862    230.4190     71.4807   8.0677127211e+01   1.8266465485e+01    0.3258477    0.1051094 -33.18  0.001221955    2.614    0.617
       146  -9.9958    127.2618     71.9919   1.0024251599e+02   4.3313644760e+01    0.2107745    0.1370551 -39.93 0.0009006636    1.580    0.367
       147  -9.2675    107.0369     71.7682   1.0608160253e+02   4.8061312355e+01    0.2112228     0.126616  47.89 0.0008796672    1.642    0.391
       148  -9.5976    215.7854     69.6776   8.2137702522e+01   2.1765641809e+01    0.2198003     0.169909  38.14  0.001093744    1.394    0.283
       149 -10.0850     81.0016     70.4934   1.1459684414e+02   5.3646965208e+01    0.2094394    0.1234154  62.62 0.0008090094    2.426    0.588
       150 -10.1512    239.1787     68.1288   7.8788333205e+01   1.6816491606e+01    0.2268336    0.1713876 -25.14 0.0006414521    1.193    0.162
       151  -9.9999    234.4767     67.2079   7.9111400924e+01   1.7928097580e+01    0.3788107    0.1343788 -20.71  0.001303658    3.380    0.704
       152  -9.1844    219.9347     68.9699   8.1390333417e+01   2.0912891717e+01    0.1591486    0.1576343  23.75 0.0003590226    1.073    0.068
       153  -9.3879    188.1934     69.2456   8.6226437362e+01   2.8440591290e+01     0.210471    0.1703522 -61.06 0.0006393186    1.365    0.267
       154 -10.4492     43.6717     68.2377   1.2922165741e+02   5.9787742149e+01    0.2910125     0.216938 -24.86  0.001550074    1.612    0.379
       155  -8.8157    176.7062     67.6298   8.7770039551e+01   3.1574679634e+01    0.1591274    0.1166047  17.89  0.000702695    1.725    0.420
       156 -10.3412    245.4710     65.7063   7.7491438652e+01   1.5802176964e+01    0.2452404    0.1981785 -37.96 0.0006808278    1.132    0.116
       157  -9.9381    214.3395     62.0339   8.0299359617e+01   2.3112833915e+01     0.202355    0.1689674 -31.51 0.0005221742    1.125    0.111
       158  -9.1100    205.4534     61.5283   8.1378933328e+01   2.5296113591e+01    0.1420864    0.1356349 -36.08  0.000185639    1.005    0.005
       159  -9.8318    231.3310     58.9927   7.7405441597e+01   1.9625351554e+01    0.1985807    0.1654404 -27.16  0.001021246    1.101    0.092
       160 -10.0713    223.5088     59.5510   7.8474516016e+01   2.1311521067e+01    0.1358247     0.127506 -22.12 0.0001347486    1.040    0.039
       161  -9.5142    174.1905     59.2262   8.5677404663e+01   3.3499917228e+01    0.2114255     0.175593 -73.01 0.0008420969    1.334    0.250
       162  -9.4524    202.2989     61.6741   8.1871258406e+01   2.6042178653e+01    0.1511429    0.1055302 -59.26 0.0004027788    1.633    0.388
       163  -9.4849    140.4738     54.4817   9.0996966261e+01   4.3112955051e+01    0.1558509    0.1512795  71.79 0.0004053874    1.015    0.015
       164  -9.7944    149.4883     52.4831   8.8300987488e+01   4.1054427847e+01    0.1552317    0.1506191  60.59 0.0001635784    1.012    0.012
       165  -9.0145    105.6780     52.3398   9.9664349111e+01   5.2217411178e+01    0.1587395    0.1220596 -78.98 0.0007050555    1.720    0.418
       166  -9.7267    195.0828     49.4524   7.9401135571e+01   2.9482911998e+01    0.3288942    0.1767776 -33.39  0.001229016    1.754    0.430
       167  -9.6503    220.9062     44.5301   7.4792911214e+01   2.3756699626e+01    0.2005236    0.1352735  67.34   0.00102272    1.569    0.363
       168  -9.3673    189.5540     44.5015   7.8708203771e+01   3.1552647971e+01    0.1437453    0.1426884 -52.12 4.060115e-05    1.042    0.040
       169  -9.2807    213.9974     42.8159   7.5101867547e+01   2.5613237072e+01    0.2211004    0.1302413 -45.27 0.0007466914    1.623    0.384
       170  -8.9237    184.3537     43.3035   7.9093207901e+01   3.3069106775e+01    0.1572296    0.1097294  32.73 9.326334e-05    1.708    0.415
       171  -9.5266    132.4609     43.5231   8.8917547985e+01   4.6987263487e+01    0.1547779     0.149791  61.40 5.942954e-05    1.002    0.002
       172 -10.2456      5.1145     41.0378   1.4264833877e+02   6.9325716839e+01    0.2741505    0.1447088  84.83  0.001372881    2.095    0.523
       173 -10.1589    173.6556     40.1969   7.9736959021e+01   3.6327157421e+01    0.2548006    0.2186914  59.47 0.0008385118    1.151    0.131
       174 -10.2189    105.1774     40.1676   9.4971473668e+01   5.4505943432e+01    0.2149689    0.1844779 -69.00 0.0009458754    1.338    0.252
       175 -10.1781     92.9899     40.2877   9.9009400287e+01   5.7353430335e+01    0.2145101    0.1964964  48.84 0.0008988553    1.088    0.081
       176  -9.1768    165.4394     39.4893   8.0843158625e+01   3.8645270391e+01    0.1503593    0.1467237  67.73 0.0001810878    1.033    0.032
       177  -9.6153     47.3308     39.3283   1.1836534820e+02   6.6016205861e+01    0.1434159   0.09942581 -21.94 0.0005722388    1.713    0.416
       178 -10.7308    248.4882     37.8356   7.0422041517e+01   1.8342205051e+01    0.2354251    0.2166616  19.79  0.000509306    1.256    0.204
       179 -10.2003    229.4818     37.0479   7.1927840093e+01   2.2624423752e+01    0.2431928    0.1990707  71.78 0.0005027322    1.308    0.236
       180  -9.5415     96.3280     37.6689   9.6745924497e+01   5.7042892271e+01    0.1536495    0.1193095 -76.00 0.0007051457    1.713    0.416
       181 -10.2193    218.1936     34.3098   7.2311657018e+01   2.5592277813e+01    0.2672961    0.1791734 -35.69 0.0006389989    1.355    0.262
       182  -9.2805    160.4697     34.4674   7.9969802596e+01   4.0668261710e+01    0.1528859    0.1448347 -83.79  0.000231929    1.034    0.033
       183  -9.7082    104.7076     34.2431   9.2597312488e+01   5.5592478517e+01    0.2530335    0.1672637  22.79  0.001060289    1.993    0.498
       184 -10.2467    163.8132     31.4082   7.8362176408e+01   4.0139387947e+01    0.4915919    0.1959128 -39.95  0.001621561    2.441    0.590
       185  -9.9874    242.4543     37.7661   7.0922140911e+01   1.9643244119e+01    0.1729125    0.1188857 -13.19  0.000472136    1.541    0.351
       186  -9.3951    216.2937     30.3252   7.1409108454e+01   2.6499955975e+01    0.1366826    0.1037384  27.06 0.0004408236    1.620    0.383
       187  -9.4969    194.0066     29.9683   7.3726912749e+01   3.2175821082e+01    0.1768297    0.1622189 -44.49 0.0007383812    1.060    0.056
       188  -9.2386    170.4938     28.9815   7.6516407183e+01   3.8602120340e+01    0.2309113    0.1466996 -27.96  0.001033911    1.596    0.374
       189 -10.2724    220.9333     23.9928   6.9244214603e+01   2.6062951408e+01    0.1658503    0.1464252 -87.00 0.0009864037    1.141    0.123
       190 -10.7872    237.8165    230.9831   1.1111661694e+02  -1.6842488862e+00     0.343195    0.2354146  53.30  0.002136994    3.030    0.670
       191  -9.1538    191.3019     21.6842   7.1512671687e+01   3.3814658398e+01    0.1547463   0.09846319 -58.35 0.0004133773    1.617    0.382
       192 -10.9237    243.1740    247.4300   1.1256142117e+02  -3.7298263659e+00    0.2595787    0.2184027  13.94  0.001457268    1.558    0.358
       193  -9.9326    206.3133     20.1844   6.9523372165e+01   3.0079632733e+01    0.2248861    0.1853293  60.26 0.0005506931    1.275    0.216
       194 -11.3824    241.3414    239.7622   1.1180185991e+02  -2.8803528556e+00    0.3163567    0.2439568  -9.78  0.001939033    1.472    0.320
       195  -9.6158    249.7850     22.7050   6.6648946387e+01   1.9646035385e+01    0.1854824    0.1556872  45.42  0.001176836    1.430    0.301
       196  -8.7643    174.5500     17.5120   7.2135618150e+01   3.8784378122e+01    0.1491001    0.1354221 -71.38 1.675059e-05    1.053    0.050
       197 -10.0071    120.9985     16.6316   8.0612940875e+01   5.3766849833e+01    0.2838213    0.2044302  22.48 0.0009000044    1.613    0.380
       198 -10.0253     62.9865     15.0354   9.8552909556e+01   6.7974025122e+01    0.1714545    0.1542405 -12.06 0.0009294338    1.056    0.053
       199  -9.9983    131.4981     13.9059   7.7322802630e+01   5.1184584965e+01    0.2186316    0.1512256 -21.44  0.001018953    1.549    0.355
       200 -11.1582    241.3392    222.6998   1.0936984022e+02  -1.3912177323e+00    0.6184929    0.3521182  52.55  0.003142495    4.072    0.754
       201  -8.9327    160.5061     10.5565   7.1506611537e+01   4.3393061197e+01    0.1486003    0.1370994 -89.75 0.0001059246    1.015    0.014
       202 -11.7075    249.1445    242.2301   1.1096555409e+02  -4.0200745895e+00    0.3677045     0.219082 -26.44  0.002728242    2.000    0.500
       203 -10.8033    248.1110    235.3376   1.1016247437e+02  -3.3343039123e+00    0.2238206    0.1997896  -7.55 0.0009658477    1.783    0.439
       204 -10.8315    247.9024    230.3607   1.0948536355e+02  -2.8905240515e+00    0.3135222     0.180416  36.04  0.001980169    1.609    0.378
       205  -9.3901    218.9528    248.9728   1.1651285484e+02  -8.9485336934e-01    0.1399034    0.1114808  39.53   0.00112142    1.698    0.411
       206 -10.7466    233.6979    247.3350   1.1399146796e+02  -2.5823495182e+00    0.2680851    0.1821685  32.77  0.001553949    1.418    0.295
