#   1 NUMBER                 Running object number                                     
#   2 MAG_AUTO               Kron-like elliptical aperture magnitude                    [mag]
#   3 X_IMAGE                Object position along x                                    [pixel]
#   4 Y_IMAGE                Object position along y                                    [pixel]
#   5 X_WORLD                Barycenter position along world x axis                     [deg]
#   6 Y_WORLD                Barycenter position along world y axis                     [deg]
#   7 A_WORLD                Profile RMS along major axis (world units)                 [deg]
#   8 B_WORLD                Profile RMS along minor axis (world units)                 [deg]
#   9 THETA_WORLD            Position angle (CCW/world-x)                               [deg]
#  10 FWHM_WORLD             FWHM assuming a gaussian core                              [deg]
#  11 ELONGATION             A_IMAGE/B_IMAGE                                           
#  12 ELLIPTICITY            1 - B_IMAGE/A_IMAGE                                       
         1 -15.8189    248.7557    140.6669   4.1568820418e+01   8.0583720765e+00     3.887106    0.6526728 -30.96   0.01053157    7.316    0.863
         2 -19.2291    234.0833     73.3684   2.9178894726e+01   1.9269438998e+01     8.245501     6.330521 -21.03   0.05316093    1.283    0.221
         3 -13.3679    168.3215     41.4637   2.8251616008e+01   3.7383435282e+01    0.4499843    0.4143076 -61.86 0.0005071036    1.053    0.051
         4 -14.8017    125.8801     25.2528   2.8931813429e+01   5.0286380569e+01    0.8276989     0.547289 -70.16  0.003874139    1.648    0.393
         5 -11.8487    198.1919     17.5401   1.8466969856e+01   3.3318783323e+01    0.3939484    0.2355923 -55.85  0.001350788    1.437    0.304
         6 -13.2321    249.2406     16.1122   1.5281950253e+01   2.3279181513e+01    0.2997417    0.2110133 -45.65  0.001334547    1.026    0.026
         7 -14.4054    130.8846      5.9091   2.0690246865e+01   5.1041738638e+01     0.786675    0.6135353  24.28  0.004245596    1.597    0.374
         8 -12.3382    145.0574      8.1983   2.0018190915e+01   4.7124702577e+01      0.24938    0.1966183 -36.39 0.0009624681    1.244    0.196
         9 -13.2054    146.6230    142.7934   5.9539977648e+01   2.4039056058e+01    0.5450541    0.3525314 -63.68  0.002205057    2.152    0.535
        10 -13.7542     67.9646    144.2934   8.1174163270e+01   3.7003317354e+01     1.051857    0.6151953  53.61  0.004130146    1.778    0.438
        11 -13.8267     46.2063    136.2066   8.7044946099e+01   4.1982695761e+01     0.552934    0.4454337   5.67 0.0009971835    1.508    0.337
        12 -15.9732     57.9403    133.1532   8.2658841911e+01   4.1280806891e+01      2.74834      1.49968  17.45  0.004600964    2.354    0.575
        13 -11.4737    161.9088    146.1522   5.6930886610e+01   2.0686527887e+01    0.1964047    0.1901639 -72.19 0.0004784479    1.235    0.190
        14 -14.3904    186.7068    172.9619   5.7294401953e+01   1.2148796816e+01    0.7435023    0.5855982  85.24  0.003966278    2.732    0.634
        15 -10.9600    200.9977    140.9496   4.8555455102e+01   1.4997039007e+01    0.1952462    0.1640988 -20.96 0.0003927545    1.019    0.018
        16 -13.8165    161.5467    128.1867   5.3091031685e+01   2.4108589917e+01    0.5672095    0.4928201  29.99  0.001743001    1.194    0.162
        17 -12.7041    178.3576    175.4881   5.9310795247e+01   1.2971181554e+01    0.3828273    0.2496858  51.58   0.00184153    2.144    0.534
        18 -12.8300     96.1044    121.7089   6.8146615012e+01   3.8063230545e+01    0.4873661    0.3124782  22.29  0.001433392    1.991    0.498
        19 -13.9422    176.4414    167.7504   5.8266276135e+01   1.4522192113e+01     0.758876    0.3435083 -50.92  0.003183393    2.965    0.663
        20 -12.2245    171.4870    173.8414   6.0345085279e+01   1.4263565242e+01    0.3802044    0.1970812 -48.85  0.001816541    2.250    0.556
        21 -12.1399    157.2801     90.7236   4.4548259695e+01   3.2015117509e+01    0.3358238    0.2410994 -43.98 0.0004194693    1.298    0.230
        22 -12.8237    158.1881     86.5938   4.3227645488e+01   3.2565132356e+01    0.4878075    0.2911395  56.18  0.001493117    1.814    0.449
        23 -11.1435    113.8406     88.8364   5.4263208278e+01   4.2114947029e+01    0.2208717    0.1833126 -74.20 0.0008529383    1.327    0.246
        24 -13.4873    130.4241     65.9109   4.2763030866e+01   4.2830198620e+01    0.6064812    0.3814487 -40.33  0.001723465    1.526    0.345
        25 -13.3186    133.3541     78.1421   4.6004819829e+01   3.9838268525e+01     1.023922    0.1737944 -43.95   0.00234249    5.641    0.823
        26 -11.5375    137.1513     76.8662   4.4747434439e+01   3.9189071707e+01    0.2363342     0.197831 -61.20  0.000547427    1.202    0.168
        27 -11.9334    158.4528     74.9385   3.9853956782e+01   3.4560543732e+01    0.3126141    0.2367176 -41.70 0.0007132321    1.217    0.178
        28  -9.9720    105.9804     70.9691   5.0791906571e+01   4.7693863599e+01    0.1876744    0.1764834 -57.23 0.0003501151    1.036    0.034
        29  -9.8293     47.5393    172.4899   9.0728359405e+01   3.2655569208e+01    0.1363171    0.1201312  57.41 6.674675e-05    1.016    0.016
        30 -10.7166    111.1297    168.1728   7.2908126326e+01   2.4810337749e+01    0.1923423    0.1601991  62.23 0.0004314573    1.331    0.249
        31 -11.6361    106.0344     61.9918   4.7606717341e+01   4.9481056498e+01    0.4732552    0.2096001 -39.76  0.001714611    2.238    0.553
        32 -11.8577    184.0078     58.4644   3.1152164217e+01   3.1341114255e+01    0.4715643    0.2671115 -19.52  0.001381801    2.155    0.536
        33 -14.5328      5.2995    147.7117   1.0151475740e+02   4.2834930113e+01     2.309599    0.6999771  89.74  0.008221967    3.263    0.693
        34 -12.8530    179.9307     39.0873   2.6145819267e+01   3.4943690346e+01    0.5510055    0.2859558 -55.72  0.001579958    1.918    0.479
        35 -12.1786    186.0303     48.7738   2.8201243637e+01   3.2252733819e+01    0.3441619    0.2258037 -26.62 0.0006418362    1.515    0.340
        36 -13.5001    188.8470     42.9688   2.6264986223e+01   3.2393626707e+01    0.5994332    0.4045359 -18.97  0.002424561    1.661    0.398
        37 -12.6331    126.2006     48.0044   3.7472202625e+01   4.6957104028e+01    0.3605878    0.2364843 -31.10  0.001109902    1.571    0.364
        38 -11.1387    115.0216     47.4919   3.9810718386e+01   4.9879146503e+01    0.2359496    0.1474105  58.92  0.001031838    1.592    0.372
        39 -11.0487    165.0102    198.9782   6.5838536782e+01   1.1126867655e+01    0.2120937    0.1843896  47.57 0.0006853247    1.494    0.331
        40 -12.1106    117.9990     43.5428   3.7602030453e+01   4.9760791623e+01    0.2441541    0.1975636 -39.60 0.0005511136    1.222    0.182
        41 -12.8843    123.1759     43.6084   3.6492298819e+01   4.8424040867e+01    0.3454536    0.3053776 -49.35 0.0005932472    1.096    0.088
        42 -11.5754    182.5336     31.4794   2.3667955687e+01   3.5292555303e+01    0.2625947    0.2152104 -57.00 0.0005985622    1.056    0.053
        43 -13.9527    124.7488     36.2544   3.3387620321e+01   4.9114422928e+01    0.6847116    0.3590071 -21.16  0.002695086    2.346    0.574
        44 -15.3221     18.4814    143.9267   9.7066805591e+01   4.2789601206e+01     1.312371     1.039941  20.46  0.003757115    1.394    0.283
        45 -11.9096    195.9553     27.6538   2.1371559414e+01   3.2688874657e+01    0.3643969    0.2442422   3.62  0.001817984    2.292    0.564
        46 -13.3321    204.2402    198.9135   5.8650434249e+01   6.0356025813e+00    0.4539182    0.3182517  34.92  0.003028725    1.591    0.372
        47 -12.2599    206.1396    160.8522   5.1645643570e+01   1.1170259191e+01    0.2399088    0.1975749   5.45   0.00028201    1.132    0.117
        48 -13.6144    172.1127    149.8567   5.5628251318e+01   1.8273711221e+01    0.4847362    0.3497783 -48.42  0.002642451    1.506    0.336
        49 -13.4592    192.2159    193.9935   5.9934123737e+01   8.2402345812e+00    0.8343575    0.4552599 -57.89  0.003309682    5.097    0.804
        50 -10.2154    208.5028    211.4945   5.9916145154e+01   3.8984469237e+00    0.1109982   0.08584324  -0.06  2.34259e-05    1.045    0.043
        51 -13.1499    133.4127    144.6816   6.3019328715e+01   2.6029177893e+01     1.299125    0.3500714 -54.28  0.003304205    5.805    0.828
        52 -12.9002    143.7835    145.5138   6.0753916585e+01   2.4006948840e+01    0.6120014    0.3166527 -60.10  0.002340143    2.881    0.653
        53 -12.1110    169.9060    202.9419   6.5498706373e+01   9.8609408503e+00    0.4275409    0.2920794  62.93  0.002124836    3.233    0.691
