#   1 NUMBER                 Running object number                                     
#   2 MAG_AUTO               Kron-like elliptical aperture magnitude                    [mag]
#   3 X_IMAGE                Object position along x                                    [pixel]
#   4 Y_IMAGE                Object position along y                                    [pixel]
#   5 X_WORLD                Barycenter position along world x axis                     [deg]
#   6 Y_WORLD                Barycenter position along world y axis                     [deg]
#   7 A_WORLD                Profile RMS along major axis (world units)                 [deg]
#   8 B_WORLD                Profile RMS along minor axis (world units)                 [deg]
#   9 THETA_WORLD            Position angle (CCW/world-x)                               [deg]
#  10 FWHM_WORLD             FWHM assuming a gaussian core                              [deg]
#  11 ELONGATION             A_IMAGE/B_IMAGE                                           
#  12 ELLIPTICITY            1 - B_IMAGE/A_IMAGE                                       
         1 -14.5645     68.4808    144.1979   1.1001441662e+02   3.7255606147e+01     5.227257     2.165139  62.19  0.003964127    4.983    0.799
         2 -14.4152    212.4221     20.4269   4.4494414047e+01   2.9340663590e+01     1.550804     1.082678  29.95  0.007816504    1.966    0.491
         3 -14.4399    199.5107     34.0844   4.9771158918e+01   3.0907635293e+01     2.266095     1.473362  28.62  0.008410875    2.159    0.537
         4 -13.3933      3.9820      6.5793   9.8091208910e+01   7.3094982361e+01     1.113821    0.5880376 -41.73  0.007172788    1.433    0.302
         5  -9.7521     59.5192      7.5035   7.1776831331e+01   6.6413571258e+01    0.1247379    0.1023425   3.92 3.220783e-05    1.029    0.028
         6 -11.1960     42.2161      4.0780   7.7169571553e+01   6.9468357403e+01    0.2635936    0.2174302 -60.48  0.001640738    2.336    0.572
         7 -12.5140      2.1444     21.9880   1.0528587468e+02   7.0542605157e+01    0.7879452     0.187344 -58.69  0.003069209    3.965    0.748
         8  -9.7255     61.5071      1.4498   6.7963731187e+01   6.6742691631e+01      0.12528   0.09920447  11.64 -1.224997e-05    1.026    0.026
         9 -10.0782     96.8506    200.6795   1.1138549074e+02   2.0542437155e+01    0.2877045    0.2331599  -8.89  0.001111926    2.056    0.514
        10 -15.9832     77.2969    246.0521   1.1966750221e+02   1.4975559962e+01     8.153772     2.700359  33.56   0.03195072    4.402    0.773
        11 -11.6434    193.3435    193.4773   9.0322012367e+01   4.8861880006e+00    0.8155258    0.4717687 -55.44  0.003693307    2.557    0.609
        12  -9.0806    234.2987    198.8936   8.3685357170e+01  -3.0800272744e+00    0.1922556   0.09373012 -51.53 0.0005425204    4.545    0.780
        13  -9.6015    141.1945    197.9903   1.0172339639e+02   1.3633012931e+01     0.200404    0.1668577  69.86 0.0004600888    1.265    0.210
        14  -9.3750     81.8711    195.1355   1.1384572030e+02   2.3929487443e+01    0.1572464    0.1554026  86.45  0.001072377    1.328    0.247
        15 -16.6462     12.7134    241.6053   1.3007126620e+02   2.3400818841e+01     2.906356     2.166727  25.63   0.02212955    2.199    0.545
        16  -9.9514     96.6548    190.7215   1.1014817943e+02   2.2613867034e+01    0.2542574    0.2486075  66.99  0.001155328    1.236    0.191
        17 -12.1694     68.2616    179.7323   1.1495303181e+02   2.9142651891e+01    0.4105351    0.2822195 -41.46   0.00222528    2.058    0.514
        18 -11.9375     72.8650    174.3222   1.1325645506e+02   2.9705232555e+01    0.2937197    0.2381703 -48.50  0.001761292    1.499    0.333
        19  -9.6704     99.5890    180.8655   1.0813605984e+02   2.4235381678e+01     0.209856    0.1787651  41.10 0.0006239101    1.245    0.197
        20  -9.0780    205.5343    180.5003   8.5465915005e+01   4.7513646105e+00    0.1367976    0.1245331  15.84 0.0001124069    1.045    0.043
        21 -10.3205     41.0030    178.4240   1.2072767886e+02   3.2806390710e+01    0.1871182    0.1350332 -85.03 2.648195e-05    1.163    0.140
        22 -13.2255     50.4370    107.5020   1.0860859895e+02   4.8269462720e+01     2.437701     1.103531 -80.71  0.008260085    3.982    0.749
        23 -12.5944     88.1341    157.7028   1.0726744424e+02   3.1223425973e+01     1.316648    0.6142535 -64.51  0.001885375    2.162    0.537
        24  -9.6848    173.9327    248.1671   1.0260156049e+02   3.4020313925e-02     0.182095    0.1396705  48.81  0.001230256    1.257    0.204
        25 -10.1235     45.4354    166.2242   1.1851019516e+02   3.5016976719e+01    0.1843387    0.1464685 -81.72 0.0007751318    1.094    0.086
        26 -10.6022     37.4390    167.7712   1.2046512336e+02   3.5554874095e+01    0.2705098    0.1422411  62.17 0.0009774364    1.888    0.470
        27 -11.1924     32.3302    165.1848   1.2134555884e+02   3.6669542090e+01    0.2653687    0.1651126  38.42  0.001004747    1.742    0.426
        28  -9.9609    230.9359    168.0500   7.8183496330e+01   2.0312741891e+00    0.3652625     0.169616 -53.94  0.001106183    5.455    0.817
        29  -8.9512     49.4868    161.4160   1.1703328958e+02   3.5640700897e+01    0.1269208    0.1058998  87.64 0.0001159133    1.017    0.017
        30  -8.7696    161.2449    165.3565   9.1571861254e+01   1.6175636349e+01    0.1430067    0.1130681  -9.43 0.0003897709    1.593    0.372
        31 -10.0972     47.1807    171.8810   1.1872832608e+02   3.3545264400e+01    0.2001542    0.1430016  75.89 0.0008401172    1.236    0.191
        32  -9.8161    188.9828    155.0000   8.3465318197e+01   1.2498696493e+01    0.2487938   0.08163442  45.47 0.0008085533    2.985    0.665
        33  -9.3655     48.7674    154.5532   1.1637265070e+02   3.7305120076e+01    0.1719657    0.1071195  52.17 0.0009298126    1.600    0.375
        34 -10.7822    134.0000    145.9842   9.3841487111e+01   2.5716731332e+01    0.8079157    0.2005859 -51.67  0.002199383    4.420    0.774
        35 -10.4647    133.0000    139.9867   9.2790733510e+01   2.7244153352e+01    0.5364144    0.1758723 -52.50   0.00166147    3.317    0.699
        36 -11.6446     54.2359    148.4406   1.1423847754e+02   3.8083596766e+01    0.4330511    0.2577633 -76.43  0.002253763    1.546    0.353
        37  -9.9745    174.7723    148.8672   8.5114023812e+01   1.6657239407e+01    0.2801229    0.2143027 -61.72 0.0009110932    1.570    0.363
        38 -10.5046     38.9603    146.5656   1.1777271099e+02   4.0244903484e+01     0.323108    0.1733187  50.48  0.001053858    1.917    0.478
        39 -10.5941     84.6617    144.0409   1.0583511617e+02   3.4946898769e+01    0.3368033    0.2307235  69.06  0.001124478    1.656    0.396
        40 -12.4390     89.6667    141.9797   1.0417510716e+02   3.4648233586e+01    0.2789206    0.2531971 -57.82 0.0004543529    1.133    0.117
        41 -10.8578    102.3660    141.7970   1.0087131445e+02   3.2578270958e+01    0.5875127    0.3441746 -32.27   0.00233607    2.641    0.621
        42  -9.2770     79.5336    139.6891   1.0639651648e+02   3.6751950486e+01    0.1910582    0.1265014 -75.34 0.0009323633    1.542    0.351
        43 -10.1313    111.3263    131.5215   9.6423863366e+01   3.3362686166e+01    0.2949274     0.243083 -20.44 0.0007679469    1.520    0.342
        44 -10.2220    106.0267    130.7505   9.7649113996e+01   3.4509237708e+01    0.3288559     0.260376  59.52  0.001228001    1.330    0.248
        45 -10.6931    135.7684    123.7816   8.8349215161e+01   3.0275266952e+01    0.3758699    0.1527278 -54.36  0.001142803    2.921    0.658
        46 -11.6548     44.9369    129.6525   1.1395171520e+02   4.3597166807e+01    0.3811802    0.2304649  23.84  0.001843905    2.130    0.531
        47 -11.1163     98.6895    127.8523   9.8984475111e+01   3.6481481798e+01    0.3423175    0.2843261  22.95 0.0009435122    1.429    0.300
        48 -16.5588      7.2104    203.6105   1.2915227905e+02   3.0986622473e+01     7.010948     1.423347 -74.33    0.0213328    3.788    0.736
        49  -9.9695    125.8856    127.5818   9.1763021814e+01   3.1455410519e+01     0.289932     0.197915 -89.93 0.0008309919    2.288    0.563
        50 -10.6713    117.2590    126.0678   9.3645602799e+01   3.3498182137e+01     0.334152    0.2195623 -50.70 0.0009414244    1.482    0.325
        51 -10.5552    120.4924    122.0121   9.1843820907e+01   3.3793226826e+01    0.3905482    0.2151033 -26.28  0.001287165    3.373    0.704
        52  -9.8988    107.9610    119.9933   9.4711963509e+01   3.6659313053e+01    0.2131249    0.2053792 -71.50 0.0002969555    1.015    0.015
        53 -12.2945     81.7797    164.4436   1.0983257488e+02   3.0646014510e+01     0.550138    0.4031109 -89.91 0.0006763052    1.364    0.267
        54 -13.5014     69.2890    160.8336   1.1228511769e+02   3.3257373626e+01    0.5387589    0.3991061 -45.32   0.00125641    1.626    0.385
        55 -11.3349    136.2958    171.2691   9.8274659521e+01   1.9834294190e+01    0.4385385    0.2035747  33.58  0.001668962    2.538    0.606
        56  -9.8117    167.7557    112.5271   7.7849656520e+01   2.5544344073e+01    0.3249168    0.2322336 -67.29  0.001382605    1.833    0.454
        57 -10.2131    135.0000    112.4978   8.5700367022e+01   3.2923679910e+01    0.3421667   0.08760861 -45.18 0.0009226681    3.838    0.739
        58 -11.5211    118.9532    109.1212   8.9040148330e+01   3.7017294058e+01    0.6331024    0.4384599 -73.19  0.002713275    1.932    0.482
        59 -10.7279    194.2227    167.4700   8.5056228481e+01   9.1618790425e+00    0.3273204    0.2954384 -47.26  0.000999585    1.244    0.196
        60  -9.9361    134.5190    102.9460   8.3270466830e+01   3.5099087206e+01     0.347533     0.151972 -43.68 0.0009343837    2.241    0.554
        61  -8.8157     93.6224    104.2872   9.4938423688e+01   4.2866820338e+01    0.1506592    0.1140991  78.16 0.0007016933    1.728    0.421
        62 -11.1238    242.1347    101.7085   6.1230142055e+01   1.0563270529e+01    0.2222996    0.1869072 -83.00  0.001191899    1.466    0.318
        63 -13.8097     43.3625    207.7022   1.2277158020e+02   2.6403361547e+01    0.5957224    0.5654684  74.62  0.001441966    1.417    0.294
        64 -10.1215     34.0260    100.3104   1.1227997642e+02   5.1644347602e+01    0.1719369    0.1562588 -70.20 0.0007155779    1.106    0.096
        65  -9.5141    121.4934     98.5517   8.5506726563e+01   3.8834530567e+01    0.1527347    0.1485768 -53.77 0.0001665201    1.023    0.022
        66 -10.0576    205.5078    110.2869   6.9517083943e+01   1.7193442169e+01    0.3128522     0.240713  40.93 0.0008371099    1.360    0.265
        67 -10.2793     42.5118    167.9145   1.1934941100e+02   3.4966833076e+01    0.1806196    0.1363377  89.71 0.0006381246    1.096    0.087
        68  -9.7982     75.1164     84.9578   9.5548296566e+01   5.0262107192e+01    0.2068738    0.1885121 -46.90 0.0003933634    1.026    0.026
        69  -8.5893     70.7148     81.7317   9.6097006120e+01   5.1631920634e+01    0.1355882    0.1013449 -23.36 0.0002113934    1.497    0.332
        70  -9.4392     61.9417     71.3510   9.6112737962e+01   5.5124379305e+01     0.181895    0.1659467 -11.60 0.0005073778    1.133    0.118
        71 -10.6742      1.8556     61.8313   1.1597547337e+02   6.2546382097e+01    0.3087516   0.07230423 -69.45  0.001105433    3.944    0.746
        72 -10.4579     13.4308     59.8886   1.1112904016e+02   6.2333532798e+01    0.1983446    0.1741418 -50.44  0.000389695    1.136    0.119
        73 -14.8475     52.9224    197.0456   1.2000259726e+02   2.7425400827e+01     1.866569      1.20224  67.70  0.007661282    1.350    0.259
        74 -12.2333    191.1807     40.2790   5.2722624051e+01   3.2214117805e+01    0.6183977    0.5044439  46.19 0.0009557236    1.297    0.229
        75 -11.4838    169.5817    232.8258   1.0130096405e+02   2.8956167461e+00    0.2878452    0.2435206 -85.29  0.001469817    1.643    0.391
        76  -9.1890     68.2247     52.3937   8.7675592469e+01   5.8071369158e+01    0.1740692    0.1275521  45.94 0.0008636453    1.644    0.392
        77 -11.0277    149.2465     45.2394   6.1789549340e+01   4.2273439592e+01    0.3339951    0.2585962 -75.48 0.0007160879    1.611    0.379
        78 -10.5818     71.8236    230.2401   1.1933076198e+02   1.8487881039e+01    0.2704898    0.1531122  53.28  0.001050408    1.412    0.292
        79 -10.1635    189.7046     15.0346   4.5642223260e+01   3.5671245206e+01    0.1889575    0.1803572 -63.52 0.0006088794    1.089    0.082
        80  -9.1029    163.6198    204.7591   9.8203844907e+01   8.3990140516e+00    0.1600601    0.1287246 -60.75  0.000371131    1.512    0.339
        81  -9.2179    107.8150    203.4093   1.0945928029e+02   1.8267712741e+01    0.1690197    0.1158584  35.49 0.0004075283    1.520    0.342
        82  -9.2107    211.0769    202.4655   8.8567794276e+01   3.3215781650e-01    0.1852241    0.1144209  38.37 3.755718e-05    1.456    0.313
        83 -11.5007    147.7774     51.8349   6.4304686396e+01   4.1638090050e+01    0.5999497    0.3771551 -80.07  0.002222199    2.869    0.651
