#   1 NUMBER                 Running object number                                     
#   2 MAG_AUTO               Kron-like elliptical aperture magnitude                    [mag]
#   3 X_IMAGE                Object position along x                                    [pixel]
#   4 Y_IMAGE                Object position along y                                    [pixel]
#   5 X_WORLD                Barycenter position along world x axis                     [deg]
#   6 Y_WORLD                Barycenter position along world y axis                     [deg]
#   7 A_WORLD                Profile RMS along major axis (world units)                 [deg]
#   8 B_WORLD                Profile RMS along minor axis (world units)                 [deg]
#   9 THETA_WORLD            Position angle (CCW/world-x)                               [deg]
#  10 FWHM_WORLD             FWHM assuming a gaussian core                              [deg]
#  11 ELONGATION             A_IMAGE/B_IMAGE                                           
#  12 ELLIPTICITY            1 - B_IMAGE/A_IMAGE                                       
         1 -10.0673    248.8405     37.2411   3.9141261674e+01   2.0459849870e+01    0.4622894    0.3246729 -57.81  0.002057515    1.256    0.204
         2 -10.5952    233.4427     44.0382   4.2188476359e+01   2.2799294087e+01    0.9685985    0.2089265 -42.25  0.003301228    3.592    0.722
         3 -10.1641      8.7749     26.4921   9.5649588203e+01   6.9524749062e+01     0.447926    0.2379285 -40.93  0.001989722    1.418    0.295
         4  -9.6568    187.3857     29.1449   4.3789264235e+01   3.5138218716e+01    0.5068184    0.3782036 -35.75   0.00163142    1.338    0.252
         5  -9.3378    153.0541     23.8768   4.7239647538e+01   4.4000713768e+01    0.5146255    0.1872451 -41.31  0.001535719    2.947    0.661
         6  -9.1438    128.8708     10.3974   4.6881848892e+01   5.1074566884e+01    0.3238268    0.1515797 -34.88   0.00128233    2.286    0.563
         7  -9.3070    134.3633     10.3772   4.5909607335e+01   4.9784032748e+01    0.3388813    0.2890849  77.99  0.001682632    1.212    0.175
         8  -9.8272    142.5745     21.4754   4.8238881165e+01   4.6772752965e+01    0.5342348    0.3832899 -68.40  0.002737886    1.758    0.431
         9  -8.7731    126.9732     14.0066   4.8515513195e+01   5.1194485837e+01    0.2905117    0.1847738 -54.36 0.0007891323    2.057    0.514
        10 -10.8381    133.2623     18.1175   4.8781511839e+01   4.9325464875e+01    0.8706082    0.3522615  47.90  0.002375267    2.235    0.553
        11 -10.7233    141.7443     12.8760   4.5517580223e+01   4.7808271515e+01    0.5127867    0.3842274 -43.66  0.001533727    1.472    0.321
        12  -9.3950     13.4836      9.0175   8.5213073875e+01   7.1955191480e+01    0.2663718    0.1330213 -20.36 0.0008888887    1.872    0.466
        13 -10.0186     16.6932      9.9228   8.3949051231e+01   7.1509406313e+01     0.518599    0.2342402 -20.17  0.002579939    2.397    0.583
        14 -10.4216     15.8997     17.3463   8.7999609492e+01   7.0470479820e+01    0.5841337     0.252599 -45.17  0.002394447    2.162    0.538
        15 -10.2849     23.0270     17.6037   8.4475385121e+01   6.9724922510e+01      0.46461     0.239646  31.70  0.002633337    2.148    0.534
        16 -10.0594    210.9080     18.3920   3.8323130792e+01   3.0861780130e+01     0.553214    0.3562003 -56.50  0.003081148    1.488    0.328
        17 -10.2561    204.5662     12.6143   3.7509420561e+01   3.2912258483e+01    0.3235886    0.2630839 -44.37 0.0008284603    1.203    0.169
        18  -9.8497    209.5316     11.5499   3.6778524604e+01   3.1890318006e+01    0.2517638    0.1977902 -79.30 0.0005645001    1.171    0.146
        19 -10.1115    197.1587     18.3378   3.9727935196e+01   3.4030842032e+01    0.4336075    0.2230155 -54.25  0.001543523    2.050    0.512
        20  -9.6445    193.3107     13.0857   3.8769238639e+01   3.5469958466e+01    0.3894425     0.277193  33.35    0.0016163    1.770    0.435
        21 -10.6269     87.8406     15.8589   5.8368667408e+01   5.9642048466e+01    0.3861272    0.3428127 -65.07  0.001222537    1.592    0.372
        22 -10.2800     91.2368     12.9324   5.6182731520e+01   5.9234845455e+01    0.3457868    0.2085595  24.90  0.001791932    1.670    0.401
        23  -9.0870     63.7148     18.2233   6.7184351997e+01   6.3931263163e+01    0.3676775    0.2378599  -0.05   0.00157733    1.545    0.353
        24  -9.1765     66.6643     12.8348   6.3615296387e+01   6.4024620021e+01    0.3732666    0.1952066 -21.60  0.001351412    1.855    0.461
        25  -9.4146     61.2434     12.0417   6.5147273840e+01   6.5066334624e+01    0.3147818    0.2867107   8.09  0.001439504    1.265    0.209
        26 -10.0478     51.8343     17.9203   7.1580731102e+01   6.5913197166e+01    0.3136795    0.2003163 -29.47 0.0005622038    1.501    0.334
        27 -10.2982     40.1577     14.1102   7.4645843320e+01   6.8118102506e+01     0.451116    0.2974923 -15.96  0.001793129    1.290    0.225
        28  -9.1693     33.4186     12.6728   7.6990289290e+01   6.9208130969e+01    0.2704679    0.1601342  28.25 0.0009814776    1.647    0.393
        29  -9.3663    248.0362     17.4671   3.4931953070e+01   2.2967924099e+01    0.3546232     0.172868 -65.29  0.001795838    2.137    0.532
        30 -10.8972    183.3784      9.6999   3.8940795313e+01   3.8135330198e+01     0.840255    0.3343401 -36.71  0.003227301    2.389    0.581
        31 -11.7012    186.3888      3.5560   3.6974910192e+01   3.7988842907e+01    0.2974711     0.266108 -37.61 0.0001936589    1.202    0.168
        32  -9.8042    182.2127      3.9411   3.7506172219e+01   3.8935412451e+01    0.2494662    0.1887172 -34.33 0.0008301684    1.386    0.278
        33  -9.5830    157.4055     15.7334   4.4006893946e+01   4.3780434816e+01    0.3858164    0.2989649   3.23  0.002191269    1.515    0.340
        34  -9.1989    121.4526     17.4008   5.0839586005e+01   5.2152362525e+01    0.2589774    0.2343254  -5.30 0.0008861044    1.147    0.128
        35  -8.6411    120.9962     13.5211   4.9505950832e+01   5.2625753181e+01    0.2710261    0.1824201 -63.62  0.001352726    2.116    0.527
        36 -11.3451    113.0579     12.8427   5.0899860580e+01   5.4499126309e+01    0.4241391    0.2956481 -15.33  0.002367846    1.513    0.339
        37  -8.6057    109.8498      7.8401   4.9657337531e+01   5.5659065235e+01    0.1848416    0.1720292 -46.96 0.0003018825    1.286    0.223
        38  -9.6099    113.5696      4.3041   4.7536615822e+01   5.5105957467e+01    0.5532851    0.2502857  46.40  0.002603807    1.896    0.473
        39 -10.4491    236.8772     13.0602   3.4827021465e+01   2.5756158014e+01    0.4455734    0.3367758 -19.32  0.002175715    1.605    0.377
        40  -9.6935    233.3550      6.1034   3.3566678255e+01   2.7224166759e+01    0.3249251      0.24969  70.51  0.001656868    1.347    0.257
        41  -9.0517    234.7891      1.4354   3.2452876134e+01   2.7387569640e+01    0.2047451     0.128997 -72.61  0.001099456    1.451    0.311
        42 -12.2157    100.9502     13.0811   5.3764489459e+01   5.7157546984e+01    0.4054054    0.3676941 -31.55  0.001576815    1.285    0.222
        43  -8.3361    229.0386     11.7956   3.5161007585e+01   2.7557213530e+01    0.2162596    0.1313161 -89.08   0.00121643    1.636    0.389
        44  -8.5249    171.3860     11.7090   4.0912391251e+01   4.0801861598e+01    0.1998945    0.1660038  -3.67 0.0006228103    1.408    0.290
        45  -8.3217     80.7002     12.2907   5.8876228911e+01   6.1432688418e+01    0.1908709    0.1288817  23.36 0.0002940513    1.364    0.267
        46  -9.3175     84.6530      9.9956   5.6717469041e+01   6.0863874267e+01    0.4433037    0.2592523  10.10  0.001715051    1.902    0.474
        47  -8.9130      1.4635      2.5518   8.8711516514e+01   7.3941607882e+01     0.249014   0.09988615 -37.81  0.001086405    1.925    0.481
        48 -10.3168      6.6417      8.6078   8.8810448298e+01   7.2626945626e+01    0.5325608    0.2246846 -37.51   0.00297551    1.842    0.457
        49  -9.0704      5.0113      3.2403   8.6975212848e+01   7.3551369460e+01    0.2240499    0.1477572  -2.34 0.0008014187    1.288    0.224
        50  -9.2582    162.0740     10.7121   4.1821835506e+01   4.3128723095e+01    0.4138092    0.1665526  63.94  0.001543268    2.164    0.538
        51  -8.7924    163.6075      7.0706   4.0535713386e+01   4.3085698545e+01    0.3059059    0.2241281  89.37  0.001451191    1.386    0.278
        52  -9.9023     24.9218      9.8606   7.9662905041e+01   7.0624724022e+01    0.3429375    0.2860188  26.67  0.002007972    1.574    0.365
        53  -9.9363    150.1787      2.2677   4.0831655209e+01   4.6694324529e+01    0.4496064    0.2007293  46.89  0.002050528    2.151    0.535
        54  -9.2525    144.8241      5.6489   4.2666480555e+01   4.7699451829e+01    0.3858068    0.1930189  85.53  0.001638776    2.617    0.618
        55  -8.4532    150.1985     10.4437   4.3409841395e+01   4.6004710399e+01     0.216418    0.1699021 -66.18 0.0006751315    1.427    0.299
        56  -9.5730    250.1234      7.6974   3.2740638935e+01   2.3604619235e+01    0.2615995    0.1707694 -71.47  0.001028896    1.372    0.271
        57  -9.0067    243.9239      4.9558   3.2583360804e+01   2.5143747677e+01    0.2816326     0.164774 -71.77  0.001240224    1.604    0.377
        58  -9.3818    241.4932      1.4699   3.2013204236e+01   2.5992954421e+01    0.2536969    0.1249469 -86.94  0.000593013    2.086    0.521
        59  -7.9040    174.3051      8.3425   3.9598402464e+01   4.0415768456e+01    0.1327181   0.09024683  37.41 0.0002538771    1.685    0.406
        60 -10.4321     32.1210      6.4515   7.4355564844e+01   7.0167642538e+01       0.2656    0.1795606 -14.56 0.0005486149    1.211    0.174
        61  -9.6584     34.4148      1.7704   7.0743210139e+01   7.0395456479e+01    0.2750142     0.151267  41.64 0.0004971531    2.001    0.500
        62 -10.0833    223.9800      6.0948   3.4270719344e+01   2.9234200348e+01    0.3158314    0.2458511 -42.66  0.001834891    1.237    0.191
        63  -8.6802    223.7191      1.3130   3.3210648466e+01   2.9757661306e+01     0.227158    0.1129345  84.92 0.0005724255    1.982    0.495
        64 -11.5497     64.4731      6.1174   6.1142456325e+01   6.5101610827e+01    0.4917004    0.2319835  41.61 0.0006675738    1.853    0.460
        65  -7.9576     51.6352      7.2608   6.6384413481e+01   6.7193186676e+01     0.100538   0.09930908  66.48 0.0003645823    1.639    0.390
        66  -8.8912    195.8881      5.3121   3.6501181456e+01   3.5618998996e+01    0.2922947    0.1812956 -80.93 0.0009438613    1.658    0.397
        67  -9.5857    202.9851      2.9632   3.5264963219e+01   3.4208346557e+01    0.4870543    0.1570839  65.61  0.001460382    2.676    0.626
        68  -8.9571    168.5679      5.1588   3.9367764433e+01   4.2065576702e+01    0.2400692    0.1838598  56.06 0.0008763676    1.238    0.192
        69  -9.8128     94.0715      4.8743   5.2043567069e+01   5.9353547358e+01    0.4417658    0.2278613  59.84  0.002195901    1.887    0.470
        70  -8.9689     73.7513      5.4086   5.7823390350e+01   6.3434452315e+01    0.2845937    0.2224757 -21.25   0.00181092    1.371    0.271
        71  -7.7770    130.4651      5.4570   4.4870572294e+01   5.1113342045e+01    0.1774655    0.1214482   8.12  0.000416476    1.680    0.405
        72  -7.8430    129.7781      2.1090   4.3819431120e+01   5.1534174118e+01    0.2014647     0.165951 -26.66 0.0002579457    1.346    0.257
        73  -8.8840    218.0140      3.1814   3.4070082843e+01   3.0823222506e+01    0.1921151    0.1610675 -43.78 0.0005102473    1.199    0.166
        74  -8.6248    121.5351      3.2436   4.5639882076e+01   5.3364866441e+01     0.251446    0.1578979  30.34 0.0009013775    1.628    0.386
        75  -8.6894     14.6502      3.3710   8.1579157997e+01   7.2622473658e+01    0.1924965    0.1429334   7.00 0.0008080605    1.226    0.184
        76  -8.4465     78.1636      2.6224   5.5234533331e+01   6.2810759265e+01    0.1914085    0.1537511 -19.15  0.000584929    1.347    0.258
        77  -8.6310     81.9659      2.4519   5.4101134394e+01   6.2062774719e+01     0.179696    0.1452599   8.44 0.0003343186    1.143    0.125
        78  -8.9077    248.2426      1.9457   3.1680556037e+01   2.4573955905e+01    0.1787872    0.1382401 -81.78 0.0002507766    1.154    0.134
        79  -8.2670     86.2462     75.9833   8.1964140836e+01   5.0543971173e+01    0.2110297    0.1793215 -25.89 0.0008416143    1.064    0.061
        80  -8.8896      3.5889    249.8067   1.2798563817e+02   2.1311755778e+01    0.1420677   0.07109735  81.42 0.0009423122    1.647    0.393
        81  -8.4729     50.1062     75.0547   9.4298284314e+01   5.6015920682e+01    0.1858545    0.1625372  88.05 0.0003969348    1.566    0.361
        82  -8.9976     24.5553     75.3840   1.0397256983e+02   5.8453287080e+01    0.2157539    0.1583591  18.88 0.0008234487    1.618    0.382
        83  -9.3124     19.4494     74.9286   1.0579361464e+02   5.8939033454e+01    0.2804337    0.2048808 -24.50  0.001383911    1.388    0.280
        84  -8.1160     17.5308     71.5135   1.0571208245e+02   5.9838070363e+01    0.2116973    0.1412158 -62.01 0.0007243085    1.321    0.243
        85  -8.3803      9.6885     75.6847   1.0963197534e+02   5.9398159894e+01    0.1336502   0.06959622 -41.26 0.0003048154    1.637    0.389
        86  -7.8091    189.2606     73.3285   5.5795151093e+01   2.8511994330e+01    0.1437906    0.1140398   6.22 0.0002755765    1.564    0.361
        87  -8.6664    148.0829     72.7736   6.3816982417e+01   3.8296978068e+01    0.2870212    0.2061669  30.25  0.001325807    1.563    0.360
        88  -8.8061     66.8184     72.6915   8.7512767627e+01   5.4317724375e+01    0.3992396     0.200804  14.87    0.0014619    3.378    0.704
        89  -8.2119    160.8439     71.5557   6.0672913888e+01   3.5511708418e+01     0.297818   0.09845903 -37.54 0.0009668911    2.844    0.648
        90 -11.2996    129.3208     70.8235   6.7714305831e+01   4.2916822506e+01    0.5115861    0.3029969  31.97 0.0004939712    1.984    0.496
        91  -9.8564    113.7299     70.3517   7.1735998088e+01   4.6369463583e+01    0.4310566    0.3559516 -50.53  0.001500697    1.343    0.255
        92  -9.1144     59.5655     70.5922   8.9453015614e+01   5.5772719068e+01     0.423121    0.2144348 -46.12  0.001930999    1.722    0.419
        93  -8.0634     55.5492     71.4695   9.1204213817e+01   5.6116268962e+01    0.2029586    0.1347963  27.74 0.0007393619    1.669    0.401
        94  -9.8197     28.8914     71.5078   1.0132359147e+02   5.8959191317e+01    0.2530629    0.1730746 -47.36 0.0003196978    1.160    0.138
        95  -7.8564    152.4954     71.4877   6.2434291564e+01   3.7488880859e+01    0.1499907    0.1450458 -11.60  0.000810551    1.001    0.001
        96  -8.9701     37.4036     71.0223   9.7912682366e+01   5.8276625999e+01    0.2440342      0.17885  -4.84 0.0003751731    1.505    0.335
        97  -9.0036    211.1066     69.7116   5.1342796933e+01   2.4065740244e+01    0.3471563    0.2330185  85.97  0.001205606    1.944    0.486
        98  -8.6191    191.9876     69.6126   5.4307525845e+01   2.8470825461e+01    0.2808154    0.1922279  38.59  0.001328751    1.686    0.407
        99 -10.6142    100.7052     62.9989   7.3012643088e+01   5.0353996418e+01    0.7313257    0.4632048 -41.07  0.002846143    1.564    0.361
       100  -9.0432     95.0053     61.4923   7.4229392289e+01   5.1732570627e+01    0.3152677    0.2134867  68.59   0.00100038    2.599    0.615
       101  -8.5053    204.1269     68.7858   5.2146434073e+01   2.5792169423e+01    0.2039668    0.1809274 -72.91 0.0003519161    1.168    0.144
       102  -8.1083    141.2542     69.3895   6.4329690984e+01   4.0463419236e+01    0.2029924    0.1465719  61.83 0.0009404637    1.568    0.362
       103  -8.9781    222.0315     67.9729   4.9362651307e+01   2.1906478376e+01    0.2020796    0.1827918 -48.03  0.001201548    1.009    0.009
       104  -8.7393    172.3056     67.1358   5.7091093100e+01   3.3516868439e+01    0.4382701    0.2892381  24.22  0.001890294    2.071    0.517
       105 -11.4445    149.4088     66.9707   6.1709199806e+01   3.8975031143e+01    0.2962064    0.2630362  38.61 0.0002657668    1.133    0.118
       106  -9.3555    144.1163     64.0006   6.1949157151e+01   4.0705128897e+01    0.3081122    0.2743288 -74.38 0.0006110263    1.312    0.238
       107  -7.9392     20.5310     68.5904   1.0381628849e+02   6.0270194580e+01     0.128242    0.1001019 -43.49 8.708411e-05    1.019    0.019
       108  -8.1104      3.4464     68.2564   1.1042388997e+02   6.1396111613e+01    0.1717806    0.1008906 -73.21 0.0009535628    1.676    0.403
       109 -10.1550    235.5114     66.4189   4.7248040556e+01   1.9248971717e+01    0.3295402    0.2258924  79.55   0.00103299    1.736    0.424
       110 -10.0185    234.3199     62.2541   4.6401194362e+01   2.0105290923e+01    0.3977171    0.2803672   6.28  0.001666675    2.233    0.552
       111  -9.7796     38.0249     66.9640   9.6489543784e+01   5.9089190209e+01    0.3056828     0.173181   0.39   0.00144458    2.388    0.581
       112  -9.9855     15.2184     66.4453   1.0537231821e+02   6.1113618977e+01    0.2539391    0.1867723 -25.30 0.0003180825    1.324    0.245
       113  -9.1689     19.2648     63.0271   1.0285439109e+02   6.1572893032e+01    0.2713272    0.1422831 -53.41 0.0009404533    1.489    0.329
       114  -8.4076     89.5522     65.7184   7.7443474464e+01   5.1973640251e+01     0.197061    0.1325469 -46.30 0.0007586199    1.544    0.353
       115 -10.8388     48.9243     65.3774   9.1771340332e+01   5.8215074656e+01    0.3027472    0.2587556   1.37    0.0018598    1.209    0.173
       116  -8.4933    208.4898     64.8543   5.0464693709e+01   2.5397501587e+01    0.1901858    0.1795067 -75.47 0.0003418289    1.071    0.066
       117  -7.9950    201.5081     64.4159   5.1384977391e+01   2.7063412958e+01    0.1382816    0.1340839 -39.87 0.0001143704    1.056    0.053
       118  -8.0119    126.5918     63.8575   6.6112531311e+01   4.4736931560e+01    0.2352022    0.1711198  51.56   0.00113555    1.431    0.301
       119  -9.2735      7.5422     63.0163   1.0760696776e+02   6.2330526201e+01    0.3240069    0.1750661  13.96  0.001822156    2.234    0.552
       120  -7.8618    161.4241     62.4691   5.7799927499e+01   3.6855427395e+01    0.1453571    0.1413092 -11.83 0.0006197279    1.019    0.018
       121  -8.8313     81.9890     61.8554   7.8578006691e+01   5.4041913756e+01    0.4378416     0.238873  21.20  0.001783862    2.500    0.600
       122  -9.3120     40.3527     61.5617   9.3901599939e+01   5.9979573071e+01    0.3434047    0.2458458  52.89  0.001317991    2.152    0.535
       123  -9.3238     34.5758     59.7852   9.5662710499e+01   6.0942472976e+01    0.2655034    0.1820144 -28.70 0.0006424208    1.296    0.229
       124  -8.3169     36.7678     56.0187   9.3545561819e+01   6.1487772987e+01    0.2034264    0.1283097 -24.81 0.0002233787    1.521    0.343
       125 -10.7053    244.4086     58.4772   4.4358717061e+01   1.8544202585e+01     0.487379    0.2987701  62.50 0.0001062393    1.813    0.449
       126  -9.3880    135.1386     59.5818   6.2586413869e+01   4.3505131312e+01    0.4186858    0.2704656 -52.99  0.001120212    1.897    0.473
       127  -7.7700    117.0647     61.5542   6.7832662582e+01   4.7218555193e+01    0.2003286    0.1440601  48.63 0.0001061813    1.439    0.305
       128 -10.0329     24.7476     59.1317   9.9497810547e+01   6.1971902701e+01    0.3779211    0.2507284 -39.48  0.001722044    1.196    0.164
       129  -9.1845     28.3533     54.3412   9.6505743388e+01   6.2646357670e+01    0.3077886    0.1412254 -37.66  0.001486417    1.861    0.463
       130  -8.4774    187.0158     60.2911   5.2540354752e+01   3.1078834587e+01    0.2849791    0.1150876  53.30  0.001079047    2.461    0.594
       131  -9.7310    173.8764     58.4240   5.4246285025e+01   3.4494248795e+01    0.4964271    0.3245844 -21.61 0.0007633377    1.689    0.408
       132  -8.1049    149.8839     59.0356   5.9101129876e+01   4.0141470832e+01    0.1679122    0.1582515  47.54 0.0002981788    1.068    0.064
       133  -9.8445    235.1257     56.4220   4.4921957922e+01   2.0763130201e+01    0.4280492     0.225714 -67.16  0.001829439    2.634    0.620
       134 -11.5929    192.7026     56.7291   5.0648200633e+01   3.0260729183e+01    0.4681121    0.2908394 -61.85            0    1.954    0.488
       135 -10.4075    193.1514     49.0539   4.8473353037e+01   3.1241085248e+01    0.4832657     0.333796 -65.48  0.002402221    1.643    0.391
       136  -8.9271    157.3837     57.0130   5.6923299345e+01   3.8664766670e+01    0.5362599    0.2850527  78.21  0.001826668    3.458    0.711
       137  -8.8459     89.6301     57.3331   7.4435783552e+01   5.3485339901e+01    0.2443721    0.2005028 -29.05 0.0001933065    1.150    0.130
       138  -8.2336      5.4439     58.4762   1.0735334478e+02   6.3424039490e+01    0.1259165    0.0898563 -45.48  0.000333996    1.055    0.052
       139 -10.0578     63.0229     55.6048   8.3051298814e+01   5.8257727389e+01    0.5632935     0.438895  68.57  0.002474392    2.273    0.560
       140  -7.8949    224.3636     56.7565   4.6285017062e+01   2.3033706898e+01    0.1366425   0.09477002 -69.88 0.0006934294    1.605    0.377
       141  -9.5224    113.5190     54.4591   6.6313584936e+01   4.9153838362e+01    0.4718848    0.3319284  -1.56  0.001230955    1.696    0.410
       142  -9.1052    212.5657     48.9454   4.5806901804e+01   2.6752079716e+01    0.4794669    0.2992818  42.62  0.002344171    1.956    0.489
       143  -8.5197    208.2982     55.1255   4.7959218922e+01   2.6865346861e+01     0.284403     0.218048 -78.19 0.0006455277    1.434    0.303
       144  -8.9942    204.8829     51.8141   4.7559915122e+01   2.8116627463e+01     0.213477    0.1855025 -17.73 0.0004806121    1.260    0.206
       145  -8.7957    207.3319     48.1433   4.6273842645e+01   2.8057161580e+01    0.2372752    0.2005088  -1.50 0.0006353259    1.436    0.304
       146  -8.7034    142.3716     54.2920   5.9192076700e+01   4.2644710381e+01    0.3771971    0.1927718  44.26 0.0009512828    1.980    0.495
       147  -8.9178    124.6409     54.4305   6.3400113774e+01   4.6710549352e+01    0.2761777    0.2136588   0.22 0.0006976242    1.429    0.300
       148  -7.8385     77.3031     55.3117   7.7804641545e+01   5.6040493915e+01    0.1441342    0.1004195  -4.97 0.0002062726    1.611    0.379
       149  -8.1240    220.9880     54.2809   4.6092099507e+01   2.4125696066e+01    0.1808689    0.1621532 -75.64 0.0003319354    1.099    0.090
       150  -8.9245    128.7228     52.4830   6.1725998112e+01   4.6086238580e+01    0.3419335    0.2459637 -24.13  0.001693654    1.409    0.290
       151 -10.3171      9.7492     52.7798   1.0401284632e+02   6.4379066066e+01    0.3162433    0.2890239 -38.54  0.001792083    1.238    0.192
       152  -8.2810     14.4718     49.5475   1.0099528841e+02   6.4733426853e+01    0.1894527    0.1593754 -11.75   0.00053865    1.242    0.195
       153  -8.2756     41.6533     53.3061   9.0611341247e+01   6.1493184720e+01    0.1871866   0.09882918 -39.63 0.0006875895    1.580    0.367
       154 -10.5490    244.4418     50.0759   4.2436040678e+01   1.9690531759e+01    0.5068382    0.3580774 -38.56  0.002968385    1.248    0.199
       155  -8.8368    242.9405     41.1836   4.0570555906e+01   2.1169446992e+01    0.3302566    0.1970179 -48.15  0.001120475    1.449    0.310
       156 -10.1846    247.9615     43.2207   4.0545084052e+01   1.9875963434e+01    0.5050526    0.3443397  17.39  0.001885764    2.646    0.622
       157  -8.9833    233.3335     74.6025   4.9481620365e+01   1.8482014849e+01    0.3016619    0.1946656 -62.00  0.001306822    1.773    0.436
       158  -9.2710    197.4725     48.5089   4.7706933810e+01   3.0298340359e+01    0.3104524    0.2218728 -79.00  0.001557634    1.621    0.383
       159 -10.3396    120.0984     49.8826   6.2957186878e+01   4.8424571543e+01    0.4730928    0.2416215 -33.14 0.0009293209    1.936    0.483
       160  -8.8142     84.5900     51.1734   7.3790608706e+01   5.5472639909e+01    0.2512397    0.1980143  54.64 0.0007246165    1.616    0.381
       161  -9.5598     79.8441     49.9986   7.4933848366e+01   5.6522436286e+01      0.40697    0.2693565   5.72  0.001085479    1.821    0.451
       162  -9.5762     72.7020     49.7782   7.7333913585e+01   5.7783918594e+01    0.4961929    0.3754999 -16.69  0.001307969    1.220    0.180
       163  -9.4021    237.7523     48.4860   4.2770659070e+01   2.1295392562e+01    0.3043627    0.2058314 -25.04  0.001596229    1.580    0.367
       164  -8.2912    214.5069    244.4831   8.8854108398e+01  -5.6424095320e+00    0.1203458   0.09421039  11.44 -7.508049e-06    1.014    0.014
       165  -8.5202    237.8541     43.1162   4.1516599220e+01   2.1982790604e+01    0.2155008    0.1634038 -82.66 0.0005375738    1.355    0.262
       166  -9.4790    232.5874     36.5182   4.0517188930e+01   2.3945575123e+01    0.4228281    0.2531785 -23.01   0.00142857    1.902    0.474
       167  -8.6637    236.5147     35.5603   3.9911043874e+01   2.3227375757e+01    0.2411765    0.1707339 -75.98   0.00078324    1.427    0.299
       168  -8.8366    222.0129     50.0076   4.4910235036e+01   2.4489307622e+01    0.3044729    0.2115636 -80.30  0.001606843    1.634    0.388
       169  -8.1117    220.5000     45.9459   4.4087733231e+01   2.5372273350e+01    0.2009765    0.1225633 -33.59 0.0007281424    1.545    0.353
       170  -9.6542     41.1404     46.0478   8.8191001893e+01   6.2931332204e+01    0.4455498    0.3370691 -87.70   0.00218473    3.068    0.674
       171 -10.0103    173.5004     45.1795   5.0409226883e+01   3.6470315427e+01    0.3626356    0.2896683  18.31  0.001422476    1.491    0.330
       172  -8.9812     88.3429     46.5698   7.0812219208e+01   5.5524364508e+01    0.2869996     0.211518  27.53 0.0008985243    1.332    0.249
       173  -9.2955     20.6273     47.0279   9.7458818263e+01   6.4773191362e+01    0.2135433    0.1710427   9.07 0.0001260338    1.386    0.279
       174  -9.2950    137.3005     44.5660   5.7060873626e+01   4.5244465941e+01     0.431446     0.328438  42.46  0.001294992    1.275    0.216
       175  -7.9037    111.6370     46.7531   6.4043546155e+01   5.0749618905e+01    0.1480666     0.101147  23.57 0.0002836252    1.610    0.379
       176 -10.3966     34.1245     43.7921   9.0352173001e+01   6.4131278291e+01    0.3937029    0.2736051 -22.16 0.0008160875    1.251    0.201
       177  -9.2571     29.4950     44.5135   9.2649326019e+01   6.4467417912e+01    0.3065647    0.2348482 -67.43  0.001399039    1.906    0.475
       178  -8.3605      9.1330     43.6326   1.0155867656e+02   6.6276081864e+01    0.3386942   0.08011385 -45.66   0.00140041    2.731    0.634
       179  -8.6666      3.4984     44.4854   1.0440506352e+02   6.6436515304e+01    0.2039638    0.1043429 -67.97  0.001018956    2.252    0.556
       180  -8.4403    156.0447     44.2085   5.3168636853e+01   4.0819653262e+01    0.2633962    0.1525624  52.03 0.0004144453    1.659    0.397
       181  -9.3330    153.2258     41.0204   5.2683332873e+01   4.1922175824e+01    0.3494828    0.2851611 -73.29  0.001111743    1.432    0.302
       182  -8.9162    185.5406     41.4536   4.7472872639e+01   3.4066941955e+01    0.4584284    0.2296185 -57.17  0.001833926    2.577    0.612
       183  -7.8959    122.5885     43.2182   5.9968498187e+01   4.8831398090e+01    0.1789894    0.1332828 -10.56  0.000221608    1.430    0.301
       184  -8.7917     96.3220     43.1464   6.7025643438e+01   5.4486959039e+01    0.2427418    0.1733631  29.42 0.0008160729    1.374    0.272
       185  -9.1590    163.1374     42.0667   5.1223353410e+01   3.9390225643e+01    0.2470008    0.1873598  56.81 0.0005895561    1.282    0.220
       186  -8.6284    147.7190     41.8519   5.4006889620e+01   4.3136289335e+01    0.2633428    0.1807946  33.92 0.0007362674    1.581    0.368
       187  -9.0744    127.6744     41.5891   5.8188514067e+01   4.7893029350e+01    0.2902405    0.2629748  56.21  0.001589958    1.149    0.129
       188  -8.4150     67.4918     42.3271   7.6286777493e+01   5.9886540226e+01    0.2158274    0.1195629  37.84 0.0008025822    1.864    0.463
       189  -8.9922      1.5080     37.1786   1.0309547047e+02   6.7990307332e+01    0.2412225    0.1788872 -73.03 0.0005945818    1.769    0.435
       190  -9.9438     18.9251     40.0042   9.5804485421e+01   6.6269643483e+01    0.5184296    0.2896163  18.87  0.002970668    1.985    0.496
       191 -10.4768     21.7149     32.2999   9.1565649221e+01   6.7438503883e+01    0.4385564    0.3137634 -29.90 0.0008652285    1.076    0.071
       192  -9.5884      1.7787     28.7948   1.0010661576e+02   6.9564446198e+01    0.1918379    0.1347818 -45.94 0.0005486334    1.209    0.173
       193  -9.8714     14.1101     30.3995   9.4508226423e+01   6.8425550951e+01    0.3561489     0.186066  12.38  0.001335755    2.108    0.526
       194  -8.5280    194.7403    242.5682   9.2190378503e+01  -2.5688486597e+00    0.2418286    0.1005024  32.34   0.00114531    2.130    0.530
       195  -9.1229    223.9703     39.6753   4.2163944181e+01   2.5421372855e+01    0.3820571    0.1970384 -47.10  0.001595108    1.771    0.435
       196  -8.3653    225.4308     35.8253   4.1082706303e+01   2.5585682655e+01    0.1989136    0.1792955  60.38 0.0004737926    1.248    0.199
       197  -9.0280    164.7623     46.5098   5.2297878118e+01   3.8401606690e+01    0.2533855    0.2048995 -50.06 0.0004773032    1.284    0.221
       198  -9.3267    141.7431     39.6543   5.4475653791e+01   4.4851342314e+01    0.4079846    0.2265802  34.59  0.001712093    2.104    0.525
       199  -9.2535     99.9923     37.9411   6.3940639474e+01   5.4481225487e+01    0.3638944    0.1789076 -37.45  0.001592109    2.104    0.525
       200  -8.2242     89.7634     40.6963   6.8070624288e+01   5.6148473628e+01    0.2865992    0.1060668  40.38  0.001079154    2.721    0.632
       201  -8.1136     77.9749     41.0000   7.2038309530e+01   5.8305959775e+01    0.2191521   0.07461831  44.03 0.0008099224    2.995    0.666
       202  -9.6300     69.0063     35.5839   7.2957539222e+01   6.0687399586e+01    0.4725339    0.2710075  23.22  0.002000109    1.920    0.479
       203  -9.4793     61.6799     38.5185   7.6904995755e+01   6.1424640570e+01    0.5254331    0.3179445  20.18  0.002678019    1.788    0.441
       204 -10.3032     51.7859     37.3492   8.0316292983e+01   6.3080502296e+01    0.3218536    0.2118269 -26.44 0.0002258643    1.324    0.245
       205  -9.5612     58.2746     34.6017   7.6572523171e+01   6.2565442015e+01    0.4801526    0.2635015   9.06  0.001647556    2.623    0.619
       206  -9.8434    215.2609     37.7710   4.2664678478e+01   2.7606502922e+01    0.4588539    0.3737261 -83.91   0.00162258    1.214    0.177
       207  -9.5302    211.4475     31.6825   4.1569874521e+01   2.9221668649e+01    0.4057614    0.2442985 -86.93  0.001600852    1.923    0.480
       208  -8.9803    119.9643     38.8953   5.9049343681e+01   5.0013219435e+01    0.2102961    0.1883352  27.04 0.0004236332    1.040    0.038
       209  -9.9810      5.3591     33.4430   9.9965458496e+01   6.8483032496e+01    0.5063282     0.213619 -56.19  0.002577239    2.136    0.532
       210  -8.4974    241.1502     36.8085   3.9753422011e+01   2.2096733997e+01    0.1966698    0.1453301 -58.61 0.0006112774    1.203    0.169
       211  -8.8853    193.0402     36.6939   4.5113829505e+01   3.2887186858e+01    0.2246512    0.2044856 -82.18  0.000743141    1.056    0.053
       212 -10.1246    123.8801     26.7079   5.3722957728e+01   5.0613449162e+01    0.4692114    0.2295482 -27.29 0.0007140054    2.096    0.523
       213 -10.4992    124.8572     36.1672   5.6913271434e+01   4.9253842708e+01    0.2985044    0.2477293   7.49 0.0004253155    1.234    0.190
       214 -10.4585    121.9979     34.0360   5.6803908835e+01   5.0177261110e+01    0.3119053    0.1973184  44.82 0.0007140013    1.482    0.325
       215  -9.3180    112.2855     36.2009   5.9963296772e+01   5.2080957279e+01    0.5915764    0.1751736  46.54  0.002038889    3.090    0.676
       216  -9.8950    153.5078     33.7445   5.0308807094e+01   4.2767926081e+01    0.4049444    0.2783352 -26.16 0.0006795292    1.514    0.340
       217  -9.3832     91.9792     34.7617   6.5026863536e+01   5.6550612727e+01    0.3877467    0.3159636 -41.06   0.00177529    1.431    0.301
       218  -8.3375     12.4904     36.0361   9.7415342556e+01   6.7515037805e+01    0.1796216   0.09347888 -47.50 0.0007289288    1.518    0.341
       219  -8.0629    165.6829     34.9751   4.8630274503e+01   3.9671483805e+01    0.1842757     0.172663 -42.28  0.000549003    1.090    0.083
       220  -8.5705    138.8627     33.8465   5.3101926929e+01   4.6266692888e+01    0.2118751    0.1607984 -60.65 0.0009519068    1.611    0.379
       221  -7.7238     33.0000     33.9601   8.6985360959e+01   6.6009293559e+01    0.2031327   0.06032035 -44.57 0.0008000033    2.926    0.658
       222  -8.9956     39.5222     32.6269   8.3511938195e+01   6.5471695852e+01    0.2416072    0.1732899 -10.38 0.0008506693    1.230    0.187
       223  -9.0421    247.9462    240.1851   8.2267745724e+01  -9.5527959867e+00    0.2038168    0.1430245 -15.56   0.00139275    1.244    0.196
       224  -9.8473    193.0619     24.0349   4.1696545928e+01   3.4373488420e+01    0.3536967    0.3022794  -4.16  0.001936786    1.396    0.284
       225  -9.2032    189.6288     22.2724   4.1631529178e+01   3.5378188610e+01    0.2659263    0.1853696 -72.21 0.0007584183    1.531    0.347
       226  -9.0876    134.0427     32.0420   5.3463128061e+01   4.7624245297e+01    0.2506366    0.1858455  57.15 0.0003955161    1.299    0.230
       227  -9.0381    130.3801     27.3851   5.2591165741e+01   4.9025392427e+01    0.4768609    0.1629147 -37.64  0.001763914    3.050    0.672
       228  -8.1611     47.4714     31.1929   7.9474483050e+01   6.4665422160e+01    0.2453695    0.1110372 -42.31  0.001141184    2.229    0.551
       229  -7.6731    239.6953     30.7718   3.8527305784e+01   2.3144055834e+01    0.1081768   0.09261077  44.32 0.0001841387    1.475    0.322
       230  -9.1649    224.2916     27.4803   3.9210230701e+01   2.6845807286e+01    0.3289092    0.1750076 -31.41  0.001388214    1.822    0.451
       231  -9.5579     84.7722     29.4674   6.5065176418e+01   5.8672259865e+01    0.2914035    0.2203424  25.44 0.0007895398    1.215    0.177
       232  -9.3575     67.0960     28.3838   7.0555901340e+01   6.2044390678e+01    0.3843156    0.2176376 -13.75  0.001868581    1.937    0.484
       233  -9.2046    174.8593     26.2293   4.4652096612e+01   3.8473191346e+01    0.5069373    0.2363746 -56.39  0.001991636    2.872    0.652
       234  -9.1379    168.3715     23.0880   4.4647951651e+01   4.0382583727e+01    0.3238576    0.1847583  68.87 0.0007285793    1.696    0.410
       235  -9.3794    167.4879     28.5351   4.6404266627e+01   3.9993933071e+01    0.5340788     0.195491  54.73  0.002100164    2.462    0.594
       236  -8.9545    170.4536     26.5152   4.5363263782e+01   3.9504493709e+01    0.2426372    0.2079327  47.98 7.979627e-05    1.177    0.150
       237  -8.5012    159.4748     28.0151   4.7496664721e+01   4.1993116127e+01    0.2582363    0.1266673 -32.08 0.0004867349    2.044    0.511
       238  -8.8100      6.6643    237.3158   1.2692516605e+02   2.3301836166e+01    0.1146945   0.05470598  64.17   0.00070476    1.694    0.410
       239  -8.0404    151.7673     18.6628   4.5786096384e+01   4.4850999115e+01    0.1642357    0.1237673  79.70 0.0001739434    1.374    0.272
       240  -8.5168    151.8086     15.4076   4.4744050583e+01   4.5159599336e+01    0.2311192    0.1855664  13.06 0.0006396991    1.410    0.291
       241  -9.4160    157.3494     22.9160   4.6247637868e+01   4.3065596210e+01    0.3381458    0.2014573  75.95 0.0006024576    1.808    0.447
       242  -8.3932    161.4450     21.7806   4.5268701954e+01   4.2195323295e+01    0.2672705     0.200935  32.89 0.0008879441    1.464    0.317
       243  -8.9716     93.7194     49.6899   7.0311305771e+01   5.3990797321e+01    0.4339044    0.2740469 -51.50  0.001984258    2.106    0.525
       244  -7.7716    202.3825     28.2410   4.1715548865e+01   3.1714055125e+01    0.1311059   0.09282684  43.64 0.0006930065    1.640    0.390
       245  -8.9753     62.1529     26.8041   7.1679221181e+01   6.3089390287e+01     0.349421    0.2097989   2.88  0.001735208    1.963    0.491
       246  -8.7933     51.4996     28.5162   7.6623884695e+01   6.4500742259e+01    0.2637134    0.1204227  40.91 0.0009979114    2.407    0.585
       247  -9.2827     51.8484     24.6918   7.4751904711e+01   6.5001831345e+01    0.4336752    0.2809643   1.01  0.002420654    1.567    0.362
       248  -7.8403    115.2765     27.2791   5.5878882073e+01   5.2509846549e+01    0.1374554   0.09506894  25.29 0.0002102108    1.500    0.333
       249  -8.4578    105.4305     26.3378   5.7934446586e+01   5.4795681251e+01    0.2222252    0.1296434 -17.94 0.0006114666    1.812    0.448
       250  -8.7879     38.0422     25.6860   8.1117463569e+01   6.6758499312e+01    0.2769102    0.1397514 -28.38  0.001087372    1.772    0.436
       251  -8.4783     30.9705     27.4436   8.5141799070e+01   6.7320957049e+01    0.1668613    0.1108645  23.84 0.0006103351    1.577    0.366
       252  -8.7247    234.4345     26.0118   3.7923554182e+01   2.4822134973e+01    0.1775618    0.1514632 -64.93  0.000473994    1.015    0.015
       253 -10.8030    218.4216     24.9994   3.9192862526e+01   2.8434555800e+01    0.3060486     0.224874 -87.46 0.0003378207    1.341    0.254
       254  -9.9168    136.9107     25.3448   5.0586374210e+01   4.7711401745e+01    0.3352637    0.2687141 -83.55 0.0005053372    1.508    0.337
       255  -9.9715    171.6884    233.8462   9.5254346375e+01   2.1860437590e+00    0.3713758    0.3043961  56.90  0.002328685    1.533    0.348
       256  -8.1275    152.9823    233.8382   9.8937033008e+01   5.0710921655e+00    0.1756407    0.1322979 -18.93  0.001038656    1.597    0.374
       257  -8.3968      6.3811    230.1544   1.2662292429e+02   2.4681554960e+01    0.1566544   0.07618472  84.80 0.0009527628    1.755    0.430
       258  -8.7109    219.7713    228.4188   8.5233482334e+01  -4.2222819500e+00    0.1787549   0.09866306  23.07 0.0009486349    1.707    0.414
       259  -8.1436     19.3336    224.3386   1.2402952431e+02   2.4591991637e+01    0.1006602   0.07874062 -52.17 0.0007051744    1.747    0.427
       260  -9.1766    238.1321    220.2466   8.0495996628e+01  -5.7014553272e+00    0.2479488     0.153403 -43.27  0.001379288    2.099    0.524
       261  -8.7287    250.1901     24.9068   3.6351555489e+01   2.1681519676e+01    0.2402975    0.1151945 -42.87  0.001265513    1.714    0.417
       262  -8.7313    238.9362     24.9891   3.7299033653e+01   2.3989396749e+01    0.2104245    0.1637084 -40.80  0.000588964    1.204    0.169
       263  -9.3517    237.3907     20.6283   3.6457997081e+01   2.4814791918e+01    0.2607805    0.1922654  67.08  0.001183353    1.436    0.303
       264  -8.4143     77.9705     25.5039   6.5552699392e+01   6.0474045882e+01    0.2355069    0.1928204  33.48  0.001430604    1.195    0.163
       265  -8.9772     79.9990     21.2358   6.3044398752e+01   6.0605245178e+01    0.3534884    0.1782259  25.67 0.0007069694    2.317    0.568
       266  -9.1819    246.0147     23.2209   3.6322523784e+01   2.2726635121e+01    0.1934639    0.1488872 -50.31 0.0003438137    1.108    0.098
       267  -8.1717      1.2093     24.0333   9.8622057394e+01   7.0462812182e+01    0.1533268   0.07117461 -49.03 0.0003167865    1.682    0.406
       268  -8.1429     96.1199     23.4012   5.9223881181e+01   5.7117603142e+01    0.1773616     0.126418  65.98  0.000927441    1.758    0.431
       269  -8.4030    113.9312     22.2079   5.4276387251e+01   5.3374428831e+01    0.1857381    0.1538055  36.65 -0.000430966    1.090    0.082
       270  -9.0181    104.0264     21.2058   5.6266205413e+01   5.5672846215e+01    0.3097537    0.1960955 -16.77  0.001532865    1.639    0.390
       271  -9.5793    247.4225    215.5795   7.8031694297e+01  -6.3524039182e+00    0.4008078    0.1572081 -27.08  0.001819262    2.531    0.605
       272  -8.4837    232.9198    211.6739   7.9858135521e+01  -3.7626360394e+00    0.1779146    0.1421431  11.69  0.001142181    1.114    0.102
       273  -8.2565      2.3332    212.7016   1.2643157475e+02   2.8478204519e+01    0.1169344   0.05973668  65.27 0.0007031231    1.648    0.393
       274  -8.1532    242.6530    200.7016   7.6066280007e+01  -3.5993473200e+00    0.1339817   0.08365665   1.10 0.0004479563    1.680    0.405
       275  -8.9294    231.7486     19.9238   3.6775515733e+01   2.6093085983e+01    0.2964994    0.1609388 -55.80  0.001566481    1.722    0.419
       276  -8.2113     29.5263    198.9499   1.2027945562e+02   2.8842980312e+01    0.1802807   0.09986941 -77.59 0.0009141218    1.570    0.363
       277  -7.7092     23.6894    193.3300   1.2102313414e+02   3.0641839410e+01    0.1269977     0.071908  69.16 0.0007041996    1.668    0.401
       278  -8.3969    224.3120    153.6588   6.9586696905e+01   6.9381522558e+00    0.1360154    0.1103878 -61.79 0.0007046153    1.698    0.411
       279  -8.8171    249.7698    151.0300   6.4670220786e+01   2.9623586710e+00     0.192092   0.09579463 -34.72 0.0008916951    1.692    0.409
       280  -8.4376    243.5047    148.5141   6.5139914408e+01   4.4287501829e+00    0.1393399     0.115324 -20.11 6.614006e-05    1.008    0.008
       281  -8.9161     70.8905     20.1441   6.5544548983e+01   6.2433802457e+01    0.2418007    0.1710955 -43.32  0.001163908    1.853    0.460
       282  -8.7635      6.2078    141.3949   1.2035397463e+02   4.4057328916e+01    0.1551914    0.1036362  46.24 0.0009475084    1.678    0.404
       283  -7.9782    250.3202    139.3366   6.2029472998e+01   4.7625271211e+00    0.1403643   0.09586818  -4.75  0.000704981    1.707    0.414
       284  -8.3928      1.8090     20.1825   9.6767356892e+01   7.1102794390e+01    0.1637284   0.09888829 -24.70 0.0008001893    1.327    0.246
       285  -9.7671    169.4271     18.0595   4.3015194012e+01   4.0652155224e+01    0.4122953    0.2047968  57.22  0.001283299    1.833    0.455
       286  -9.0745    248.5928    135.2053   6.1383660054e+01   5.7350844229e+00    0.2003261    0.1131858 -26.62 0.0009507855    1.634    0.388
       287  -9.1720    242.5837    132.8013   6.1789029381e+01   7.1971865771e+00     0.209927    0.1120479 -42.80  0.000895976    1.741    0.426
       288  -8.8777     13.6994    133.0237   1.1748394320e+02   4.5543142739e+01    0.1878804    0.1772021 -89.88 0.0005795361    1.208    0.172
       289  -9.7608     65.5822    131.6700   1.0271346778e+02   4.0704935590e+01    0.4428714    0.2606536  28.02  0.001437112    1.978    0.494
       290  -9.7672     45.1016     17.8200   7.4323395536e+01   6.6932274489e+01    0.4004524    0.2299492  19.02  0.002111489    1.772    0.436
       291 -10.5736     69.3742    122.9066   9.9839624474e+01   4.2359969681e+01    0.2461706    0.2268693 -61.59 0.0002936534    1.048    0.046
       292  -8.5219     29.5012    124.4992   1.1190839063e+02   4.6372030858e+01     0.134054    0.1083016 -63.18 5.604939e-05    1.041    0.039
       293  -8.6529     33.5453     16.4744   7.8829862396e+01   6.8673852673e+01    0.2153997    0.1682621   1.96 0.0007617305    1.106    0.096
       294  -8.6804     30.4878     15.5471   7.9818427728e+01   6.9180652298e+01    0.2075363    0.1521456 -10.60  0.001160752    1.056    0.053
       295  -7.7870     16.9707    124.2567   1.1546640722e+02   4.7428851874e+01    0.1305074    0.1125711  26.06 0.0001897954    1.449    0.310
       296  -7.8952      9.6821    122.6608   1.1731710212e+02   4.8316283182e+01    0.1329943   0.07336359 -48.20 0.0004713175    1.708    0.414
       297  -9.1624     12.1278    114.9395   1.1558519320e+02   5.0017023779e+01    0.1936751    0.1551209 -72.36 0.0004927901    1.052    0.049
       298  -8.8405     15.3407    112.0887   1.1421125308e+02   5.0489226404e+01    0.2001269    0.1414073 -55.14  0.000799714    1.189    0.159
       299 -11.2794    247.8961    105.3128   5.4721573927e+01   1.0735819788e+01    0.7439114    0.2460918 -44.19  0.002723994    2.823    0.646
       300  -7.8546    122.9073     11.0000   4.8208296587e+01   5.2410931027e+01    0.1835146    0.1348342  77.04 0.0006356147    1.512    0.339
       301  -7.4774     26.6538    112.2921   1.1079084433e+02   4.9592427099e+01      0.12835   0.09260273  72.70 0.0007028608    1.664    0.399
       302  -7.8171    105.4720    111.5305   8.6480790431e+01   3.9340111198e+01    0.1544021    0.1423232 -33.67 8.967387e-05    1.018    0.017
       303  -7.5096     44.2782    105.2763   1.0388655522e+02   4.9666088462e+01    0.1358252   0.09027327 -37.28 0.0002195065    1.498    0.333
       304  -9.2173    119.7360    102.5165   7.9987731001e+01   3.8629308367e+01    0.3930116    0.2551527 -54.62  0.001087495    1.682    0.406
       305  -8.3110     25.5175    103.4818   1.0960150006e+02   5.1814598268e+01    0.1333557    0.1066302 -58.20 3.825708e-06    1.011    0.010
       306  -8.7523     10.3956    101.5865   1.1412681808e+02   5.3326068326e+01    0.2238397   0.07950483  38.19 0.0009590578    3.447    0.710
       307  -8.0057     56.2295    100.3896   9.8883341625e+01   4.9494761695e+01    0.1758537     0.130011  43.34 0.0003554369    1.603    0.376
       308 -10.2701    243.8031    114.1450   5.7342962508e+01   1.0068347349e+01    0.2484259    0.2029562  28.87  0.001428979    1.419    0.295
       309  -8.9016     16.9213     99.0219   1.1159441956e+02   5.3515871253e+01    0.1883383    0.1475652 -59.69            0    1.003    0.003
       310  -7.7910     79.2625     15.3507   6.0675656828e+01   6.1400645991e+01    0.1345085   0.08528815  15.14 0.0006978075    1.613    0.380
       311  -8.6956    176.1134     13.6239   4.0874962948e+01   3.9487435552e+01    0.4040715    0.1312222  63.63  0.001595728    2.634    0.620
       312 -11.3947    249.3338     93.1797   5.1743382623e+01   1.2389443340e+01    0.8277121    0.2787414 -41.06  0.003224763    2.456    0.593
       313  -7.6491    130.5558     97.4999   7.5631223239e+01   3.7465195081e+01     0.155983    0.1470781 -31.20 0.0002596487    1.032    0.031
       314  -9.0845     72.3956     95.5769   9.2345950766e+01   4.8469992587e+01    0.2850842    0.2507252 -40.36   0.00090062    1.010    0.010
       315  -8.8148    164.9661     94.8562   6.6609205980e+01   3.0356438876e+01    0.2294876    0.2012477   3.41 0.0004540446    1.231    0.188
       316  -8.7920     38.9109     94.0138   1.0321021441e+02   5.2895535089e+01    0.3241661    0.1418749 -51.49  0.001165229    1.810    0.448
       317  -8.0595    145.5207     92.6652   7.0439832883e+01   3.5182732528e+01    0.1504825    0.1448682  17.19 0.0001963213    1.059    0.055
       318  -9.3982     19.8003     90.9765   1.0913152982e+02   5.5218903878e+01    0.3013974    0.2459199 -43.99   0.00121029    1.128    0.114
       319  -8.5574    210.5081     91.2225   5.6976645754e+01   2.0712017348e+01    0.2557342    0.1967956  58.05 0.0006942709    1.440    0.306
       320  -8.9599     56.2415     89.8863   9.6240974655e+01   5.1950579964e+01     0.379004    0.2312303  69.20  0.001435521    3.666    0.727
       321  -7.8800     99.6312     90.7088   8.2349188790e+01   4.5062974125e+01    0.1569827    0.1147979  -5.04 0.0004080674    1.716    0.417
       322  -8.6372     28.0894     89.1912   1.0588305305e+02   5.5000850706e+01    0.2375921    0.1599706  88.07  0.001220321    2.038    0.509
       323  -9.8519    189.1463     88.0273   5.9850684803e+01   2.6055284316e+01    0.2341503    0.2171396  67.64            0    1.169    0.144
       324  -9.0897      5.7532     87.6774   1.1334757203e+02   5.6863966311e+01    0.2299773    0.1481602 -46.35  0.001163831    1.314    0.239
       325 -10.8643    242.4588     85.5331   5.0876541098e+01   1.4929843274e+01    0.3879664    0.2567312  33.67  0.001951757    2.038    0.509
       326  -9.2890    235.9825     84.5092   5.1501027968e+01   1.6399595863e+01    0.3267151    0.1337357 -47.87  0.001273447    2.472    0.595
       327  -7.7909     96.9704     85.0265   8.1432851471e+01   4.6760929828e+01    0.1782132    0.1609149 -26.33 0.0003067659    1.011    0.011
       328  -8.4077    230.5609     84.4886   5.2246010227e+01   1.7523596696e+01    0.2733448    0.1400231  57.77  0.001223211    2.208    0.547
       329 -10.4305    195.7718     82.1012   5.7062939774e+01   2.5555278601e+01    0.3070875    0.2574642  61.70 0.0002492947    1.287    0.223
       330 -10.8051    188.8000     82.1501   5.8307728006e+01   2.7150370042e+01    0.3024565    0.2477219  47.86 0.0003153433    1.291    0.225
       331  -9.3958     87.4164     83.0128   8.3813353504e+01   4.8879184360e+01    0.3286802    0.2721118 -57.47  0.001184333    1.350    0.259
       332  -8.1649    135.6189     82.8733   6.9934866755e+01   3.9289865798e+01       0.2147    0.1377926 -47.93 0.0004524954    1.639    0.390
       333  -9.2777     63.9058     82.8073   9.1626438784e+01   5.2552599548e+01    0.2747802    0.2485607 -71.85  0.001404945    1.326    0.246
       334 -10.1752    242.1844     91.4918   5.2307826518e+01   1.4048726251e+01     0.268291    0.1710681 -35.65 0.0008259974    1.344    0.256
       335  -8.2558    125.2315     82.0352   7.2365617375e+01   4.1720071279e+01    0.3148916    0.1833005  23.27  0.001171688    2.530    0.605
       336  -8.2123     37.6618     82.3316   1.0085286528e+02   5.5728598500e+01    0.1279289    0.1019016  80.52  3.25932e-05    1.740    0.425
       337  -7.8885    102.5494     86.4124   8.0165904105e+01   4.5431407930e+01    0.1505053    0.1383261 -19.48 0.0001332528    1.014    0.014
       338  -8.9039    151.8750     78.0783   6.4588868463e+01   3.6479863459e+01    0.2189826    0.2087053  -8.70 -0.0006383859    1.026    0.025
       339  -8.3860     75.6993     78.6592   8.6323207988e+01   5.1722563328e+01    0.1977004    0.1461586   9.07 0.0007593609    1.549    0.355
       340 -10.0625     72.6435     73.3872   8.5695004012e+01   5.3301168765e+01    0.4269607    0.2952685 -35.08 0.0004943683    1.301    0.231
       341  -9.0299    199.6030     76.5420   5.4926074353e+01   2.5597220010e+01    0.2599086    0.2336686 -18.21 0.0006421283    1.151    0.131
       342  -7.5061    195.5051     77.4943   5.5865553437e+01   2.6382533462e+01    0.1475453    0.1365618 -47.84 0.0008103769    1.036    0.035
       343  -8.2278    107.5285     77.4647   7.5858869266e+01   4.6281392233e+01    0.1503072    0.1397471 -18.82 9.804736e-05    1.027    0.026
       344  -9.3918     31.9108     77.0887   1.0163537573e+02   5.7451674152e+01     0.330971    0.1901027   9.89  0.001300641    2.178    0.541
       345 -10.1815    249.3342     72.8208   4.7082539825e+01   1.5489291688e+01    0.3336883    0.2319531 -23.46  0.001066372    1.514    0.340
       346 -11.1420    243.6391     71.5488   4.7466103086e+01   1.6817307923e+01    0.4408368    0.3299141 -32.14  0.001460355    1.234    0.190
