#   1 NUMBER                 Running object number                                     
#   2 MAG_AUTO               Kron-like elliptical aperture magnitude                    [mag]
#   3 X_IMAGE                Object position along x                                    [pixel]
#   4 Y_IMAGE                Object position along y                                    [pixel]
#   5 X_WORLD                Barycenter position along world x axis                     [deg]
#   6 Y_WORLD                Barycenter position along world y axis                     [deg]
#   7 A_WORLD                Profile RMS along major axis (world units)                 [deg]
#   8 B_WORLD                Profile RMS along minor axis (world units)                 [deg]
#   9 THETA_WORLD            Position angle (CCW/world-x)                               [deg]
#  10 FWHM_WORLD             FWHM assuming a gaussian core                              [deg]
#  11 ELONGATION             A_IMAGE/B_IMAGE                                           
#  12 ELLIPTICITY            1 - B_IMAGE/A_IMAGE                                       
         1 -10.6500     33.0004     63.8805   1.1172325980e+02   5.9778780042e+01     1.643905    0.6077892 -34.10  0.004657961    7.384    0.865
         2 -10.3750     10.0398     18.9915   1.0852722616e+02   7.1033731489e+01     1.315066    0.3891998 -32.89  0.004188437    6.441    0.845
         3 -10.7184     23.2604     34.3245   1.0748982716e+02   6.6971256751e+01    0.5737379    0.4458136 -21.04  0.003304969    1.390    0.281
         4  -9.7906     26.2779     24.1351   1.0246491339e+02   6.8738952393e+01    0.7048571    0.2497381 -35.22   0.00278465    3.508    0.715
         5 -10.2124      4.8466     42.3111   1.1768919840e+02   6.6532323900e+01    0.8165976     0.286012 -69.60  0.003861722    2.357    0.576
         6  -8.5288    135.7977      1.8466   5.6292907280e+01   5.1340578116e+01    0.4311721    0.1896664  67.13   0.00150822    2.239    0.553
         7 -10.1990    133.0991     15.6815   6.2441296369e+01   5.0593008354e+01     0.943523     0.569532   4.48  0.003920369    2.127    0.530
         8  -9.7737     60.6791     31.8315   9.0799808868e+01   6.3143004517e+01    0.8376784    0.3286525 -36.92  0.002693217    2.455    0.593
         9 -10.0229     69.6514     40.4695   9.0904876760e+01   6.0162734768e+01     1.010742    0.3620688 -40.00  0.003646396    2.588    0.614
        10 -10.2215     73.7122     15.8464   7.8678443572e+01   6.3638840126e+01     1.334011    0.3474621 -33.43  0.004532326    3.537    0.717
        11  -8.6836     78.6710      3.2402   7.0606818165e+01   6.4356222418e+01    0.3532065     0.224014 -21.76 0.0008656774    1.459    0.315
        12  -9.5157     63.1558     21.2329   8.5166167988e+01   6.4600635808e+01    0.4827619    0.2584253 -52.08  0.001500098    2.438    0.590
        13  -9.9742     64.4958     13.1228   8.0712867856e+01   6.5643593074e+01    0.3967341    0.3110277 -23.41  0.001572944    1.112    0.101
        14 -10.1860    155.3237     25.9663   6.2106587817e+01   4.3626852936e+01    0.4774938    0.4137992  20.86  0.002512808    1.211    0.174
        15  -9.6085     63.9059      2.8419   7.5509548888e+01   6.7151968159e+01    0.3872405    0.2863891 -37.64  0.001523415    1.448    0.309
        16  -9.0729     47.2434     19.5326   9.0906421234e+01   6.7216878810e+01    0.5468497    0.2664455 -22.07  0.002239091    3.160    0.684
        17 -10.1757     52.6135     13.3039   8.5579965816e+01   6.7490859386e+01    0.8342194    0.4730181   6.58   0.00367779    3.008    0.668
        18 -10.0442     46.2954     29.8082   9.5784155782e+01   6.5480372877e+01    0.4569862    0.2409069 -56.39  0.000845296    2.084    0.520
        19  -9.1182    103.0034     21.2532   7.2007840949e+01   5.7006556910e+01    0.4340374    0.1898671 -34.15  0.001077106    2.151    0.535
        20  -8.9197     40.9761     21.6268   9.4625250159e+01   6.7642264754e+01     0.373655    0.1487436 -46.09 0.0007427605    2.111    0.526
        21  -9.4624    140.3079     19.6777   6.2582479239e+01   4.8292868341e+01    0.6616865    0.1668885 -25.86  0.001957065    3.827    0.739
        22  -8.1365    141.6161     12.2975   5.9440922401e+01   4.8800272973e+01    0.3161648      0.18815 -29.68 0.0008326054    1.663    0.399
        23  -8.6952    112.3134     15.3742   6.6980414535e+01   5.5670723764e+01    0.3732125    0.2067333 -44.28 0.0006456252    2.051    0.512
        24  -9.0689    114.3754      9.8933   6.4068141683e+01   5.5828235605e+01    0.4173255    0.2094028  40.32 0.0003475604    2.042    0.510
        25  -8.8163    110.2145      7.9852   6.4193211420e+01   5.7016762884e+01    0.3056123    0.1965012 -28.00 0.0008241016    1.524    0.344
        26  -9.0207    110.0430      3.8761   6.2358073635e+01   5.7489782863e+01    0.3441247    0.3072597 -65.68  0.002002804    1.348    0.258
        27  -8.9713     95.8982     16.5448   7.1899931393e+01   5.9175643391e+01    0.3917599    0.2112655 -29.30  0.001340054    1.748    0.428
        28  -8.0706     97.4799     11.5378   6.9120169529e+01   5.9475466699e+01    0.2560478    0.1887226 -15.67 0.0007909858    1.301    0.231
        29 -10.6267     37.3693      9.8294   9.0662689904e+01   7.0113347690e+01    0.8598298     0.306598 -43.39  0.002516691    2.408    0.585
        30  -9.9591     25.6116     11.1344   9.7149783757e+01   7.1205631433e+01    0.8001659    0.2274109  32.05  0.003401252    4.101    0.756
        31  -9.6293     18.1784      3.8171   9.7477604403e+01   7.3186452222e+01    0.3347237    0.2676108 -84.74  0.001561121    2.304    0.566
        32  -8.7425     19.6346      8.7846   9.9159123209e+01   7.2190846324e+01    0.2415605    0.1843065 -25.25 0.0007889718    1.144    0.126
        33  -9.7079      2.1526     14.3632   1.1101111249e+02   7.2418258078e+01     0.609498    0.1894107 -66.01  0.002497518    3.576    0.720
        34 -10.1726      6.2810      5.3313   1.0502784249e+02   7.3871545371e+01    0.5010346    0.3361524  -7.25  0.001651821    1.665    0.399
        35  -9.2258      2.6265      3.2332   1.0624091148e+02   7.4492119581e+01     0.290818    0.1350079 -46.95  0.001737687    1.538    0.350
        36  -9.5103     85.2882     13.0865   7.3468536326e+01   6.1820120500e+01    0.4320399    0.2758658 -55.60  0.001592251    2.334    0.572
        37  -7.6591     80.5905     12.7299   7.4805892611e+01   6.2790589587e+01    0.2727711    0.1700359 -41.84 0.0008074479    1.723    0.420
        38  -8.2711    121.1501      6.1720   6.0932662964e+01   5.4594803265e+01    0.2810238    0.1942597  85.68 0.0007438433    1.858    0.462
        39  -8.9096    125.7226      4.8559   5.9429340861e+01   5.3599711452e+01    0.3938213    0.2385151  24.56  0.001695108    1.875    0.467
        40  -8.4664    125.1705     13.1399   6.3054387272e+01   5.2856750548e+01    0.2663063    0.1945102 -28.58 0.0006840943    1.362    0.266
        41  -8.5571    126.7832      9.1800   6.1048551808e+01   5.2893554893e+01    0.3053959    0.1974584  36.52 0.0007640885    1.571    0.364
        42  -8.7409    101.8520      7.5558   6.6074265733e+01   5.8977473007e+01    0.4425842    0.1992787 -23.55  0.001869396    2.159    0.537
        43  -8.1219    104.4844      2.4409   6.3002800771e+01   5.8924252771e+01    0.2473523    0.1944587  23.66 0.0007247435    1.218    0.179
        44  -8.5070    143.2695      5.3680   5.6421862850e+01   4.9080411763e+01    0.3320051    0.1703373 -52.58   0.00106035    2.494    0.599
        45  -8.7699     96.5596      4.3532   6.5934058032e+01   6.0503940593e+01     0.427143    0.1880175 -42.04  0.001720796    2.707    0.631
        46  -8.4995     85.9838      5.2204   6.9359236017e+01   6.2655727005e+01    0.3328294    0.2536455   3.15  0.001893517    1.265    0.210
        47  -8.4665     88.8360      2.8456   6.7322421704e+01   6.2328805769e+01    0.2694878    0.1842655 -28.58 0.0008430693    1.427    0.299
        48  -9.0393    115.5479      4.1323   6.1236480725e+01   5.6157709926e+01    0.2924351    0.2063266 -46.54 0.0004975292    1.632    0.387
        49  -9.5007    131.8250      6.1621   5.8792384152e+01   5.1940068215e+01    0.4196706    0.3376652  20.38  0.002252625    1.264    0.209
        50 -10.5016    108.3106     99.8558   9.7228355225e+01   4.1104141478e+01    0.8665234    0.5726321  77.92  0.003158117    2.235    0.553
        51 -10.9749    231.7225    250.5692   9.9769123678e+01  -4.3593063491e+00    0.2115707   0.08647037  40.65 0.0002885116    1.815    0.449
        52 -11.1162    188.8961    246.0415   1.0574933207e+02   2.2432722479e+00    0.4156952    0.3524653   8.18  0.003430674    1.348    0.258
        53  -9.6391     41.4163    122.0259   1.1927835453e+02   4.5768141189e+01    0.5298693    0.2309977 -86.47  0.002008501    2.776    0.640
        54  -8.6353    245.7662    124.0140   7.4991515292e+01   7.4729662719e+00    0.2545025    0.1567353  33.17  0.001279944    1.679    0.404
        55 -10.9258    133.5680    109.6966   9.3293100273e+01   3.4056829840e+01    0.8407941    0.4764358 -47.66  0.002463729    1.755    0.430
        56 -10.2926    128.2651    100.8140   9.2363695156e+01   3.6981835134e+01    0.9039974    0.4773651 -31.88  0.002621552    2.565    0.610
        57  -8.8459    158.4360    122.6516   9.0722888431e+01   2.6259137600e+01    0.2960178    0.2192723  76.84  0.001044639    1.748    0.428
        58  -7.4468    182.5065    120.4795   8.5223681479e+01   2.1419124741e+01    0.1453563    0.1390223  19.85 0.0001290224    1.017    0.017
        59  -9.0217    243.7095    119.4809   7.4266351846e+01   8.4919261341e+00    0.2318643    0.1361242  55.83 0.0005356493    1.960    0.490
        60 -10.1539     91.9261    113.0172   1.0453215910e+02   4.1065906636e+01    0.6030273    0.4034827 -79.98  0.001590413    1.728    0.421
        61  -8.9274     92.8007    103.2951   1.0219924482e+02   4.3084495344e+01    0.3973349    0.3047617  12.46  0.002025488    1.903    0.474
        62  -8.2061      1.3799    116.2401   1.2882298587e+02   5.0436198247e+01    0.2592376   0.08415112 -80.55 0.0008554081    2.429    0.588
        63  -9.6080     81.5890     99.4475   1.0443425562e+02   4.5742093240e+01    0.7399855    0.2709131 -55.91  0.002236429    2.481    0.597
        64 -10.1993     78.1110    112.9636   1.0817524517e+02   4.3216091304e+01    0.5425137      0.30481 -81.12   0.00180981    2.323    0.570
        65  -7.9185     77.8442    105.3977   1.0674827886e+02   4.4963454594e+01    0.2626021    0.1769946 -46.77  0.001371698    1.537    0.350
        66  -8.7149    152.9396    115.5007   9.0236197897e+01   2.8808592357e+01     0.219004    0.1431012  49.75 0.0004457528    1.513    0.339
        67  -7.9119    167.2370    114.0933   8.6798770932e+01   2.5946665894e+01    0.2470971    0.1688983 -66.96  0.001009675    2.026    0.506
        68  -8.6800    158.6601    112.0865   8.8143724655e+01   2.8219414077e+01    0.2813782    0.2237194 -33.27 0.0005056082    1.315    0.240
        69  -9.2707    149.9059    110.7206   8.9748354106e+01   3.0395213701e+01    0.4653138    0.1463486 -42.58  0.001486401    3.205    0.688
        70  -9.8350     66.9739    103.8809   1.0947146397e+02   4.6841769540e+01    0.6900867    0.4418422  19.16   0.00341619    2.363    0.577
        71 -10.3725     62.9249     95.7204   1.0900164552e+02   4.9238550939e+01    0.6245291    0.3571683 -87.95  0.001530784    2.495    0.599
        72  -8.8472     63.3158     87.2482   1.0705870467e+02   5.1115643379e+01    0.5541937    0.3050739 -27.55  0.002139757    3.654    0.726
        73 -10.0570     65.9160    110.9327   1.1108276610e+02   4.5378390519e+01    0.4648165    0.3444665  71.06  0.001053654    1.406    0.289
        74  -8.9898     59.4519    109.5256   1.1259945904e+02   4.6530201720e+01    0.5229869    0.2267846 -71.88  0.001569231    2.426    0.588
        75 -10.1073     14.2493    111.4674   1.2509652701e+02   5.0579505080e+01    0.4134678    0.2012676  75.42   0.00171228    2.152    0.535
        76  -9.4101     36.0174    111.2056   1.1925712349e+02   4.8754107245e+01    0.2574534    0.1515136  71.96   0.00140414    1.832    0.454
        77 -10.8997     20.6869    100.7368   1.2210719444e+02   5.2483936649e+01     1.112295     0.462594  82.30  0.003972279    3.503    0.715
        78  -8.7174     14.4030    104.7290   1.2433117342e+02   5.2069483692e+01    0.3415684    0.1326499 -46.75  0.001006696    3.289    0.696
        79 -10.8849     45.0145    102.6737   1.1547552681e+02   4.9772702510e+01    0.8853453    0.4391211  81.45  0.003317678    3.204    0.688
        80  -9.3132     40.0187    106.5117   1.1748596256e+02   4.9420029294e+01    0.3204544    0.1504937 -68.72  0.001115003    1.773    0.436
        81  -9.8769      5.7233    103.8915   1.2660220014e+02   5.2860398057e+01    0.4816803    0.3240668  57.57  0.002157084    1.522    0.343
        82 -10.2509    139.6129    103.3826   9.0277813424e+01   3.4071384367e+01    0.7852172    0.4022945 -47.24  0.001872663    1.952    0.488
        83 -10.2247    138.9352     91.5346   8.7279102251e+01   3.6592091113e+01    0.8051438    0.4467984 -48.90  0.001994622    1.834    0.455
        84  -8.8213    140.0441     75.6463   8.2376975407e+01   3.9435453565e+01    0.4783095    0.2657259 -44.75   0.00141705    1.778    0.438
        85  -8.5520    166.1044    104.1872   8.4535409808e+01   2.8037157853e+01    0.2748419    0.2127427 -47.47  0.000539717    1.322    0.243
        86  -9.7107    149.4893    103.1570   8.7926586229e+01   3.1967316502e+01    0.4472975    0.2905295 -51.02 0.0008622776    1.605    0.377
        87  -8.7964    149.8398     96.8568   8.6179923044e+01   3.3117299646e+01    0.4821383    0.2398586  34.71  0.001713767    2.741    0.635
        88  -8.3463     74.6326    101.4604   1.0682725637e+02   4.6324138077e+01    0.6167371    0.2223956 -44.70  0.002170121    3.448    0.710
        89  -9.8147    244.4600    101.3911   6.9862181672e+01   1.0813980181e+01    0.4485337    0.2249957  39.32  0.001949582    2.204    0.546
        90  -9.4097    158.9865    100.6149   8.5136246557e+01   3.0327354779e+01    0.4861103     0.208369 -41.25 0.0009707818    2.313    0.568
        91  -8.9472    168.9167     97.5085   8.2175109332e+01   2.8618379728e+01    0.4315571    0.2895876  10.00   0.00156935    2.381    0.580
        92 -10.4471     25.7097     78.0470   1.1713512659e+02   5.7223570047e+01    0.6754373    0.3537691  82.06  0.001838879    2.647    0.622
        93 -10.2513     34.4707     90.5518   1.1655084936e+02   5.3606735302e+01    0.7788574    0.2865443 -78.85  0.001782063    3.685    0.729
        94 -10.1305     36.7233     81.1531   1.1413633318e+02   5.5536186745e+01    0.7821642    0.4092254 -20.78  0.003025825    4.630    0.784
        95  -9.4414     94.3912     97.1457   1.0032948029e+02   4.4180649502e+01    0.3254271    0.2328374 -68.28 0.0007074904    1.438    0.305
        96  -8.7863     96.1300     90.9494   9.8307116543e+01   4.5245020396e+01    0.5084357    0.3228906 -21.04  0.002054341    2.833    0.647
        97 -10.1821      4.5284     89.9328   1.2546160323e+02   5.6038049250e+01     0.678706    0.2780234  82.29  0.002285063    2.913    0.657
        98  -9.3781      6.0980     78.8896   1.2361337967e+02   5.8410876615e+01    0.5552622    0.2177386 -39.82  0.002540433    3.461    0.711
        99  -9.4754    242.8967     94.8908   6.8494452192e+01   1.2041510385e+01     0.223962    0.1820757   8.87 0.0009450638    1.269    0.212
       100  -8.8415    164.4532     94.3478   8.2263021517e+01   3.0239587046e+01    0.3006323    0.2415892 -44.35 0.0008880508    1.244    0.196
       101  -9.3137    157.4028     91.4262   8.2989327539e+01   3.2426019289e+01    0.4422172    0.2642414 -29.44  0.001837361    1.868    0.465
       102  -9.5132    150.2245     89.2875   8.4003058923e+01   3.4489703733e+01    0.5936663    0.2806361 -29.48  0.002069998    2.714    0.632
       103  -9.6921    224.8768     90.3007   7.0036010629e+01   1.6684305340e+01    0.2664197    0.2345673  23.87  0.000393724    1.161    0.139
       104  -9.4415    229.6793     86.5192   6.8319684882e+01   1.6142679753e+01    0.4294054    0.2608891  53.29  0.002006213    1.724    0.420
       105  -9.9068    195.4025    248.6099   1.0504248192e+02   1.0182628336e+00    0.3154725    0.2184763  44.57  0.002370611    1.226    0.185
       106 -10.2699     85.4190     86.7034   1.0029474307e+02   4.7986883274e+01    0.5273647    0.3658175  72.38 0.0009559579    1.908    0.476
       107  -9.4900     87.0509     79.1903   9.7814248832e+01   4.9368182456e+01    0.6272504    0.3961054  12.67  0.002460628    2.992    0.666
       108  -9.1773    163.4900     86.4850   8.0270385133e+01   3.1909534228e+01    0.3801098       0.2506 -31.33  0.001420757    1.563    0.360
       109 -10.4123    104.0323     82.6434   9.3855283290e+01   4.5604758423e+01    0.5576726    0.3199678 -58.31 0.0009402997    1.883    0.469
       110  -9.4085    104.9799     71.4327   9.0275214653e+01   4.7765601158e+01     0.798744    0.3541936 -38.04  0.002994199    2.375    0.579
       111  -9.1367    157.5406     83.0694   8.0576150881e+01   3.3949430130e+01    0.3919545    0.2564988 -42.53   0.00153888    1.507    0.337
       112  -9.3898    140.5040     82.0314   8.4185060162e+01   3.8106812426e+01    0.6704481    0.3069435 -36.94  0.001340958    2.227    0.551
       113  -9.3748    115.4398     72.2332   8.7609743950e+01   4.5500415469e+01    0.5227442    0.2852023 -40.83  0.001273504    1.763    0.433
       114  -8.9328    119.0374     80.5179   8.9151328811e+01   4.3078683322e+01    0.3250012    0.2387698 -60.16 0.0005877797    1.467    0.318
       115  -8.4647    119.9714     76.0452   8.7566724340e+01   4.3789371832e+01    0.3297709    0.2718384   6.30 0.0008615103    1.517    0.341
       116  -9.1117     74.1447     80.1702   1.0200950608e+02   5.1189544218e+01    0.4534295    0.2165035 -63.82  0.001102745    2.340    0.573
       117  -7.7774     74.9889     74.5228   1.0023713547e+02   5.2309670630e+01    0.2439745    0.1387038  26.60  0.001090071    2.405    0.584
       118  -8.5110    149.6802     80.6535   8.1629058952e+01   3.6252424155e+01    0.2918508    0.2156195 -46.48 0.0004485427    1.351    0.260
       119  -8.3799    151.8034     76.3527   7.9856971839e+01   3.6548860839e+01    0.4211483    0.2359113  25.49  0.001416733    3.175    0.685
       120  -7.4710     63.3586     81.7054   1.0575600342e+02   5.2363397636e+01    0.1347261   0.09797037  79.23 0.0007031722    1.699    0.411
       121 -10.4591     48.2549     83.3786   1.1090213217e+02   5.3829984175e+01    0.9334605    0.3848188 -60.10  0.002307184    1.992    0.498
       122  -8.1858    226.1672     80.2582   6.7205796090e+01   1.7854666210e+01    0.2399229    0.1778485  33.57   0.00119418    1.472    0.321
       123  -8.0976     68.5970     79.7188   1.0362248980e+02   5.2092605879e+01    0.2743917    0.1114968 -52.12  0.001137733    2.128    0.530
       124  -8.1282    166.4929     78.8846   7.7427494036e+01   3.2551564782e+01     0.227188    0.1493886 -36.67 0.0005637608    1.490    0.329
       125  -8.0857    184.1267     78.1583   7.3710237129e+01   2.8344660527e+01    0.2318814    0.2038511  14.81 0.0005117967    1.227    0.185
       126  -9.0071    156.9976     76.3618   7.8705178353e+01   3.5303175824e+01    0.4529843    0.2153281 -35.45  0.001444823    2.087    0.521
       127  -8.4211    156.5081     70.4452   7.6999343204e+01   3.6478999613e+01    0.3002027      0.14922 -36.07 0.0006251034    1.963    0.491
       128  -9.2852    130.0078     57.4633   7.8943791426e+01   4.5108948389e+01    0.7461748    0.1932229 -39.87  0.002067978    3.591    0.721
       129  -9.5250    127.3853     75.2414   8.5390157944e+01   4.2357333533e+01    0.4190749    0.3001617 -66.06 0.0008602084    1.727    0.421
       130  -8.9294    129.4735     69.0182   8.2907776182e+01   4.3097860089e+01    0.5262344    0.3066593  23.01  0.001858618    3.077    0.675
       131  -8.1756    130.5077     65.4537   8.1494222674e+01   4.3535771650e+01    0.2917628    0.2363191 -19.48 0.0009908287    1.339    0.253
       132 -11.4633    170.3180    248.4895   1.0896056941e+02   4.7265275311e+00    0.8388262    0.2378092  42.75  0.004034871    2.574    0.611
       133  -9.8764     16.0631     70.5134   1.1903075187e+02   5.9651396333e+01     0.605095    0.2656297 -51.50  0.002375874    1.956    0.489
       134  -9.6608     16.9838     62.0482   1.1712596349e+02   6.1478032090e+01    0.6546298    0.2323634 -65.70  0.003080067    2.132    0.531
       135 -10.5667    204.5971    249.9063   1.0378143508e+02  -4.4923094033e-01    0.5099077    0.2205512  42.17  0.003087033    1.703    0.413
       136  -7.2283      8.7182    247.6557   1.3389020330e+02   2.5378923352e+01   0.07367573   0.06202566 -88.20 0.0002822008    1.637    0.389
       137 -10.8365     22.1424     53.9316   1.1341978097e+02   6.2891289707e+01    0.8195021    0.4179932  88.80  0.003227602    3.562    0.719
       138 -10.0899     13.4826     45.2919   1.1479124712e+02   6.5381769988e+01    0.6857324    0.3162363 -30.15  0.002678517    2.884    0.653
       139  -9.9505     27.4985    122.9504   1.2291952989e+02   4.6925854114e+01    0.5380111    0.2321656  70.36  0.001996576    2.918    0.657
       140  -9.5001      6.7528     32.5844   1.1443174466e+02   6.8483347045e+01    0.2275674    0.1924972 -32.82 0.0007166031    1.255    0.203
       141 -10.0366      7.1318     28.1939   1.1300184013e+02   6.9368804646e+01    0.2984775     0.262007  55.15   0.00100978    1.513    0.339
       142  -8.5988    162.8128     72.8575   7.6390854533e+01   3.4511532990e+01    0.4040772    0.1938642 -40.91  0.001057956    2.035    0.509
       143  -9.8796     81.6258     72.4893   9.7579642898e+01   5.1712454086e+01    0.4077715     0.290704 -74.93 0.0009663648    1.721    0.419
       144  -9.1184     83.4272     64.5850   9.4630791704e+01   5.3095648444e+01    0.4923961    0.3211227 -20.22  0.002213734    2.232    0.552
       145  -7.9617     61.5251     73.5099   1.0430002455e+02   5.4441490933e+01    0.2846421    0.1918682 -37.55  0.001510087    1.597    0.374
       146 -10.4686     55.0118     70.9671   1.0580523354e+02   5.5837392817e+01    0.4706961       0.3619  68.67  0.001226379    1.583    0.368
       147  -7.7725    250.6284     72.7992   6.1900493486e+01   1.3354498703e+01    0.1929299    0.1140836 -35.68 8.559932e-05    1.511    0.338
       148  -7.0418    175.3129     72.6530   7.3786028217e+01   3.1451976259e+01    0.1625387    0.1183727 -65.74 0.0007046599    1.715    0.417
       149  -8.8604    169.0216     70.8777   7.4503311094e+01   3.3318546083e+01    0.2602029      0.21846 -35.07 0.0003490584    1.167    0.143
       150  -9.3524    147.0371     69.4137   7.8794485193e+01   3.8950812209e+01    0.4242374    0.2716689 -56.25 0.0009620825    1.853    0.460
       151  -7.3210    211.9679     71.0000   6.6862341497e+01   2.2600507244e+01    0.2311057   0.08587949  59.30 0.0005494531    2.823    0.646
       152  -9.7870     94.8870     68.3077   9.2258099437e+01   5.0313609201e+01    0.4222881       0.2547 -55.34 0.0008832962    1.699    0.411
       153  -9.4949     96.9561     58.9482   8.8585757047e+01   5.1822927676e+01    0.7952222    0.4323297 -25.25  0.003058009    2.675    0.626
       154  -7.8945     23.2561     68.9979   1.1626803287e+02   5.9461481709e+01    0.1716751    0.1262221 -66.44 0.0003562779    1.072    0.067
       155  -9.3042    138.5997     55.6964   7.6248951265e+01   4.3396662662e+01    0.8182676      0.37229 -47.01  0.001553194    2.425    0.588
       156  -8.7815    141.8884     48.5009   7.2986924570e+01   4.3800361887e+01     0.349623    0.2217916 -28.59 0.0006391918    1.584    0.369
       157  -8.4163    142.8000     44.4197   7.1333607417e+01   4.4224452772e+01    0.3033032     0.237435  41.74  0.001186937    1.307    0.235
       158  -9.0912    138.0173     66.4379   7.9965542515e+01   4.1623834187e+01    0.3576195    0.3250802 -71.42  0.000997231    1.191    0.160
       159  -8.3728    138.9888     61.8311   7.8223985646e+01   4.2228698615e+01    0.3336736    0.2106123  33.25  0.001117635    1.921    0.479
       160  -9.1299    121.3344     66.0980   8.4071191420e+01   4.5452864302e+01    0.3598018    0.2768019 -72.63 0.0008357847    1.645    0.392
       161  -8.4593    122.1463     61.2017   8.2233502076e+01   4.6202070291e+01    0.3107499    0.2431652   6.87  0.000911228    1.613    0.380
       162  -7.8237     75.6460     66.2298   9.7638137454e+01   5.4004409720e+01    0.2031657    0.1136625 -43.95 0.0009445172    1.647    0.393
       163  -8.3763    170.9554     65.0101   7.2309771188e+01   3.3816887077e+01    0.2479168    0.1841936 -66.62 0.0005488373    1.651    0.394
       164  -9.4531    109.7533     63.8108   8.6481368728e+01   4.8340481591e+01    0.3651912     0.269873 -57.42 0.0005824585    1.461    0.316
       165  -8.9672    111.0619     58.1533   8.4204612048e+01   4.9159104072e+01     0.399496    0.3033293  16.80  0.001237325    1.657    0.397
       166  -8.5295    157.6803     63.2362   7.4469581886e+01   3.7440433232e+01    0.2680504    0.2238158 -57.06 0.0006092588    1.282    0.220
       167  -9.1313     54.9932     63.3858   1.0378034382e+02   5.7511616541e+01    0.3592449    0.2402096  21.52   0.00140486    1.929    0.482
       168 -10.0534     62.0634     60.8908   1.0059468027e+02   5.7128895057e+01     0.637952    0.2733709  34.70  0.000753108    2.741    0.635
       169  -8.3950      9.7947     60.2573   1.1940761989e+02   6.2342173578e+01    0.3377094    0.1795457  75.12  0.001719246    2.620    0.618
       170  -9.3628     87.6665     57.1069   9.0837667937e+01   5.3895469688e+01    0.7622521    0.2579108 -41.60  0.002537901    2.804    0.643
       171 -10.2008     73.4418     57.0371   9.5480162073e+01   5.6279604168e+01     1.093874    0.3300394 -43.27  0.003201008    3.145    0.682
       172  -9.1433     80.0862     46.6561   8.9607993695e+01   5.7265892535e+01    0.4403193    0.2132704 -36.99 0.0005149042    1.995    0.499
       173 -10.2104     85.1574     48.0801   8.8452231297e+01   5.6107404891e+01    0.4427352    0.3050565 -65.11 0.0009995128    1.945    0.486
       174 -10.3413     89.5599     38.4160   8.3311281481e+01   5.7066507422e+01    0.8842337    0.3927103  31.75  0.003121167    3.501    0.714
       175  -7.8386    152.4187     60.2202   7.4626396952e+01   3.9256630277e+01    0.2282288     0.136633 -44.91 0.0009468577    1.702    0.412
       176  -8.8318    147.3871     42.1927   6.9541267547e+01   4.3418651431e+01    0.4038269    0.3050536 -55.34  0.001856031    1.480    0.324
       177  -9.8844    149.9280     47.7538   7.0956552285e+01   4.1919976246e+01    0.5675881    0.2301119 -28.58  0.001612432    2.579    0.612
       178  -9.2245    153.3521     41.0210   6.7888120438e+01   4.2076427905e+01    0.4714601    0.2624807 -50.06  0.001305998    2.078    0.519
       179  -9.0862    146.7863     59.0831   7.5501767942e+01   4.0834212845e+01    0.3346544    0.2371536 -57.78 0.0007925467    1.645    0.392
       180  -8.5560    147.4087     53.5641   7.3504031568e+01   4.1611015913e+01    0.5263098    0.2194227 -24.19  0.001673366    3.153    0.683
       181 -10.0034     20.9495     82.9475   1.1949479158e+02   5.6490803731e+01    0.6754216    0.2288825 -63.73   0.00314898    2.162    0.537
       182  -9.4917    118.2606     54.6500   8.1008853237e+01   4.8263944271e+01    0.5512269    0.3110177 -45.27  0.001268381    1.765    0.433
       183 -10.0964     50.0296     54.2649   1.0290688686e+02   6.0086419576e+01     0.653231    0.3221847 -67.44  0.002685848    2.619    0.618
       184  -9.7304     56.4622     43.2014   9.6824175438e+01   6.1559412580e+01    0.7633048    0.4281586  -9.33  0.002753497    4.432    0.774
       185  -9.1382    105.4869     52.1675   8.3685008880e+01   5.1435003505e+01    0.6101705    0.2489781 -42.33   0.00174796    2.310    0.567
       186  -8.6503     39.6589     51.6611   1.0604673947e+02   6.1802400162e+01    0.3936564    0.1383257 -52.39  0.001713637    2.213    0.548
       187  -9.3686    162.7760     53.1886   7.0144231077e+01   3.7803711343e+01    0.4142275    0.2768731 -24.10   0.00183605    1.558    0.358
       188  -9.7398     43.7450     53.8637   1.0513445212e+02   6.0893134806e+01    0.3682575    0.2285956 -64.05 0.0009310159    1.529    0.346
       189  -8.7997    128.4925     26.0102   6.7595627758e+01   5.0441172574e+01     0.308142    0.2209379 -54.90 0.0006596082    1.655    0.396
       190  -8.8969    249.4016    240.6184   9.5801578874e+01  -5.9615966788e+00    0.1655616    0.1344675  20.56  0.001014167    1.249    0.199
       191 -10.0155    188.4070    233.6492   1.0429047346e+02   3.6729752207e+00    0.2483204    0.1920494 -29.03  0.001546167    1.652    0.395
       192  -9.5249    130.2744     46.9002   7.5148612980e+01   4.6864684949e+01    0.7938578    0.3200807 -25.53  0.001178833    3.176    0.685
       193  -9.0984    132.8538     36.0881   7.0517741968e+01   4.7945563590e+01    0.5224682    0.2117112 -40.60  0.001544621    2.475    0.596
       194 -10.7669    134.0850     30.9049   6.8254868976e+01   4.8393336676e+01    0.3995882    0.3050858   0.90            0    1.471    0.320
       195  -8.9176    157.3051     48.3105   6.9610756761e+01   3.9963256529e+01    0.3856339    0.2041443 -30.19  0.001364973    1.870    0.465
       196  -8.9256    121.0972     46.8007   7.7428793579e+01   4.9009533559e+01    0.3386693    0.1997017 -36.61 0.0004837158    1.622    0.383
       197  -8.6312    111.9354     46.7558   7.9873914916e+01   5.1049430326e+01    0.3066249    0.2197348 -38.37  0.000604007    1.329    0.247
       198  -8.1510    113.3429     42.3197   7.7812472248e+01   5.1501302017e+01    0.3128174    0.1788084  18.22  0.001089934    3.292    0.696
       199  -7.6928    162.4032     46.2726   6.7906135476e+01   3.8965034572e+01    0.2189753    0.1359259 -40.95 0.0007344864    1.600    0.375
       200  -7.8064    110.2495     26.6797   7.2371484215e+01   5.4633703736e+01    0.2819157     0.189533 -22.27  0.001365078    1.477    0.323
       201  -9.1024    110.2928     33.2476   7.5071099088e+01   5.3640748155e+01    0.4446642     0.230103 -41.54   0.00113405    1.940    0.485
       202  -9.2715    104.9466     41.2253   7.9744812363e+01   5.3495479845e+01    0.5213512    0.2488393 -40.60  0.001767393    1.995    0.499
       203  -8.7245    106.0209     36.3313   7.7504018931e+01   5.4082243188e+01    0.3232458    0.2419701  15.22 0.0007764698    1.568    0.362
       204  -8.6145     40.4491     34.7185   1.0015837758e+02   6.5220530829e+01    0.2982076    0.2117231  29.12  0.001184451    1.667    0.400
       205  -9.9021     37.8097     41.9977   1.0379171689e+02   6.4030406598e+01    0.3985759    0.2616355 -73.63  0.001563027    1.903    0.474
       206 -10.3169     35.9067     37.9626   1.0322944842e+02   6.5055181416e+01    0.4407399    0.2308197 -38.65 0.0003509383    1.784    0.440
       207  -9.3672    221.1428     41.8102   5.7286117754e+01   2.4366440204e+01    0.4394517    0.2356487 -25.26  0.001220823    1.806    0.446
       208 -10.0831    143.7192    227.8860   1.1101149914e+02   1.1307355987e+01    0.1950201    0.1654181  50.56 0.0003912827    1.108    0.097
       209  -9.0764     71.3389     25.7622   8.4166385519e+01   6.2507014189e+01    0.4870208    0.2657279  29.02  0.002244277    2.294    0.564
       210  -7.7176     16.2068    218.8223   1.3173428143e+02   2.9201083394e+01    0.1174426   0.09450282  79.55 0.0003938596    1.318    0.242
       211  -9.9093     76.1781     31.9997   8.5151103410e+01   6.0618898853e+01    0.4126443    0.3073109  58.60  0.001143432    1.750    0.429
       212  -7.1869     56.0361    217.2000   1.2507314356e+02   2.5170892777e+01    0.1290572    0.0670087  44.21 -0.000430966    1.633    0.388
       213  -7.3057    145.5430    213.4813   1.0899542153e+02   1.3057762896e+01    0.1170187   0.09434753  45.85 2.921957e-05    1.051    0.049
       214  -9.9755     10.3774    207.5753   1.3221398161e+02   3.1663867605e+01    0.3500528    0.2224308  31.09   0.00257317    2.107    0.525
       215  -8.0638    194.8136    199.7855   9.8399163148e+01   6.7486594100e+00    0.2022145    0.1603785 -79.72  0.001143426    2.107    0.525
       216  -9.7666     79.5513     23.8944   8.0431669757e+01   6.1354894005e+01      0.56183    0.3194722  19.99  0.001799081    2.652    0.623
       217  -8.8619     84.8380     21.8534   7.7741660284e+01   6.0669966861e+01    0.2380736     0.223204 -26.11 0.0005484537    1.137    0.121
       218  -9.0491    139.3794     39.8279   7.0430782210e+01   4.5779477113e+01    0.4458002    0.2689876 -43.09  0.001261109    1.698    0.411
       219  -8.3795    122.8707     40.6418   7.4667372512e+01   4.9619475277e+01     0.312422    0.2221842   4.30  0.001183973    1.803    0.445
       220  -8.6970     53.3377     39.0719   9.6522635717e+01   6.2793814676e+01    0.2620215    0.1606899 -48.43 0.0008219212    1.409    0.290
       221  -8.6435     54.5209     35.1537   9.4557040766e+01   6.3395455227e+01    0.3198135    0.1929519 -31.21  0.001660664    1.656    0.396
       222  -8.7986    144.2518     36.6078   6.8186912174e+01   4.5037940271e+01    0.2914477    0.2217947 -60.75 0.0005230837    1.541    0.351
       223  -8.8814    118.9946     34.7181   7.3360049367e+01   5.1445483168e+01    0.3681587     0.195172 -34.69 0.0008069559    1.802    0.445
       224  -9.0558    153.5119     34.5410   6.5550814389e+01   4.2962711078e+01    0.2984291    0.1464024 -28.62 0.0007612613    2.008    0.502
       225  -8.3647    192.4924    194.9675   9.8037311410e+01   7.7831530649e+00     0.255906    0.1947929 -67.67  0.001157228    2.076    0.518
       226  -7.2812    194.5628     34.4662   5.8649289753e+01   3.2152873439e+01    0.1468102    0.1436328 -40.89   0.00012655    1.015    0.014
       227  -8.5022    164.6759     59.9040   7.1949199135e+01   3.6241822266e+01    0.2919498    0.1913475 -13.69   0.00116712    1.877    0.467
       228  -8.5027    190.3859    191.2033   9.7798628680e+01   8.6614768637e+00    0.2685459    0.1922072 -68.57  0.001184846    2.371    0.578
       229  -9.4383    249.5742    179.0448   8.5757290906e+01  -1.4360003259e-02    0.3237354    0.2431491 -42.31  0.002038172    1.833    0.455
       230  -7.2129    163.3450    178.7654   1.0072964241e+02   1.5354711629e+01    0.1261145   0.09089305  63.60 0.0002387688    1.556    0.357
       231  -7.7191     20.9910    177.3248   1.2880867701e+02   3.6199692313e+01    0.1422589    0.1112074  68.99 0.0005695457    1.150    0.131
       232  -8.1545     42.0776     28.2377   9.6947609521e+01   6.6288916963e+01    0.2090395    0.1387087 -36.52 0.0002664321    1.286    0.222
       233  -8.2215    118.6763     27.1964   7.0414496900e+01   5.2626210787e+01    0.2998301    0.1102266 -37.20   0.00107108    2.599    0.615
       234  -8.8769     91.1352     25.8819   7.7543256414e+01   5.8820147966e+01    0.3496039    0.2345363 -50.22  0.001290311    1.756    0.431
       235  -8.7746     91.9713     21.0473   7.5126594023e+01   5.9369777621e+01    0.3139027    0.2377491   7.65 0.0007623996    1.419    0.295
       236  -8.4658    144.1667     25.8404   6.4186231715e+01   4.6536161674e+01    0.2275409    0.1956141 -59.49 0.0006020118    1.280    0.219
       237  -9.1709    238.3403    174.7423   8.6732294907e+01   2.3712265515e+00    0.2485043    0.1933917  36.33 0.0009611113    1.225    0.184
       238  -7.5378      9.4841    171.5077   1.3067088488e+02   3.8374179664e+01    0.1093875   0.07457947  75.17 0.0001031111    1.060    0.057
       239  -9.1895    239.0609    169.9447   8.5705128005e+01   2.8228731907e+00    0.2280702    0.1544288  33.46 0.0004038385    1.310    0.236
       240  -8.2611    230.2425    168.3717   8.6841731633e+01   4.5751386850e+00    0.2046284    0.1554719 -47.86  0.001199174    1.785    0.440
       241  -8.3506    119.7824     16.6170   6.5729611493e+01   5.3755480182e+01    0.3787781    0.2148632  20.84  0.001531764    2.384    0.581
       242  -8.1964    111.8815     20.8454   6.9465206578e+01   5.5071283792e+01    0.4279253    0.1911677 -17.54  0.001560138    2.790    0.642
       243  -9.0113     93.7996    167.9839   1.1315726236e+02   2.9113002339e+01    0.1886269     0.154507  59.02 0.0002733743    1.100    0.091
       244  -8.3779    159.9706    166.0338   9.9214505012e+01   1.8083524185e+01      0.18991    0.1725181  54.89            0    1.056    0.053
       245  -7.7444    248.5976    164.8106   8.3195844050e+01   1.7842154816e+00    0.1552957    0.1090284 -31.77  0.000422028    1.528    0.346
       246  -8.9991    239.3436    165.0768   8.4715799010e+01   3.3675066678e+00    0.2423137    0.1609592  41.36            0    1.427    0.299
       247  -9.2299    100.9563     32.3715   7.7349101206e+01   5.5793126311e+01    0.4743862    0.1975573 -34.36  0.001372479    2.256    0.557
       248 -10.3023    207.1281    162.6594   8.9698595670e+01   9.6164203622e+00    0.2436304    0.2187759  29.46 0.0003749233    1.067    0.063
       249  -8.5985     92.9253    152.7656   1.1123247067e+02   3.2320830269e+01    0.1922851    0.1634344 -76.18 0.0003783596    1.148    0.129
       250  -8.1998    134.6095    146.6761   1.0095979715e+02   2.6401499037e+01    0.5626981    0.3657631 -72.50  0.002679813    2.013    0.503
       251  -8.8901    226.5791    145.3513   8.2788875003e+01   8.3167973464e+00    0.2325569    0.1964391  11.31 0.0002682626    1.081    0.075
       252  -9.4973     66.8206    144.3273   1.1600729095e+02   3.7838858010e+01    0.4611878    0.2755706  71.64  0.002459573    1.775    0.437
       253  -7.9338     45.4122     15.6910   8.9885622906e+01   6.8113462215e+01    0.1751988   0.09925307 -32.42 0.0009351461    1.547    0.353
       254  -7.7167    212.1822    144.2021   8.5026597889e+01   1.1322511094e+01    0.1722118    0.1603928  72.46 0.0003497861    1.330    0.248
       255  -7.3540    159.5013    138.9627   9.4093746004e+01   2.2985144423e+01    0.1919423    0.1403107 -42.91 0.0003698745    1.444    0.307
       256  -8.6265    112.3558    134.1682   1.0364233184e+02   3.3001280670e+01    0.3422619    0.2224108  78.86 0.0009392189    2.074    0.518
       257  -9.7500    133.7753    131.1661   9.8083183860e+01   2.9636817038e+01    0.5192845    0.4535293  39.46  0.002773237    1.191    0.160
       258  -7.3056    189.4848     15.4895   5.3296748374e+01   3.5740041248e+01    0.1433284    0.1408671  83.76 0.0008102675    1.026    0.025
       259  -7.8968    104.9703     14.9764   6.8676744788e+01   5.7397356081e+01     0.235563    0.1550373  19.38  0.001116265    1.750    0.429
       260  -8.1483     82.5311    130.9299   1.1024990389e+02   3.8560451371e+01     0.404399    0.1900268 -77.77  0.001546336    3.144    0.682
       261  -9.7512     98.5020    128.6371   1.0592605815e+02   3.6553467707e+01    0.5436385    0.3157764  77.33  0.002084576    2.708    0.631
       262  -8.2762    161.0341    129.5319   9.1731204308e+01   2.4415786742e+01    0.3262795    0.2501847 -62.45  0.001655137    1.513    0.339
       263 -10.6347     70.3039    126.2102   1.1252559156e+02   4.1347026957e+01    0.5438905    0.5070381 -74.23   0.00156896    1.183    0.155
       264 -10.1355     58.4221    124.6930   1.1530479585e+02   4.3228282679e+01    0.6702974    0.3359372  74.73  0.002356225    2.929    0.659
       265  -9.6505    109.9629     90.4617   9.4372677796e+01   4.2811605780e+01    0.8345916    0.3885781  29.67  0.002690019    3.974    0.748
       266  -8.9766    119.0213     21.4958   6.7968438513e+01   5.3320082720e+01    0.3092513    0.2374964 -29.33 0.0004320198    1.275    0.216
       267  -9.8086    117.4622    125.7843   1.0077389798e+02   3.3844944680e+01    0.6370974    0.4006509 -89.78  0.001769049    2.561    0.610
       268 -10.4938    131.7017    119.7692   9.6093505116e+01   3.2365636112e+01     1.052438    0.5682403  70.52  0.002507877    3.747    0.733
       269 -10.8425    140.7856    117.9305   9.3559148242e+01   3.0895225928e+01     1.003422    0.4978089 -41.57  0.001331827    2.116    0.527
       270 -10.5395    123.7859     91.4897   9.1022771048e+01   3.9838350304e+01    0.6350645    0.5889959  43.32  0.002197556    1.130    0.115
       271  -8.9314    125.9916     84.0124   8.8359380629e+01   4.0907795358e+01    0.5648648    0.3528914  10.30  0.001894186    3.753    0.734
       272 -10.5176    109.2908    113.1797   1.0009100172e+02   3.8036940427e+01     1.095676    0.5571668 -56.90  0.002759614    1.985    0.496
       273 -11.2026    121.2007    109.5170   9.6263168409e+01   3.6576036076e+01     1.504693    0.6321397 -49.21   0.00445787    2.340    0.573
