#   1 NUMBER                 Running object number                                     
#   2 MAG_AUTO               Kron-like elliptical aperture magnitude                    [mag]
#   3 X_IMAGE                Object position along x                                    [pixel]
#   4 Y_IMAGE                Object position along y                                    [pixel]
#   5 X_WORLD                Barycenter position along world x axis                     [deg]
#   6 Y_WORLD                Barycenter position along world y axis                     [deg]
#   7 A_WORLD                Profile RMS along major axis (world units)                 [deg]
#   8 B_WORLD                Profile RMS along minor axis (world units)                 [deg]
#   9 THETA_WORLD            Position angle (CCW/world-x)                               [deg]
#  10 FWHM_WORLD             FWHM assuming a gaussian core                              [deg]
#  11 ELONGATION             A_IMAGE/B_IMAGE                                           
#  12 ELLIPTICITY            1 - B_IMAGE/A_IMAGE                                       
         1 -14.5157    148.1989     60.8970   8.9033765052e+01   4.0435030820e+01     1.374854     1.218273   7.26  0.001153023    1.241    0.194
         2 -14.7295    158.9942     45.9655   8.1855029125e+01   4.0031311716e+01      1.33377      1.08575 -28.07  0.003739224    1.283    0.220
         3 -14.7654    171.1407     14.5576   6.9594052628e+01   4.0765481255e+01     1.342244     1.222084  26.09  0.004482399    1.215    0.177
         4 -13.0183    198.8144      6.0439   6.3667481985e+01   3.4374566633e+01    0.6131794    0.2744592 -32.21  0.002681527    2.196    0.545
         5 -13.7264    189.0532     13.9081   6.7022127130e+01   3.6113521879e+01    0.8472943    0.5635856 -76.15  0.003073004    1.615    0.381
         6 -11.7086     13.2983    239.9942   1.5054059444e+02   2.5037409456e+01    0.1350414   0.09791739  80.28 0.0005858097    1.197    0.165
         7 -19.8820     90.3631    225.8694   1.3637817408e+02   1.7964239455e+01     8.280554     5.915725  58.46   0.05485465    1.091    0.084
         8 -11.1656    151.8597    238.0250   1.2641029826e+02   6.2527473645e+00    0.3085788    0.1809479  28.41  0.001206207    1.988    0.497
         9 -11.4121     19.8347    196.6129   1.4719637944e+02   3.2368129615e+01    0.1642136    0.1182911 -77.90 0.0006075088    1.349    0.259
        10 -11.3361     28.1687    235.9151   1.4798213769e+02   2.4168002508e+01    0.1896257    0.1084504 -83.44  0.001343979    1.582    0.368
        11 -12.4442    146.0303    188.9608   1.2054991589e+02   1.5439350453e+01      0.35547    0.2862313  16.90  0.001392138    1.555    0.357
        12 -11.6644     21.6483    234.0096   1.4894388180e+02   2.5203668937e+01    0.1399625   0.09309424  85.88  0.001054798    1.242    0.195
        13 -10.7430    242.0893    184.5333   1.0129574012e+02  -1.7970150025e+00    0.1827386    0.1151677  40.20 0.0005472639    1.513    0.339
        14 -12.2728    187.8583    174.7374   1.0940848547e+02   9.8680924811e+00    0.3481736    0.2253426 -58.42  0.001627587    2.124    0.529
        15 -10.5620      4.8999    232.7280   1.5155356780e+02   2.7118946635e+01    0.1217387   0.08349668  60.74 0.0006292919    1.189    0.159
        16 -12.5895    230.5114    167.2110   9.9850493374e+01   2.7488044542e+00    0.4749546    0.2441317 -47.14  0.002072979    2.519    0.603
        17 -10.0375     28.1476    222.9202   1.4727870235e+02   2.6487398157e+01    0.1575809   0.09307956  68.68 0.0005465196    1.262    0.208
        18 -12.0818    190.3894    157.9238   1.0548535298e+02   1.2291140532e+01    0.5206602    0.4140137   2.22  0.002178549    1.475    0.322
        19 -12.9869    128.6574    150.4885   1.1751201176e+02   2.6517762488e+01    0.5922303    0.3246009 -59.73  0.002514366    2.034    0.508
        20 -15.0041    143.4260    144.4512   1.1280473010e+02   2.4831194349e+01     1.276538    0.7954245 -56.94  0.004623766    1.759    0.432
        21 -14.6324    134.5135    147.2356   1.1547569212e+02   2.6058161116e+01     1.880877    0.6541226 -57.44  0.005670462    3.998    0.750
        22 -14.2570    135.6898    127.9636   1.1098468755e+02   2.9968590745e+01     2.085057    0.4168976 -50.09  0.004926451    5.748    0.826
        23 -12.6073    134.6037    109.3066   1.0666692846e+02   3.4220870915e+01     1.251927    0.1870956 -46.12  0.002640017    6.789    0.853
        24 -14.0121    161.8452    153.7467   1.1060790938e+02   1.9084051623e+01    0.6833397    0.5584888 -81.16  0.002769411    1.494    0.331
        25  -9.9442     22.8506    156.1780   1.4355765674e+02   4.0536816170e+01    0.1449593    0.1197316 -72.93 0.0003945505    1.254    0.203
        26 -11.2345     17.8377    153.9680   1.4448758268e+02   4.1474158816e+01     0.212162    0.1527351 -67.87 0.0004341736    1.333    0.250
        27 -11.3734     18.3711    149.2292   1.4394987484e+02   4.2468648444e+01    0.2972785    0.2339555  55.78  0.002110641    1.312    0.238
        28 -12.6462    173.7151    148.5723   1.0693263216e+02   1.7564759227e+01    0.4596526    0.3731513  64.97  0.001612632    1.354    0.261
        29 -10.2478      8.3952    148.3219   1.4614257397e+02   4.3491200082e+01    0.2132422   0.08231547 -72.56 0.0008457514    2.004    0.501
        30 -11.6267    172.9168    139.1780   1.0500451051e+02   1.9556016162e+01    0.2344413    0.2071729  79.31  0.001126135    1.270    0.212
        31 -10.5874      2.9896    134.9873   1.4630758364e+02   4.6808894679e+01    0.1708778     0.132285 -78.12 0.0005652502    1.124    0.111
        32 -13.0291    160.6273    128.1323   1.0513644981e+02   2.4495731511e+01    0.5046114    0.4131943 -58.51  0.001615427    1.307    0.235
        33 -11.6638    140.6722    120.6282   1.0801478345e+02   3.0480279240e+01    0.4011252    0.2497955  67.82  0.001095008    2.201    0.546
        34 -10.8467    167.5280    112.5158   9.9688012942e+01   2.6045148491e+01    0.3547577    0.2410149 -82.13  0.001373256    2.409    0.585
        35 -11.4283    218.5350    220.7398   1.1187420021e+02  -2.5420789111e+00    0.3436306    0.1384656 -41.02  0.001605997    3.055    0.673
        36 -10.8434    205.4358    110.1621   9.1369308393e+01   1.7508383679e+01    0.3281088    0.2120641  42.32 0.0009815203    1.610    0.379
        37 -10.4077    180.9530    106.8876   9.5332629132e+01   2.3935387880e+01    0.2500034    0.1902284 -76.77  0.001112934    1.718    0.418
        38 -12.0328     26.9147    105.9269   1.3663401283e+02   5.1552216519e+01    0.3079982    0.2376672  -9.37  0.001148732    1.795    0.443
        39 -13.1059     11.4213    206.0138   1.4925553813e+02   3.1362669997e+01    0.3738981    0.2418121  33.17  0.002128151    1.953    0.488
        40 -12.1565     40.7625     94.7676   1.3047732473e+02   5.2834564846e+01     0.464147     0.364458   5.77  0.002748683    1.655    0.396
        41 -12.6906     49.3845     92.0378   1.2716908973e+02   5.2540289305e+01    0.4542723    0.2802638   9.70   0.00199388    2.429    0.588
        42 -10.8447    124.7659     95.2461   1.0542635634e+02   3.9338331192e+01    0.2100922    0.1832969   4.73  0.001034268    1.349    0.259
        43 -11.6665      5.7511     89.0920   1.4057038522e+02   5.6852586696e+01    0.4712803    0.2195972  -9.93  0.002209409    3.962    0.748
        44 -10.4063    103.9913     81.9958   1.0741092084e+02   4.6382000193e+01    0.2116749    0.2083999 -26.46  0.000343705    1.029    0.028
        45 -10.7853    142.9709     81.0243   9.6596844098e+01   3.8080215103e+01    0.2368071    0.2322047 -53.58 0.0004965933    1.023    0.023
        46  -9.4328     19.4427    203.5270   1.4768677583e+02   3.1053164214e+01    0.1664408    0.1040392 -60.51 0.0006777209    1.968    0.492
        47 -19.1588     75.3738     97.8514   1.2035366807e+02   4.7815127089e+01     17.95634    0.8223377 -54.85   0.02497561   18.508    0.946
        48 -13.3052    162.9952     36.9928   7.8160054889e+01   4.0244264169e+01    0.4976705    0.4806967 -34.53 0.0008080336    1.085    0.078
        49 -11.0484     13.3653     59.8494   1.3270334157e+02   6.2781255827e+01    0.1629294    0.1555983 -87.40 0.0004709373    1.263    0.208
        50 -11.6529    148.8538     35.4697   8.0366450813e+01   4.4117677274e+01    0.4826444    0.2661218  77.77  0.001318447    2.451    0.592
        51 -12.9117    139.3713    199.7676   1.2360572833e+02   1.4671680655e+01    0.6160108    0.3604105  52.33  0.001487143    1.552    0.356
        52 -11.4804    114.5900    250.5863   1.3442194429e+02   1.0271102757e+01    0.1755766   0.09604607  41.01    0.0010462    1.541    0.351
