#   1 NUMBER                 Running object number                                     
#   2 MAG_AUTO               Kron-like elliptical aperture magnitude                    [mag]
#   3 X_IMAGE                Object position along x                                    [pixel]
#   4 Y_IMAGE                Object position along y                                    [pixel]
#   5 X_WORLD                Barycenter position along world x axis                     [deg]
#   6 Y_WORLD                Barycenter position along world y axis                     [deg]
#   7 A_WORLD                Profile RMS along major axis (world units)                 [deg]
#   8 B_WORLD                Profile RMS along minor axis (world units)                 [deg]
#   9 THETA_WORLD            Position angle (CCW/world-x)                               [deg]
#  10 FWHM_WORLD             FWHM assuming a gaussian core                              [deg]
#  11 ELONGATION             A_IMAGE/B_IMAGE                                           
#  12 ELLIPTICITY            1 - B_IMAGE/A_IMAGE                                       
         1 -12.9485    199.7487      7.7054   2.6999246729e+01   3.3578280349e+01     0.859776    0.3125187 -31.56  0.003618038    2.425    0.588
         2 -10.9590    121.5267     20.9986   4.2035460573e+01   5.1814746722e+01    0.2105436     0.137051 -25.66 0.0007707328    1.581    0.367
         3 -11.5567     36.5031     11.0381   6.4721304012e+01   7.0390523756e+01    0.2235257    0.1779072  31.79  -0.00037254    1.337    0.252
         4 -10.8631     64.9452     11.0918   5.2851299070e+01   6.5538881829e+01    0.4218828    0.1655103  48.00   0.00183064    2.425    0.588
         5 -12.7682    189.4619      4.8190   2.7109290850e+01   3.6359578562e+01    0.3303528    0.2471215  73.39 0.0005327847    1.283    0.221
         6 -11.1505    127.3266      5.9720   3.5143471846e+01   5.1915799685e+01    0.2529617    0.1894273  68.68 0.0005293781    1.267    0.211
         7 -10.3930    144.3201      5.6611   3.2452814690e+01   4.7659100783e+01    0.1460684   0.09526211 -60.39 0.0007049956    1.712    0.416
         8  -9.7568     71.8138      1.3402   4.5516698479e+01   6.5219414391e+01    0.1791892    0.1010947  45.69 0.0003860388    1.612    0.380
         9 -10.2520     28.8682      1.4105   6.2986609640e+01   7.2827042829e+01    0.1613809    0.1077203  34.75 0.0009759266    1.544    0.352
        10 -10.0256     97.8096    220.6128   9.5393986978e+01   1.7828515142e+01    0.1725075   0.08890987  46.61 0.0006397335    1.602    0.376
        11 -11.3388     70.1317    249.0385   1.0304760047e+02   1.6744878938e+01    0.2864664    0.2150635  17.82 0.0009552203    1.929    0.481
        12 -12.4739     23.2604    218.3756   1.0965751710e+02   2.7369576530e+01    0.3572456    0.1862787  60.90  0.001321694    1.523    0.344
        13 -10.8967    237.0787    210.6830   6.8469483750e+01  -1.6567484015e+00    0.2832198    0.2380043   0.39  0.002120262    1.166    0.142
        14 -11.2962    235.0562    215.7896   6.9625426978e+01  -1.9615287076e+00    0.3361673    0.2854056 -66.48  0.002242621    2.425    0.588
        15 -11.2252    179.5821    217.2676   7.9327126446e+01   5.9947243025e+00    0.2243458    0.2168112 -16.82 0.0007233203    1.270    0.213
        16 -10.2268    111.5945    215.6973   9.2124677736e+01   1.6686389569e+01    0.2070802    0.1139227 -53.27  0.001138068    2.124    0.529
        17  -9.5653    213.3102    211.6694   7.2528645422e+01   1.6349014759e+00    0.1016442   0.09378201  64.83 0.0004224713    1.669    0.401
        18 -10.0486    192.3716    209.2010   7.5777620868e+01   5.1373504049e+00    0.1545158    0.1125605 -46.34 0.0009536448    1.732    0.423
        19 -10.6576     18.9707    202.8191   1.0962582597e+02   3.0759349419e+01    0.3380228    0.1269609  62.93  0.001693319    2.465    0.594
        20 -11.3699      3.4731    203.2440   1.1267031667e+02   3.2114175092e+01    0.2187032    0.1506451  73.15 0.0005490261    1.089    0.082
        21 -10.1988    139.8742    200.0430   8.4374425230e+01   1.4989532656e+01    0.1981467    0.1447823  86.33  0.001079899    2.015    0.504
        22  -9.8237    215.3272    194.6515   6.9324773494e+01   3.5375671529e+00     0.108315   0.09927142  88.16 0.0003791036    1.756    0.431
        23 -11.0651    161.0238    193.5945   7.9151047678e+01   1.2575867372e+01    0.3342402    0.2156557  49.15  0.001818192    1.549    0.354
        24 -11.9310    239.4465    216.7220   6.9082163363e+01  -2.6646409712e+00     0.295932    0.1882799 -38.66  0.001879475    1.977    0.494
        25 -10.2419    109.0155    186.0103   8.8825455481e+01   2.2541361521e+01    0.2155511    0.1457088  69.09  0.001135451    1.727    0.421
        26  -9.7338    164.6584    185.3303   7.7051229286e+01   1.3328597119e+01    0.1289279    0.1018055  73.36 0.0007051363    1.746    0.427
        27  -9.9496    183.0000    184.0164   7.3262334658e+01   1.0384746173e+01    0.1999694   0.07261908 -41.12 0.0007913138    2.946    0.661
        28 -10.1609    173.9922    183.1990   7.4846247652e+01   1.2067495867e+01    0.1772129     0.148816 -69.54 0.0009468116    1.609    0.378
        29 -12.3727     44.7662    181.7360   1.0264712023e+02   3.2316629273e+01    0.3546846     0.195426  70.11  0.001906822    1.820    0.450
        30 -10.8018    191.8528    177.4194   7.0400480885e+01   9.8912609229e+00    0.2918459    0.1824931 -40.11  0.001556186    1.695    0.410
        31 -10.3474    101.0082    175.9962   8.9166435381e+01   2.5810801329e+01    0.1840326    0.1659959  61.54  0.001148117    1.008    0.008
        32 -10.6922    159.2958    174.8381   7.6286927524e+01   1.6073466667e+01    0.2463495    0.2070777 -84.41 0.0009612674    1.568    0.362
        33 -11.7782    120.6950    171.6718   8.4037845496e+01   2.3454112570e+01    0.4503745    0.2631008 -45.44  0.001995253    1.905    0.475
        34 -11.8302     34.1869    172.0643   1.0417557926e+02   3.5562441031e+01    0.3129609    0.1434299 -72.20  0.001606077    1.986    0.496
        35 -10.5327    175.6378    171.0238   7.2301259453e+01   1.3796128547e+01    0.2979054    0.1256756 -41.61   0.00125042    2.494    0.599
        36 -10.2580    206.1790    170.3335   6.6453088724e+01   8.4937470972e+00    0.2657442    0.1438275 -55.39  0.001086726    3.383    0.704
        37 -11.9389     50.8389    159.7209   9.8935864546e+01   3.6404268392e+01    0.4477654    0.2754569  72.23  0.001695697    1.681    0.405
        38 -11.7073     52.5320    165.9250   9.9236910611e+01   3.4815895349e+01    0.2568476    0.2106865  76.99 0.0007490623    1.055    0.052
        39 -10.2959    192.3015    165.4781   6.8035517852e+01   1.1700658160e+01    0.2397414     0.117008 -38.62  0.001087805    2.087    0.521
        40 -11.8761     51.7170    169.4628   9.9822857802e+01   3.4136536115e+01    0.2736602    0.2314142  49.04 0.0008743434    1.201    0.167
        41 -10.3605    138.8711    164.7556   7.8790067603e+01   2.1619355318e+01    0.2631257    0.1856123 -84.06  0.001245884    2.140    0.533
        42 -10.6853     79.1017    162.9532   9.2427730087e+01   3.1914703974e+01     0.329582    0.1695265  89.85  0.001253298    3.328    0.700
        43 -11.9720    121.5772    161.2479   8.2052126550e+01   2.5406982147e+01    0.5244447    0.2642866 -60.22  0.002234537    2.334    0.572
        44 -11.1053     93.3371    160.6359   8.8629557081e+01   3.0260955068e+01    0.3068138    0.2044349  72.78  0.001521115    1.792    0.442
        45 -10.8113     16.2762    159.3287   1.0731334617e+02   4.0114868113e+01    0.3804707    0.1540891 -89.73 0.0009233314    2.486    0.598
        46 -10.2675    105.2001    157.8103   8.5306081955e+01   2.8940274364e+01    0.2396014    0.1403699  74.55 0.0009485063    2.837    0.648
        47 -10.2912    218.8946    156.5984   6.1522702364e+01   8.3285197987e+00    0.2269321    0.1653661 -18.16  0.001296599    1.321    0.243
        48 -10.1256    196.3917    157.1739   6.5612498838e+01   1.2292563397e+01    0.1914483    0.1217031 -46.45 0.0009541909    1.760    0.432
        49 -10.9546    236.0152    154.6571   5.8344020255e+01   5.6726088326e+00    0.2823451    0.2260542 -19.51  0.001783262    1.111    0.100
        50  -9.7049    170.5323    156.5312   7.0488704330e+01   1.7253041363e+01    0.1362628    0.1296317  20.82 0.0001334016    1.023    0.022
        51 -10.1042    132.6635    152.3566   7.7843239810e+01   2.5215148852e+01    0.1478998    0.1097938  80.82 0.0001912421    1.805    0.446
        52 -10.5617    189.4630    148.9423   6.5197518348e+01   1.4952325559e+01    0.3146281     0.125406 -44.51  0.001212086    2.685    0.628
        53 -11.2800    106.5569    145.1139   8.2692444947e+01   3.1453503645e+01    0.4038435    0.2569682  84.71  0.001696651    2.487    0.598
        54 -10.7837    148.4895    144.9930   7.2777704191e+01   2.3666373615e+01    0.2582841    0.2014643  87.10  0.001152325    1.737    0.424
        55 -10.6622    125.2413    144.1273   7.7945288258e+01   2.8293344045e+01    0.3308952    0.2212762 -88.14  0.001408392    2.397    0.583
        56  -9.1022    250.4756    144.4801   5.4090501833e+01   4.6700279739e+00    0.1248123     0.105104 -14.32 1.726821e-05    1.033    0.032
        57 -11.0030     21.2406    138.9391   1.0423738408e+02   4.4297767753e+01    0.3560468     0.196128  31.77  0.001960957    1.976    0.494
        58 -10.5719      1.4015    135.9408   1.0920833121e+02   4.6573236814e+01     0.179474   0.09343062 -80.71 0.0005062343    1.560    0.359
        59 -11.1009     83.2593    132.4655   8.6358035587e+01   3.8168882981e+01    0.4018319    0.2239313 -85.46  0.001520386    3.005    0.667
        60 -11.6681     97.7546    126.8237   8.1321172351e+01   3.7055886587e+01    0.4803573    0.3116893 -73.44   0.00166412    1.867    0.464
        61 -10.6708     59.0977    124.2568   9.1641935300e+01   4.3592823549e+01    0.2742208    0.1657346  84.24  0.001240355    2.154    0.536
        62 -11.1723     43.8212    123.9787   9.6035552395e+01   4.5533077610e+01    0.4584128    0.2347841  69.36  0.001924023    2.740    0.635
        63 -10.3542    189.0452    124.0307   5.9712197647e+01   1.9298260019e+01    0.2142853    0.2099616 -44.40 0.0007097553    1.096    0.088
        64 -11.2683    248.6109    120.7890   4.9350762578e+01   8.2328856337e+00    0.1897552    0.1022577 -38.88  0.000862503    1.693    0.409
        65 -11.1343    158.0106    121.0550   6.5267748987e+01   2.6389213410e+01    0.2369325    0.1860847 -82.30 0.0009545012    1.699    0.411
        66 -10.8680    108.6027    113.2278   7.5336027645e+01   3.8118739668e+01    0.5205721    0.2498986 -64.09  0.001769152    3.162    0.684
        67 -11.2855    141.2534    113.1151   6.7088409761e+01   3.1520731848e+01    0.3899253    0.2606693  -9.94  0.001554644    2.507    0.601
        68 -11.0193     92.1273    112.7709   7.9778473725e+01   4.1225344113e+01    0.4029376    0.2379339 -69.45  0.001697743    2.107    0.525
        69 -11.1567     78.2757    111.6614   8.3540560107e+01   4.3780875867e+01    0.5118451    0.2556995 -76.49  0.001694027    3.744    0.733
        70 -11.0285     13.5255    109.5150   1.0314069693e+02   5.1848674304e+01    0.4032593    0.1579705 -80.52  0.001742549    2.469    0.595
        71 -11.2982    150.3231    109.4746   6.4080127014e+01   3.0290651230e+01    0.3901692    0.2356678 -73.99  0.001322942    3.464    0.711
        72 -10.5514    139.8196    105.2361   6.5399933865e+01   3.3413495813e+01    0.2565012    0.1686396 -84.93 0.0009547665    2.812    0.644
        73 -11.9978    128.3456    101.8467   6.7293790581e+01   3.6565114640e+01    0.4177572    0.2552918 -62.25  0.001704766    2.111    0.526
        74 -11.3162     44.6146    101.9036   9.1985600701e+01   5.0706525680e+01    0.4735093    0.2339213  75.99  0.001512889    4.841    0.793
        75 -11.2581      6.8865    101.3169   1.0422282094e+02   5.4256897167e+01    0.5073265    0.1379501 -72.87  0.001988432    2.956    0.662
        76 -12.7423    109.6427     99.7958   7.1646284538e+01   4.0844614378e+01    0.7964237    0.5139128  73.34  0.003216058    2.442    0.591
        77 -10.3376    105.5674     93.7979   7.1148375335e+01   4.2938278489e+01    0.2474536    0.2053296 -83.21 0.0006242085    1.413    0.292
        78 -12.7277     63.8701    100.6591   8.5507677621e+01   4.8517381742e+01    0.5364953    0.2792722 -62.37  0.000548713    1.859    0.462
        79 -10.8812     34.4226     88.7003   9.2810245023e+01   5.4943854107e+01    0.3775352    0.1262369 -70.18  0.001303469    3.473    0.712
        80 -10.0953     79.5132     87.9489   7.7337289207e+01   4.9000546102e+01    0.2144782     0.134057 -51.61 0.0003444002    1.502    0.334
        81 -10.8573     86.1098     86.8780   7.4966871815e+01   4.8095499994e+01     0.314578    0.2168224  87.09  0.001351504    2.320    0.569
        82 -10.3904     81.5155    100.0207   7.9852687266e+01   4.5940317851e+01     0.207725    0.1245327 -78.12 0.0008104168    2.581    0.613
        83 -10.4035    203.4767     75.5551   4.5040242847e+01   2.4090133188e+01    0.2334712    0.1693095  55.73  0.001193084    1.461    0.316
        84 -10.2458    157.7646     75.9797   5.3193621157e+01   3.4799024393e+01    0.2103449    0.1238381 -35.41  0.000892827    1.669    0.401
        85 -10.4196    102.9881     75.8182   6.6582629855e+01   4.7200083062e+01    0.2437983    0.1766799  78.94  0.001090071    1.990    0.497
        86 -11.0530    249.5840     74.3178   3.8757355503e+01   1.4445627030e+01    0.2569757    0.1021766 -35.11  0.001124018    2.052    0.513
        87 -10.7847     62.7813     74.3930   7.9117266027e+01   5.4667819719e+01    0.3407221    0.1860341 -66.58  0.001417818    2.374    0.579
        88 -11.5197     81.9564     72.3285   7.1953892052e+01   5.1955181371e+01    0.5015967      0.27006 -64.19   0.00188973    2.832    0.647
        89 -10.7933    105.1972     70.8400   6.4357352820e+01   4.7730283427e+01    0.3358143    0.1046213 -47.30  0.001024829    3.430    0.708
        90 -10.5207    179.0282     69.9352   4.7436999466e+01   3.0694701210e+01    0.2145608    0.1996674 -60.37  0.000303389    1.067    0.063
        91 -10.5603     50.5187     68.5126   8.1885330282e+01   5.7689132936e+01    0.2511312    0.1255557 -65.38  0.001037094    2.436    0.590
        92 -11.1964     38.4121     65.6100   8.5757020175e+01   5.9816045835e+01    0.3687351    0.1702971  55.12  0.001324759    4.257    0.765
        93 -11.5827      7.5597     65.1077   9.8254033322e+01   6.2639069003e+01    0.3941924    0.2457364  43.57  0.001830346    1.938    0.484
        94 -12.2465     25.1180     57.8553   8.9091979100e+01   6.2898799727e+01    0.5417575      0.24877 -64.44  0.002515333    2.098    0.523
        95 -11.5220     20.8713     50.5140   8.8869659355e+01   6.4877988687e+01    0.5363549    0.2243087 -55.19  0.002561401    1.920    0.479
        96 -11.8413     30.3267     50.8867   8.4746122349e+01   6.3887183330e+01    0.4203588     0.218019 -71.93  0.001790668    2.894    0.654
        97 -12.8514      9.6753     49.1808   9.3651004372e+01   6.6043456546e+01     0.361046    0.2501824 -29.59  0.001122718    1.467    0.318
        98 -11.2842    236.3201     46.0490   3.3451440420e+01   2.0842933250e+01    0.2915583    0.2385139   0.61   0.00172547    1.503    0.335
        99 -10.9792    142.2561     40.9707   4.5159021272e+01   4.4126808925e+01    0.3120257    0.1867333 -82.61  0.001192404    2.730    0.634
       100 -10.4467     57.4610     41.0580   6.9619451548e+01   6.2256458652e+01    0.2029446    0.1212671 -42.51 0.0004157768    1.552    0.356
       101 -10.1892     45.2293     35.2119   7.2316599086e+01   6.5160454988e+01    0.2045162   0.09802094 -53.94  0.000880365    2.489    0.598
       102 -11.5274     73.4974     32.4593   5.9971376394e+01   6.0916167832e+01    0.3851565    0.2852616 -87.82   0.00185362    2.410    0.585
       103 -11.8292      2.0090     28.8025   9.1501729997e+01   7.0816522100e+01    0.4468551    0.1494439 -58.54  0.002096714    2.322    0.569
       104  -9.6410    179.8184     26.3363   3.4456178003e+01   3.6514858177e+01    0.1841179    0.1199972  60.06 0.0002459807    1.513    0.339
       105 -10.5125     37.2402     25.6830   7.1764696267e+01   6.7951137247e+01    0.2664315    0.1455572  32.90  0.001396388    1.972    0.493
       106 -12.0534    217.7959    245.4225   7.6865682584e+01  -2.8976559262e+00     0.317856    0.2815517 -61.85  0.002426422    2.111    0.526
       107  -9.6428    136.9931     20.9825   3.9087831308e+01   4.7972026843e+01    0.1625165     0.160704  63.78 0.0003121986    1.027    0.027
       108 -11.4262    209.7896    237.1663   7.7003552516e+01  -9.1740056864e-01    0.3188484    0.2775262 -81.62  0.002252702    2.271    0.560
       109 -11.3968     41.1711     20.8808   6.7621787863e+01   6.8202960750e+01    0.2453601    0.2240598  30.64 0.0004023747    1.284    0.221
       110 -10.5171     37.6035     18.2163   6.7977349365e+01   6.9139759430e+01     0.257227    0.1672009 -31.06  0.001112768    1.376    0.273
       111  -9.6483    100.6629     19.2936   4.6072075530e+01   5.6976353712e+01    0.1360027    0.1061301 -68.40 0.0003880815    1.646    0.392
       112 -11.1562     32.9322     19.5961   7.0958452839e+01   6.9551478741e+01    0.2367295    0.2076041  30.21 0.0005987716    1.329    0.248
       113 -10.4372    149.8191     16.0166   3.5258955166e+01   4.5258097708e+01    0.2387948    0.1530956  22.64   0.00109721    2.034    0.508
       114 -12.8770     18.1104    241.7531   1.1169343587e+02   2.3752691989e+01    0.5504274    0.2038788  36.40  0.003154731    2.280    0.561
       115 -11.5409     20.9582    238.4594   1.1106009801e+02   2.4027087866e+01    0.3519127   0.09565723  48.10  0.001570889    2.401    0.583
       116 -11.2005     36.1858    239.8788   1.0846937750e+02   2.2191560266e+01    0.2157964    0.1417102  53.14 0.0008997622    1.139    0.122
       117 -11.1145      4.5836    244.7274   1.1407321034e+02   2.4554019107e+01    0.1686664   0.07861082 -80.20  0.001139155    2.082    0.520
       118 -11.6826    149.6832    223.0266   8.5673302021e+01   9.7465041010e+00    0.4392521    0.3067122 -74.36  0.002569952    2.271    0.560
       119 -10.7996     35.9122    223.3143   1.0756992588e+02   2.5131405268e+01    0.1889899    0.1204608  78.81 0.0007646513    1.382    0.276
