#   1 NUMBER                 Running object number                                     
#   2 MAG_AUTO               Kron-like elliptical aperture magnitude                    [mag]
#   3 X_IMAGE                Object position along x                                    [pixel]
#   4 Y_IMAGE                Object position along y                                    [pixel]
#   5 X_WORLD                Barycenter position along world x axis                     [deg]
#   6 Y_WORLD                Barycenter position along world y axis                     [deg]
#   7 A_WORLD                Profile RMS along major axis (world units)                 [deg]
#   8 B_WORLD                Profile RMS along minor axis (world units)                 [deg]
#   9 THETA_WORLD            Position angle (CCW/world-x)                               [deg]
#  10 FWHM_WORLD             FWHM assuming a gaussian core                              [deg]
#  11 ELONGATION             A_IMAGE/B_IMAGE                                           
#  12 ELLIPTICITY            1 - B_IMAGE/A_IMAGE                                       
         1  -9.7187    221.6389      4.9162   3.2237491848e+01   2.9684310766e+01    0.5020089    0.2727558  53.64  0.002696549    2.232    0.552
         2  -9.9544    227.3019      8.0259   3.2477172931e+01   2.8125592111e+01    0.4620867    0.3682045  78.87  0.003141031    1.250    0.200
         3  -9.7063    220.6884     10.9998   3.3631747513e+01   2.9243152951e+01    0.2751521      0.21553 -81.97  0.001336829    1.068    0.063
         4  -7.4833    192.3936      9.4642   3.5810904625e+01   3.5859612301e+01    0.1252424    0.1072516 -84.56 0.0002429136    1.031    0.030
         5  -8.3375    119.8097      8.3914   4.5520467135e+01   5.3443375725e+01    0.1989235   0.09844209  54.23 0.0007340839    1.676    0.403
         6 -10.1221    222.6269    220.1789   7.9115409444e+01  -4.8591026046e+00    0.2142171    0.1811408  11.11 0.0003919724    1.123    0.110
         7 -17.1649     18.4813    236.4099   1.2306038148e+02   2.1970578519e+01     4.438351     3.316844  28.94   0.03085461    1.703    0.413
         8  -7.1177    202.6492    212.2896   8.1538874947e+01  -5.8646897891e-01    0.1211774    0.1054409  62.63 0.0003452866    1.669    0.401
         9  -9.5558     75.3971    171.6613   1.0406899907e+02   2.9613425219e+01    0.3541862    0.2424433 -32.08  0.001655099    2.019    0.505
        10  -9.1693     79.0916    167.0320   1.0237837356e+02   3.0211793737e+01    0.3065469    0.2266243 -49.68 0.0005002755    1.411    0.291
        11  -9.0279    192.8606    211.4995   8.3355520125e+01   1.1206971659e+00    0.2272644    0.1850308 -37.07 0.0003348131    1.319    0.242
        12  -9.0174    192.1532    216.0693   8.4305861706e+01   4.6139903994e-01    0.2092301    0.1708091  19.68 0.0002900083    1.086    0.079
        13  -8.7745     54.7887    165.0333   1.0853161417e+02   3.4051515990e+01    0.5255943    0.2001388  49.84  0.001960438    2.944    0.660
        14  -8.9096     72.4616    209.8532   1.0976163641e+02   2.1057395369e+01    0.3132292    0.2020528  76.41   0.00125695    1.660    0.397
        15  -9.5385      3.1133    159.8491   1.2123291698e+02   4.0388203117e+01     0.293419    0.1672232 -53.38  0.001631438    1.811    0.448
        16  -8.1850     86.9166    158.6432   9.8857046977e+01   3.1091305123e+01    0.2337617    0.1916753 -50.31 0.0003804298    1.240    0.194
        17  -8.0020    219.2443    208.0040   7.7553711769e+01  -2.4786401667e+00     0.184209    0.1541471  -4.77 0.0007647646    1.023    0.023
        18 -10.3510     75.3881    153.6383   1.0115934987e+02   3.4115530379e+01    0.3902277    0.2859326 -42.72 0.0008759835    1.489    0.328
        19  -9.3690     44.8700    155.3526   1.0988001344e+02   3.7659976716e+01    0.3003299    0.1688222  33.38  0.001288127    1.907    0.476
        20  -8.0334     91.7596    153.6123   9.6605749029e+01   3.1562196632e+01    0.1992834    0.1824361 -55.06 0.0003991539    1.094    0.086
        21  -8.7588     66.2899    207.8550   1.1093215701e+02   2.2350266840e+01    0.2462734      0.18086  59.36   0.00062249    1.219    0.180
        22  -9.6573     21.8837    152.8084   1.1577114054e+02   4.0603974313e+01    0.2932376    0.1558322  38.57   0.00149949    1.980    0.495
        23  -8.0396    111.8713    202.8661   9.9762888484e+01   1.6576794249e+01    0.1864368      0.18125 -16.89 0.0003488356    1.170    0.146
        24  -8.6527     81.8737    195.2210   1.0578499124e+02   2.3020086386e+01    0.3623616    0.2103034  83.26   0.00129019    2.338    0.572
        25  -9.3141      2.6661    150.8761   1.2059699070e+02   4.2576528704e+01    0.2306155    0.1844889 -63.41  0.001181343    1.230    0.187
        26 -11.3287     68.5161    144.1859   1.0145332171e+02   3.7499908851e+01    0.7859017    0.5083409  71.18  0.002988292    1.980    0.495
        27  -8.6641    181.9884    191.0343   8.1820075918e+01   6.6722196154e+00    0.2042185    0.1886131   4.48   0.00118681    1.019    0.019
        28  -9.2270     33.1097    148.1266   1.1216288324e+02   4.0724234929e+01    0.2108033    0.1708761 -55.48  0.001247594    1.233    0.189
        29  -9.3801     21.0970    146.4853   1.1527603646e+02   4.2239708308e+01    0.2716882    0.2305639  41.13  0.001036437    1.339    0.253
        30  -8.9028     38.6086    144.3031   1.1010072686e+02   4.1128605455e+01    0.2151896    0.1432299  70.61 0.0006214509    1.658    0.397
        31  -9.7815     32.8614    143.5536   1.1163234417e+02   4.1898094017e+01    0.3903534    0.2261989 -20.90  0.001706496    2.896    0.655
        32  -8.5106     71.6299    186.7661   1.0715145200e+02   2.6489577712e+01     0.241275    0.1614072 -81.72 0.0006679109    1.530    0.346
        33  -9.3559    187.5974    137.7689   6.9226524912e+01   1.6201300276e+01    0.2495331    0.2438569  11.87  0.000327157    1.058    0.055
        34  -9.1534     93.5298    137.8425   9.2940224500e+01   3.5203967002e+01    0.2573447    0.2537027 -28.97 0.0004043636    1.072    0.068
        35  -7.9017     23.6432    138.2958   1.1357503250e+02   4.4062873958e+01     0.136789   0.08822533  66.73  0.000703317    1.697    0.411
        36  -8.7144    131.1360    136.6133   8.2237437905e+01   2.8385476821e+01    0.2596349    0.2130295 -51.42 0.0001982426    1.208    0.172
        37  -8.0103    105.8384    137.4295   8.9331473006e+01   3.3120967978e+01    0.2124155    0.1516446  22.02 0.0005807808    1.692    0.409
        38  -9.2152     36.1415    134.2162   1.0935332708e+02   4.3929217254e+01    0.3529435     0.170476 -86.00  0.001391288    2.661    0.624
        39  -7.7724    192.7815    134.4282   6.7384077679e+01   1.5787571506e+01     0.189443    0.1444366  32.34 0.0002780516    1.440    0.306
        40 -10.8342     56.7194    128.4516   1.0210729345e+02   4.3070252712e+01    0.4471642    0.3073155  67.34  0.002149536    1.789    0.441
        41 -10.5371      3.3481    131.1359   1.1853464279e+02   4.7328560452e+01    0.4433447    0.2386021 -86.08  0.002319384    1.669    0.401
        42  -8.9751      8.0080    128.9761   1.1696126995e+02   4.7559411188e+01    0.2976969    0.1222911 -44.67  0.001314909    2.618    0.618
        43  -8.2072    113.4872    129.5018   8.5344850823e+01   3.3600650419e+01    0.1566652    0.1511593 -32.66 4.852444e-05    1.051    0.049
        44  -7.8134     94.1077    128.8157   9.0783895360e+01   3.7345770203e+01    0.1989809     0.175808 -18.86 0.0002448977    1.265    0.210
        45  -8.8516    191.0773    220.5569   8.5299500602e+01  -1.1436887846e-01    0.2574981    0.1945501  35.01  0.001032191    1.266    0.210
        46  -8.3698    101.0401    125.3779   8.7938209601e+01   3.6950394643e+01    0.2623401    0.2077519 -36.81 0.0008474076    1.312    0.238
        47  -8.0928     79.7255    179.0500   1.0405584240e+02   2.7171123654e+01    0.2607639    0.1718052  63.60 0.0006997376    1.643    0.391
        48  -9.6776     65.3616    173.6087   1.0695174342e+02   3.0546370461e+01    0.5296314    0.3787295  48.21  0.002806928    1.374    0.272
        49  -7.5879     86.7800    120.8634   9.1158926440e+01   4.0559259279e+01    0.2016178    0.1744387  87.07 0.0003846277    1.301    0.232
        50  -7.7598     64.6723    120.3359   9.7982880715e+01   4.4066739379e+01    0.1504983    0.1105698  75.58 0.0007051831    1.724    0.420
        51  -9.3630     25.5420    112.0977   1.0917192161e+02   5.0430731909e+01    0.2686276    0.2124574  51.77 0.0009833798    1.458    0.314
        52  -7.9725    135.8585    110.8801   7.4499665663e+01   3.3257321971e+01    0.2303134    0.2095499  -2.86 0.0003380424    1.204    0.170
        53  -8.5030     78.8570    107.3451   9.0380254452e+01   4.5146737118e+01    0.2333058    0.1948814 -63.57 0.0003211485    1.218    0.179
        54  -7.6950    111.9768     96.0007   7.6952650543e+01   4.1638349526e+01    0.1830347    0.1764463 -30.05            0    1.014    0.013
        55  -8.9119    192.1772     90.7970   5.6731956800e+01   2.4299970086e+01    0.3314025    0.2250279 -27.88 0.0008973784    1.628    0.386
        56 -10.3189     96.0850     88.5093   7.9596120772e+01   4.6428341164e+01     0.263224    0.2327298 -32.61 8.582861e-05    1.094    0.086
        57  -7.7228    107.5550     87.5496   7.5767638414e+01   4.4356917312e+01    0.1515182    0.1457584 -11.76 0.0002098947    1.013    0.012
        58  -9.9580     33.8649    174.1597   1.1498325187e+02   3.4202127328e+01    0.3765348    0.2044818 -77.85  0.001885017    1.653    0.395
        59  -7.4951    143.8089     65.4145   5.9334796817e+01   4.0346636344e+01    0.2030282    0.1340921  43.24 0.0002737388    1.549    0.355
        60  -7.2527     35.9494     64.0000   9.4281223066e+01   6.0642629557e+01    0.1852076   0.07317139  25.35  0.000329654    2.767    0.639
        61  -9.6319    180.7603     52.7027   4.8585916547e+01   3.3308142727e+01     0.294923    0.2341675  84.97 0.0007978696    1.260    0.207
        62 -10.0769    189.7856     44.0076   4.4921571135e+01   3.2358808858e+01    0.4937717    0.2896974 -78.34   0.00218498    2.162    0.538
        63 -10.4228    194.7725     41.4088   4.3574665202e+01   3.1518835700e+01    0.6950276    0.2936746 -43.50  0.002948061    2.220    0.550
        64 -10.9950    200.5432     34.7474   4.1175194186e+01   3.1028469326e+01    0.5832323    0.5428303  19.86  0.001916384    1.395    0.283
        65  -7.7192    165.2851     38.3004   4.7039941135e+01   3.9107334054e+01    0.1358614    0.1045592  33.66 0.0002532085    1.554    0.356
        66  -8.3826    157.6789     36.6611   4.7826733534e+01   4.1197638901e+01    0.2231455    0.1929233  45.31 0.0004249104    1.207    0.171
        67  -8.7212    125.7429     30.7606   5.2096681793e+01   4.9720288324e+01    0.2192676    0.2132377 -51.75 0.0002516571    1.129    0.114
        68  -8.3917    231.0201     23.9194   3.5574593120e+01   2.5506931206e+01    0.1800115    0.1517001 -71.44 0.0004573933    1.061    0.058
        69  -7.5553    243.1606     18.8381   3.3534284129e+01   2.3560882028e+01    0.1397245     0.128629 -80.23            0    1.271    0.213
        70  -8.4668     79.9966    246.4238   1.1190536358e+02   1.2489428852e+01    0.1843772    0.1438687  76.16  0.001145696    1.231    0.188
        71 -12.3341    242.5544    229.3416   7.7116752182e+01  -8.8980203024e+00     1.802219     1.022473  -9.95  0.009962682    1.871    0.465
        72  -8.7786    203.9589    243.9344   8.6622588768e+01  -5.6437968044e+00    0.1864617    0.1529243  14.87 0.0005417722    1.064    0.061
        73  -8.3286    202.9474    226.6422   8.3985807407e+01  -2.9277115308e+00    0.1948343    0.1809899 -79.77 0.0007787819    1.678    0.404
