#   1 NUMBER                 Running object number                                     
#   2 MAG_AUTO               Kron-like elliptical aperture magnitude                    [mag]
#   3 X_IMAGE                Object position along x                                    [pixel]
#   4 Y_IMAGE                Object position along y                                    [pixel]
#   5 X_WORLD                Barycenter position along world x axis                     [deg]
#   6 Y_WORLD                Barycenter position along world y axis                     [deg]
#   7 A_WORLD                Profile RMS along major axis (world units)                 [deg]
#   8 B_WORLD                Profile RMS along minor axis (world units)                 [deg]
#   9 THETA_WORLD            Position angle (CCW/world-x)                               [deg]
#  10 FWHM_WORLD             FWHM assuming a gaussian core                              [deg]
#  11 ELONGATION             A_IMAGE/B_IMAGE                                           
#  12 ELLIPTICITY            1 - B_IMAGE/A_IMAGE                                       
         1 -12.2939    170.8414     42.3969   7.1934431950e+01   3.7235171528e+01      1.20954    0.9147229  -5.50  0.005361888    1.839    0.456
         2 -11.7723    188.0251     14.3561   6.2297380912e+01   3.6480601167e+01    0.8390354    0.4143069  60.83  0.003713703    1.762    0.433
         3 -11.6662    187.1241      8.1423   6.0915527969e+01   3.7337011642e+01    0.8769711    0.4085589  63.30  0.003872206    1.800    0.445
         4  -9.1285    120.1709      9.1086   7.1433824653e+01   5.2761892461e+01    0.2759538    0.2108218  39.00 0.0009875132    1.200    0.167
         5  -9.1707    118.9818    241.5181   1.2742684951e+02   7.5768423605e+00    0.2235958    0.1772257 -71.46 0.0006659587    1.387    0.279
         6  -8.4712    124.7266    249.8169   1.2733661707e+02   5.0807679330e+00    0.2678719    0.1291071 -50.26  0.001181748    2.476    0.596
         7  -8.2473    125.0366    244.5877   1.2660999027e+02   5.9887442926e+00    0.1903444    0.1579777 -83.52 0.0005594478    1.321    0.243
         8 -18.2984     54.2106    232.8196   1.3919907351e+02   1.9171208688e+01     4.395644     3.369722 -80.42    0.0161681    1.243    0.196
         9 -10.0352    121.0392    203.4381   1.2153978515e+02   1.5050007766e+01    0.3425255    0.2515628  81.69 0.0007745464    1.576    0.366
        10  -8.2484    153.5022    202.7906   1.1420391654e+02   9.1618584818e+00    0.4187247    0.2313356 -74.77  0.001387121    3.966    0.748
        11  -9.2914    173.6795    200.2448   1.0935226719e+02   5.8277094290e+00    0.4674458    0.2526709 -58.64  0.001456397    2.433    0.589
        12  -7.9567    171.6312    195.3104   1.0886247148e+02   7.2151728866e+00    0.2190677    0.1986533  86.32 0.0007408518    1.259    0.206
        13  -8.8177    160.9105    199.8758   1.1205219436e+02   8.3498110338e+00    0.4768896    0.2775057 -68.03  0.001587254    2.658    0.624
        14  -9.3405    156.0832    191.5289   1.1157017426e+02   1.1034912383e+01    0.5884093    0.2985927 -64.55  0.002085872    3.069    0.674
        15  -7.6672    216.6787    241.3212   1.0798652576e+02  -8.7993768961e+00    0.1136338   0.09950764  64.80 0.0007044946    1.673    0.402
        16  -9.7883    102.9990    196.2894   1.2450245099e+02   1.9816273845e+01    0.4043548    0.2584789  76.98  0.001468759    1.958    0.489
        17  -9.1479    135.3124    195.4882   1.1698232768e+02   1.4172521509e+01    0.4065816    0.2468402 -73.09  0.001693714    2.260    0.557
        18  -9.3672    167.4706    228.9385   1.1567085094e+02   1.5052620290e+00     0.242375    0.2263716  89.65 0.0003840553    1.243    0.195
        19  -8.1810     15.2924    189.4895   1.4300545435e+02   3.3139784093e+01    0.1506377   0.09646718  56.94 0.0006224845    1.496    0.331
        20  -8.3284    126.1386    187.5871   1.1769959367e+02   1.7665605921e+01    0.2735059    0.1998894 -83.26 0.0009818661    1.630    0.387
        21 -11.9176    247.2204    236.8786   1.0159716183e+02  -1.2694987497e+01    0.2308657    0.2017691 -11.45 0.0003549772    1.219    0.179
        22  -8.6167     19.8629    184.9979   1.4164651012e+02   3.3713658390e+01    0.2056935    0.1650661 -29.55  0.001055347    1.890    0.471
        23  -7.6422    195.7058    184.6754   1.0165451824e+02   4.6591737507e+00    0.1473815    0.1121245  -3.15 0.0002014634    1.620    0.383
        24  -9.4014     18.6558    179.3640   1.4136642699e+02   3.5120416175e+01     0.261711    0.1677642 -86.92 0.0006829251    1.292    0.226
        25  -9.0574    222.2155    179.6743   9.5360588465e+01   5.8994744552e-01    0.2388522     0.182748 -46.39   0.00063068    1.345    0.256
        26  -8.7077    163.2855    178.9653   1.0750007673e+02   1.2301981524e+01    0.3646676    0.2702134 -79.63  0.001114257    1.820    0.450
        27  -9.8492    204.5308    176.8635   9.8245456705e+01   4.4717500493e+00    0.3937778    0.3198765 -54.39   0.00118111    1.346    0.257
        28  99.0000      5.3713    176.8004   1.4396430174e+02   3.6895350461e+01    0.7213063    0.1270371 -73.26  0.002408045    4.442    0.775
        29  -8.7962      8.2907    172.9838   1.4300185511e+02   3.7515680874e+01    0.4717304    0.1963532 -61.86  0.002412523    1.999    0.500
        30  -8.5528    136.1168    175.2931   1.1305571712e+02   1.8565185111e+01    0.3235097    0.2802824 -33.64  0.001432329    1.298    0.230
        31  -8.6424    166.7930    236.5613   1.1702360046e+02   2.6655801564e-01    0.2340462    0.1814996 -45.34 0.0007720216    1.466    0.318
        32  -8.9065    119.6075    170.3132   1.1607168927e+02   2.2908927535e+01    0.3949487    0.2451013  75.71            0    2.492    0.599
        33  -9.2148    190.0202    156.1368   9.6779922029e+01   1.1615416259e+01    0.4483306    0.3675105  87.47  0.001695102    1.538    0.350
        34  -9.5129    193.4371    166.6137   9.8352858985e+01   8.7380392642e+00    0.3506143    0.2984379 -49.06  0.001051529    1.187    0.158
        35  -9.0539    190.0671    162.1300   9.8088803238e+01   1.0358137745e+01     0.380562    0.3030973 -79.20  0.001197709    1.621    0.383
        36  -8.9266    109.9852    168.1134   1.1802490258e+02   2.5212059115e+01     0.429729    0.2679756  87.85  0.001521112    2.493    0.599
        37  -9.0069    120.4976    164.6861   1.1475554366e+02   2.4074716524e+01    0.3489831    0.2431273  70.50 0.0006893332    1.765    0.433
        38  -8.2640    152.5879    163.8045   1.0681555451e+02   1.7853297846e+01    0.2226179    0.1464794 -61.82 0.0009425975    1.727    0.421
        39  -9.7005    169.6435    222.0630   1.1408393159e+02   2.3763216822e+00    0.3113387    0.2044117  63.88  0.001460041    2.067    0.516
        40  -8.8069    137.2441    161.2115   1.0993138089e+02   2.1598383610e+01    0.3122648    0.2576016 -87.13 0.0007754253    1.369    0.270
        41  -9.8321     91.2514    161.0448   1.2143161691e+02   3.0172861423e+01    0.5943498    0.2559437  53.19  0.001620335    2.902    0.655
        42  -7.6845    250.7977    158.9324   8.5965752780e+01  -7.9712227459e-01    0.1781987   0.09632439 -38.08 0.0003583296    1.638    0.389
        43  -8.3468      8.2990    233.7355   1.4753103828e+02   2.4390115704e+01    0.1439729   0.07767717 -74.61 0.0006656858    1.612    0.379
        44  -7.7159    148.6579    157.2704   1.0633842951e+02   2.0157440402e+01    0.1582179    0.1215851  77.85 0.0002189081    1.609    0.379
        45  -9.6420     48.3613    156.5182   1.3163558700e+02   3.7369306061e+01    0.2896413    0.2505403 -69.71  0.001786218    1.076    0.071
        46  -9.0135    141.6534    153.3443   1.0716730075e+02   2.2520770278e+01    0.7145663    0.3986828  76.91  0.001794999    5.821    0.828
        47  -8.5862    174.0006    152.9397   9.9530294094e+01   1.5720934276e+01    0.2243607    0.2188786 -67.25 0.0002960054    1.023    0.023
        48 -10.2048    134.5581    148.6406   1.0787533340e+02   2.5080982055e+01     1.048699    0.3986123 -58.40    0.0030719    3.594    0.722
        49 -10.0499     12.8962    152.2126   1.3983759827e+02   4.1925569416e+01    0.4305848    0.2216481  19.73  0.002262081    2.698    0.629
        50  -7.8791      1.3916    151.4464   1.4247681745e+02   4.2979750729e+01     0.119963   0.08949878 -76.26 6.706894e-05    1.034    0.033
        51  -7.3720    152.2736    150.3235   1.0393839871e+02   2.0976535061e+01    0.1542979    0.1255441 -11.04 0.0006980653    1.577    0.366
        52  -9.4066    145.3905    148.9313   1.0527738024e+02   2.2756136184e+01    0.3462316    0.2546172 -79.12 0.0008265188    1.749    0.428
        53 -10.0691    220.5129    147.3218   8.8789629081e+01   7.0606020398e+00    0.2510155    0.2371749 -69.73 0.0002661864    1.132    0.117
        54 -10.7010      6.0660    144.6445   1.4063839069e+02   4.4205814135e+01    0.5559306    0.3443846  86.47  0.001802259    1.549    0.355
        55  -9.1121     27.6661    144.6835   1.3522802667e+02   4.2404331979e+01    0.2047796    0.1405129 -70.37 0.0007116357    1.194    0.163
        56 -10.7736     32.9055    142.1883   1.3351398323e+02   4.2493670837e+01    0.4810245    0.2643459  16.29  0.002250508    2.626    0.619
        57  -7.8564    160.6585    143.3276   1.0036452125e+02   2.0738308175e+01    0.2295681    0.1594969 -63.27 0.0007114724    1.661    0.398
        58  -8.5808    157.4923    140.0029   1.0032742317e+02   2.2173906804e+01    0.3475797    0.2411375 -87.56  0.001371762    2.224    0.550
        59  -9.8100     13.7529    142.3462   1.3846308911e+02   4.4155371341e+01    0.2466531    0.1979921 -65.85 0.0009765292    1.104    0.094
        60  -8.6036     19.7031    142.0249   1.3691284307e+02   4.3742863767e+01    0.1774783    0.1326727 -71.67 0.0004737684    1.071    0.067
        61 -10.7981    193.3739    195.9300   1.0437427743e+02   2.9230503425e+00     1.317796    0.5443615 -57.06  0.003962018    4.669    0.786
        62 -12.2350    185.2267    212.6321   1.0919869720e+02   1.2919793879e+00     1.187703    0.8846456  21.91  0.006304414    1.404    0.288
        63 -10.2930    175.3175    212.8370   1.1130050740e+02   3.0714405077e+00    0.4154749    0.2684855  38.12  0.002059833    1.443    0.307
        64  -9.1731    239.0988    129.1733   8.1575057270e+01   6.7742097499e+00    0.2357941    0.2046743 -31.79 0.0003144385    1.134    0.118
        65  -7.6464    167.6155    130.2554   9.5662139671e+01   2.2065381682e+01    0.2091076     0.148376 -34.65  0.000231077    1.511    0.338
        66  -9.6042    119.4535    129.1426   1.0726445845e+02   3.2705482834e+01    0.3004476    0.2559142 -35.28 0.0009503858    1.234    0.190
        67 -10.2518      2.2485    128.5945   1.3971545367e+02   4.8145645776e+01    0.4900605    0.1913051 -80.24  0.002175856    2.587    0.613
        68  -9.8058      2.4469    122.7421   1.3892196040e+02   4.9461976083e+01    0.2713869    0.2013319 -87.74  0.001569875    1.279    0.218
        69 -10.9056     32.8141    127.2052   1.3121127612e+02   4.6054982393e+01    0.3919655    0.3152314  34.43  0.002082703    1.467    0.318
        70 -10.3459     22.4252    128.1996   1.3425340140e+02   4.6752542125e+01      0.34689    0.2403146 -45.77  0.001336188    1.413    0.292
        71  -8.5103    110.6021    214.6216   1.2553522507e+02   1.4446899229e+01    0.4208429    0.2538849  87.01  0.001831777    2.383    0.580
        72  -8.7544    107.8709    125.0423   1.0941066691e+02   3.5906955646e+01    0.2638375    0.2131416 -34.80 0.0005657479    1.310    0.237
        73  -9.0171     31.9747    121.5854   1.3050389735e+02   4.7451195883e+01    0.1639552    0.1286089  23.53 0.0003692856    1.541    0.351
        74 -10.1874    185.9153    227.8096   1.1171818377e+02  -1.5447826392e+00    0.6441765    0.2016013 -48.88  0.002265697    3.898    0.743
        75  -7.7194    113.4691    118.5453   1.0628582472e+02   3.6329351456e+01    0.1514493    0.1470706 -57.61 9.647766e-05    1.005    0.005
        76 -10.8413     71.8677    113.2559   1.1698523869e+02   4.4674830929e+01    0.6279987    0.3687561 -41.76  0.002921764    1.675    0.403
        77  -8.6481     10.6685    115.3298   1.3560462337e+02   5.0607282902e+01    0.1783816    0.1085727 -82.44 0.0009988333    1.646    0.392
        78  -9.7417     10.3872    111.7237   1.3513341013e+02   5.1440798617e+01     0.291999    0.1690807  -9.29  0.001581679    2.500    0.600
        79  -9.7553      2.6324    113.6980   1.3764500531e+02   5.1487938074e+01    0.2986833    0.1380945 -50.62  0.001614947    1.782    0.439
        80  -9.0663    104.2047    209.7390   1.2623063248e+02   1.6593185088e+01    0.2861411    0.2526416  53.84 0.0006981705    1.113    0.102
        81 -10.2462     32.1879    111.8109   1.2868986428e+02   4.9691965501e+01    0.3395602    0.1676531 -34.37  0.001539248    2.486    0.598
        82  -8.5550     91.8696    109.9111   1.1023236657e+02   4.2270496625e+01     0.229916    0.1926799 -28.00 0.0006983246    1.248    0.199
        83 -10.0239     60.2002    109.4618   1.1965690985e+02   4.7143306133e+01    0.2780119    0.1998651 -31.78  0.001471607    1.478    0.324
        84  -7.4474    194.0200    105.9691   8.4158606783e+01   2.0980826024e+01    0.1774376    0.1687578 -80.90 0.0003638199    1.021    0.021
        85  -9.8749     66.1303    105.4210   1.1689052798e+02   4.7271310048e+01    0.3792191    0.2475183  -5.40  0.001724365    2.312    0.567
        86 -10.1734    102.1363    203.2637   1.2574880788e+02   1.8380606294e+01    0.6899821    0.4073404  75.20   0.00295687    2.300    0.565
        87  -8.2015    168.7239    113.9103   9.1362046608e+01   2.5282867822e+01    0.3069339    0.2091627  82.56  0.001225687    2.152    0.535
        88  -8.0007     51.0238     94.1666   1.1897404396e+02   5.1685064371e+01    0.1992678    0.1404818  54.74  0.001054701    1.903    0.475
        89  -8.6527     11.8925     89.7467   1.3085644004e+02   5.6178068953e+01    0.2454472     0.153613   9.52  0.001186182    1.974    0.493
        90  -8.6522    179.0344     83.3058   8.1312244249e+01   2.8787113114e+01    0.2381477    0.2035573 -43.62 0.0005795801    1.188    0.158
        91  -7.4621    141.7238     84.3061   8.9669811955e+01   3.7449231626e+01    0.1484111    0.1183908 -78.64 0.0002328336    1.548    0.354
        92  -7.5607     43.9463     82.0000   1.1828957475e+02   5.5061464577e+01    0.1892426   0.07287228  27.92 0.0007987519    2.917    0.657
        93  -8.3911      3.2348     76.5634   1.3115027109e+02   5.9453610641e+01    0.1486731   0.09807316 -16.83 0.0009585301    1.659    0.397
        94  -9.6052    234.8126     73.6052   6.9981197558e+01   1.7469487243e+01    0.2388459    0.2265133  85.90 0.0005429001    1.188    0.158
        95  -8.5253    239.0149     69.5215   6.8549654905e+01   1.7214935178e+01    0.2062774    0.1647537 -54.81 0.0004878092    1.116    0.104
        96  -8.2979    121.0941     67.8296   8.9998307971e+01   4.5006013891e+01    0.1976609    0.1900036 -74.85   0.00033953    1.154    0.133
        97 -11.4436    158.4099     57.2413   7.8302463206e+01   3.8114028062e+01     0.595883    0.4296443  56.25  0.001213587    1.296    0.228
        98  -7.8409    177.7632     56.8317   7.4591703291e+01   3.3488206840e+01    0.1923538    0.1547045 -73.30 0.0003544078    1.292    0.226
        99  -8.7016    133.8140    248.5350   1.2537982729e+02   3.7976774773e+00    0.1897704     0.171968 -71.33  0.001243983    1.262    0.208
       100 -10.2509    175.6002     35.0046   6.9204312517e+01   3.7048751818e+01    0.3918248    0.3234212 -22.71 0.0008785295    1.467    0.318
       101  -9.3962    150.6992     47.5324   7.7067991858e+01   4.1378427700e+01    0.2804568     0.209506  14.05  0.001408843    1.788    0.441
       102 -10.3673    132.9766     44.9697   8.0054883017e+01   4.5872193229e+01     0.229239     0.220447  14.93 -0.003769674    1.088    0.081
       103  -8.3821    142.9837     41.5856   7.6883513321e+01   4.4009722079e+01    0.3120742    0.1631295  40.41 0.0009140309    2.082    0.520
       104  -9.0926    228.2653     24.8999   6.0247357246e+01   2.5971028258e+01    0.3116954    0.2159747 -33.01  0.001273353    1.709    0.415
       105  -7.6126     68.0324     25.0000   9.0982326807e+01   6.1339970187e+01    0.1993728   0.06247744  44.58  0.000811444    3.005    0.667
       106  -8.0370    200.9714     18.6954   6.1796209221e+01   3.2957878890e+01    0.1784193    0.1400546  83.26 0.0002077955    1.077    0.071
       107  -7.9227    150.6763    246.7543   1.2178534098e+02   1.2609613268e+00    0.1562654    0.1212337 -66.16 0.0003755607    1.571    0.364
       108  -8.4370    167.7636    245.5664   1.1820860981e+02  -1.4420263629e+00    0.3094155    0.1045338 -43.50   0.00120838    3.522    0.716
