#   1 NUMBER                 Running object number                                     
#   2 MAG_AUTO               Kron-like elliptical aperture magnitude                    [mag]
#   3 X_IMAGE                Object position along x                                    [pixel]
#   4 Y_IMAGE                Object position along y                                    [pixel]
#   5 X_WORLD                Barycenter position along world x axis                     [deg]
#   6 Y_WORLD                Barycenter position along world y axis                     [deg]
#   7 A_WORLD                Profile RMS along major axis (world units)                 [deg]
#   8 B_WORLD                Profile RMS along minor axis (world units)                 [deg]
#   9 THETA_WORLD            Position angle (CCW/world-x)                               [deg]
#  10 FWHM_WORLD             FWHM assuming a gaussian core                              [deg]
#  11 ELONGATION             A_IMAGE/B_IMAGE                                           
#  12 ELLIPTICITY            1 - B_IMAGE/A_IMAGE                                       
         1 -10.8501     36.7489     10.0767   2.9139816617e+02   7.4565341259e+00   0.05164748   0.03466467 -67.32  0.002704208    1.535    0.349
         2 -10.8059     19.0406      6.7274   2.9158500415e+02   7.5974873438e+00   0.07541563   0.03806007  60.61  0.005767532    3.244    0.692
         3 -10.9682     23.7451     32.5379   2.9168472409e+02   7.2709234033e+00   0.07803416    0.0268622 -47.87  0.004715324    2.930    0.659
         4 -10.1232     10.1324     18.8709   2.9176188918e+02   7.5079355896e+00    0.0604321   0.02881439 -19.29  0.003563967    5.601    0.821
         5 -10.3866     45.4215     29.0753   2.9141078732e+02   7.1860814875e+00   0.02861747   0.02162351  64.10  0.003109342    1.539    0.350
         6 -10.6925      6.8184     29.9055   2.9186670755e+02   7.3989779852e+00    0.0334269    0.0253691 -62.64   0.00229722    1.311    0.237
         7  -9.4384      2.1228     14.4402   2.9182894936e+02   7.6054506974e+00   0.02677988   0.01287618 -76.25  0.002120683    2.853    0.650
         8  -9.2911     67.8713      9.0940   2.9102873100e+02   7.2881978211e+00   0.02665525  0.008398837  28.42  0.001950662    3.040    0.671
         9  -9.8939     60.6950     31.6641   2.9124795536e+02   7.0678439353e+00   0.05000293   0.01772991 -51.17  0.003602057    2.655    0.623
        10  -9.6685     63.2391     21.5757   2.9115773229e+02   7.1701933043e+00   0.02574261   0.01643622  83.40  0.002297642    2.212    0.548
        11  -9.8789     64.4794     13.4058   2.9109422416e+02   7.2577944007e+00   0.01959831   0.01718866 -53.65 0.0005404216    1.123    0.109
        12  -9.7900     79.5409     24.1230   2.9098268759e+02   7.0463967277e+00    0.0329661   0.01800516  -2.56  0.002619987    3.035    0.670
        13  -8.1584    110.3147      7.7085   2.9052492388e+02   7.0585972672e+00  0.009287068  0.007585818 -27.70 0.0002523448    1.310    0.237
        14  -8.7022    112.2284     15.5742   2.9054985634e+02   6.9562993593e+00   0.01501299   0.01033354  84.06 0.0005834414    1.887    0.470
        15  -9.3684    113.8702     10.0445   2.9049747274e+02   7.0109049226e+00    0.0209834    0.0134581  -9.48 0.0003655163    2.114    0.527
        16  -8.9828    115.2071      4.2901   2.9044728853e+02   7.0698720871e+00   0.01690586   0.01252782  85.22  0.001007002    1.640    0.390
        17  -8.3776    111.2053      4.2130   2.9049352374e+02   7.0939624415e+00   0.01573088  0.007756882 -41.58  0.001351935    2.258    0.557
        18  -9.5862    100.8288     32.0103   2.9078158066e+02   6.8316934244e+00   0.04222188   0.01001381 -59.38   0.00219221    3.672    0.728
        19  -9.1745    102.9166     21.2480   2.9069259628e+02   6.9444461069e+00   0.02457151   0.01105341 -71.84  0.001324169    2.766    0.638
        20 -10.3137     50.6485     15.4136   2.9126780598e+02   7.3144042637e+00   0.05737033   0.03087613 -24.07  0.004625831    2.906    0.656
        21 -10.3961      5.2449      4.7274   2.9173425762e+02   7.7001430270e+00   0.02705811   0.02567105   9.47  0.001722194    1.065    0.061
        22  -9.1785     96.1189     14.9036   2.9073382381e+02   7.0573948655e+00   0.03426118  0.009710872 -53.07  0.002443891    3.130    0.681
        23  -9.3661    132.3894     17.3424   2.9032529309e+02   6.8188960030e+00   0.02209892   0.01647995  20.69   0.00208252    1.381    0.276
        24  -9.4758    118.8998     20.7046   2.9050284585e+02   6.8581346477e+00   0.02298166   0.01014794 -60.79  0.001246241    2.193    0.544
        25  -8.3649     71.9560      8.6509   2.9097837051e+02   7.2697201311e+00   0.01417484   0.01107779  84.80  0.001057948    1.498    0.332
        26  -8.8257     76.8520      6.8186   2.9091019689e+02   7.2626544228e+00   0.02525054  0.009430373 -50.08  0.001993546    2.575    0.612
        27  -8.5831     78.5144      3.0569   2.9086819430e+02   7.2966586264e+00    0.0130622   0.01100311  72.27 0.0008544085    1.326    0.246
        28  -9.2749     73.6811     19.5503   2.9102365530e+02   7.1333291861e+00   0.01944577   0.01208765 -81.32  0.001004574    2.010    0.503
        29  -8.4750     73.3026     14.3413   2.9099680737e+02   7.1959380811e+00    0.0171768  0.008260557 -47.31  0.001415893    2.092    0.522
        30  -9.4692     85.1983     13.1043   2.9085049430e+02   7.1414742552e+00   0.02127131    0.0133224  73.25  0.001288223    2.304    0.566
        31  -8.0445     80.6718     12.6901   2.9090085348e+02   7.1724672081e+00   0.01521763  0.009294129 -81.81 0.0009986714    2.088    0.521
        32  -8.3589     85.0668      6.2905   2.9081110866e+02   7.2212517574e+00   0.02052865   0.01137757 -43.01  0.001918029    1.905    0.475
        33  -8.4184     88.9177      2.5193   2.9074349611e+02   7.2426912252e+00   0.01221348  0.008909502 -62.43 0.0007030531    1.364    0.267
        34  -9.0675    133.4559     11.2488   2.9027622511e+02   6.8833616414e+00    0.0194404   0.01162201  87.59  0.001692707    2.513    0.602
        35  -8.4789    124.9335     13.1543   2.9038708796e+02   6.9107049154e+00    0.0157376   0.01083654  85.78  0.000574153    1.874    0.466
        36  -8.3787    120.7910      5.6162   2.9039010628e+02   7.0221239002e+00   0.01667568   0.00953604  44.67  0.001285437    1.849    0.459
        37  -8.9526    126.8298      9.1478   2.9034088508e+02   6.9461595894e+00    0.0160151   0.01105982   1.32  0.001024676    1.752    0.429
        38  -8.9497    125.6001      5.6068   2.9033394324e+02   6.9943433814e+00   0.02928979   0.01170066 -37.37  0.002006596    3.738    0.732
        39  -8.1317    141.4927     11.5409   2.9018425265e+02   6.8333344319e+00   0.01365678  0.006491613 -62.82  0.001191062    2.096    0.523
        40  -8.7382    101.9621      8.3865   2.9062647598e+02   7.0991289107e+00    0.0117777  0.009258471  86.44 0.0005844766    1.477    0.323
        41  -9.4028    132.4392      5.6835   2.9025462499e+02   6.9537791279e+00   0.02445558   0.01130725  16.10  0.001485662    2.747    0.636
        42  -9.3218     96.1421      4.4680   2.9067086597e+02   7.1782710066e+00   0.02054879    0.0171617  58.16  0.002384057    1.294    0.227
        43  -9.6831     63.7253      3.0942   2.9104113349e+02   7.3817389976e+00   0.02088955   0.01521546  78.65  0.001995862    1.709    0.415
        44  -9.4064    235.9315      2.7243   2.8903115197e+02   6.3860944270e+00   0.01586017   0.01259383 -74.39 0.0009582487    1.331    0.249
        45  -8.4179    104.5055      2.0309   2.9055860103e+02   7.1580829906e+00   0.01221416  0.009291049  -4.90 0.0007737374    1.520    0.342
        46  -8.0429    135.3530      1.5468   2.9019576287e+02   6.9848213516e+00   0.01664441  0.006772109  23.29  0.001313095    2.654    0.623
        47 -10.2001     78.0645    113.0176   2.9153260175e+02   6.0228133960e+00   0.02551115   0.01558882  88.09  0.001632648    2.362    0.577
        48  -8.0800    222.4767    250.5111   2.9067439377e+02   3.5892506976e+00  0.006560552  0.006436211 -34.14 0.0008101134    1.008    0.008
        49  -7.9579    208.6528    250.2924   2.9083363042e+02   3.6718923064e+00  0.007002305  0.004908773  58.79 0.0007029127    1.666    0.400
        50  -9.6447    203.4923    248.6054   2.9088349439e+02   3.7213816317e+00   0.02277782   0.01276886 -54.79   0.00219604    1.712    0.416
        51  -9.2225    195.2477    250.2473   2.9098908028e+02   3.7500700507e+00   0.01569029  0.005718227  45.57    0.0011192    3.271    0.694
        52 -11.0964    170.8491    248.5891   2.9126268998e+02   3.9106067639e+00   0.03235613   0.01646008  33.03  0.002986064    1.907    0.475
        53  -7.6617     77.7334    105.5856   2.9149199286e+02   6.1110727024e+00   0.01377685  0.008932244 -30.30  0.001351138    1.822    0.451
        54  -9.3922     81.4544     99.4937   2.9141213975e+02   6.1603361450e+00   0.03283136   0.01305906 -61.65  0.002043284    2.446    0.591
        55  -7.8705    152.6324    115.2430   2.9067698594e+02   5.5652975539e+00  0.009619894  0.005817663 -52.83 0.0009442552    1.600    0.375
        56 -10.0782     91.8440    112.9097   2.9137130735e+02   5.9444121496e+00   0.02857709   0.01792059  62.97  0.001521654    2.092    0.522
        57  -8.9922     91.8846    104.2318   2.9131888729e+02   6.0449906434e+00   0.02700146   0.01640583 -20.16  0.002442936    2.289    0.563
        58  -9.1837     41.1679    121.6970   2.9201475025e+02   6.1349509342e+00   0.02281084    0.0117427 -78.19  0.001428883    2.645    0.622
        59  -7.1712    167.2770    114.6184   2.9050271926e+02   5.4876107471e+00  0.006967663  0.005012611  69.52  0.000700321    1.713    0.416
        60  -9.2119     63.8717     86.5636   2.9153981997e+02   6.4121242907e+00   0.02151851   0.01007575 -34.67  0.001656428    2.985    0.665
        61 -10.3450     62.8545     95.6789   2.9160624026e+02   6.3121161093e+00   0.02894683   0.01735521  79.41  0.001590562    2.602    0.616
        62 -10.2083     65.4803    111.1827   2.9166836466e+02   6.1168288197e+00    0.0263395   0.01913898  48.33    0.0017397    1.461    0.315
        63  -9.5198     59.1931    109.2564   2.9173016784e+02   6.1755128009e+00   0.01429584   0.01066916  67.43  0.000869199    1.593    0.372
        64  -9.8126     14.0530    111.2885   2.9226887992e+02   6.4121595134e+00   0.02121586   0.01425524  79.89  0.002068794    1.992    0.498
        65  -9.1122     14.3349    105.0245   2.9222818382e+02   6.4833276626e+00   0.01584538   0.01015652 -20.05  0.001034219    2.043    0.510
        66  -7.7668    183.5121    112.0654   2.9029842104e+02   5.4230307178e+00  0.009677272  0.006526786 -64.42 0.0004612224    1.492    0.330
        67  -8.2614    158.8185    112.0651   2.9058589829e+02   5.5663277642e+00   0.01019102  0.008772501  75.34  0.000503291    1.283    0.220
        68 -10.1146     30.9651    108.8099   2.9205676508e+02   6.3435340780e+00   0.02600026   0.01332406  26.09   0.00237899    1.969    0.492
        69  -8.5623    149.8106    110.0070   2.9067846450e+02   5.6424660923e+00   0.01045504  0.007318905  79.98 0.0004836511    1.839    0.456
        70  -7.4145    155.0000    108.9466   2.9061166895e+02   5.6246875367e+00   0.01099636   0.00374096 -62.73 0.0007988613    2.918    0.657
        71  -9.1406    240.4689    107.3619   2.8960769285e+02   5.1466240840e+00   0.01167278   0.01013017  39.00 0.0005328699    1.164    0.141
        72 -10.8759     44.2093    102.2978   2.9186333449e+02   6.3428334128e+00   0.04704377   0.02370708  56.58  0.002835182    2.850    0.649
        73  -9.0535     38.9245    106.4652   2.9194989897e+02   6.3248914711e+00   0.02422016   0.01219123  50.86  0.001561538    2.436    0.589
        74  -7.7437    187.5220    107.1015   2.9022197133e+02   5.4573766103e+00   0.00987502  0.006481321 -62.63  0.000613212    1.515    0.340
        75  -9.9286    139.2769    103.7331   2.9076355903e+02   5.7763893583e+00    0.0355577   0.01686797 -72.29  0.002334488    2.579    0.612
        76  -9.5719    138.7795     91.7690   2.9069762331e+02   5.9181997369e+00   0.02962785   0.01421238 -58.14   0.00198067    1.986    0.497
        77 -10.3868     48.1566     83.2341   2.9170324993e+02   6.5415226325e+00   0.04637462   0.02657751 -55.79  0.001980587    1.676    0.403
        78  -9.9855     20.2343     84.2964   2.9203547428e+02   6.6901778922e+00   0.05271453   0.01479093 -59.34  0.003382154    3.200    0.688
        79 -10.5159     55.2674     71.0642   2.9154742177e+02   6.6418212470e+00   0.03552981   0.01635701  47.98   0.00142213    2.571    0.611
        80 -10.3752     25.6830     77.9363   2.9193384340e+02   6.7326601392e+00   0.03580046   0.02118014  75.91  0.001997107    2.684    0.627
        81 -10.2533     32.1245     64.0797   2.9177574128e+02   6.8564558176e+00   0.05277674   0.02535026 -39.02  0.004057064    2.489    0.598
        82  -9.5680     54.9139     63.2472   2.9150473315e+02   6.7346312278e+00   0.02311436   0.01765884   3.06  0.002077127    1.471    0.320
        83 -10.0789     62.3669     60.8255   2.9140324048e+02   6.7197080782e+00   0.03470303   0.01534677  19.87  0.002811537    2.613    0.617
        84 -10.0805     34.4357     90.7481   2.9190830992e+02   6.5333821278e+00   0.03007032   0.01576545 -82.43  0.001620381    2.866    0.651
        85  -9.9803     36.5201     81.2339   2.9182708005e+02   6.6318834904e+00   0.04363519   0.02243008 -14.62   0.00302719    4.048    0.753
        86  -9.4967    149.4454    103.4491   2.9064340194e+02   5.7207360842e+00   0.01697158   0.01241449 -83.39 0.0009056053    1.579    0.367
        87  -9.4186      5.0379    103.8129   2.9232943460e+02   6.5509256854e+00     0.027855   0.01439294  28.87  0.002146603    1.907    0.476
        88  -8.7220     63.9800    101.5037   2.9162796317e+02   6.2379474513e+00   0.01659728   0.01193782   4.45   0.00174633    1.605    0.377
        89  -8.3751    159.1494    101.5290   2.9051886649e+02   5.6867490212e+00   0.01218353  0.009719066  68.98   0.00050869    1.436    0.304
        90  -9.2938    148.5808     97.0846   2.9061531026e+02   5.7996517549e+00   0.01880497   0.01270131   6.07  0.001898454    1.757    0.431
        91  -9.3869     94.2706     97.3564   2.9124989981e+02   6.1110540265e+00   0.01546911    0.0116925 -82.08 0.0006278235    1.489    0.328
        92  -8.7545     96.1608     90.8864   2.9118910746e+02   6.1752666109e+00   0.02193201   0.01219336 -21.15  0.001795034    2.810    0.644
        93  -8.9444    130.2298     96.6285   2.9082638318e+02   5.9113241268e+00    0.0194274   0.01042341   2.44  0.001551923    2.926    0.658
        94  -9.2951    240.9611     95.5447   2.8953099212e+02   5.2808573318e+00   0.02003353   0.01104998 -29.14  0.001711696    2.487    0.598
        95  -7.8542    170.6951     95.6964   2.9034942669e+02   5.6874665483e+00  0.006893338  0.004926037 -28.01 0.0001884539    1.598    0.374
        96  -8.9132    164.4944     94.2993   2.9041325066e+02   5.7396731765e+00   0.01439608  0.009351387 -71.63 0.0008651399    1.665    0.399
        97  -8.9075    150.2269     89.2016   2.9054885297e+02   5.8816291795e+00   0.01982932   0.01024964 -51.06  0.001829871    1.873    0.466
        98  -9.9565    123.3001     91.2531   2.9087491966e+02   6.0138937576e+00   0.02144096   0.01828573  14.79  0.001268606    1.209    0.173
        99  -8.6421    125.4389     84.5492   2.9080979789e+02   6.0793448447e+00   0.02578531    0.0126063 -25.00  0.001798356    3.863    0.741
       100 -10.2161      4.3202     89.6500   2.9225322427e+02   6.7196153065e+00   0.03301128   0.01917394  89.89  0.001920063    2.607    0.616
       101  -9.4608      5.7756     79.1270   2.9217335503e+02   6.8334832085e+00   0.02952621   0.01860217 -17.58  0.002457259    2.149    0.535
       102  -9.0563    157.6188     91.1180   2.9047424389e+02   5.8165010459e+00   0.01885287   0.01123281 -56.81  0.001594245    1.620    0.383
       103  -9.5265    109.7797     90.1360   2.9102582589e+02   6.1051642324e+00   0.02011349   0.01222101  -3.24  0.001808301    2.321    0.569
       104  -7.8264      1.4011    115.9775   2.9244448247e+02   6.4304851387e+00   0.01022882  0.006288865 -61.06  0.001012859    1.597    0.374
       105 -10.7384     20.7418    100.9889   2.9212931633e+02   6.4933215587e+00    0.0550844   0.02910401  76.25  0.003708374    3.999    0.750
       106 -10.1569     85.1418     86.5332   2.9129152989e+02   6.2895570542e+00   0.02282553   0.01586602  67.07 0.0009600716    1.797    0.444
       107  -9.3639     87.5107     78.6637   2.9121675753e+02   6.3672487564e+00   0.02411552   0.01531812  -6.47  0.001656441    2.141    0.533
       108  -9.7864     81.6115     72.5033   2.9124865815e+02   6.4728980498e+00   0.02308802   0.01456689  85.07 0.0008284605    2.250    0.556
       109  -8.9848     84.1246     63.8664   2.9116757723e+02   6.5586457068e+00   0.02614238   0.01472875 -27.97   0.00227267    2.423    0.587
       110  -7.5487    174.2864     88.6372   2.9026524831e+02   5.7485627016e+00  0.006952474  0.005018629  67.82 0.0004538154    1.689    0.408
       111  -8.2641    163.4092     86.6864   2.9038021057e+02   5.8343458145e+00   0.01211445  0.007676188 -52.51 0.0006561573    1.533    0.348
       112  -7.1864    208.4112     86.4263   2.8985477316e+02   5.5759614037e+00  0.006533201  0.006296389 -34.18 0.0001554032    1.032    0.031
       113  -8.5028    165.9990    104.0707   2.9045434607e+02   5.6174987738e+00   0.01369047  0.009466545 -74.77  0.000553684    1.589    0.371
       114  -9.7533    238.5928     83.6310   2.8948694251e+02   5.4328348897e+00   0.02313348  0.006390149 -50.25     0.001585    3.392    0.705
       115  -9.3154    109.6584     64.0239   2.9087068674e+02   6.4090470231e+00   0.02413543    0.0130174 -69.82  0.002198401    2.042    0.510
       116  -8.9746    110.5659     58.0110   2.9082403306e+02   6.4735857394e+00   0.01585441    0.0108569 -42.30  0.000784758    1.504    0.335
       117 -10.1880    103.8123     82.6415   2.9105048482e+02   6.2267389598e+00   0.02250556   0.01410999 -79.93 0.0008708807    1.943    0.485
       118  -9.5759    104.8741     71.6689   2.9097232683e+02   6.3479971953e+00   0.04211859   0.01659768 -47.50  0.002904846    2.569    0.611
       119  -7.9021    170.4600     83.5387   2.9027920389e+02   5.8299548220e+00   0.01137366  0.006576831 -79.40 0.0008006803    2.209    0.547
       120  -8.6004    157.6453     83.5944   2.9042879317e+02   5.9036861402e+00   0.01240299   0.01029638  89.47 0.0006002437    1.341    0.254
       121  -9.0063    140.4076     82.4770   2.9062292110e+02   6.0166430054e+00   0.02300836   0.01118525 -63.63  0.001545967    2.070    0.517
       122  -8.9656    139.9422     75.5553   2.9058681860e+02   6.0996926403e+00    0.0231258   0.01304951 -65.73  0.001493022    1.822    0.451
       123  -8.5920    149.8712     79.9825   2.9049768679e+02   5.9907163466e+00   0.01953148   0.00919051 -62.71  0.001568185    2.112    0.527
       124  -8.7860    119.0224     80.5237   2.9086045586e+02   6.1632579491e+00   0.01405722   0.01028854  88.21 0.0008486928    1.656    0.396
       125  -8.2776    119.9506     75.9818   2.9082239915e+02   6.2106137006e+00   0.01377895  0.009456529 -26.47 0.0008922915    1.723    0.420
       126  -8.9798     74.1203     80.1598   2.9138191518e+02   6.4272896966e+00   0.02095735   0.01171535 -75.06  0.000825573    2.144    0.534
       127  -7.1617     75.3325     74.3118   2.9133274479e+02   6.4881956270e+00   0.01017726  0.005905923  -7.91 0.0008420708    2.671    0.626
       128  -9.9994     66.7146    104.3362   2.9161301557e+02   6.1892463131e+00   0.03992626   0.01941663   8.30   0.00303308    3.204    0.688
       129  -8.8129    166.1592     78.6938   2.9030021136e+02   5.9111552090e+00   0.01250955  0.009366384 -54.92 0.0006443653    1.305    0.234
       130  -8.9511    157.2827     76.9570   2.9039318342e+02   5.9828323454e+00   0.02038056   0.01141283 -84.78  0.001340281    2.614    0.617
       131  -8.1003    184.2010     78.0568   2.9008628976e+02   5.8137758572e+00   0.01021737  0.008643701 -32.36 0.0004033718    1.227    0.185
       132  -7.5555    174.4960     78.5454   2.9020222817e+02   5.8644744241e+00  0.006525774  0.006452025 -26.34  9.31029e-05    1.004    0.004
       133  -9.4320    127.3793     75.2119   2.9073118177e+02   6.1765073649e+00   0.01820156   0.01235245 -89.15 0.0007832772    1.867    0.464
       134  -8.1087    128.7553     69.4046   2.9068030382e+02   6.2359461616e+00   0.01819234   0.01057897 -17.91  0.001548573    2.597    0.615
       135  -8.3764    130.4816     64.5646   2.9063113913e+02   6.2821186509e+00   0.02246941  0.008398187 -68.51  0.001477536    3.215    0.689
       136  -9.0603    216.5007    250.0000   2.9074073620e+02   3.6298152986e+00   0.01497526  0.003768149  26.52 0.0009432099    4.003    0.750
       137 -10.5209    184.6451    248.0114   2.9109891615e+02   3.8374442096e+00   0.01909413   0.01760664 -26.53  0.002340035    1.105    0.095
       138  -9.9292     15.8630     71.0350   2.9200720648e+02   6.8693927193e+00   0.02874395   0.01529604 -44.86  0.001341696    1.942    0.485
       139 -10.0006     17.1063     60.5456   2.9192994224e+02   6.9840452042e+00   0.04318629   0.01662914 -55.48  0.003525838    2.393    0.582
       140 -10.7960     21.8935     53.6754   2.9183292556e+02   7.0362343784e+00   0.04399185   0.02356354  79.69  0.002879448    3.800    0.737
       141  -9.3221     59.0454    249.3220   2.9256728689e+02   4.5480950678e+00   0.01163639  0.009878851 -53.01 0.0002498897    1.158    0.136
       142  -7.3652    126.1837    237.1607   2.9171380988e+02   4.3018089058e+00   0.00890437  0.007595533  70.73 0.0004925558    1.295    0.228
       143  -9.7246      8.3574     47.2399   2.9195249923e+02   7.1889150792e+00   0.03620947   0.01107225  29.05  0.002636513    3.079    0.675
       144  -9.9388     15.0190     44.4445   2.9185795561e+02   7.1830038053e+00   0.02730617   0.01930058 -17.64 0.0009987067    1.718    0.418
       145  -9.7940    188.0577    233.7735   2.9097421127e+02   3.9830685649e+00   0.01752848    0.0123107  84.67   0.00121092    1.809    0.447
       146 -10.1594      4.5128     41.6587   2.9196400633e+02   7.2758368164e+00   0.03271755    0.0199255 -67.89  0.001844504    1.717    0.418
       147  -7.8109      3.3219    235.6764   2.9313467515e+02   5.0276617895e+00   0.00700101  0.004963797  62.42 0.0007046633    1.680    0.405
       148  -7.3738     51.7327    233.6719   2.9255927872e+02   4.7722194342e+00  0.006872939  0.004829322 -33.05 0.0002707924    1.575    0.365
       149  -8.9656    115.3799     71.7489   2.9085030206e+02   6.2862311347e+00   0.02747676   0.01192041 -56.40  0.001567382    2.161    0.537
       150  -8.2954    162.6195     72.7214   2.9030558896e+02   6.0010175117e+00   0.01295206  0.009866978  88.24 0.0008610514    1.547    0.354
       151  -9.3826    147.0106     69.5147   2.9046819758e+02   6.1288116826e+00   0.02007228   0.01346044  77.52  0.001869972    2.006    0.502
       152  -8.2602    169.3517     71.1538   2.9021776057e+02   5.9801249703e+00  0.009333558  0.006285954 -77.60 0.0004492317    1.697    0.411
       153  -8.6152    156.6758     69.3789   2.9035476514e+02   6.0743072100e+00   0.02117306  0.005918461 -51.81   0.00140895    3.232    0.691
       154  -8.4188    157.6807     63.0747   2.9030520609e+02   6.1416335734e+00   0.01263378  0.009630031 -85.72 0.0008807884    1.504    0.335
       155  -7.9836     95.1085     53.7394   2.9097871088e+02   6.6126578058e+00   0.01461976  0.008154316 -62.53  0.001386939    1.780    0.438
       156  -9.6639     94.6784     68.2986   2.9107103187e+02   6.4461362395e+00   0.01936202   0.01236163 -76.90 0.0008876621    1.816    0.449
       157  -9.2342     96.9868     58.9354   2.9098796249e+02   6.5414747624e+00   0.03625808   0.01578931 -34.06  0.002550001    3.637    0.725
       158  -7.7907     22.8902     68.8605   2.9191215646e+02   6.8541637019e+00   0.00907247  0.007578295  59.06 0.0003759927    1.298    0.230
       159  -8.4308    244.4865     68.5022   2.8932748517e+02   5.5739767390e+00  0.006714644  0.006279016 -29.38 -0.0001233813    1.080    0.074
       160  -9.0702    121.2368     66.0737   2.9074797185e+02   6.3181813091e+00   0.01699331   0.01209491  69.57 0.0007080874    1.746    0.427
       161  -8.1693    122.0325     61.2391   2.9070968716e+02   6.3696870477e+00   0.01437716  0.009927113 -18.50 0.0008643986    1.791    0.442
       162  -9.1913    138.1661     65.8729   2.9054941600e+02   6.2223780446e+00    0.0206466   0.01143624 -71.66 0.0009531239    2.041    0.510
       163  -7.9374     75.4349     66.2951   2.9128351817e+02   6.5806905630e+00   0.01266636  0.005931769 -56.71  0.001111501    2.019    0.505
       164  -8.3412    191.3807     64.5350   2.8992148090e+02   5.9289450485e+00   0.01090676  0.009185736 -49.38 0.0003184842    1.171    0.146
       165  -8.2268    170.8616     65.1770   2.9016428130e+02   6.0407118296e+00  0.009318095  0.007644875 -27.88 0.0005028482    1.302    0.232
       166  -9.2808     52.9761     39.7333   2.9138646179e+02   7.0187840363e+00    0.0183228   0.01023967 -50.63  0.001536094    1.741    0.426
       167 -10.0504     50.0256     54.5493   2.9150969218e+02   6.8638386044e+00   0.02972714   0.01686902 -81.02  0.002027814    2.351    0.575
       168  -9.7594     55.8071     43.4194   2.9137550336e+02   6.9596539714e+00   0.04931318   0.02349201 -22.51  0.003109341    4.834    0.793
       169 -10.1272     74.4723     55.6886   2.9123118188e+02   6.7093928487e+00   0.07004754   0.02135959 -47.35  0.004866736    3.398    0.706
       170  -9.2384     87.8228     56.8123   2.9108213984e+02   6.6191452475e+00   0.03486358   0.01230715 -53.61  0.002730621    2.596    0.615
       171 -10.1921     85.0952     48.0979   2.9106170426e+02   6.7360736543e+00    0.0201521   0.01464923  68.16 0.0009158519    1.672    0.402
       172 -10.3915     89.7262     38.1937   2.9094824766e+02   6.8242189759e+00   0.04336743   0.02187315   4.37  0.003274203    3.310    0.698
       173  -8.1851    164.4918     60.1010   2.9020799513e+02   6.1365979719e+00   0.01030366  0.006476368 -62.35  0.001029318    1.579    0.367
       174  -7.8976    152.0587     60.3285   2.9035422496e+02   6.2061300774e+00  0.009495408  0.008311094  34.84 0.0008901327    1.148    0.129
       175  -8.2170      9.5087     59.9540   2.9201512417e+02   7.0346681333e+00   0.01027862  0.006458972 -62.18  0.001027988    1.576    0.365
       176  -9.0224    146.5486     58.4129   2.9040693638e+02   6.2603312588e+00   0.01989868  0.009757594 -60.46  0.001054805    1.979    0.495
       177  -8.0415    148.0000     53.0148   2.9035760566e+02   6.3145460589e+00   0.01353153  0.007818363 -60.93 0.0008653387    1.698    0.411
       178  -8.7262    130.2543     58.2890   2.9059612599e+02   6.3562710779e+00   0.01493331   0.01072639  75.40 0.0007090437    1.749    0.428
       179  -9.2510    138.9076     56.8140   2.9048639585e+02   6.3232100990e+00   0.01544883   0.01038822 -83.13 0.0006775289    1.801    0.445
       180  -9.3473    118.0811     55.1674   2.9071932776e+02   6.4630535355e+00   0.02006335   0.01466854 -89.10    0.0011205    1.638    0.390
       181  -9.3794    121.0526     47.1594   2.9063661132e+02   6.5387633908e+00   0.02185676  0.009853924 -56.24 0.0005290787    2.088    0.521
       182  -8.4586    157.9465     54.4019   2.9025002434e+02   6.2407226439e+00   0.01964519  0.005631064 -48.33  0.001328499    3.496    0.714
       183  -9.8624     44.1716     53.0732   2.9156919122e+02   6.9147609270e+00   0.02966043   0.02049732  80.37  0.001304791    1.885    0.470
       184  -9.9908     37.7804     41.9857   2.9157739714e+02   7.0803419245e+00   0.02552922    0.0165686  77.80  0.001885257    2.150    0.535
       185 -10.1591     35.6526     37.8833   2.9157766823e+02   7.1402302158e+00   0.02569749   0.01617352 -16.32 0.0004034342    2.169    0.539
       186 -10.3242    246.8671     51.3769   2.8919681776e+02   5.7586547674e+00   0.02063536   0.01634733  43.12 0.0005963316    1.290    0.225
       187  -8.8557    250.5304     46.9992   2.8912789298e+02   5.7880532881e+00   0.01328568  0.008889682 -54.44 0.0005974692    1.452    0.311
       188  -8.7359    163.0176     54.0571   2.9018886674e+02   6.2152805361e+00    0.0109054  0.007759483  63.11  0.001110203    1.683    0.406
       189  -9.1652    105.2955     51.6659   2.9084743606e+02   6.5777503720e+00   0.03332644   0.01204387 -64.15  0.002320844    2.853    0.649
       190  -8.8153    157.1528     48.9171   2.9022632702e+02   6.3089632935e+00   0.01044015   0.00869863  66.43 0.0009242055    1.333    0.250
       191  -8.7472    141.9268     48.6417   2.9040213152e+02   6.4005226199e+00   0.01201996  0.009649837 -72.90 0.0003789089    1.302    0.232
       192  -9.8250    130.5781     46.0945   2.9051914180e+02   6.4958996263e+00   0.04360192   0.01058926 -54.05  0.001777958    3.484    0.713
       193  -8.3136    136.0109     27.0417   2.9034134815e+02   6.6854073297e+00   0.01211108  0.008763363 -53.92 0.0005022722    1.349    0.259
       194  -8.6935    132.6895     35.9925   2.9043385346e+02   6.6008528132e+00   0.01463196   0.01066278 -57.37  0.000689792    1.342    0.255
       195  -9.9251    133.9209     31.0803   2.9038998438e+02   6.6506900437e+00   0.01265755   0.01135237 -23.36  0.001521343    1.156    0.135
       196  -9.0113    149.8517     47.2904   2.9030164284e+02   6.3702155681e+00    0.0270104  0.008636887 -63.77  0.001809712    3.218    0.689
       197  -9.6050    145.0604     37.6748   2.9029972673e+02   6.5095671764e+00   0.03493114   0.01893141  75.59  0.001845051    3.600    0.722
       198  -8.6642    111.9060     46.7807   2.9074101399e+02   6.5961565648e+00   0.01545523  0.009529449 -63.05 0.0004187683    1.618    0.382
       199  -8.6221    113.0104     42.4982   2.9070242638e+02   6.6394521831e+00   0.02363829  0.009845131 -37.73  0.001704226    3.345    0.701
       200  -7.1837    162.2914     46.6187   2.9015264025e+02   6.3057897831e+00  0.007049274  0.004992981  67.93 0.0007017681    1.748    0.428
       201  -7.9181    131.5625    231.7555   2.9161900529e+02   4.3335269753e+00     0.009311  0.006492363 -79.77  0.000949086    1.645    0.392
       202  -8.6277     36.9481    227.4855   2.9269456355e+02   4.9293566893e+00    0.0122567   0.00945085 -56.92 0.0003749434    1.270    0.213
       203 -10.1858     69.3727     40.5312   2.9119982329e+02   6.9148010352e+00   0.04033922   0.02041109 -59.65  0.002407864    1.908    0.476
       204  -9.2072     71.0696     25.6163   2.9109054697e+02   7.0780589216e+00    0.0270744   0.01445802  21.49  0.001954423    1.999    0.500
       205 -10.0919     76.2818     31.9182   2.9106750952e+02   6.9748062018e+00   0.02267561    0.0157105  54.55  0.001201888    1.633    0.388
       206  -7.1301     56.2738    217.2489   2.9240865893e+02   4.9369952042e+00  0.006406813  0.004927762 -25.17            0    1.449    0.310
       207  -9.6637      7.7178    208.2339   2.9292041373e+02   5.3215148502e+00   0.01947328  0.009830361  24.78  0.001506929    2.030    0.507
       208  -9.5717     11.5045    206.9837   2.9286887740e+02   5.3142658474e+00    0.0174838   0.01494714 -65.71   0.00145013    1.174    0.148
       209  -9.0935     84.7137     21.9579   2.9090930811e+02   7.0415879742e+00   0.01501301   0.01349686 -74.94 0.0009146302    1.146    0.127
       210  -8.6660    153.2566     41.2485   2.9022566192e+02   6.4205416242e+00   0.01241143  0.009794188  64.31 0.0009234599    1.439    0.305
       211  -7.9724    110.0223     26.6101   2.9064188822e+02   6.8410889625e+00   0.01375373  0.009183837 -64.87  0.001132364    1.513    0.339
       212  -8.1924    111.5807     21.5698   2.9059343300e+02   6.8905201825e+00   0.01833945  0.008168024 -66.77  0.001514925    2.419    0.587
       213  -8.5267    123.9970    206.0256   2.9155345376e+02   4.6763258910e+00  0.009231371  0.009179011  24.74  0.001163707    1.018    0.018
       214  -7.1721     56.4731    204.5244   2.9233054434e+02   5.0837966445e+00  0.006617979  0.006367611 -31.00 4.876771e-05    1.037    0.035
       215  -8.8490    192.0216    194.5495   2.9069360008e+02   4.4157275432e+00    0.0433561   0.02036652  87.62  0.002057531    8.716    0.885
       216  -9.0362    110.1711     33.0195   2.9067864161e+02   6.7658749005e+00    0.0190805   0.01213316 -78.39  0.001043363    1.864    0.463
       217 -10.0491    180.9025    198.1385   2.9084435474e+02   4.4384916285e+00   0.01114753   0.01031236 -65.64 0.0002555863    1.084    0.077
       218  -7.4621    181.5521    183.3985   2.9074861423e+02   4.6059581007e+00  0.006482626  0.006354312  45.09 9.821692e-05    1.038    0.036
       219  -9.1666    104.8856     41.1902   2.9078935264e+02   6.7016917594e+00   0.01846573     0.012077 -85.79  0.001066547    1.940    0.485
       220  -8.3105    105.8388     36.3893   2.9074941395e+02   6.7518753338e+00   0.01415782    0.0107736  -5.83  0.001533359    1.522    0.343
       221  -9.0308    139.5057     40.1482   2.9037934170e+02   6.5131061988e+00   0.01781438   0.01155996 -71.89  0.001388552    1.673    0.402
       222  -8.6991    247.3474     40.1080   2.8912343545e+02   5.8864653674e+00   0.01163853  0.009266364   8.07  0.001087082    1.359    0.264
       223  -7.6448    160.2993     39.6387   2.9013391261e+02   6.3983219571e+00  0.007019667  0.004999975  66.45 0.0005307682    1.717    0.417
       224  -8.3452    188.5147     37.7050   2.8979358967e+02   6.2567886887e+00   0.01373943   0.01049048 -18.63 0.0006922597    1.504    0.335
       225  -8.5700    228.7489    173.0236   2.9013780375e+02   4.4526109882e+00  0.008944113  0.005640081 -63.17 0.0008882847    1.583    0.368
       226  -7.2452    229.3470    166.6585   2.9009270864e+02   4.5230381619e+00   0.00721021  0.004918077  62.20 0.0007045909    1.792    0.442
       227  -8.3724    104.4984     15.1576   2.9063755500e+02   7.0059197308e+00   0.01600915  0.009239871 -33.78  0.001462997    2.094    0.523
       228  -8.7935    118.8968     34.6276   2.9058651052e+02   6.6966565428e+00    0.0160881  0.009102217 -60.76 0.0008220894    1.731    0.422
       229  -7.1370     56.4570    163.5152   2.9208620088e+02   5.5606798464e+00  0.006670075  0.006304278 -31.44 0.0001851379    1.061    0.057
       230  -8.5118    153.0886     34.2005   2.9018526909e+02   6.5032651021e+00   0.01071466  0.008857069 -28.08 0.0008049748    1.287    0.223
       231  -7.7794      9.2994    153.9808   2.9257900273e+02   5.9432723956e+00   0.00909042  0.008437343 -47.21 0.0005333899    1.064    0.060
       232  -7.8066    159.3933     32.0690   2.9009897558e+02   6.4913748227e+00   0.01369928  0.005201677 -53.57  0.001092666    2.441    0.590
       233  -9.9009    142.1418     29.3004   2.9028343417e+02   6.6236373068e+00   0.02117426   0.01285095 -38.31 0.0006697548    1.819    0.450
       234  -9.7289    153.2581     27.7785   2.9014469548e+02   6.5767587455e+00   0.02235698   0.01258708 -38.37  0.002064235    2.012    0.503
       235  -8.4769    133.5128    144.5229   2.9107501913e+02   5.3359758989e+00   0.01660743  0.006793671 -66.44  0.001304989    2.646    0.622
       236  -9.0270     91.2539     26.0747   2.9085768407e+02   6.9559843156e+00   0.01819099    0.0119929 -87.10  0.001039812    1.937    0.484
       237  -8.5009     92.0874     20.9173   2.9081699318e+02   7.0109850783e+00   0.01445105  0.009934086 -25.20 0.0008625658    1.734    0.423
       238  -7.3792     11.4704    148.3989   2.9252041744e+02   5.9956728989e+00  0.006471023  0.006380413  18.82 0.0001719987    1.022    0.022
       239  -8.1744    128.1892     25.8477   2.9042539067e+02   6.7446241501e+00   0.01225733   0.00980023  61.51 0.0006330154    1.395    0.283
       240  -7.9919    129.4964     21.9897   2.9038696224e+02   6.7817861993e+00   0.01544502  0.009143791 -41.57 0.0009470704    1.797    0.444
       241  -8.7811    238.9560    146.5087   2.8986022868e+02   4.7011263366e+00   0.01035476  0.006531693  26.07  0.001035916    1.599    0.375
       242  -9.6105     66.7702    143.9350   2.9184910156e+02   5.7287614354e+00   0.02601707   0.01730552  67.99  0.002042967    1.959    0.489
       243  -8.3595    242.0000    135.9945   2.8976177754e+02   4.8054655250e+00   0.01116714  0.003740082 -62.67 0.0008054046    2.963    0.663
       244  -8.5854    191.1040    134.6742   2.9034565668e+02   5.1164505862e+00   0.01131347  0.009171858 -53.06 0.0003061119    1.210    0.174
       245  -8.6597    135.8923    132.2560   2.9097386984e+02   5.4647065967e+00    0.0274036  0.009761074 -70.84  0.001800497    3.969    0.748
       246  -8.4071    112.1442    133.8565   2.9126008522e+02   5.5836097703e+00   0.01361173  0.009067466  61.85 0.0009656441    1.857    0.461
       247  -8.6647     40.9511     20.5973   2.9141216842e+02   7.3102477845e+00   0.01149623  0.008539169 -44.56 0.0002035873    1.353    0.261
       248  -8.4368    140.1248     18.4239   2.9024158282e+02   6.7614715761e+00   0.01087121  0.008247574 -74.16  0.001097095    1.406    0.289
       249  -7.0357    189.6580     15.6944   2.8964788442e+02   6.5053009092e+00  0.007052099  0.004928838 -25.69 0.0007041714    1.685    0.406
       250  -9.6275     98.6198    128.9615   2.9138838551e+02   5.7187263756e+00   0.02894636   0.01476554  56.55  0.002350367    2.776    0.640
       251 -10.2499     70.2184    126.3821   2.9170400622e+02   5.9128484290e+00   0.03409491   0.02912733  -3.48  0.001937414    1.258    0.205
       252 -10.0151     58.1344    124.5994   2.9183424008e+02   6.0033358029e+00   0.03559563   0.01899206  66.54  0.002535449    3.251    0.692
       253  -8.7038    123.9470    129.0975   2.9109409716e+02   5.5705809908e+00   0.01442295   0.01066294  21.71 0.0007608027    1.387    0.279
       254  -9.7766    117.1160    125.4792   2.9115201918e+02   5.6521652427e+00   0.03721614    0.0201013  61.96  0.003043325    2.821    0.645
       255 -10.0105    108.4542    114.4425   2.9118687556e+02   5.8305154040e+00   0.02881199    0.0174335  84.73  0.001525736    2.489    0.598
       256 -10.6986    108.5068    100.8491   2.9110485230e+02   5.9881113709e+00   0.04688421   0.03221178  82.82  0.004682067    1.898    0.473
       257 -10.2582    130.3789    118.1880   2.9095383715e+02   5.6600637492e+00   0.03525113   0.02221896  88.12  0.002008293    2.207    0.547
       258 -10.5028    133.4739    109.3953   2.9086510020e+02   5.7442600115e+00   0.06107453   0.02109579 -70.28  0.003978396    4.060    0.754
       259 -10.9032    121.1916    110.8085   2.9101667614e+02   5.7989919322e+00   0.06495667   0.02501329 -59.96  0.003377479    2.461    0.594
       260 -10.4872    127.8705    102.5919   2.9088961911e+02   5.8557389893e+00   0.03575851    0.0206861  57.88  0.003024515    2.252    0.556
       261 -10.1565    237.2593    126.7511   2.8976140185e+02   4.9402993838e+00   0.01281025   0.01199785  20.32  0.000370026    1.076    0.071
       262  -7.6034    160.3359    127.7021   2.9066195661e+02   5.3759304513e+00  0.006969221  0.004937831  59.82 0.0003618974    1.653    0.395
       263  -9.9706    140.5927    118.9340   2.9083932825e+02   5.5922211916e+00   0.03193954   0.01752929 -71.69  0.001535416    2.065    0.516
       264  -9.5809     27.4374    123.0035   2.9218269469e+02   6.1989159769e+00   0.02812932   0.01584228  65.51  0.002349203    2.732    0.634
       265  -7.2844    165.6828    118.3644   2.9054373846e+02   5.4533601238e+00  0.007140544  0.004966429  65.06 0.0007040226    1.772    0.436
