#   1 NUMBER                 Running object number                                     
#   2 MAG_AUTO               Kron-like elliptical aperture magnitude                    [mag]
#   3 X_IMAGE                Object position along x                                    [pixel]
#   4 Y_IMAGE                Object position along y                                    [pixel]
#   5 X_WORLD                Barycenter position along world x axis                     [deg]
#   6 Y_WORLD                Barycenter position along world y axis                     [deg]
#   7 A_WORLD                Profile RMS along major axis (world units)                 [deg]
#   8 B_WORLD                Profile RMS along minor axis (world units)                 [deg]
#   9 THETA_WORLD            Position angle (CCW/world-x)                               [deg]
#  10 FWHM_WORLD             FWHM assuming a gaussian core                              [deg]
#  11 ELONGATION             A_IMAGE/B_IMAGE                                           
#  12 ELLIPTICITY            1 - B_IMAGE/A_IMAGE                                       
         1  -9.5395     64.8133     22.2549   6.3990997595e+01   6.3027394439e+01     0.338086    0.1372095 -40.35   0.00144291    3.063    0.674
         2  -9.9840    119.1140     19.2197   4.7717737357e+01   5.2121886831e+01    0.4404105    0.2902154 -10.14  0.002289894    1.805    0.446
         3  -9.7887    202.6092     18.2057   3.5368571019e+01   3.2891721899e+01    0.3323329    0.2564812  54.58  0.002101264    1.436    0.303
         4 -10.2489    142.8202     18.0096   4.2953265679e+01   4.6733330848e+01    0.4885959    0.3038152  45.10  0.002591541    1.578    0.366
         5 -10.0744    171.9558     13.0596   3.7445355587e+01   4.0383183551e+01     0.308431    0.2586866  74.79  0.001950473    1.063    0.059
         6  -9.6119      5.6399      9.9509   8.6133452917e+01   7.2546596681e+01     0.293886    0.1984455 -32.89  0.002043889    1.304    0.233
         7 -11.1763    166.1477      5.3487   3.6090587108e+01   4.2443204715e+01    0.5629951    0.4963388  43.69  0.003796069    1.269    0.212
         8  -9.3851    236.4467      1.9938   2.9182128881e+01   2.7463072224e+01     0.300256    0.1628729 -79.59  0.001788526    1.716    0.417
         9  -9.2450    201.8086      2.5740   3.1866876853e+01   3.4638188957e+01    0.1730212   0.09733113 -89.54  0.000955672    1.679    0.405
        10  -9.4738     79.0470      4.8341   5.1890294489e+01   6.2092282774e+01    0.2790578    0.2064572  37.70  0.001525675    1.111    0.100
        11  -8.6662     80.3390    221.3098   1.0722402068e+02   1.7728359580e+01    0.1235986    0.1003954 -18.05 0.0003455454    1.688    0.407
        12 -11.2296     30.5332    217.1083   1.1755575514e+02   2.4617754807e+01    0.3791344    0.2183486  43.64  0.002211629    1.579    0.367
        13 -10.8470    208.9603    213.1877   7.8166802035e+01  -4.6928775614e-01    0.7929345    0.2740702  41.95   0.00308186    3.252    0.693
        14  -8.9419    153.5028    208.9932   8.8993059640e+01   9.0577717593e+00    0.1985568    0.1110498 -25.21 0.0008105214    2.555    0.609
        15  -9.8731    199.6108    207.9026   7.9046491799e+01   1.8301637629e+00    0.2591003    0.1875818  34.78  0.001305567    1.399    0.285
        16 -11.4635     33.9810    205.6790   1.1589361826e+02   2.6761125447e+01    0.3890262    0.2681296  46.50  0.002372638    1.369    0.269
        17  -9.2565     76.6088    207.1900   1.0640747049e+02   2.1289491128e+01    0.1806745    0.1166067 -54.55 0.0003143463    1.627    0.386
        18  -8.1976    246.5016    205.4929   6.9886242608e+01  -4.5687565531e+00    0.1264793   0.09805012 -10.65 4.843517e-05    1.014    0.014
        19  -9.6657    185.8867    203.6591   8.1066096039e+01   4.7524033284e+00    0.2526099    0.1773171 -25.09  0.001336748    1.428    0.300
        20  -9.3196    125.6730    203.8232   9.4465440623e+01   1.4659357888e+01    0.2014842    0.1751223  20.40  0.001143749    1.148    0.129
        21  -9.0599    232.3152    200.2950   7.1409543855e+01  -1.8142323818e+00    0.2974295    0.1975332  -1.84  0.001650365    1.551    0.355
        22  -9.5428    249.1242    197.5480   6.7964536779e+01  -3.7277099392e+00    0.3569501    0.2336232  20.78  0.002119668    1.556    0.357
        23  -9.2408    218.5248    197.1622   7.3356176180e+01   7.3106979248e-01     0.275596     0.160959  16.57  0.001332376    1.982    0.495
        24 -10.7894    200.1146    194.1883   7.6368602962e+01   4.1400801199e+00    0.4957527    0.3192525 -37.46  0.002563562    1.497    0.332
        25  -9.0587    171.3091    194.3379   8.2436080931e+01   8.9229474527e+00    0.1481485    0.1048473  -6.62 0.0007043632    1.683    0.406
        26  -9.2277    230.1669    189.0005   6.9636712897e+01   3.2029219743e-01    0.2280748    0.1323985 -14.55  0.001086274    2.004    0.501
        27  -8.6664    243.9908    184.2764   6.6302495191e+01  -9.5132492500e-01    0.2387716    0.1197489 -11.78 0.0008966734    3.485    0.713
        28  -8.5807    177.9694    180.8619   7.8362466150e+01   1.0399169604e+01    0.2478071    0.1611702   7.23  0.001082015    2.058    0.514
        29  -9.0163    228.3307    178.9912   6.7996225504e+01   2.2693966685e+00    0.2123849   0.09973198 -54.54 0.0007051753    4.406    0.773
        30  -8.3728    226.1416    173.3891   6.7263397021e+01   3.5715131762e+00    0.1731926    0.1277885  48.32 0.0009429129    1.718    0.418
        31  -9.5798    124.6093    166.8262   8.8113451942e+01   2.3048146388e+01    0.3949457    0.2805324 -47.47  0.001882101    1.401    0.286
        32  -9.7700    198.4251    159.7901   6.9681742461e+01   1.0805486558e+01     0.342959    0.1315252 -36.21  0.001200879    2.614    0.618
        33  -9.6077    217.8427    149.9800   6.3861548241e+01   9.1197227760e+00    0.2306141    0.1565519 -59.18  0.001093126    1.982    0.495
        34  -9.5863     80.9842    144.7936   9.5606365690e+01   3.5588799234e+01    0.3431707    0.3130963 -59.49  0.001318203    1.040    0.039
        35  -9.2885    216.8488    141.0394   6.2089962642e+01   1.0921342385e+01    0.3240384    0.1645735 -47.65  0.001385844    2.012    0.503
        36  -8.6925    222.8330    135.8188   5.9896733808e+01   1.0764203410e+01     0.185139    0.1586002 -56.75 0.0007382274    1.304    0.233
        37 -10.5228     56.7814    128.6715   9.9740951376e+01   4.2897149382e+01    0.7082963    0.3649217 -44.00  0.003062364    1.922    0.480
        38 -11.4664    116.3660    121.0374   8.0055080026e+01   3.5234844904e+01    0.8477394    0.7132818 -31.02  0.004259638    1.190    0.159
        39  -9.0494    187.5027    118.4871   6.2386387822e+01   2.0943453440e+01    0.1486523    0.1393797 -34.10 0.0008105384    1.008    0.008
        40 -12.1668    243.8340    105.4897   5.0057584771e+01   1.2100327963e+01      1.14429     0.641629 -33.14  0.005614354    1.638    0.389
        41 -10.5340    241.4077     89.5971   4.6963139160e+01   1.5085764241e+01    0.7602414    0.2542752 -43.73  0.003044631    2.534    0.605
        42 -10.4051    228.6981    111.0574   5.3458304253e+01   1.3991431228e+01    0.4698488    0.2984824 -38.09  0.002419077    1.380    0.275
        43  -9.8012      2.2361    109.8583   1.1405028222e+02   5.2245811425e+01    0.4543541     0.122411 -59.57  0.001880536    2.467    0.595
        44 -10.8275    160.5009    100.4065   6.3435037100e+01   3.0297038453e+01    0.6248359     0.502319 -30.17  0.002607626    1.258    0.205
        45  -9.4877    181.1556    100.8245   5.9239494453e+01   2.5639606383e+01    0.4366879    0.2608241 -23.53    0.0018029    2.113    0.527
        46  -9.1492     48.3030     99.6755   9.6404489106e+01   5.0955404997e+01    0.3528142    0.2017953 -42.03  0.001673162    1.605    0.377
        47  -9.9842     13.6971     97.2857   1.0822661893e+02   5.4582203974e+01    0.5813213    0.2083765 -46.98  0.002527526    2.276    0.561
        48  -9.6335     37.2696     98.5163   1.0006117420e+02   5.2394242327e+01    0.3558254     0.255937   4.77  0.001942416    1.598    0.374
        49  -8.6358    107.4093     94.7806   7.5551554639e+01   4.2770363848e+01    0.2177918    0.1384857 -33.00 0.0009436373    1.643    0.391
        50 -10.4792    211.1064     89.3769   5.1181050833e+01   2.1177127846e+01    0.6688243    0.3291933 -48.92  0.002880728    2.017    0.504
        51 -10.2282    211.7468     84.7580   4.9988532706e+01   2.1801560285e+01    0.4282051    0.3117062 -63.71  0.002086701    1.483    0.326
        52  -8.8550    135.7326     97.5761   6.8551791328e+01   3.6316796931e+01    0.2143937    0.1480702  57.17 0.0009439886    1.637    0.389
        53  -9.8856    128.8761     83.6048   6.6284704997e+01   4.0537657482e+01    0.3687521    0.3045094  51.43  0.001364771    1.247    0.198
        54 -10.5557     84.1196     82.7408   7.9302554401e+01   4.9594730061e+01     0.587575    0.4068753  18.84   0.00281898    1.623    0.384
        55 -10.2611    213.9690     70.2248   4.6237103840e+01   2.3617092614e+01    0.5612099    0.3164941 -48.17  0.002742408    1.656    0.396
        56 -10.9413      5.5006     68.3516   1.0561801107e+02   6.1648463812e+01    0.6442417    0.4969049 -89.84  0.004041196    1.675    0.403
        57 -10.5428    184.2747     63.8130   4.9082802640e+01   3.1186085839e+01    0.7425664    0.4932861 -18.93   0.00355262    1.906    0.475
        58 -11.1535    139.7462     64.6324   5.7912202500e+01   4.1414008660e+01    0.7049835    0.6073891 -76.42  0.003510749    1.358    0.264
        59  -9.3717    250.5292     60.2722   3.9738457413e+01   1.7699010567e+01    0.3671515   0.09856286 -37.40  0.001433149    3.068    0.674
        60  -8.5055    114.6886     61.6775   6.3206576822e+01   4.7512794345e+01    0.1496355    0.1091805  12.86 0.0007038341    1.653    0.395
        61  -9.5254     19.7912     56.6793   9.6404253281e+01   6.3171050482e+01    0.4087011    0.1500924 -42.80  0.001845512    2.176    0.540
        62 -10.0148     95.5897     53.8723   6.6056739381e+01   5.2766906336e+01    0.4707088    0.3357826   9.50  0.002354151    1.631    0.387
        63 -10.0145    234.0909     47.8701   3.8806840111e+01   2.2602890869e+01    0.4307165    0.2948989 -19.10  0.002404447    1.954    0.488
        64 -11.1319    199.5307     45.2886   4.2179529592e+01   3.0338663307e+01    0.7507514    0.4537533 -38.07   0.00392184    1.603    0.376
        65 -10.3378     87.3055     64.6318   7.2415111133e+01   5.2536332947e+01     0.486206    0.3946477  28.48  0.002670367    1.196    0.164
        66  -8.4964     13.6765     49.3468   9.6989821181e+01   6.5098929649e+01    0.1086997   0.09577242  73.71  0.000704978    1.742    0.426
        67 -10.9221     81.7783     43.8731   6.6821492566e+01   5.7001789744e+01    0.6524849    0.4433735 -19.27  0.003356026    1.526    0.345
        68 -10.2761     49.9154     42.9178   7.8405659278e+01   6.2424230330e+01     0.518274      0.34216  -9.82  0.002817775    1.577    0.366
        69 -10.7848    140.7193     38.4011   4.9622082740e+01   4.4948411546e+01    0.4727717    0.4243408  71.54  0.002155302    1.101    0.092
        70 -10.0780     40.8097     34.7986   7.9106922415e+01   6.4979630226e+01    0.6318308    0.2164472 -43.90  0.002624239    2.971    0.663
        71  -9.8263    172.6910     36.1944   4.3534410727e+01   3.7675118045e+01    0.3515694     0.322258 -54.77  0.001657978    1.113    0.102
        72 -10.2828    181.2896     25.9831   3.9660660975e+01   3.6867118590e+01    0.4180646    0.3373109  22.30  0.002170707    1.624    0.384
        73 -10.1434    107.7052     26.3933   5.2816609649e+01   5.3928981473e+01    0.4693623    0.2361896  29.40  0.001982853    2.542    0.607
        74  -8.1081    203.6634    249.6657   8.5326478107e+01  -5.2744926147e+00    0.1289889   0.07927896   0.63 0.0007051987    1.743    0.426
        75  -8.8941    108.6640    245.7075   1.0396861048e+02   8.9623904434e+00    0.2403111    0.1452033  25.88  0.001282213    1.709    0.415
        76  -9.2493    123.8170    242.8585   1.0046386848e+02   7.2971723014e+00    0.3575073    0.1968176   1.65    0.0011046    6.179    0.838
        77  -8.4712    150.0372    238.7928   9.4415928159e+01   4.1233170465e+00    0.3311396    0.1492705 -27.40  0.001107571    4.952    0.798
        78  -9.1935    238.0535     15.9824   3.1835185572e+01   2.5674740247e+01    0.2217194    0.1518851  35.78  0.001296396    2.450    0.592
        79  -8.8380    203.5437    225.8386   8.1449231938e+01  -1.6998076522e+00    0.2288686    0.1559671   8.72  0.001298136    1.416    0.294
        80  -8.3934    134.3204    223.6508   9.5568044423e+01   9.2913245137e+00    0.1354454    0.1005425  65.65 0.0007048612    1.740    0.425
        81 -10.3699    220.2391    220.4245   7.7310410901e+01  -3.2359708483e+00    0.4673044    0.2551028  25.92  0.002464473    1.758    0.431
        82 -10.5847    214.3058    218.5836   7.8105111803e+01  -2.1108033139e+00    0.4218446    0.1863187  37.71  0.001970335    2.274    0.560
        83 -10.2756    191.1521    217.9711   8.2551476796e+01   1.4253395292e+00    0.5070569    0.3858902 -42.04  0.002961354    1.466    0.318
