#   1 NUMBER                 Running object number                                     
#   2 MAG_AUTO               Kron-like elliptical aperture magnitude                    [mag]
#   3 X_IMAGE                Object position along x                                    [pixel]
#   4 Y_IMAGE                Object position along y                                    [pixel]
#   5 X_WORLD                Barycenter position along world x axis                     [deg]
#   6 Y_WORLD                Barycenter position along world y axis                     [deg]
#   7 A_WORLD                Profile RMS along major axis (world units)                 [deg]
#   8 B_WORLD                Profile RMS along minor axis (world units)                 [deg]
#   9 THETA_WORLD            Position angle (CCW/world-x)                               [deg]
#  10 FWHM_WORLD             FWHM assuming a gaussian core                              [deg]
#  11 ELONGATION             A_IMAGE/B_IMAGE                                           
#  12 ELLIPTICITY            1 - B_IMAGE/A_IMAGE                                       
         1 -16.0706    172.2063     66.2956   8.4372723397e+01   3.3301971618e+01     2.228203     1.583688  71.21   0.01042885    1.733    0.423
         2 -17.7858    139.8813    112.1519   1.0464760167e+02   3.2283564895e+01     5.985072     4.497268 -81.51   0.02672829    2.148    0.534
         3 -16.7953    185.6567    117.1364   9.5624010984e+01   2.2068396424e+01     4.371486     1.908515 -39.54   0.01748248    2.274    0.560
         4 -15.8830     24.9037     89.2000   1.3654524890e+02   5.4895814600e+01     4.163572     1.944092 -87.84   0.01746794    2.544    0.607
         5 -14.3638     50.7764     99.3410   1.2887413463e+02   4.9952591994e+01      1.71169    0.7735276 -50.86   0.00733053    2.058    0.514
         6 -16.3952    138.4757     72.8518   9.3800235287e+01   4.0159690476e+01     2.617074     2.145426  16.03   0.01297147    1.317    0.241
         7 -14.2277     51.9671     47.5889   1.1462735571e+02   6.2128014998e+01     1.326482    0.6964098 -32.86  0.005681816    2.109    0.526
         8 -15.1265     68.9492     43.8488   1.0567768802e+02   6.0269195661e+01     2.102382     1.439047   1.12  0.009737461    1.908    0.476
         9 -13.7926     13.5919      8.4450   1.1991243320e+02   7.4581580194e+01     1.092678    0.4896259 -24.42  0.004796709    2.727    0.633
        10 -12.8711     54.2201      6.4527   9.3508547353e+01   6.9338412190e+01    0.5568488    0.3321638 -13.02  0.002702787    1.819    0.450
        11 -16.5853     72.5691    193.3615   1.3530396952e+02   2.6287536386e+01     2.661488      1.67419  50.38   0.01569161    1.414    0.293
        12 -11.8272    192.2187    208.5284   1.1233189383e+02   7.1993342903e+00    0.2481357    0.2357287 -33.58   0.00183213    1.594    0.373
        13 -11.5156    109.7944    209.1142   1.2886194283e+02   1.8724621914e+01    0.1888247    0.1431729  51.12  0.001047816    1.276    0.216
        14 -11.2398    218.5353    205.6167   1.0717245202e+02   3.9144851505e+00    0.2699276    0.1626892  11.24  0.001651215    1.486    0.327
        15 -12.2786    130.2640    202.6629   1.2376236481e+02   1.6966852875e+01     0.351576    0.1477415 -55.74  0.001626917    3.099    0.677
        16 -13.2500    173.0013    193.9722   1.1370524161e+02   1.1999616321e+01    0.4901292    0.2150686 -30.05  0.002201207    2.888    0.654
        17 -13.8136    175.2066    200.7046   1.1433939608e+02   1.0702427060e+01    0.5316802    0.3648166  14.61  0.003245015    1.340    0.254
        18 -12.8413    153.2921    199.3525   1.1851290503e+02   1.4142394778e+01    0.3564773    0.1983115  37.24  0.001582885    1.534    0.348
        19 -12.6816    189.1046    198.6286   1.1134321155e+02   8.9468587285e+00    0.3496578    0.2416313 -35.85  0.002178865    1.664    0.399
        20 -12.3935    119.6327    199.9727   1.2567370273e+02   1.8919134631e+01    0.3527476    0.2034239  60.40  0.001608961    2.510    0.602
        21 -13.9266    152.4416    210.9377   1.2033431495e+02   1.2524443426e+01    0.8484845    0.4590859  44.63  0.004632016    1.840    0.457
        22 -13.1679    163.8961    195.9375   1.1583848075e+02   1.3080260175e+01    0.3260068    0.2640037 -24.24  0.002132417    1.334    0.251
        23 -11.0895    204.2220    195.9223   1.0809714756e+02   7.1014426576e+00    0.2324243    0.1478182  -6.76  0.001367696    1.590    0.371
        24 -12.0038    121.1241    239.2475   1.2978313592e+02   1.2632063223e+01    0.2744812     0.200125 -77.41  0.001917668    2.056    0.514
        25 -13.1039    130.3235    184.6762   1.2122653634e+02   2.0008510443e+01    0.4914076     0.342309  41.79  0.002340529    1.315    0.239
        26 -13.6832    131.2412    178.8031   1.2012617605e+02   2.0911966948e+01    0.5679209    0.4195652 -48.05  0.002984528    1.528    0.346
        27 -11.1497    143.9096    234.9093   1.2499990405e+02   1.0312821657e+01    0.1686251    0.1673749 -27.00  0.001388471    1.379    0.275
        28 -12.5092     19.2172    178.5679   1.4628375962e+02   3.4654288593e+01    0.4626188    0.1678038 -75.67  0.002306155    2.574    0.612
        29 -15.5511     94.9308    190.4790   1.2995694784e+02   2.4006623737e+01     1.356664     1.114998  78.08  0.008850241    1.359    0.264
        30 -12.5368    134.6582    170.2341   1.1796520900e+02   2.1927739123e+01    0.4512351     0.244658 -42.40  0.002179984    2.031    0.508
        31 -11.8350     86.3160    168.3898   1.2925611861e+02   2.9511002748e+01    0.2522399    0.2099345  60.13 0.0009481215    1.176    0.150
        32 -12.9411     88.8217    163.5855   1.2798347741e+02   3.0167511638e+01    0.5781317    0.3173902  48.60  0.002822053    1.805    0.446
        33 -13.0442    143.8079    208.6221   1.2175648479e+02   1.4097656785e+01    0.5513745    0.2280155 -47.07  0.002689246    2.875    0.652
        34 -12.6517     59.8214    160.6179   1.3499670529e+02   3.4487744253e+01    0.4659353    0.2745312 -85.74  0.002409975    1.904    0.475
        35 -13.9840    194.5190    172.6122   1.0577306139e+02   1.1761734016e+01    0.6606305    0.4301341  46.25  0.003596664    1.808    0.447
        36 -13.9986    204.7121    186.0756   1.0631162629e+02   8.3137258461e+00    0.7266538    0.4737346  26.01   0.00436906    1.310    0.237
        37 -11.7261    215.6830    167.9685   1.0098928443e+02   9.0531645245e+00     0.293662    0.2480766 -49.45  0.001826881    1.836    0.455
        38 -12.5356     18.2642    153.7954   1.4506750487e+02   3.9999817255e+01    0.4523303    0.2284236 -87.07  0.002440846    1.832    0.454
        39 -12.5915     84.2001    150.3849   1.2727133999e+02   3.3639275280e+01      0.32596    0.2662068 -84.04  0.001262261    1.316    0.240
        40 -12.7810     81.7695    143.1098   1.2680911849e+02   3.5592712897e+01    0.5869225    0.4302943 -34.63  0.003120789    1.628    0.386
        41 -12.1391    199.9994    144.4119   9.9074030574e+01   1.5031736251e+01    0.2992701    0.2103785   4.21  0.001093294    1.457    0.314
        42 -13.2672    205.3856    139.6104   9.7034471914e+01   1.4798703901e+01    0.4885771    0.4225479 -60.38  0.002839089    1.731    0.422
        43 -15.6883    119.4745    167.5508   1.2106845765e+02   2.4837114714e+01     3.226088     1.212646  25.20   0.01015307    4.385    0.772
        44 -12.3025     71.3986    133.7198   1.2824930269e+02   3.9143660339e+01    0.4493885    0.4440219   9.93  0.002530303    1.097    0.088
        45 -12.8170     11.5257    228.9073   1.4986294942e+02   2.5984180536e+01    0.5455495    0.1637739  48.25  0.003149231    2.181    0.542
        46 -13.3681    120.9847    181.5320   1.2285869200e+02   2.1977246256e+01     0.393106    0.3422541 -49.46  0.002497306    1.304    0.233
        47 -11.3301     59.8766    129.8882   1.3103978583e+02   4.1487581072e+01    0.4284359    0.1763884 -41.92  0.001563585    3.396    0.706
        48 -12.2576     37.4372    186.9980   1.4268174597e+02   3.1327107312e+01    0.2800605      0.21015   8.45  0.001642481    1.751    0.429
        49 -12.4426    210.7139    124.5355   9.2697027503e+01   1.6072954427e+01    0.3572086    0.3171979  69.60  0.002100285    1.618    0.382
        50 -11.7324    208.7109    119.4118   9.1857497911e+01   1.7210223141e+01    0.3054226    0.2339287  21.82  0.001697951    1.283    0.221
        51 -11.9190    106.7563    125.0692   1.1651326702e+02   3.5760298328e+01    0.2608128    0.1922563 -31.70 0.0007589887    1.516    0.341
        52 -13.3370    199.2603    121.5660   9.4073217563e+01   1.8687012998e+01    0.5695662    0.3774841  -2.16  0.002755509    1.742    0.426
        53 -10.2982     68.3899    122.7854   1.2733709352e+02   4.2109676194e+01    0.1988595    0.1170845 -51.52 0.0006990641    1.673    0.402
        54 -14.4530    100.1928    117.0801   1.1665840289e+02   3.8657539529e+01    0.9399553     0.708921  15.09  0.004136838    1.551    0.355
        55 -12.3662    179.0040    177.3139   1.0967427955e+02   1.3553786415e+01    0.2647959    0.1872375  42.52  0.001143629    1.495    0.331
        56 -12.9958     87.2814    118.2718   1.2074353443e+02   4.0475077121e+01    0.6270819    0.4483084 -84.31  0.002198289    1.798    0.444
        57 -12.3702     84.8253    109.5173   1.1963975517e+02   4.2898292171e+01    0.5653233    0.3989108 -51.87  0.002623716    1.376    0.273
        58 -13.1139    181.9572    173.7505   1.0843826122e+02   1.3619630074e+01     0.411595    0.3660997 -85.32  0.002493086    1.874    0.467
        59 -14.4538     49.0351     83.5151   1.2626223367e+02   5.4045521929e+01     1.068036    0.5928298 -69.75  0.004838853    1.861    0.463
        60 -12.2551    205.4331    229.2317   1.1305159605e+02   2.9582025857e+00    0.3850292     0.198166  28.59  0.002373497    1.508    0.337
        61 -11.3996     55.3797    226.6755   1.4148617743e+02   2.2254409917e+01    0.3024037    0.1495152  44.81  0.001892327    1.539    0.350
        62 -12.1343    181.8141    188.6614   1.1109257413e+02   1.1430862341e+01    0.2423593    0.1783483 -13.18   0.00148392    1.362    0.266
        63 -10.5660     60.4274    106.2997   1.2689110618e+02   4.7100934124e+01     0.191852    0.1300257 -75.00 0.0009443577    1.544    0.352
        64 -12.6888    181.0623    183.4211   1.1034219892e+02   1.2312476877e+01      0.48146    0.2194944 -26.19   0.00209868    2.832    0.647
        65 -13.0083    211.2562     93.9947   8.5208994872e+01   2.0465230430e+01    0.4058107    0.3593494  42.44  0.002392189    1.246    0.197
        66 -13.9046    196.3013     94.0072   8.7750321578e+01   2.3574731516e+01    0.7882765    0.4655759 -36.99  0.003663779    1.614    0.381
        67 -10.4048    122.3264    222.3072   1.2777276889e+02   1.4955929799e+01    0.1129291   0.08164348   5.90 0.0004953163    1.652    0.395
        68 -15.9923    171.9070    170.7141   1.0992138624e+02   1.5738201356e+01     3.224231     1.607064 -12.72   0.01027583    5.155    0.806
        69 -12.3020     93.9886     90.3590   1.1199230549e+02   4.5794405141e+01    0.4353506    0.3379701 -88.45  0.002057004    1.783    0.439
        70 -12.0380    219.9420    110.1496   8.7769992553e+01   1.6433424281e+01    0.4012354    0.1779584 -24.16  0.001662461    2.257    0.557
        71 -13.6977    104.1830     86.1146   1.0755630205e+02   4.4841059493e+01     0.720742    0.5968357  29.40  0.003418515    1.240    0.194
        72 -16.9984    154.9794    161.8629   1.1189605390e+02   2.0063819470e+01     3.618575     2.143506 -22.98   0.01678305    2.159    0.537
        73 -11.5417     82.4451     85.5420   1.1452516477e+02   4.8878501864e+01     0.542006    0.3963479  -5.94  0.002534122    1.800    0.444
        74 -13.3592    192.6564    191.6552   1.0951695016e+02   9.3678287545e+00    0.4133534    0.2930231 -10.72  0.002556919    1.379    0.275
        75 -12.0374    186.0493     81.1666   8.6125008307e+01   2.7800406802e+01    0.2771237    0.2048916 -27.42  0.001388579    1.273    0.214
        76 -12.5929    113.7400     78.1114   1.0222655717e+02   4.4604446484e+01    0.7407565    0.4139403 -21.79  0.002662991    2.694    0.629
        77 -12.0368    117.9559     70.0842   9.8402820526e+01   4.5301146070e+01    0.5146639    0.3038282  55.51  0.002116149    1.966    0.491
        78 -12.3514    121.5528    187.6482   1.2360624561e+02   2.0789047532e+01    0.3654008    0.1664111  47.32  0.001648681    2.279    0.561
        79 -13.2544    104.1162     75.5551   1.0436138873e+02   4.7105626807e+01    0.7406277    0.5190194  42.64  0.002959871    1.463    0.317
        80 -14.4829    101.5291     69.6643   1.0326983286e+02   4.8850083224e+01     1.568817    0.9850335  32.88  0.006242986    1.722    0.419
        81 -13.1499    201.7008     74.3480   8.1574537028e+01   2.5330334292e+01    0.4727017    0.3689851  34.98  0.002531496    1.352    0.260
        82 -12.5654    217.0575     70.6153   7.8287958399e+01   2.2519494821e+01    0.5543438    0.2074065 -17.14   0.00167458    4.321    0.769
        83 -12.4368    222.3184     64.1400   7.5887395645e+01   2.2251983248e+01    0.4296624    0.2261038  29.35   0.00177368    2.777    0.640
        84 -11.5810    235.1478     69.7150   7.5690918689e+01   1.8914002882e+01    0.1997743    0.1668808 -68.17  0.001193398    1.476    0.323
        85 -13.7423     84.4309     49.6925   1.0194881872e+02   5.6264051675e+01     1.155768    0.7311747 -59.33  0.004896598    2.199    0.545
        86 -14.5849     75.9294     57.6414   1.0814774922e+02   5.6209087766e+01      1.23739     1.109527  33.43  0.006885526    1.181    0.153
        87 -11.0470    130.0000    219.9471   1.2596912410e+02   1.4290625736e+01    0.1613402   0.06804176 -52.47 0.0008057346    2.965    0.663
        88 -11.8778    109.8567    215.8508   1.2959207865e+02   1.7608971741e+01    0.2819105    0.2045418  48.53  0.001870265    1.277    0.217
        89 -12.2798    212.8074     78.1189   8.0871383940e+01   2.2398908627e+01    0.4922613     0.114548  51.67  0.001567394    4.128    0.758
        90 -12.6735    194.9885     56.8502   7.7704896814e+01   2.9288854026e+01    0.3246719    0.2808811  13.83  0.001650239    1.217    0.178
        91 -16.6212    110.0948    149.0383   1.2026499392e+02   3.0046629041e+01      3.60673     2.391712  24.70   0.01796548    1.604    0.377
        92 -11.3986    233.9868     55.2916   7.2212335426e+01   2.0916316371e+01      0.18196    0.1715606 -29.14  0.001179683    1.088    0.081
        93 -12.9478    220.6593     52.7192   7.3093503517e+01   2.4038949987e+01    0.4681183    0.1707319 -25.24  0.001797066    2.561    0.610
        94 -13.1195    200.8516     47.4700   7.4172486752e+01   2.9144610848e+01    0.5210077    0.2322002 -27.79  0.002151859    2.059    0.514
        95 -12.5325    131.6720    193.5587   1.2222006194e+02   1.8275269393e+01    0.3900236    0.1919463  33.65  0.001738203    1.750    0.429
        96 -13.4653    171.7489     46.0167   7.8129215749e+01   3.6346810778e+01    0.8765987    0.5211637   2.76  0.003470916    2.467    0.595
        97 -14.0942    163.0948     43.6117   7.8853708234e+01   3.8828717487e+01     1.113486    0.4931715  63.70  0.004183528    2.441    0.590
        98 -12.0530    120.5529     47.6674   8.9709021907e+01   4.8743218496e+01    0.5726349    0.4195732 -69.85  0.002540331    1.977    0.494
        99 -13.3647    124.5376     41.4961   8.6316615668e+01   4.8762058198e+01    0.6643674    0.6183474 -43.95  0.003606481    1.149    0.130
       100 -11.5829    113.3277     42.6645   8.9764225770e+01   5.1265397144e+01    0.3661509    0.2845294 -21.74  0.001364701    1.289    0.224
       101 -13.0952      5.7092     49.3344   1.3809825472e+02   6.5837152083e+01    0.8676394    0.3282352 -41.07  0.003876059    2.432    0.589
       102 -10.9618    183.9076     39.1129   7.4056372536e+01   3.4238638107e+01     0.276849    0.1966163 -17.87  0.001375338    1.429    0.300
       103 -11.8483      8.9902    186.7733   1.4891011204e+02   3.3822879821e+01    0.2772303    0.1608494 -87.66  0.001811368    1.581    0.367
       104 -11.6609    160.8090     34.7717   7.6281054426e+01   4.0563164834e+01    0.4572977    0.2660363 -37.30  0.002028699    1.686    0.407
       105 -11.8276    194.8628     35.4602   7.1465839450e+01   3.2018444156e+01     0.292341    0.2387041 -33.35  0.001624062    1.151    0.131
       106 -13.1017    181.3960     46.4840   7.6705417690e+01   3.3913302716e+01    0.4562655     0.348249 -67.07  0.002290345    1.555    0.357
       107 -11.9849    152.7161     34.1747   7.7508260653e+01   4.2702422198e+01    0.4683995    0.2052748  57.55   0.00180833    2.174    0.540
       108 -13.0508    112.7266    190.0870   1.2590659253e+02   2.1626474798e+01    0.4509271    0.2540749 -58.57  0.002390676    2.101    0.524
       109 -11.7842    136.1273     29.4436   7.9009324747e+01   4.7549305717e+01    0.3136728    0.2138931 -34.31  0.001481678    1.473    0.321
       110 -11.9937    140.9907     24.5299   7.6170532879e+01   4.6903779230e+01    0.2955266    0.2103205   4.83  0.001394957    1.626    0.385
       111 -12.9405    120.7971    211.2889   1.2681891611e+02   1.6885929611e+01    0.7048274    0.3397674 -32.30  0.003121086    3.709    0.730
