#   1 NUMBER                 Running object number                                     
#   2 MAG_AUTO               Kron-like elliptical aperture magnitude                    [mag]
#   3 X_IMAGE                Object position along x                                    [pixel]
#   4 Y_IMAGE                Object position along y                                    [pixel]
#   5 X_WORLD                Barycenter position along world x axis                     [deg]
#   6 Y_WORLD                Barycenter position along world y axis                     [deg]
#   7 A_WORLD                Profile RMS along major axis (world units)                 [deg]
#   8 B_WORLD                Profile RMS along minor axis (world units)                 [deg]
#   9 THETA_WORLD            Position angle (CCW/world-x)                               [deg]
#  10 FWHM_WORLD             FWHM assuming a gaussian core                              [deg]
#  11 ELONGATION             A_IMAGE/B_IMAGE                                           
#  12 ELLIPTICITY            1 - B_IMAGE/A_IMAGE                                       
         1 -12.1863     67.0323     16.7501   3.4840222126e+01   6.5342156660e+01    0.3413423    0.1594106 -30.17  0.001511789    2.057    0.514
         2 -11.4802    117.1485     10.8395   1.8676170839e+01   5.4332080116e+01    0.1996008    0.1857598 -67.40 0.0003168549    1.131    0.116
         3 -13.4384     90.3706      5.1393   2.1743688103e+01   6.1477449095e+01    0.4930665    0.3558532 -69.24  0.002546175    1.828    0.453
         4 -11.7001     55.5887     10.5816   3.5786156146e+01   6.8386325250e+01    0.2323454    0.1997025  -4.29 0.0008360213    1.043    0.041
         5 -12.3505     81.6110      8.8521   2.5935742637e+01   6.3141400075e+01    0.2790816    0.1910113  55.21 0.0004555128    1.419    0.295
         6 -10.9510     48.3506      7.9553   3.7280620365e+01   7.0058859530e+01    0.1791353    0.1487436  -7.24 0.0004962909    1.068    0.064
         7 -10.3512    114.2684      6.7110   1.7440982687e+01   5.5455260426e+01    0.1355715    0.1015836 -58.78  0.000187536    1.504    0.335
         8 -11.2844    106.6716      4.0645   1.7699892790e+01   5.7602845121e+01    0.1859295    0.1730502   9.97   0.00046733    1.093    0.085
         9 -11.6460      5.2644      3.4850   5.9951370814e+01   7.6708100997e+01    0.2031887    0.1291198 -41.85 0.0005156836    1.314    0.239
        10 -11.4783    100.8276      2.0049   1.7905523069e+01   5.9226687101e+01    0.2396258    0.1875397  63.33 0.0006776121    1.220    0.180
        11 -11.4259     49.8825      1.9484   3.2834036593e+01   7.0490072800e+01     0.189842    0.1622627   4.84 0.0004039683    1.016    0.016
        12 -10.2716    197.3007    241.7186   6.1241598430e+01  -4.8558578899e-01   0.09745493   0.07824993  45.61 0.0002999971    1.547    0.354
        13 -11.9570    237.1303    249.2383   5.5885187344e+01  -6.3627083196e+00    0.2420913    0.1684486  17.86 0.0008660013    1.067    0.062
        14 -11.4746    124.9709    249.5158   7.4898591714e+01   8.5629233048e+00    0.1723679    0.1503824  -9.10 0.0005532182    1.508    0.337
        15 -12.1218    115.0089    249.8368   7.6727437365e+01   9.8820267235e+00    0.2027304    0.1774629  61.62  0.001412582    1.210    0.174
        16 -12.3921    115.2852    244.9662   7.6204136512e+01   1.0563254764e+01    0.2078816    0.1667134 -74.47  0.001069649    1.565    0.361
        17 -12.6965     96.7132    248.9183   7.9957574279e+01   1.2479842015e+01    0.4818819    0.2341553  40.93  0.001748128    1.558    0.358
        18 -12.0570     85.0185    250.5799   8.2206759646e+01   1.3750347211e+01    0.1935699    0.0904121  44.62 0.0003846278    1.577    0.366
        19 -12.7579     85.5188    246.3662   8.1783145586e+01   1.4346140480e+01    0.2515199     0.183889  66.80 0.0006579626    1.285    0.222
        20 -12.1618     60.4464    241.9162   8.6040960236e+01   1.8226806496e+01    0.3349467    0.2043727  20.33  0.001944513    2.517    0.603
        21 -13.6861     67.2400    246.3874   8.5108084224e+01   1.6657419788e+01    0.4806887    0.2991334 -64.70  0.003301778    1.953    0.488
        22 -13.2094     56.7586    250.5740   8.7253748856e+01   1.7243177664e+01    0.2912995    0.1547301  44.83  0.001924753    1.386    0.278
        23 -12.7945     51.6967    250.5448   8.8145043334e+01   1.7840669500e+01    0.2770676     0.175023  43.71  0.001377216    1.263    0.208
        24 -12.6074     21.5100    198.4350   9.0906663274e+01   3.0766633086e+01    0.6797492    0.2731774  82.19  0.003298512    2.536    0.606
        25 -14.4285     40.1134    223.8854   8.8700204474e+01   2.3799173181e+01     1.084161    0.8853838  17.20  0.007759482    1.793    0.442
        26 -13.9037     40.1858    245.8462   8.9918679656e+01   1.9925873332e+01    0.7961388    0.3786284 -77.09  0.005038279    2.247    0.555
        27 -13.5061     34.4532    242.5176   9.0765759400e+01   2.1120449832e+01    0.3581283    0.2334049 -70.34  0.002601549    1.804    0.446
        28 -13.4561     32.3561    234.9250   9.0762985531e+01   2.2665206855e+01     0.405011    0.2407187 -69.26  0.002758713    1.917    0.478
        29 -14.4545     26.4400    248.1609   9.2426567269e+01   2.1026671590e+01    0.6305308    0.2755819  36.24  0.003893391    1.971    0.493
        30 -14.8322     19.7893    213.4304   9.2049604172e+01   2.7959449327e+01      1.37204    0.4191705  86.04  0.005600453    4.076    0.755
        31 -17.1312     11.2229    234.8180   9.4550088397e+01   2.4858710051e+01     2.170694     1.105933  88.96   0.01454625    1.777    0.437
        32 -10.7787    158.6085    240.7692   6.7854191917e+01   5.0396185501e+00    0.1266599    0.1107919 -66.53 0.0006687462    1.597    0.374
        33 -10.9510    134.4927    241.5152   7.2317901567e+01   8.3761984166e+00    0.1149364   0.09070336  36.72 0.0008101013    1.042    0.040
        34 -14.1408    117.7577    237.2494   7.4959616427e+01   1.1390135949e+01    0.4055143    0.3630419 -30.22  0.002450231    1.466    0.318
        35 -13.5957    111.5921    234.6987   7.5856324916e+01   1.2662098542e+01    0.3786436    0.2428471  38.56  0.002407959    1.281    0.219
        36 -12.7023     90.4030    238.6984   8.0236262256e+01   1.4934539467e+01    0.3865985    0.2432583 -51.19  0.002388252    2.113    0.527
        37 -10.5907     72.5028    240.4813   8.3719619222e+01   1.6972366951e+01      0.11151   0.08651979  52.75 0.0001610401    1.054    0.051
        38 -11.7824    139.6072    248.1990   7.2128944353e+01   6.7159402339e+00    0.2030405     0.190216  45.76 0.0005791865    1.228    0.186
        39 -11.3522    148.8261    239.0294   6.9410043968e+01   6.6787784622e+00     0.331426    0.1215068  29.80  0.001010525    3.194    0.687
        40 -10.9631     52.6827    237.5278   8.7182121526e+01   1.9903646511e+01    0.1782709    0.1103227 -63.79  0.001080276    1.960    0.490
        41 -10.5397    190.4337    237.4243   6.1819738227e+01   9.6522638949e-01    0.1119736   0.08712622  23.76 0.0001223453    1.020    0.020
        42 -11.8966     97.8401    235.5662   7.8549345015e+01   1.4438056131e+01    0.2947624    0.2009661 -44.51   0.00188955    2.048    0.512
        43 -12.6424    102.1904    234.4516   7.7616534371e+01   1.4019190350e+01     0.249954    0.2248193 -66.22 0.0009290284    1.374    0.272
        44 -11.3112     68.0024    225.0270   8.3374987610e+01   2.0222441698e+01    0.2666891    0.1110664  58.14 0.0007585274    2.371    0.578
        45 -10.7593     64.3592    225.3043   8.4107625021e+01   2.0635167294e+01    0.1156003   0.09367184  55.85 0.0006856606    1.087    0.080
        46 -12.8094     71.6077    234.3223   8.3416608789e+01   1.8127012971e+01    0.3292355     0.178782  44.38 0.0005036894    1.424    0.298
        47 -12.2396     74.0573    229.0531   8.2526657857e+01   1.8725871880e+01    0.3672674    0.2621551  14.50  0.002241886    2.152    0.535
        48 -10.8607     69.9818    228.2150   8.3245975876e+01   1.9399643498e+01    0.2467405   0.08215232  49.43 0.0004146502    2.425    0.588
        49 -11.1332     55.5034    228.5087   8.6053012245e+01   2.1152574846e+01    0.2127646    0.1257069  42.89  0.001354427    1.383    0.277
        50 -12.4093     62.1673    231.8177   8.5018201055e+01   1.9749134564e+01    0.4762216    0.4078547  79.20  0.003625316    1.220    0.180
        51 -11.7367     59.0017    230.0223   8.5491479853e+01   2.0456223919e+01    0.2324807    0.2137956 -39.01 0.0003459282    1.635    0.389
        52 -10.7998    214.4047    233.4862   5.7223701885e+01  -1.8568242405e+00    0.1101094   0.08466367  14.43 0.0001032429    1.020    0.019
        53 -13.1706    220.0704    230.2782   5.5819276790e+01  -2.2558476354e+00    0.2814181    0.1857205  31.23   0.00107084    1.303    0.232
        54 -12.7342    130.1572    231.1865   7.1950223800e+01   1.0540522274e+01    0.2186235    0.1282576  45.96 0.0008293983    1.435    0.303
        55 -12.1629    127.4231    227.7767   7.2072925639e+01   1.1473256089e+01     0.158105    0.1205567 -56.16  0.001050234    1.603    0.376
        56 -14.0265    109.8580    214.7599   7.4007247375e+01   1.6249847342e+01    0.4396183    0.3146278 -33.10  0.002592149    2.013    0.503
        57 -13.7156    119.7992    227.7959   7.3541278130e+01   1.2588277200e+01    0.3651798    0.2107473 -65.18  0.002087218    2.261    0.558
        58 -13.7195    113.7704    218.8709   7.3700810385e+01   1.4956331746e+01    0.3395623    0.2804345 -75.40 0.0006411733    1.412    0.292
        59 -11.8021    100.4835    227.0500   7.7208488860e+01   1.5486101761e+01    0.1604827    0.1363584  61.55 0.0004031233    1.108    0.098
        60 -13.9160    114.4626    227.0379   7.4488584827e+01   1.3487854708e+01    0.4197747    0.3182585  12.17  0.001059403    1.746    0.427
        61 -13.4362    106.0212    227.1376   7.6139067794e+01   1.4685928192e+01    0.4133773    0.2158247  41.94 0.0009650936    1.535    0.348
        62 -11.3769    194.1555    229.6890   6.0086130057e+01   1.3888101329e+00    0.1760802    0.1538664 -29.64  0.001316801    1.422    0.297
        63 -11.9698    149.9294    229.6938   6.8050611823e+01   7.8496763916e+00    0.1736858    0.1258441  37.80 0.0005506601    1.123    0.109
        64 -11.2849    178.0069    228.4651   6.2752813035e+01   3.8753508502e+00    0.1599579    0.1363884  15.48 0.0003000221    1.094    0.086
        65 -11.0774     83.8659    229.5170   8.0671014014e+01   1.7350410811e+01    0.1734222    0.0937339  40.25 0.0007172728    1.511    0.338
        66 -12.2672    231.6554    226.7945   5.3424396222e+01  -3.4024314142e+00    0.2616949    0.1718849  -3.04  0.001796968    1.396    0.284
        67 -12.2531    248.6650    226.5988   5.0755256972e+01  -5.5409490740e+00    0.1863704    0.1151495 -25.02 0.0006639097    1.589    0.371
        68 -12.2716     95.8427    225.2567   7.7935828949e+01   1.6444316842e+01    0.2260079    0.1528824  63.97 0.0008144344    1.449    0.310
        69 -11.6739     91.6072    225.7375   7.8813732068e+01   1.6950327925e+01    0.2061413    0.1438202  69.37 0.0005385356    1.446    0.308
        70 -12.8934     27.5717    224.7353   9.1130075396e+01   2.5017626930e+01    0.3102911    0.1642906  52.46  0.001632209    1.406    0.289
        71 -10.8969    222.2644    225.4190   5.4722374794e+01  -2.0044963710e+00    0.1398186   0.09160525  37.06 0.0003348423    1.490    0.329
        72 -15.3362     63.9231    156.0324   7.7102272809e+01   3.5159937583e+01    0.9214197    0.7465011  30.16   0.00536281    1.433    0.302
        73 -15.5143     74.6750    167.5265   7.5939454959e+01   3.1001476446e+01     1.665808    0.6498179 -69.06  0.004240339    2.807    0.644
        74 -14.0657     81.6249    195.4753   7.7738078022e+01   2.4029683000e+01     1.394134    0.6421631  76.60  0.004737095    4.823    0.793
        75 -16.1387     92.2535    183.2341   7.3871029916e+01   2.4973950183e+01     1.542446     1.145082  59.18  0.006233746    1.242    0.195
        76 -13.1184     58.9823    213.0954   8.4211676012e+01   2.3583635495e+01    0.5488044    0.3887215  35.37  0.002658164    1.450    0.311
        77 -12.8495     48.5764    184.2677   8.3978082407e+01   3.0753539653e+01    0.4052085    0.2677588  73.57  0.002392697    1.365    0.267
        78 -13.5298     87.6242    214.1073   7.8458026299e+01   1.9584551249e+01    0.4864272    0.4208277  62.49  0.003386261    1.076    0.071
        79 -14.0795     78.9593    212.4061   8.0064188707e+01   2.1099824100e+01     0.948214    0.2658206  34.91  0.003692325    3.350    0.701
        80 -13.5099     69.4310    207.2318   8.1548723753e+01   2.3371723156e+01    0.4373872    0.3616306  12.88    0.0016539    1.709    0.415
        81 -13.7214     77.3286    202.2820   7.9396754258e+01   2.3274330522e+01    0.5209619    0.4339828 -85.24   0.00348552    1.228    0.186
        82 -13.4376     90.1576    201.9517   7.6623974933e+01   2.1521338268e+01     0.520864    0.3015298 -47.91  0.001692806    2.204    0.546
        83 -14.8288     95.3741    194.6073   7.4628736563e+01   2.2189678002e+01     1.040066    0.4891125  48.32  0.004953863    1.904    0.475
        84 -14.5929     68.9849    186.7864   7.9595148738e+01   2.7588561017e+01    0.7504016    0.7095071  54.75  0.004111718    1.231    0.188
        85 -14.1559     65.1763    181.0874   7.9845975561e+01   2.9324840890e+01    0.7378652    0.3841147 -49.59  0.003531889    2.437    0.590
        86 -11.4262    212.3075    223.8277   5.6121889949e+01  -4.5571520493e-01    0.1954831    0.1432332   6.86 0.0009900184    1.195    0.163
        87 -12.5315    159.7135    222.2115   6.5229930798e+01   7.4753772406e+00    0.2959307    0.1757751  37.19 0.0007118587    1.398    0.284
        88 -13.6340    125.2832    221.4372   7.1732233950e+01   1.2810386755e+01    0.3623051    0.2393904  42.56 0.0007276285    1.247    0.198
        89 -11.0708     59.5487    222.5299   8.4835439772e+01   2.1742290697e+01    0.1180738   0.08833452  60.09 2.704077e-05    1.039    0.038
        90 -11.9128    237.8830    221.1049   5.1549758861e+01  -3.5978848105e+00    0.1607981    0.1335274  13.80   0.00123454    1.246    0.197
        91 -11.6477    223.1859    220.4925   5.3804374054e+01  -1.5668592239e+00    0.1810601    0.1378827 -11.80 0.0005309171    1.238    0.192
        92 -11.4079    194.7093    220.0739   5.8564607299e+01   2.5271842758e+00      0.19796    0.1500629  46.80 0.0009160261    1.533    0.348
        93 -11.7062    189.5592    220.1463   5.9484207437e+01   3.2766397563e+00    0.1943173      0.13428  18.94 0.0005219413    1.326    0.246
        94 -12.2001    173.0973    219.1014   6.2304593639e+01   5.8902262720e+00    0.2167105    0.1764218 -42.76   0.00103251    1.493    0.330
        95 -12.8598     61.8890    204.3046   8.2866363157e+01   2.4930540982e+01     1.123128    0.4659235 -83.56  0.004881972    3.204    0.688
        96 -10.9615     57.3977    219.7727   8.5050897668e+01   2.2518519909e+01    0.1387855      0.10131 -68.30 0.0005326907    1.564    0.360
        97 -13.0354    120.1516    214.8847   7.1949112200e+01   1.4681727230e+01    0.2580383    0.1767921  62.63  0.001514292    1.592    0.372
        98 -13.0376    119.3317    210.4752   7.1564692414e+01   1.5570864233e+01     0.308183    0.2226478 -13.89  0.001344608    2.252    0.556
        99 -13.1377    123.6968    206.0141   7.0094396160e+01   1.5679618935e+01    0.3579137    0.1897803 -45.44  0.001197693    2.281    0.562
       100 -11.3089    231.2546    218.4597   5.2177089979e+01  -2.4285051255e+00    0.1448228   0.09503505  38.85 0.0006501639    1.608    0.378
       101 -13.9156     77.4602    219.0568   8.0991746245e+01   2.0068172373e+01    0.5077672    0.2904152  69.79  0.002751566    1.893    0.472
       102 -12.3179    145.7419    215.6140   6.6987147689e+01   1.0625251051e+01    0.3309097    0.2531602 -32.03  0.001862435    1.578    0.366
       103 -13.4835    141.2618    210.7587   6.7196916023e+01   1.2108541874e+01    0.4593115    0.2872367 -71.25  0.001302876    2.554    0.608
       104 -11.1504    225.3220    216.4215   5.2807774610e+01  -1.3879914178e+00    0.1495614   0.09561156  38.26 0.0005248491    1.563    0.360
       105 -12.3148    155.8674    214.4325   6.4867528285e+01   9.2342640319e+00    0.2129997    0.1767204 -21.25 0.0006183579    1.388    0.280
       106 -13.6033    125.8109    213.1699   7.0598876391e+01   1.4110369574e+01    0.4056309    0.2127883  40.06   0.00128177    1.604    0.376
       107 -12.8886    247.6514    212.7537   4.8683456789e+01  -3.9608029021e+00     0.257156    0.1684951  25.03  0.001109667    1.321    0.243
       108 -12.8029     97.5104    212.3491   7.6248142859e+01   1.8497034004e+01    0.4423955    0.2549539 -86.46  0.002251095    2.465    0.594
       109 -13.3815     99.5272    208.4955   7.5398628509e+01   1.8910532594e+01    0.7337424    0.3932214  16.13  0.002697849    4.654    0.785
       110 -11.3519     27.5270    209.3220   9.0304899275e+01   2.7958925075e+01    0.4714147    0.1791861  61.26  0.002354247    2.335    0.572
       111 -12.0344     48.1639    210.4060   8.6206849308e+01   2.5425246650e+01    0.3705626    0.1481185  46.99  0.001509272    1.955    0.488
       112 -12.0376    229.5355    208.7752   5.0871521688e+01  -1.0732061436e+00    0.3215083    0.2084116 -11.32  0.002057711    1.471    0.320
       113 -10.9326     37.7805    209.5236   8.8254512079e+01   2.6799832367e+01    0.1542655   0.08322392  50.23 0.0002877689    1.465    0.317
       114 -12.4546     54.9316    206.3546   8.4498528692e+01   2.5400518346e+01    0.3026443    0.1623033 -68.84  0.001224785    1.930    0.482
       115 -11.4888    160.3333    206.6641   6.2865496369e+01   9.7366964892e+00    0.2011173    0.1552923 -62.94  0.001217899    1.745    0.427
       116 -12.3654    108.0201    206.9892   7.3456837201e+01   1.7919657590e+01    0.1855445    0.1531076  -9.81  0.001134816    1.724    0.420
       117 -10.5383     85.3101    207.6443   7.8268220730e+01   2.1121001920e+01    0.1320172   0.07931878  65.43  0.000704331    1.730    0.422
       118 -11.2869     81.9344    205.4393   7.8746535734e+01   2.2017990326e+01    0.2119791    0.1845724  27.66  0.001062685    1.369    0.270
       119 -12.8094     42.9458    205.8640   8.6947171689e+01   2.6933908795e+01    0.2500202    0.1773479  58.69 0.0006909479    1.115    0.103
       120 -11.4170     32.6859    206.3073   8.9082332436e+01   2.8000530412e+01    0.2260116     0.118377  66.47 0.0007489831    1.647    0.393
       121 -12.0836     31.1649    202.7269   8.9167906934e+01   2.8883381572e+01    0.2761444    0.1304197  63.53 0.0007908242    1.853    0.460
       122 -10.9226    205.1300    206.1449   5.4532109544e+01   2.8022574636e+00    0.1743581    0.1328526  10.83  0.000265595    1.162    0.139
       123 -12.6827    115.6025    203.2278   7.1403497071e+01   1.7444496834e+01    0.2045273    0.1609241 -80.16 0.0004662639    1.480    0.324
       124 -12.8244    145.6288    202.3975   6.5125690662e+01   1.2801694842e+01    0.3929462    0.2038394 -50.83  0.001971651    2.245    0.555
       125 -11.1557     49.1337    202.5558   8.5407444288e+01   2.6866131525e+01    0.1823552    0.1711614   2.99 0.0008518891    1.552    0.356
       126 -11.7955     36.6826    203.0506   8.8047129560e+01   2.8211251852e+01    0.2158702    0.1673138  43.96  0.001015575    1.294    0.227
       127 -11.5968     35.7098    199.0365   8.7974810162e+01   2.9135433255e+01    0.1839783    0.1357041  56.42 0.0004390114    1.122    0.109
       128 -10.8444    189.1931    202.2377   5.6727963158e+01   5.8013155467e+00    0.1488471    0.1339498  41.13 0.0002371225    1.285    0.222
       129 -11.0610    180.5006    201.8971   5.8277322641e+01   7.2331859672e+00    0.1637969    0.1201076 -33.27 0.0004298386    1.481    0.325
       130 -13.8282     26.6882    234.8751   9.1789105566e+01   2.3280286741e+01    0.5075396    0.1935831 -88.29  0.002724769    2.757    0.637
       131 -11.3349    212.1977    199.8922   5.2258016137e+01   2.5617407799e+00     0.169205    0.1567999   6.57 0.0007591765    1.266    0.210
       132 -14.3911    122.8993    197.1300   6.9045646065e+01   1.7410010312e+01    0.4583956    0.3880587  30.21  0.002881719    1.191    0.160
       133 -11.9890    225.4287    198.7287   4.9833019766e+01   7.4126637438e-01    0.2070719    0.1053176 -35.40  0.001127686    2.023    0.506
       134 -13.9497    140.0581    196.7866   6.5418366844e+01   1.4676764407e+01    0.4109881    0.3385005  50.77  0.002550669    1.163    0.140
       135 -10.9778     30.1001    197.6595   8.9064079605e+01   3.0030646021e+01    0.1568768    0.1244617  58.99 0.0005588353    1.121    0.108
       136 -12.7154    113.9912    197.0357   7.0922608910e+01   1.8846612350e+01    0.1965877    0.1694383  55.78 0.0004436625    1.047    0.045
       137 -13.2745     52.4642    188.4271   8.3481572388e+01   2.9386084506e+01    0.9112223    0.5389655 -44.56  0.003962743    2.546    0.607
       138 -12.1782    167.9580    195.6587   5.9647819587e+01   1.0241251801e+01    0.2419656     0.182935  38.12 0.0003173358    1.192    0.161
       139 -11.3964      2.5011    186.1756   9.4261235077e+01   3.5095622622e+01    0.1746404    0.1358958  75.82 0.0003397145    1.083    0.077
       140 -12.2014     19.2063    188.0452   9.0785742254e+01   3.3161419763e+01    0.5005448    0.1239288  46.92  0.002183895    2.900    0.655
       141 -12.3973      3.3127    190.3903   9.4279069161e+01   3.4143793677e+01    0.5590182    0.1823064 -71.10  0.002738596    2.762    0.638
       142 -12.1017     11.7077    180.4874   9.1983291615e+01   3.5493161070e+01    0.2511129    0.2252762 -33.39   0.00139721    1.675    0.403
       143 -12.3640     11.7487    188.4518   9.2409136065e+01   3.3789263372e+01    0.2504013    0.1840282 -56.11  0.001021429    1.773    0.436
       144 -13.5257      7.9309    187.2353   9.3159628122e+01   3.4394989234e+01    0.5847292    0.2415594 -63.53  0.003042797    2.549    0.608
       145 -13.0936    190.4674    193.7567   5.5062981840e+01   6.8338802054e+00    0.4717217    0.2853526  43.70   0.00162855    1.630    0.387
       146 -12.8074     26.3798    192.3889   8.9512553789e+01   3.1518480024e+01    0.4998083    0.1829119 -79.05  0.001684624    2.565    0.610
       147 -12.4859     23.7462    181.2018   8.9347549487e+01   3.4178413005e+01    0.5391346    0.2111424  49.61  0.002691459    2.110    0.526
       148 -12.8140     31.5393    188.0648   8.8097799817e+01   3.1885579492e+01    0.4828175    0.2375239 -84.12  0.001555595    1.903    0.475
       149 -11.9988     35.5354    188.4623   8.7247248854e+01   3.1364036576e+01     0.317632    0.1561663 -74.77 0.0005710167    1.910    0.477
       150 -11.8488    217.4895    193.5702   5.0254964816e+01   2.5947485857e+00    0.2052206    0.1820459   9.54  0.001432527    1.167    0.143
       151 -12.5515    243.5541    192.1689   4.5778009517e+01  -1.0558579537e+00    0.3471654    0.1870743  26.82   0.00121675    1.786    0.440
       152 -12.2960    248.5409    185.4663   4.3801570135e+01  -9.5166925332e-01    0.2630584    0.1877813   4.04  0.001001724    1.213    0.176
       153 -11.1741     41.1297    198.1400   8.6762228466e+01   2.8706515868e+01    0.1573898    0.1380153  71.76 0.0003098976    1.177    0.151
       154 -11.5527    152.8633    195.8251   6.2663289010e+01   1.2722157482e+01      0.17465    0.1443012  56.85  0.000516405    1.312    0.238
       155 -11.9933    245.5720    188.5073   4.4808260829e+01  -8.9941912062e-01    0.1949239    0.1477461 -16.62 6.384509e-05    1.172    0.147
       156 -13.4027    110.9318    188.6036   7.0421871935e+01   2.0957118611e+01    0.3147389    0.2404652 -59.43  0.001842922    1.432    0.302
       157 -10.6110    178.4954    190.5428   5.6752823174e+01   9.2983191174e+00    0.1285683    0.1121953  19.73 0.0001154228    1.009    0.009
       158 -13.9445    121.5306    187.1541   6.7891304561e+01   1.9513150182e+01    0.4895811    0.3339562  21.11  0.001878476    1.836    0.455
       159 -14.1857    118.8287    180.5185   6.7475573928e+01   2.1262125295e+01    0.6033341    0.3382844  61.37  0.002671705    2.294    0.564
       160 -13.4888    135.3723    186.5262   6.4811654108e+01   1.7313211930e+01    0.5110801    0.2155507 -40.54  0.001938439    3.057    0.673
       161 -12.7732     28.6523    183.0144   8.8374869509e+01   3.3278658376e+01    0.8106029    0.2758569 -52.19  0.003087935    4.580    0.782
       162 -11.9532    151.2402    182.9744   6.0886116572e+01   1.5233871975e+01    0.2402522    0.1783316  31.47 0.0002312655    1.287    0.223
       163 -11.3145    166.5810    181.5618   5.7510249332e+01   1.2805364765e+01    0.2062638    0.1643778  42.37 0.0004791073    1.202    0.168
       164 -12.0235    167.0285    178.0427   5.6788652799e+01   1.3329199868e+01    0.2053944    0.1874508 -23.25 0.0003031489    1.142    0.124
       165 -11.7402      4.4775    181.6604   9.3626576657e+01   3.5883814055e+01    0.2133145    0.1721499  -3.91 0.0007551283    2.016    0.504
       166 -12.3590    198.6744    179.8515   5.1064183075e+01   7.5575796577e+00    0.2247954    0.2026818   3.66  0.000359879    1.069    0.064
       167 -12.3993    192.5542    178.6911   5.1971638394e+01   8.7731948362e+00    0.3274537    0.2122734 -58.02  0.001174935    2.429    0.588
       168 -13.5690    106.4950    176.7078   6.9685864538e+01   2.4080592041e+01    0.4393379    0.2325164 -58.99  0.001406662    2.020    0.505
       169 -12.5071    153.6418    177.8139   5.9490378046e+01   1.5740518901e+01    0.3241836    0.1983193 -24.14 0.0009944913    2.331    0.571
       170 -11.2610     17.1432    179.0897   9.0690437607e+01   3.5288086826e+01    0.1649462    0.1414744  87.71 0.0004426434    1.205    0.170
       171 -13.0036    137.2967    176.4776   6.2742875571e+01   1.8877621416e+01    0.2669464     0.205868  85.37  0.001111085    1.714    0.417
       172 -10.9733    250.6738    176.2072   4.1761196455e+01  -1.2421102687e-01    0.1619702   0.09159551 -19.94 0.0002866334    1.598    0.374
       173 -11.0671    149.3476    176.2966   6.0124390416e+01   1.6779873361e+01    0.1372717    0.1037356   6.68 0.0004686496    1.677    0.404
       174 -11.7295     12.8582    174.5656   9.1378868992e+01   3.6680807487e+01    0.3160562    0.1464593 -55.70  0.001594047    2.622    0.619
       175 -11.1592      6.0188    176.4548   9.3024554477e+01   3.6874459961e+01    0.1850821    0.1063078  56.10 0.0006358486    1.430    0.301
       176 -11.3059      2.7551    172.3897   9.3544860324e+01   3.8039480454e+01    0.3120606    0.1251606 -87.89  0.001219484    2.128    0.530
       177 -12.9263    126.7566    173.8175   6.4620832469e+01   2.1242993765e+01    0.3753415    0.1846039 -58.27  0.001616311    2.363    0.577
       178 -14.2296    124.6410    167.6011   6.4038476042e+01   2.2870861795e+01    0.6090428    0.3498172  48.23  0.002857816    1.678    0.404
       179 -11.6887     40.6801    174.2917   8.4899486181e+01   3.3879302515e+01    0.2758583    0.2197687 -48.48  0.001724129    1.635    0.388
       180 -10.2729     61.2324    225.6071   8.4738865832e+01   2.0972113387e+01    0.1178492   0.06772549  68.13 0.0003833924    1.647    0.393
       181 -13.3422    100.9228    171.9299   7.0259636292e+01   2.5994606700e+01     0.335296    0.2008257 -55.77  0.001413925    1.751    0.429
       182 -12.4146     34.1563    171.8550   8.6228406775e+01   3.5155431389e+01    0.4298424    0.2680905  25.41  0.002402233    1.968    0.492
       183 -11.0391     27.1249    172.7336   8.7957840795e+01   3.5702849375e+01    0.1863552    0.1431927 -85.28 0.0003834963    1.175    0.149
       184 -11.9746    244.0312    172.0054   4.1967994642e+01   1.3861613416e+00    0.1820279    0.1493606  -5.60            0    1.042    0.040
       185 -10.8559    221.5241    180.4791   4.7190886878e+01   3.7357088537e+00    0.1253908    0.1040212   2.51 0.0001263885    1.011    0.010
       186 -13.2497    152.4036    167.1830   5.7811943721e+01   1.7925142016e+01    0.5029804    0.2167412 -44.38  0.001782901    2.451    0.592
       187 -13.5290    103.8568    167.7369   6.8914721322e+01   2.6411647297e+01    0.5288348    0.2503205  60.47  0.001944829    3.113    0.679
       188 -12.2725     46.9094    163.5037   8.2323908405e+01   3.5602815770e+01    0.3032144    0.2838258  81.29  0.001613626    1.198    0.165
       189 -13.6220     41.9954    159.6388   8.3146931375e+01   3.7080093261e+01    0.6858299     0.241036  35.73  0.002936826    2.656    0.624
       190 -12.2284     33.0138    162.0260   8.5633025101e+01   3.7523744567e+01    0.1910499    0.1553053  81.82 0.0003548809    1.023    0.023
       191 -12.4835     40.7183    167.2817   8.4234128931e+01   3.5460339257e+01    0.4103756     0.196372 -89.89  0.001898255    2.223    0.550
       192 -11.7695     37.2737    163.2147   8.4688592988e+01   3.6783912666e+01    0.2801188    0.1480855  57.87    0.0011789    1.764    0.433
       193 -11.8382     24.2802    169.1364   8.8352302190e+01   3.6800641042e+01    0.1960795    0.1666087  33.12  0.001325126    1.432    0.301
       194 -13.5082     55.7564    176.8982   8.1598045550e+01   3.1474901042e+01    0.5228255    0.4092081 -52.29  0.003189284    1.559    0.359
       195 -11.7286     10.8189    166.8386   9.1373489538e+01   3.8584803634e+01    0.2172333    0.2063347  88.97  0.001087108    1.336    0.252
       196 -12.6661    110.7885    164.3307   6.6709513848e+01   2.5972580300e+01    0.2466772    0.2357731  80.78 0.0003088277    1.054    0.051
       197 -11.2705    205.8918    164.1764   4.6729951749e+01   8.7128364760e+00    0.1858288    0.1759685   5.65 0.0005137997    1.156    0.135
       198 -14.2406     87.7627    163.6741   7.2179961039e+01   2.9899935840e+01    0.7168223    0.2792262 -51.49  0.002824976    2.752    0.637
       199 -13.5824     91.9989    161.4990   7.0802127795e+01   2.9717219892e+01    0.3781982    0.2963202  61.99   0.00209941    1.221    0.181
       200 -11.7503     14.2128    156.4012   8.9843413884e+01   4.0669808455e+01    0.2299273    0.1424237 -74.59  0.000683672    1.423    0.297
       201 -13.5063      8.9339    146.7822   9.0477142579e+01   4.3368903024e+01    0.4984064    0.3673321 -16.94  0.003013823    2.138    0.532
       202 -14.2207     31.7413    139.1876   8.3635291924e+01   4.3094692642e+01    0.7649205    0.4055394   8.16   0.00322434    3.554    0.719
       203 -15.1744     34.3386    130.6716   8.1871522460e+01   4.4915676626e+01     1.341926    0.5691369  60.62  0.002856498    2.938    0.660
       204 -13.0294     26.3802    134.2520   8.4589608621e+01   4.4837702244e+01    0.3758191    0.2310735 -84.90  0.001161992    1.421    0.296
       205 -13.9811     21.3267    125.6207   8.5090860264e+01   4.7432979125e+01    0.8175023    0.3550325 -77.22  0.003734694    1.992    0.498
       206 -14.1020     14.4719    124.6973   8.7022003353e+01   4.8245655874e+01     0.932382    0.4141371  16.53  0.004211181    3.158    0.683
       207 -15.0561     37.7535    149.7218   8.3178851658e+01   3.9905435989e+01     0.752775    0.6824167  22.31  0.004890493    1.414    0.293
       208 -14.7577     18.8405    150.6164   8.8215662959e+01   4.1606168498e+01    0.8948283    0.7051656  76.00  0.005433924    1.053    0.050
       209 -14.7987     13.3928    137.0218   8.8500098142e+01   4.5330699484e+01    0.9342735    0.5352339 -80.45  0.005174262    1.444    0.307
       210 -13.8760      4.7172    131.8154   9.0469730947e+01   4.7263044874e+01    0.5865725    0.4723662 -63.47  0.003689206    1.314    0.239
       211 -13.2783     21.3011    160.6619   8.8413328871e+01   3.9028756851e+01    0.4533962    0.2719386  81.62  0.001364853    1.449    0.310
       212 -11.9073     16.9222    160.6027   8.9484127165e+01   3.9454249506e+01    0.2819402    0.1594079  55.30  0.001045481    1.559    0.359
       213 -13.2947     26.1123    154.6612   8.6699797371e+01   3.9956641346e+01    0.5058737    0.2283698  83.16  0.002065997    2.354    0.575
       214 -13.1600     27.5116    149.8929   8.5894552225e+01   4.0945023931e+01    0.4108699    0.2165974  49.63  0.001990604    1.770    0.435
       215 -12.1645      4.1546    163.1371   9.2722051647e+01   3.9983991633e+01    0.3795614    0.1458533  56.30  0.001866897    2.247    0.555
       216 -11.5338      6.9875    160.3097   9.1877627267e+01   4.0391764570e+01    0.2388361    0.1627796 -63.44 0.0005806325    1.559    0.359
       217 -11.4898    242.8517    162.3607   4.0265232227e+01   2.8311135860e+00    0.1947766    0.1469697 -29.49 0.0003571879    1.271    0.213
       218 -12.7595    169.9019    159.8331   5.2719462747e+01   1.6015864761e+01    0.3118063    0.2012165 -46.39  0.001539129    1.646    0.393
       219 -13.6689     81.6431    157.3400   7.2751690104e+01   3.2284342570e+01    0.5047661    0.2492984 -59.77  0.002044339    1.990    0.497
       220 -12.0327    158.9969    160.2932   5.5077466356e+01   1.7989991824e+01    0.1956373    0.1701165  36.30 0.0002611833    1.102    0.092
       221 -13.2659    100.2416    184.5655   7.2239644513e+01   2.3463062468e+01    0.3244503    0.3145199  -8.13  0.001377804    1.266    0.210
       222 -10.6077    196.2866    159.6809   4.7559838203e+01   1.1139191424e+01    0.1242978    0.1086812 -73.61 0.0005117065    1.593    0.372
       223 -11.2320    105.0203    158.4909   6.7106278452e+01   2.8229690210e+01    0.2158204    0.1314767  42.76 0.0005356189    1.566    0.361
       224 -14.2200     36.9864    143.7935   8.2717644992e+01   4.1416995664e+01    0.7524805    0.3807101  15.12    0.0031985    3.281    0.695
       225 -11.1542    132.3242    157.3233   6.0395806061e+01   2.3591467510e+01    0.1425375    0.1132209  -3.26 0.0007047607    1.684    0.406
       226 -11.7476    117.5026    157.5327   6.3916916575e+01   2.6253556209e+01    0.1409835    0.1328641  63.36 8.975186e-05    1.005    0.005
       227 -11.1449     96.6487    157.2982   6.8970685827e+01   2.9902981113e+01    0.1489975    0.1008369  69.30 0.0007035875    1.690    0.408
       228 -10.9440    205.0019    156.2349   4.5266809489e+01   1.0111121457e+01    0.1786213    0.1596995  17.40 0.0002088851    1.085    0.079
       229 -12.4713    121.9313    156.0045   6.2579136617e+01   2.5780910803e+01    0.2112304    0.1986259  66.64 0.0002892843    1.023    0.022
       230 -12.0105    112.2504    156.4065   6.4978100260e+01   2.7430811185e+01    0.2062583      0.12447  50.66 0.0009474676    1.642    0.391
       231 -12.1097      2.0828    153.5926   9.2663597583e+01   4.2324216555e+01    0.4259776    0.1558649  88.64  0.001915503    2.471    0.595
       232 -11.8724    141.6895    154.5101   5.7709025793e+01   2.2403017653e+01    0.2992956    0.1773136 -61.98  0.001284515    2.169    0.539
       233 -14.6240     59.5008    167.9933   7.9715864259e+01   3.2988807692e+01     1.445002    0.6948754  88.84  0.005984513    2.774    0.640
       234 -14.0971     49.1439    151.7328   8.0403972177e+01   3.8096302328e+01     0.539041    0.3238359  37.62  0.001057806    1.689    0.408
       235 -11.7387    232.2510    151.9291   3.9792577051e+01   5.9919970743e+00    0.1955187    0.1695234  12.03 0.0003730085    1.124    0.111
       236 -10.7666    249.5191    151.5193   3.7087773425e+01   3.2303199322e+00    0.1265963    0.1013025  -9.40 0.0003587796    1.041    0.039
       237 -12.6449    170.5168    150.0381   5.0563791861e+01   1.7681736544e+01     0.326192    0.2469876  85.18  0.001555677    2.062    0.515
       238 -12.7850    130.4685    150.7823   5.9551547777e+01   2.5302677526e+01    0.3248009     0.219934  29.45 0.0009463853    1.675    0.403
       239 -12.9432     80.1068    147.2379   7.1552067998e+01   3.4874542450e+01    0.3186658    0.2211621 -42.84 0.0005694995    1.729    0.422
       240 -12.5081     88.2509    152.7333   7.0336137930e+01   3.2310150348e+01    0.2438159    0.1984598 -68.33 0.0008488648    1.207    0.171
       241 -12.4090    147.5631    149.3340   5.5334506738e+01   2.2310769421e+01    0.3128932    0.2565618 -58.52 0.0007292849    1.320    0.242
       242 -12.9901    108.5817    148.6528   6.4455473510e+01   2.9795004730e+01    0.3871919    0.2711498 -58.83  0.001015117    1.447    0.309
       243 -13.0102     97.2003    147.7156   6.7171649000e+01   3.1988148111e+01    0.2727974    0.2648769 -25.87 0.0009763433    1.205    0.170
       244 -14.0459     84.7053    148.1380   7.0490684347e+01   3.3942940396e+01    0.5964441    0.3048022 -59.88  0.001880016    1.911    0.477
       245 -11.2365    223.4329    147.2098   4.0216419941e+01   8.2034767327e+00    0.1879323    0.1127286 -41.97 0.0009449925    1.725    0.420
       246 -11.5263    180.9926    147.7582   4.7968215729e+01   1.6048832420e+01    0.1860441    0.1163441  43.40 0.0007190266    1.599    0.375
       247 -11.9723    121.1771    146.7939   6.0981433327e+01   2.7905355825e+01    0.1938902    0.1747008  -2.80 0.0004797774    1.323    0.244
       248 -13.0754      3.8524    142.5737   9.1501685695e+01   4.4760173106e+01    0.5069652    0.1979226 -65.00  0.002298174    2.239    0.553
       249 -11.4175    207.0115    146.5043   4.2848686671e+01   1.1291563315e+01    0.1998147    0.1296916  39.84  0.001020361    1.574    0.365
       250 -13.8793     55.6455    142.5090   7.7435651991e+01   3.9495941446e+01    0.5013378     0.299756 -53.98  0.002489691    1.726    0.421
       251 -13.2433    101.5523    142.3104   6.5040965444e+01   3.2478580699e+01    0.5955741    0.3461847  67.70  0.001726731    2.477    0.596
       252 -11.8555    139.9625    140.9484   5.5283295244e+01   2.5521342471e+01    0.2193892    0.2136565 -66.26 0.0004852423    1.040    0.038
       253 -12.4118     95.0064    140.1545   6.6345804675e+01   3.4113797274e+01    0.2569897    0.2022238 -57.46 0.0007975694    1.261    0.207
       254 -12.2961    223.0927    139.6864   3.8649708706e+01   9.3983959315e+00     0.240626    0.1897047 -26.31 0.0003120979    1.138    0.122
       255 -10.9991    189.7777    140.2060   4.4607941527e+01   1.5649863320e+01    0.2222225    0.1542561 -75.81  0.000936918    2.698    0.629
       256 -11.3834    230.1691    139.2325   3.7425272333e+01   8.1974096504e+00     0.187953    0.1581762  -5.16 0.0003884027    1.085    0.079
       257 -12.4834    179.6372    135.3553   4.5471439538e+01   1.8548322847e+01    0.2988781    0.2399138   4.09 0.0001553457    1.421    0.296
       258 -13.5117    103.8233    132.5950   6.2493520979e+01   3.4316813259e+01    0.5740913    0.3402904 -38.41  0.002058584    2.070    0.517
       259 -14.4342     62.9350    134.2086   7.4125537488e+01   4.0541906989e+01    0.5876861    0.3531731  37.31  0.002210757    1.735    0.424
       260 -12.6395    118.0175    134.8318   5.9285168096e+01   3.1146926560e+01    0.3162213     0.242126  39.95 0.0007924117    1.333    0.250
       261 -13.4714     45.2829    134.7896   7.9258987424e+01   4.2672960189e+01    0.5043386    0.1876201  44.17  0.002059039    2.609    0.617
       262 -12.1982    127.0126    132.2931   5.6475188910e+01   2.9949571448e+01    0.3377735    0.2362206  73.53 0.0008922382    1.920    0.479
       263 -14.2339     83.1994    128.6067   6.7343329005e+01   3.8839110195e+01    0.6113542    0.3949595 -55.34  0.002924905    1.490    0.329
       264 -11.6465    236.8981    130.9441   3.4587550067e+01   8.2189600083e+00    0.1938774    0.1654261 -18.17 0.0003304099    1.014    0.014
       265 -11.4842    201.7201    131.0049   4.0322880685e+01   1.4849867392e+01    0.1988756    0.1693972 -26.06 0.0003526874    1.089    0.082
       266 -12.7829    206.6176    129.2697   3.9064826730e+01   1.4167104128e+01    0.2692943    0.2297264 -35.69 0.0005113218    1.139    0.122
       267 -13.4031     47.5037    129.5111   7.7854915105e+01   4.3712220643e+01    0.4255398    0.2197458  46.65  0.001985775    1.953    0.488
       268 -11.8412    121.8776    128.3494   5.6867266048e+01   3.1840161476e+01    0.2606914    0.2026074 -63.43 0.0006221571    1.344    0.256
       269 -10.7582    224.9461    128.5253   3.5874104788e+01   1.0758586072e+01    0.1765406     0.133371  44.19 0.0003074631    1.455    0.313
       270 -10.6457    130.4992    128.4715   5.4744299476e+01   3.0081256853e+01    0.1480636    0.1461476 -84.32 6.358758e-05    1.016    0.015
       271 -14.2144     59.4485    125.0245   7.3589291708e+01   4.3288973038e+01    0.6231413    0.3959453  74.92  0.002392232    1.855    0.461
       272 -11.0861    162.4285    127.5100   4.7175192399e+01   2.3610420547e+01    0.1474083    0.1418133 -17.39 6.585024e-05    1.026    0.025
       273 -14.3681     44.9438    120.1394   7.7172005513e+01   4.6355699162e+01    0.7687079    0.5668834  -7.17  0.002797309    2.049    0.512
       274 -11.8647     36.0374    119.7655   7.9868279805e+01   4.7451065558e+01    0.2625182    0.2140008  67.03  0.000557099    1.204    0.169
       275 -13.2363    104.0620    121.5206   5.9999236087e+01   3.6849464298e+01    0.4680274    0.3269224  40.41  0.001642808    1.488    0.328
       276 -12.8388     99.1851    118.3376   6.0617836107e+01   3.8505902099e+01    0.3029922    0.2379696 -87.09 0.0005855229    1.445    0.308
       277 -11.4719    188.9943    121.5477   4.0403925634e+01   1.9084606099e+01    0.2176729    0.1863558 -31.60  7.46332e-05    1.104    0.094
       278 -13.5358      3.9258    120.0555   8.9712085289e+01   5.0171922138e+01    0.4183221    0.3464511 -80.58  0.002813834    1.102    0.093
       279 -13.5906     10.1276    117.1033   8.7549492762e+01   5.0454518433e+01    0.5533743    0.1867344  43.93   0.00238401    2.919    0.657
       280 -11.9869    198.4528    121.1660   3.8586885063e+01   1.7174900731e+01    0.3368738    0.1877598  66.48  0.001312524    2.888    0.654
       281 -10.2684    224.3114    120.3064   3.4093147852e+01   1.2141222336e+01    0.1379784    0.1003471   4.65 0.0003309965    1.618    0.382
       282 -12.5573     78.9537    119.9874   6.6820017890e+01   4.1623819911e+01    0.3053929    0.1912894  86.85   0.00126298    2.259    0.557
       283 -12.9777     73.1660    120.0115   6.8544740347e+01   4.2533436732e+01    0.2560981    0.2112325  44.68   0.00108297    1.272    0.214
       284 -13.0289      8.5075     97.3630   8.5806509601e+01   5.5459343444e+01    0.6080186     0.242956  78.12  0.002233164    3.643    0.725
       285 -12.3721      2.0366    106.4189   8.9011102205e+01   5.3638664903e+01    0.2625212    0.1852714  66.35  0.001608843    1.379    0.275
       286 -12.4317      4.7760    102.7311   8.7719943557e+01   5.4375419294e+01    0.3296697    0.1888707   7.18  0.001410294    2.445    0.591
       287 -11.3798     14.7461    102.9766   8.4400205895e+01   5.3613062965e+01    0.2587883    0.1837479 -38.66   0.00083588    1.655    0.396
       288 -12.7656     15.5267    108.8304   8.4896506260e+01   5.2092852636e+01    0.3583048    0.2645049  62.38  0.001426712    1.367    0.269
       289 -13.9632      9.9250    106.7545   8.6476160789e+01   5.3030390748e+01    0.6215235    0.2865029 -77.81   0.00233979    1.798    0.444
       290 -12.9768     22.8988    116.6040   8.3526717548e+01   4.9531899854e+01    0.4873005    0.3910092 -30.38  0.001812099    1.605    0.377
       291 -12.7499     19.5277    113.2326   8.4162052949e+01   5.0667339845e+01    0.3220697    0.3014623 -14.91  0.001073904    1.373    0.272
       292 -12.7344    124.4493    114.4828   5.2874289670e+01   3.4394242026e+01    0.2763175    0.2620642 -72.11  0.001481312    1.039    0.037
       293 -12.0836     82.9271    113.8857   6.4313090075e+01   4.2452568837e+01    0.4352053    0.1910787 -68.67  0.001214741    3.311    0.698
       294 -11.5558    105.0231    114.2712   5.8018622080e+01   3.8353588214e+01    0.2122685    0.1962774  56.17 0.0004636575    1.103    0.093
       295 -12.4117     57.5053    112.5952   7.1894129084e+01   4.6650776104e+01    0.3254595    0.1798362 -54.14  0.001488408    1.681    0.405
       296 -12.3742     52.9342    110.1934   7.2891175613e+01   4.7858726828e+01    0.4226674     0.287066 -88.08  0.002095041    1.582    0.368
       297 -13.4206     63.8294    113.8964   7.0161971963e+01   4.5441291846e+01     0.344644    0.3064872  37.36  0.001051981    1.256    0.204
       298 -12.6878     61.5933    110.2331   7.0120006303e+01   4.6672151364e+01    0.3923825      0.22794 -45.82   0.00160918    1.823    0.451
       299 -11.4225    171.5636    113.0561   4.1683237263e+01   2.4406069511e+01    0.2319718    0.1426689 -38.82  0.001015175    1.563    0.360
       300 -13.0527     67.9292    122.2306   7.0546077479e+01   4.2777480834e+01    0.2670767    0.2105211 -53.82   0.00142842    1.265    0.209
       301 -11.7664    109.6571    111.5940   5.6073959556e+01   3.8063274237e+01    0.3098146    0.2295551 -40.21  0.001466026    1.409    0.290
       302 -12.0113     89.8068    110.8300   6.1554858920e+01   4.1994806613e+01    0.2231172    0.2057139 -29.10 0.0004741095    1.224    0.183
       303 -12.3313    219.4709    109.6044   3.2313118033e+01   1.4761850539e+01    0.3062913    0.2291459  37.82 0.0001598868    1.476    0.322
       304 -11.4661    210.1518    107.8687   3.3359932958e+01   1.6953946488e+01    0.2235007    0.1840332 -56.12  0.001010372    1.342    0.255
       305 -12.4556    120.9768    107.0058   5.1839422043e+01   3.6775508502e+01    0.2984874    0.2727194  82.90 0.0004995928    1.146    0.127
       306 -10.7520    140.3465    107.6848   4.7158148647e+01   3.2429110974e+01    0.1602415    0.1226895 -85.20 0.0007047688    1.719    0.418
       307 -10.6558    153.6732    106.3394   4.3724235380e+01   2.9717363762e+01    0.1602734    0.1214506 -77.21 0.0007051557    1.731    0.422
       308 -10.2673    116.2905    104.3267   5.2372593229e+01   3.8354759651e+01    0.1530148    0.1235881 -10.87 0.0007015837    1.617    0.382
       309 -10.9421     64.4553    104.2280   6.7906760483e+01   4.7748441610e+01    0.1948093    0.1313976 -73.10  0.000392984    1.502    0.334
       310 -11.3096    230.0124    103.0495   2.9183258442e+01   1.3661164390e+01    0.2035584    0.1769342 -26.07 0.0003047102    1.013    0.013
       311 -12.1466     78.9308    101.3894   6.2579969979e+01   4.6154628655e+01     0.324076    0.2321376  69.96 0.0008101968    1.711    0.416
       312 -10.8164     55.6049    100.7813   7.0076950412e+01   4.9855300143e+01    0.3588942    0.2001268 -19.27  0.001156915    4.628    0.784
       313 -12.1787     58.9154     96.7579   6.8044847897e+01   5.0394292089e+01    0.3398334    0.2306223 -40.78  0.001660401    1.596    0.374
       314 -12.1058    208.2459     99.6379   3.1610541400e+01   1.8694851246e+01    0.2541456    0.2226184 -18.48 0.0002498545    1.110    0.099
       315 -11.8096     31.7636     98.8985   7.7908315471e+01   5.3133544666e+01    0.3696631      0.22157 -43.16  0.001837449    1.827    0.453
       316 -12.3532     24.0278     97.7558   8.0426139008e+01   5.4150848790e+01    0.5483052    0.1877497  43.16   0.00217908    3.173    0.685
       317 -12.4130    161.9037     99.1415   3.9985332917e+01   2.9238465960e+01    0.2450807    0.2105486 -67.59  0.001231867    1.272    0.214
       318 -10.8844    105.4908     99.4636   5.4051543797e+01   4.1670340397e+01    0.1529867    0.1463943 -62.36 0.0001208088    1.012    0.012
       319 -12.2266     94.2464     99.4006   5.7333573349e+01   4.3884502555e+01    0.2677957    0.1948041  53.97  0.001048687    1.475    0.322
       320 -11.5906    178.8353     98.1308   3.6327557555e+01   2.5515458050e+01    0.2275216    0.1996251 -57.18 0.0003848918    1.178    0.151
       321 -11.9731     75.0786     97.6630   6.2877885174e+01   4.7697129478e+01    0.1944674     0.192494  68.67 0.0004112567    1.106    0.096
       322 -11.0115    188.5398     97.5534   3.4389524140e+01   2.3402452151e+01    0.1485652     0.138968 -35.90 0.0001089808    1.009    0.009
       323 -11.7876     81.9648     96.9831   6.0489039476e+01   4.6691498571e+01    0.2322723    0.1834453 -17.20 0.0007953258    1.668    0.400
       324 -11.9882     98.5197     93.4921   5.4420424528e+01   4.4422781815e+01    0.4759532    0.1872814 -55.86  0.001541025    2.929    0.659
       325 -11.6571     68.4994     95.3172   6.4454258839e+01   4.9321786158e+01       0.2441    0.1366828  36.10  0.001067572    1.957    0.489
       326 -10.9431    244.9929     91.2804   2.4411769863e+01   1.2455794593e+01    0.1732709    0.1552895 -29.46 0.0002770104    1.069    0.064
       327 -12.0678    170.7044     90.8690   3.5893981451e+01   2.8721683849e+01    0.3162867    0.1381455 -30.23  0.001087115    2.558    0.609
       328 -12.8065    230.4985     89.5154   2.5840408687e+01   1.5586826770e+01    0.2716271    0.2508325  49.37 0.0005146809    1.242    0.195
       329 -12.3380     24.3778     89.9314   7.8954543476e+01   5.6074695099e+01    0.3630647    0.2755021 -72.91  0.001138262    1.115    0.103
       330 -10.8736    220.4573     89.5614   2.7230063849e+01   1.7672759502e+01     0.141166    0.1248394 -34.78 0.0001037472    1.011    0.011
       331 -11.7114      4.2214     88.0210   8.6119109801e+01   5.8041356227e+01    0.2836382    0.1732127 -50.92  0.001546958    1.554    0.357
       332 -12.6783    149.3718     86.6572   3.9126269237e+01   3.4580493448e+01    0.5196176    0.2147684 -33.05  0.001727005    2.679    0.627
       333 -10.5780    138.5297     88.4301   4.2153602423e+01   3.6791272838e+01    0.1547023    0.1499345 -59.29 0.0001003122    1.012    0.012
       334 -12.3930     54.2274     85.7832   6.7012345161e+01   5.3737235404e+01    0.4677936    0.3768768 -48.70  0.002581138    1.169    0.145
       335 -11.9355     11.4013     87.3607   8.3355359400e+01   5.7741088873e+01    0.2877787    0.2038332  45.00  0.001706553    1.592    0.372
       336 -12.3433    178.5461     86.8600   3.3280696397e+01   2.7582126308e+01    0.2573908    0.2525684  84.63 0.0002528304    1.071    0.066
       337 -11.0590    124.6393     86.2361   4.4953992195e+01   4.0439092769e+01    0.3954067    0.2575561  -7.83  0.001418739    2.882    0.653
       338 -11.7931     51.6590     79.0848   6.6197476334e+01   5.5704784349e+01    0.2466049    0.2175976  82.61 0.0005851169    1.239    0.193
       339 -13.1276     64.3368     82.3401   6.2435839595e+01   5.3089810868e+01    0.4246792    0.3211856  70.58  0.002127004    1.641    0.391
       340 -11.7851    162.2398     86.4316   3.6317368678e+01   3.1546499595e+01    0.2133651    0.1517812  70.41 0.0009065372    1.658    0.397
       341 -10.7694     35.2061     86.1909   7.4165516873e+01   5.5949476658e+01    0.1779739    0.1469271  81.27 0.0004320792    1.278    0.217
       342 -12.2576    171.0528     83.5126   3.3731154799e+01   2.9958188366e+01    0.2384327    0.1989549 -37.98 0.0004315283    1.139    0.122
       343 -10.8520    110.2251     83.4326   4.8004289042e+01   4.4226011971e+01    0.2046123    0.1500974  60.35  0.000363097    1.519    0.342
       344 -11.6957     77.4003     81.5311   5.7645587943e+01   5.1120940298e+01    0.3031062    0.2087647  62.53 0.0009067554    1.835    0.455
       345 -12.1916    182.2002     80.9345   3.0953983774e+01   2.7732838647e+01    0.2346502    0.1939817 -57.36 0.0005548082    1.237    0.192
       346 -11.3183    206.5223     80.5175   2.6913064157e+01   2.2131593176e+01    0.1453485    0.1324072 -33.61 0.0008098345    1.029    0.028
       347 -11.5609    153.4794     79.9122   3.6207066179e+01   3.4862827495e+01    0.2339005    0.1495101 -36.87 0.0004448179    1.513    0.339
       348 -11.5247     88.3711     79.2960   5.3324279097e+01   4.9608421304e+01    0.2857278    0.2552371 -76.63  0.001007076    1.191    0.160
       349 -12.5133     29.5002     79.8904   7.4986319252e+01   5.8083548296e+01     0.269022    0.1991579  21.82  0.001175162    1.617    0.382
       350 -12.1382     22.9977     79.8337   7.7542752822e+01   5.8696832624e+01    0.2494048    0.1700897 -66.55  0.001079208    1.223    0.182
       351 -13.3587    214.9893     75.9224   2.4493942096e+01   2.0935803976e+01    0.4400702    0.2900638 -22.53  0.001557682    1.548    0.354
       352 -12.4291    187.8774     78.2268   2.9219469798e+01   2.6832029613e+01    0.2542842     0.231371 -37.04 0.0005490026    1.033    0.032
       353 -11.3437    115.9973     74.5051   4.3534072992e+01   4.4801575800e+01    0.3215009    0.2546826  71.45  0.001531118    1.463    0.316
       354 -10.9973      8.3215     78.3069   8.3096801413e+01   6.0176328813e+01    0.1327168   0.07815999 -46.31 0.0007033093    1.640    0.390
       355 -11.7479    112.1239     76.3340   4.5204723995e+01   4.5299332156e+01    0.3473951    0.2170201 -48.95  0.001491861    1.586    0.369
       356 -12.1248    161.4287     76.0402   3.3397090461e+01   3.3620339348e+01    0.2882524    0.2226857  84.04 0.0007671066    1.543    0.352
       357 -11.9719     75.0437     75.4999   5.6598415793e+01   5.2912348778e+01     0.286014    0.2070955 -51.77 0.0004658313    1.285    0.222
       358 -10.6422     17.4889     76.4691   7.9074464563e+01   5.9976786459e+01    0.1314693    0.1091187 -68.76 0.0002813889    1.017    0.017
       359 -11.7109    169.1704     74.3765   3.1404488557e+01   3.2008391388e+01     0.267754    0.1738179 -41.15 0.0008963935    1.454    0.312
       360 -11.3786     85.9820     75.2775   5.2817925754e+01   5.0956901398e+01    0.1997966    0.1935041  37.31 0.0004706105    1.101    0.092
       361 -12.8245     51.0497     72.5654   6.4590882366e+01   5.7335893186e+01    0.3129615    0.2182442 -71.03 0.0005795758    1.539    0.350
       362 -11.4048     11.3729     70.2931   8.0391750440e+01   6.1927768328e+01    0.3952039     0.116104 -74.29 0.0009841623    3.541    0.718
       363 -12.2737      2.0907     68.9013   8.4082849210e+01   6.2827706681e+01    0.3404314    0.1848094 -87.90 0.0009024102    1.843    0.457
       364 -10.7856     94.3166     68.6968   4.7922044353e+01   5.0706414757e+01    0.1508306    0.1195792 -82.68 0.0004814113    1.622    0.383
       365 -11.0000    105.9547     72.5108   4.5699443174e+01   4.7444192269e+01    0.2272304    0.1525152  46.10   0.00101632    1.552    0.356
       366 -11.3191     60.1099     67.2965   5.9433650767e+01   5.7232665165e+01    0.1856565    0.1814394 -49.17 0.0003822811    1.081    0.075
       367 -11.1508     47.7418     67.4128   6.4366769289e+01   5.8983991095e+01    0.1815329    0.1362616  12.13 0.0009544195    1.644    0.392
       368 -10.8508    203.4784     66.4615   2.3552706415e+01   2.4992121358e+01    0.1450147    0.1328251 -40.98 0.0001069149    1.024    0.023
       369 -12.8030      8.2703     65.3845   8.0754237320e+01   6.3314396961e+01    0.3488998    0.1330485 -45.97  0.001070487    2.402    0.584
       370 -12.0576    199.0950     65.3322   2.3861740411e+01   2.6197081006e+01    0.2014617    0.1855303 -73.61 0.0006700858    1.110    0.099
       371 -12.1522    178.5793     64.1538   2.6688260610e+01   3.1369821458e+01    0.2575197    0.2487018 -73.51 0.0002863547    1.049    0.046
       372 -12.1006    110.0696     64.0602   4.1602278874e+01   4.8207960879e+01    0.3120314    0.2261112 -39.68 0.0003818746    1.334    0.250
       373 -12.2662    107.6904     59.3291   4.0568677306e+01   4.9647739453e+01    0.3201455    0.2653623  57.67 0.0007953748    1.271    0.213
       374 -12.7637    105.8278     56.1512   3.9921575444e+01   5.0661234705e+01    0.3178069    0.2792066 -54.86 0.0004573366    1.174    0.149
       375 -11.3664     43.4133     57.2744   6.2920924303e+01   6.1860185495e+01    0.2327674    0.1166362 -53.16 0.0006681866    1.748    0.428
       376 -12.4903     41.6788     60.3594   6.4689025767e+01   6.1385007684e+01    0.2739831    0.2012147  74.84  0.001402212    1.928    0.481
       377 -11.6526     98.2781     60.5897   4.3800394551e+01   5.1500041484e+01    0.2558607    0.1800447 -19.41 0.0006730965    1.735    0.423
       378 -10.7396     63.3318     61.6779   5.6283469435e+01   5.7966399984e+01     0.142118    0.1127372  89.41 0.0007049756    1.700    0.412
       379 -11.1280      7.7553     59.5772   7.9765061608e+01   6.4730644367e+01     0.249982    0.1186871  50.44  0.001112972    2.893    0.654
       380 -11.3789    233.6786     58.9538   1.7858934529e+01   1.9269540947e+01    0.1898848     0.184977  35.65 0.0002766233    1.214    0.176
       381 -11.7318     33.8163     57.8855   6.7359439456e+01   6.2876157749e+01    0.2149134    0.1810764 -13.38 0.0006720913    1.315    0.240
       382 -12.6079     28.9490     55.3448   6.8785035027e+01   6.3976457808e+01    0.4064378    0.2047175  51.26  0.001744487    2.985    0.665
       383 -13.5924     30.7312     50.0198   6.6212168697e+01   6.4986175275e+01    0.4181924     0.330626 -66.69  0.001438608    1.299    0.230
       384 -11.7353    193.0300     57.4713   2.2500660902e+01   2.8831406835e+01    0.2156679    0.1453148  65.38 0.0008693027    1.576    0.366
       385 -11.5279    160.1649     57.4171   2.7816577957e+01   3.7073271795e+01    0.2068293    0.1474782  79.61 0.0005104128    1.612    0.380
       386 -12.1093     52.5410     55.9780   5.8578716824e+01   6.0881448917e+01    0.4083703    0.2842741 -89.34  0.001847748    2.447    0.591
       387 -10.5206     18.2863     57.3397   7.4325805142e+01   6.4498609142e+01    0.1373674   0.07936361 -41.34  0.000303842    1.636    0.389
       388 -11.4133    126.8397     54.1231   3.3680824951e+01   4.6019317180e+01    0.2437806    0.2049055 -64.92  0.001216915    1.293    0.227
       389 -11.0087    115.5888     53.7448   3.6352303966e+01   4.8814817715e+01    0.2078933    0.1382526 -45.50 0.0004087198    1.509    0.338
       390 -12.7260     37.3230     51.9560   6.3804692881e+01   6.3802182996e+01    0.2768044    0.2141889 -53.55   0.00035115    1.157    0.136
       391 -11.1861     43.5256     52.0323   6.1031890792e+01   6.2999787075e+01    0.1988455    0.1205724 -51.40 2.299789e-05    1.462    0.316
       392 -10.8158    172.7125     49.6557   2.3203850003e+01   3.5057890902e+01     0.149969    0.1159946  19.44 0.0004062061    1.649    0.394
       393 -11.6909     18.6254     48.8993   7.1744527338e+01   6.6410533463e+01    0.2043388     0.165753 -22.95 0.0006907593    1.294    0.227
       394 -10.3059    155.6634     47.2770   2.5304499015e+01   3.9787899063e+01    0.1565159    0.1120953 -68.59 0.0003228314    1.611    0.379
       395 -12.5744      2.5301     41.9314   7.8059718975e+01   6.9118442938e+01    0.3885668     0.154924 -45.22  0.001224041    2.081    0.520
       396 -13.6699     36.6091     40.0287   5.9607548581e+01   6.6429273015e+01    0.3375389    0.3105091 -22.77 0.0009481682    1.088    0.081
       397 -13.5740    135.7704     38.9305   2.6155109884e+01   4.6139202029e+01    0.3491642    0.3362474  75.58 0.0008132036    1.035    0.034
       398 -10.8417    130.9778     40.7784   2.7836723596e+01   4.7096777996e+01    0.2105934    0.1918282  56.92 0.0004419003    1.100    0.091
       399 -11.1754    118.8522     40.9730   3.0657321776e+01   5.0111411360e+01    0.2577263    0.1750918   7.97  0.001093244    2.080    0.519
       400 -11.4460    103.4917     39.5351   3.4028850411e+01   5.4038832869e+01    0.1454757    0.1411748   0.37 0.0006420782    1.009    0.009
       401 -12.1315     24.7106     38.1335   6.4878912308e+01   6.8193307982e+01    0.3480015    0.1777117 -16.68  0.001393161    3.443    0.710
       402 -11.7821     53.1966     38.1901   5.1129511436e+01   6.4399801112e+01    0.2080814    0.1696801 -18.84 0.0005017835    1.199    0.166
       403 -13.2271    230.4630     34.6109   1.2025290893e+01   2.3108377544e+01    0.2770312    0.2563162 -45.73 0.0005292724    1.118    0.105
       404 -12.5531     43.7802     33.5482   5.3302629031e+01   6.6723777091e+01    0.2759758    0.2166692 -29.19 0.0006737616    1.145    0.126
       405 -13.0473     31.9861     32.1696   5.8547234482e+01   6.8582111647e+01    0.4165632    0.2678292 -45.88  0.002310195    1.361    0.265
       406 -12.9918    106.7167     32.2473   3.0121722071e+01   5.4361859146e+01    0.3118315    0.2811195 -38.55 0.0006859666    1.123    0.110
       407 -11.8901    134.9880     29.9913   2.2972720183e+01   4.7555587320e+01    0.3972167    0.2065358 -28.00  0.001172881    1.931    0.482
       408 -13.0695     78.1995     30.8587   3.7969460481e+01   6.1014756406e+01    0.3127035    0.2676095 -58.12 0.0008936326    1.382    0.276
       409 -10.7176     65.5526     32.5017   4.3378499386e+01   6.3258069965e+01    0.1369761     0.126327 -21.81 4.880724e-05    1.055    0.052
       410 -11.1591      8.6867     31.9476   7.1431769049e+01   7.0915426272e+01    0.1714414    0.1308332 -52.00 0.0003912134    1.087    0.080
       411 -11.6886    208.0060     29.4802   1.2764004532e+01   2.8927029999e+01    0.2014169     0.133324  76.74 0.0006197884    1.574    0.365
       412 -13.3852     46.4471     26.3966   4.8561111268e+01   6.7606401489e+01    0.3929798    0.3237602  79.40  0.001763416    1.937    0.484
       413 -12.3343    159.3432     31.1422   1.9251661997e+01   4.1047867817e+01    0.2565566    0.2384489  85.05 0.0003472189    1.055    0.052
       414 -12.9228     84.1553     24.2300   3.2875362685e+01   6.0705852805e+01    0.2834675    0.2586459 -33.70 0.0003917616    1.137    0.121
       415 -12.6684     67.9100     25.1379   3.8874410066e+01   6.3978514986e+01    0.2083201    0.1884601 -55.58  0.001232732    1.318    0.241
       416 -11.7118    238.0141     22.7012   8.4499641714e+00   2.2843712817e+01    0.1748182    0.1486209 -65.26 0.0003372921    1.101    0.092
       417 -10.7997    166.0490     22.2395   1.5330520538e+01   4.0362155382e+01    0.1802015    0.1166951  69.99  0.000289759    1.512    0.339
       418 -11.6803     36.5127     20.9757   5.0632130551e+01   7.0034346945e+01    0.1820257    0.1599091  -4.00  0.000350821    1.087    0.080
       419 -12.6302    246.7163    248.1343   5.4275205480e+01  -7.3886423283e+00    0.3048497    0.1703784  33.48 0.0009570668    1.594    0.373
       420 -10.8692     31.2555     15.9815   5.0679063873e+01   7.1612707739e+01    0.1763504    0.1445854 -22.18 0.0005238194    1.034    0.032
       421 -11.5874    224.5846     15.0755   7.5198536535e+00   2.6675524659e+01    0.2158508    0.1594089 -74.09 0.0004867947    1.283    0.221
       422 -12.4917    135.1784    246.2689   7.2715703967e+01   7.6030281708e+00    0.3407982    0.1435159  35.67  0.001804114    1.930    0.482
       423 -11.1453     90.5141     11.5279   2.4873444482e+01   6.0806322108e+01    0.1365798    0.1274579  25.89 4.035273e-05    1.002    0.002
       424 -10.9989     80.5228    246.4670   8.2702091062e+01   1.4974673241e+01    0.1829472   0.08573388  39.07 0.0006223802    1.678    0.404
       425 -10.5500     34.2181    249.2356   9.1130966837e+01   2.0018392266e+01   0.07941104   0.07023562  61.44 0.0002466849    1.354    0.262
       426 -11.2460    162.1637    247.1220   6.7997883947e+01   3.7071599478e+00     0.165735    0.1245248  20.96 0.0006700906    1.219    0.179
       427  -9.9925    180.3473    244.2776   6.4473438360e+01   1.5345613477e+00    0.1129992   0.07148298  15.46 0.0003761813    1.635    0.388
       428 -10.7355    168.4213    243.4808   6.6449361982e+01   3.2961875653e+00    0.1116887    0.0879889  30.54 0.0001467415    1.032    0.031
       429 -12.8567     70.1412    248.6571   8.4741999360e+01   1.5932285346e+01    0.2018954    0.1699143  68.25 0.0005347442    1.192    0.161
       430 -12.0274    104.1300    242.0609   7.7981255455e+01   1.2540481685e+01    0.1949619    0.1287303  41.67 0.0003213829    1.191    0.160
       431 -14.2097      3.7691    208.3011   9.4927849867e+01   3.0492939805e+01    0.8297975    0.3116195 -65.51  0.004396728    2.889    0.654
