#   1 NUMBER                 Running object number                                     
#   2 MAG_AUTO               Kron-like elliptical aperture magnitude                    [mag]
#   3 X_IMAGE                Object position along x                                    [pixel]
#   4 Y_IMAGE                Object position along y                                    [pixel]
#   5 X_WORLD                Barycenter position along world x axis                     [deg]
#   6 Y_WORLD                Barycenter position along world y axis                     [deg]
#   7 A_WORLD                Profile RMS along major axis (world units)                 [deg]
#   8 B_WORLD                Profile RMS along minor axis (world units)                 [deg]
#   9 THETA_WORLD            Position angle (CCW/world-x)                               [deg]
#  10 FWHM_WORLD             FWHM assuming a gaussian core                              [deg]
#  11 ELONGATION             A_IMAGE/B_IMAGE                                           
#  12 ELLIPTICITY            1 - B_IMAGE/A_IMAGE                                       
         1 -14.7691    200.2247     59.0849   2.7594485058e+01   2.7039295948e+01      10.8983     4.730593 -42.05   0.04172608    2.212    0.548
         2 -13.7975    245.3876     18.1980   1.1819248192e+01   2.1685638592e+01     5.919148    0.2726651 -34.82   0.01644314    5.850    0.829
         3 -12.8971    215.8552     36.0078   1.9229956075e+01   2.6467429654e+01     1.164428     1.089531 -89.24  0.006980661    1.083    0.076
         4 -14.7779    246.6344     80.5411   2.6213900340e+01   1.2569433330e+01     2.436998     1.739482 -28.41   0.01268271    1.416    0.294
         5 -14.8021    234.2070    102.5765   3.3295218001e+01   1.1692728084e+01     6.865319     1.487007 -43.41  0.009175078    4.538    0.780
         6 -12.7244    177.3698     88.8833   4.0046835940e+01   2.7658060541e+01     1.794495     1.064807 -16.26  0.001077794    2.729    0.634
         7 -12.8265    222.3352     23.5110   1.5320057814e+01   2.6485315407e+01     1.503478     0.741347 -22.31  0.006405402    2.586    0.613
         8  -9.7609    169.6127     22.1987   2.1837107159e+01   4.0023234512e+01    0.5596151    0.2692756 -13.79  0.002117729    3.082    0.676
         9 -10.6768    179.7503     22.7699   2.0469941421e+01   3.7343804514e+01    0.7655647    0.4789367  74.41  0.003669616    1.547    0.353
        10 -10.4653    200.8211     17.0576   1.6093340942e+01   3.2615611992e+01    0.7292402     0.442973  89.54  0.003497787    1.712    0.416
        11 -14.3060    236.5927     35.0066   1.6579105229e+01   2.1583439126e+01     4.311781     1.790203 -23.64   0.01596939    3.334    0.700
        12  -8.6437    190.0177     15.0246   1.6862724169e+01   3.5595295287e+01    0.2621488    0.1704862 -54.89  0.000777172    1.584    0.369
        13 -10.4668    120.2316      9.3646   2.6599757301e+01   5.3620768516e+01    0.3469781    0.2943035 -26.69 0.0009981183    1.290    0.225
        14  -8.9148    182.2102      9.4279   1.6278003654e+01   3.8193015909e+01    0.2879794    0.1757682  53.23 0.0009860218    1.587    0.370
        15  -9.6400    181.8484      4.4195   1.4899654053e+01   3.8789349312e+01     0.603678    0.3795206  82.45  0.003062544    1.512    0.339
        16  -9.7834     93.1959      5.7315   3.1696935112e+01   5.9915512283e+01    0.2664983    0.1668354 -17.02  0.001455225    1.652    0.395
        17  -8.9542    205.4345      5.5546   1.2569606356e+01   3.2718120452e+01    0.2433884     0.193098  23.80 0.0007354876    1.703    0.413
        18  -9.6639    105.4203      3.5772   2.7704856419e+01   5.7513954276e+01    0.4296698    0.1330439 -18.79  0.001545604    3.872    0.742
        19  -9.2084    118.7761      3.0037   2.4512107720e+01   5.4549558953e+01    0.2558041    0.1363938  48.29 0.0008161021    1.616    0.381
        20 -14.1894    199.0660     93.7128   3.7098452429e+01   2.1433597532e+01     5.134836     1.069167  45.35   0.01116312    6.790    0.853
        21  -8.1877    171.5327      2.4839   1.5635647081e+01   4.1600678572e+01    0.1364713    0.1193683  85.20 0.0008090499    1.050    0.048
        22  -8.5807    211.6401      1.3908   1.0908601385e+01   3.1611570220e+01    0.2665465    0.1154389  82.36 0.0008562387    2.318    0.569
        23 -11.1000    239.4968    176.5149   4.8833037952e+01  -1.5359447006e+00    0.6879783    0.4660657  80.45  0.002336927    4.279    0.766
        24 -10.4732     58.1222    245.4828   9.3248894246e+01   1.7524928445e+01    0.1719256    0.1497295 -69.98  0.001022567    1.608    0.378
        25 -11.5386     47.0461    248.4309   9.5271921961e+01   1.8418391496e+01     0.405961    0.2411731  46.48  0.002789636    1.496    0.331
        26 -11.5090     40.5990    247.1491   9.6235110544e+01   1.9427156472e+01    0.3429203    0.3024895  72.98  0.002848622    1.451    0.311
        27 -11.3418    221.9770    174.9799   5.1678972987e+01   1.9163405530e+00    0.4688378    0.4232405  67.14  0.001000648    1.409    0.290
        28 -11.5350    230.1541    169.5470   4.9074560201e+01   1.2517196031e+00    0.7046501    0.4033875 -25.57  0.002756348    1.870    0.465
        29  -9.5250    143.4916    179.2836   6.8508411991e+01   1.6574689270e+01    0.2336535    0.2174512  43.95 0.0002329549    1.092    0.084
        30  -8.3821    150.5076    175.9932   6.6386266134e+01   1.5873080220e+01    0.1973102    0.1256741 -24.41 0.0008104698    2.551    0.608
        31 -10.4201    201.2747    174.1836   5.5468809282e+01   6.0567382309e+00    0.3314538     0.296264  28.96  0.001918964    1.044    0.042
        32  -9.5226    189.9254    171.6650   5.7227119386e+01   8.7760333300e+00     0.199105    0.1749978  42.93 0.0003875018    1.094    0.086
        33  -9.1614    249.6001    168.7054   4.5510343581e+01  -2.1460880562e+00    0.1777585    0.1157608 -38.75 0.0007079185    1.555    0.357
        34  -8.5784     86.9317    168.9269   7.9567697488e+01   2.8841372328e+01    0.1806691    0.1685951 -79.26  0.001113968    1.175    0.149
        35  -7.8538    142.2297    168.0002   6.6730581509e+01   1.9151265827e+01    0.1777839    0.1216021 -52.28 0.0003505709    1.538    0.350
        36  -8.2240    165.3988    167.1781   6.1463347387e+01   1.4642294407e+01    0.1945433    0.1400954 -59.48 0.0005983683    1.593    0.372
        37  -9.4102    134.3054    248.5341   8.0210394920e+01   5.7646129788e+00    0.3151618    0.1464259  62.41  0.001384014    3.058    0.673
        38 -10.1039    107.0548    242.5898   8.4475527055e+01   1.1033981788e+01     0.197203    0.1673582 -84.98 0.0005525077    1.302    0.232
        39  -9.5190    222.8511    162.6710   4.8971403287e+01   3.7716104826e+00     0.253143    0.2328417  51.67 0.0006700764    1.232    0.189
        40 -12.4761    250.0535    101.6192   3.0667554071e+01   8.4522149499e+00      1.13047    0.7113495 -37.19 0.0004482425    1.421    0.297
        41 -11.7424    190.7082    154.0292   5.3369128527e+01   1.1895906349e+01    0.7406052    0.6050495  63.46  0.003809403    1.375    0.273
        42  -8.9348    227.4865    159.4959   4.7450377470e+01   3.3963873288e+00    0.1383719    0.1284083  -2.24 -0.0001055947    1.029    0.028
        43  -8.5489    124.5341    156.9235   6.8707281733e+01   2.4994472264e+01     0.213612    0.1421275 -61.45 0.0009972305    1.565    0.361
        44 -10.7525    196.8452    159.7574   5.3358912429e+01   9.5371239032e+00    0.3846816    0.3751914 -85.06  0.001091646    1.146    0.127
        45 -10.2973    203.5896    152.4856   5.0444855012e+01   9.4596573122e+00    0.4283361    0.3226422 -68.09  0.001563325    1.822    0.451
        46  -9.1319    167.6235    153.6368   5.8180479031e+01   1.6899575098e+01    0.3075309    0.2436124  88.79 0.0009497946    1.618    0.382
        47 -11.9836      2.9522    147.1248   9.6304793982e+01   4.3441398936e+01    0.8111839    0.2600121 -75.39  0.003672572    2.375    0.579
        48 -12.3978     13.7954    142.2627   9.3387934705e+01   4.3683150126e+01    0.7558045    0.3729785  72.15  0.003922211    2.197    0.545
        49 -10.0140    173.4849    149.5408   5.6015306478e+01   1.6469997525e+01    0.2812085     0.216846   3.14 0.0009940462    1.740    0.425
        50  -9.6871    134.0000    147.9929   6.4682026438e+01   2.5118094337e+01    0.7477973     0.224803 -54.46   0.00218086    3.917    0.745
        51  -9.9452    133.6736    143.3490   6.3783877886e+01   2.6214824310e+01    0.7978929    0.2685948 -59.22  0.002034081    5.229    0.809
        52 -11.4657     67.7310    144.0512   8.0395408036e+01   3.7419683086e+01     3.151011     1.470614 -80.50   0.01191484    3.036    0.671
        53 -12.3041     48.3218    135.1669   8.3989889046e+01   4.1957210582e+01    0.9667476     0.547039 -63.76  0.002506309    1.507    0.337
        54 -12.7210     33.0755    138.1124   8.8260634006e+01   4.2896909815e+01    0.7768484    0.4373639  39.75  0.001509209    1.934    0.483
        55 -12.7079     40.9352    135.6609   8.5956213361e+01   4.2659117948e+01    0.9932874    0.7005259 -83.04  0.003291133    1.246    0.198
        56  -9.7516    200.0000    145.0495   4.9499227314e+01   1.1596515931e+01    0.4330059    0.1961102 -45.90  0.001151209    2.333    0.571
        57  -9.5006    203.5289    143.4677   4.8444279650e+01   1.1130181023e+01    0.2719174    0.2415887  86.32 0.0009836962    1.353    0.261
        58  -9.7236    200.9547    139.6894   4.8088526069e+01   1.2392242806e+01     0.392151    0.2382544 -43.70  0.001147152    1.662    0.398
        59 -10.7342    184.4589    125.7609   4.8151164760e+01   1.8781937908e+01    0.5719317    0.4074244 -25.64  0.002578118    1.608    0.378
        60 -11.9298    182.9956    140.5224   5.1952273911e+01   1.6188369795e+01    0.9988076    0.6903068 -86.99  0.003408626    2.460    0.594
        61  -9.9530    192.5958    143.9306   5.0737731283e+01   1.3414287470e+01    0.3429749    0.2369363  45.07 0.0006090197    1.429    0.300
        62  -8.1765    159.2941    143.3476   5.7787009901e+01   2.0818746520e+01    0.1537065    0.1229108  -2.32 0.0007031249    1.671    0.402
        63  -9.7963    211.1117    136.0335   4.5277589046e+01   1.0856829786e+01    0.3891727     0.214889 -33.48  0.001450798    1.846    0.458
        64  -9.5753    138.6602    135.5370   6.0866168066e+01   2.6919503279e+01    0.3521432     0.208122  57.36 0.0008952686    1.891    0.471
        65  -7.7425    198.3268    135.2551   4.7582044387e+01   1.3806759928e+01    0.1494073    0.1159083  16.31 0.0001921166    1.552    0.356
        66 -10.3711    155.1869    133.8914   5.6571833993e+01   2.3721108592e+01     0.358305    0.2921533 -44.39 0.0004004682    1.249    0.199
        67 -11.5870     66.9374    236.4960   9.1059855598e+01   1.7948553950e+01      0.57897    0.2467138  45.24  0.003162388    1.910    0.476
        68  -8.8454    173.4657    134.0772   5.2499075096e+01   1.9610251667e+01     0.229368    0.1519542 -42.39 0.0005316825    1.528    0.346
        69  -9.6577    198.0807    130.0890   4.6412481580e+01   1.4842922126e+01    0.3516509    0.2824608 -74.33 0.0009916095    1.563    0.360
        70  -9.7838    160.6406    128.2157   5.3970849155e+01   2.3712622250e+01    0.4029652    0.2860621 -51.37  0.001481914    1.449    0.310
        71  -9.4646    136.2065    128.5685   5.9864711692e+01   2.8981618903e+01    0.4395253    0.1217904 -47.30   0.00126531    3.603    0.722
        72  -9.3283    223.1450    128.9817   4.1424962129e+01   9.5253209617e+00    0.2280047    0.2094441  44.70 0.0002868442    1.140    0.123
        73  -8.3451     90.7053    128.8421   7.1669015422e+01   3.7544189676e+01    0.2064299    0.1227223 -65.07 0.0009216511    1.696    0.410
        74  -8.8171     80.9831    128.2421   7.4154898718e+01   3.9231519613e+01    0.2660728    0.1841292 -86.05 0.0007780718    1.663    0.399
        75  -8.9830    201.8488    125.8216   4.4649584709e+01   1.4800595805e+01    0.2009956    0.1774815 -75.49 0.0004388406    1.293    0.227
        76  -8.9027    179.4141    124.2139   4.8840486937e+01   2.0251099418e+01    0.2613498    0.2118412  53.48 0.0002903967    1.244    0.196
        77 -11.3042    181.5370    133.2352   5.0561792262e+01   1.7961952522e+01    0.5463045    0.4311678 -18.60  0.001129468    1.481    0.325
        78 -13.8768    232.9707     85.5523   2.9359276614e+01   1.4818240573e+01     1.191818    0.7848888 -51.47   0.00152542    1.503    0.335
        79  -8.4438    205.7014    122.0702   4.3001239272e+01   1.4629883596e+01    0.2066787    0.1873295 -36.99 0.0004548325    1.077    0.072
        80  -8.2676     91.9696    122.5167   7.0009100188e+01   3.8820118609e+01     0.201852    0.1431137  41.74 0.0003774362    1.491    0.329
        81 -11.4167    142.2320    109.6860   5.3704577579e+01   3.1807859773e+01     1.263795    0.2349076  42.32  0.002568441    7.252    0.862
        82 -10.7870    134.7749    119.6782   5.8090924673e+01   3.1258045928e+01    0.6801821    0.3811239 -62.89  0.002554617    2.338    0.572
        83 -10.9686    134.8198    111.6131   5.6055523700e+01   3.3022937257e+01    0.6377218    0.2748857 -46.74  0.001895103    2.298    0.565
        84 -11.4800    134.8847    103.9363   5.4027903746e+01   3.4672667042e+01     1.086289    0.3683226 -41.92  0.003400468    3.025    0.669
        85 -12.4488     60.2343    232.0740   9.1885463881e+01   1.9652368220e+01     1.088708    0.4772331  41.22  0.004843352    2.084    0.520
        86 -10.1634    219.3003    113.7535   3.8487816152e+01   1.3071407247e+01    0.4167707    0.3190706  75.58  0.000920936    1.614    0.380
        87 -10.1980    201.9151    116.0900   4.2262863433e+01   1.6614027257e+01    0.4490675    0.3957489  58.66  0.002343327    1.178    0.151
        88 -11.2138    205.5852    109.0253   3.9808727452e+01   1.7073460806e+01    0.7491233    0.4764056 -33.28  0.002813818    1.586    0.369
        89  -9.6766    213.7429    115.1921   3.9831643300e+01   1.4067735879e+01     0.269737    0.2335718 -72.74 0.0004583679    1.309    0.236
        90 -10.3414    125.9611    114.2990   5.9004929518e+01   3.4311311400e+01    0.2979986     0.269222 -57.44  0.001059993    1.084    0.077
        91 -11.2951    120.9850    111.9432   5.9716150363e+01   3.5861309668e+01    0.5162066    0.4470195 -84.26  0.002648096    1.255    0.203
        92  -9.8898     61.4332    114.6126   7.6923191192e+01   4.5208436179e+01    0.2244456     0.197573 -58.57 0.0003555007    1.081    0.075
        93 -11.1943    128.0271    108.5156   5.6997334738e+01   3.5158538987e+01     0.581211    0.3589057  56.62  0.002447415    1.807    0.447
        94 -11.4470    126.1770    104.2874   5.6372642742e+01   3.6476490780e+01    0.6665244    0.3497196  50.80  0.002629994    2.011    0.503
        95  -8.6679    131.4368    230.9905   7.8663326916e+01   9.0718539497e+00    0.1808361    0.1397306  49.75 0.0003395738    1.062    0.058
        96  -8.8649    215.9201    107.2291   3.7487088233e+01   1.5003799315e+01    0.2683614    0.2150039 -31.02  0.001355149    1.233    0.189
        97  -9.4298    110.1442    107.6732   6.1556314007e+01   3.8970948070e+01    0.3074444    0.2766234 -31.32  0.001088686    1.184    0.156
        98 -10.8145    143.9809     98.0207   5.0143202079e+01   3.3875833545e+01    0.4169155    0.3753796 -87.65  0.001012954    1.201    0.168
        99  -9.6533    120.1036     96.3808   5.5855764228e+01   3.9465681387e+01    0.3236834    0.2002713 -61.54  0.001329256    1.967    0.492
       100  -9.8328    138.5861     89.2116   4.9002587579e+01   3.6920758657e+01    0.4050918    0.2523466 -51.23   0.00104144    1.692    0.409
       101  -9.6493    157.8933     86.4984   4.3599125250e+01   3.2895004103e+01    0.5472477    0.2096719 -36.06  0.001069827    2.785    0.641
       102  -9.1117    143.1571     84.1390   4.6395751967e+01   3.6874830639e+01    0.3376082    0.2686331  85.65  0.001574511    1.557    0.358
       103  -9.3852    165.3699     82.6734   4.0840669755e+01   3.1790879683e+01    0.4345183    0.2309448 -48.18  0.001413688    1.990    0.498
       104  -8.3954    133.4608     85.2774   4.9161969843e+01   3.8880498285e+01    0.2160634    0.1450324 -52.77  0.000581502    1.587    0.370
       105  -9.8162    140.3975     77.7781   4.5183306093e+01   3.8755456621e+01    0.6141102    0.3446288 -22.09  0.002010164    2.622    0.619
       106 -10.6241    136.6096     69.2616   4.3506105312e+01   4.1237131749e+01    0.5801784      0.39879  84.55  0.002254956    2.243    0.554
       107  -9.5080    153.2755     76.9277   4.1863932684e+01   3.5833839600e+01    0.2804831    0.2423792 -65.50 0.0004068713    1.247    0.198
       108  -8.7344    158.4984     70.9740   3.8913918029e+01   3.5632949226e+01    0.2338791    0.1531369 -36.02 0.0008219997    1.553    0.356
       109 -11.2999    148.8805     52.6961   3.5365631014e+01   4.1106127984e+01    0.6701768    0.4516252 -83.05  0.002546348    2.239    0.553
       110  -8.7716    151.4880     70.5052   4.0342461210e+01   3.7444985920e+01    0.2490743    0.1992125 -47.83 0.0008347876    1.280    0.218
       111 -11.1882    152.8259     63.1293   3.7777831293e+01   3.8408934993e+01    0.8765601    0.3490318 -34.06  0.002314514    2.622    0.619
       112  -9.7488    169.0856     68.8651   3.6043982286e+01   3.3350519218e+01    0.3827079     0.201085 -45.59  0.001235677    1.964    0.491
       113  -8.8256    163.1328     66.7818   3.6660880295e+01   3.5209879087e+01    0.2262476    0.2026544 -77.72 0.0004379553    1.182    0.154
       114  -9.4253    101.9912     63.6187   5.1139044348e+01   4.9782556439e+01    0.2654672    0.2043093 -47.43  0.000656409    1.332    0.249
       115 -12.1365    159.4747     96.4563   4.6034713040e+01   3.0555104540e+01     1.422295    0.7283449 -38.43 0.0005886245    1.988    0.497
       116  -9.2633    186.3709     62.7655   3.0968625355e+01   2.9976276432e+01    0.4430822      0.22543 -28.37  0.001151226    2.218    0.549
       117  -9.5675    134.4903     60.4762   4.1235329466e+01   4.3296479665e+01    0.3143923    0.1476459 -36.32  0.001207209    2.152    0.535
       118 -10.3094    144.4291     59.3341   3.8490165791e+01   4.1113735347e+01     0.316262    0.2836797 -55.07 0.0005730748    1.172    0.147
       119  -8.1599     72.6151     58.2602   5.8776251050e+01   5.5965475265e+01    0.1848354    0.1155279 -36.02 0.0006475475    1.496    0.332
       120  -9.7880    178.4846     52.5396   2.9431219603e+01   3.3615880134e+01    0.3895825    0.2545058   7.37  0.001539969    2.586    0.613
       121  -9.0311    183.6895     37.3775   2.4125217565e+01   3.4466309548e+01    0.4934717    0.1469424  60.89  0.001416298    2.995    0.666
       122  -9.6598    191.0512     35.1764   2.2371573297e+01   3.2864518139e+01    0.5016614    0.3062359  34.65  0.002165857    2.215    0.549
       123  -8.9808    240.9218    228.6508   5.8189593772e+01  -8.8474306319e+00    0.1678937    0.1254552  25.34  0.000549026    1.108    0.098
       124 -10.6737    188.7665     45.7196   2.5711526867e+01   3.1985270019e+01    0.6678857    0.2203501 -39.74  0.002291005    2.863    0.651
       125 -10.4433    187.1622     42.1411   2.4946744763e+01   3.2910303626e+01    0.3891848    0.3303369  77.28  0.001097534    1.129    0.114
       126  -8.2734     77.6396     46.2394   5.2872488592e+01   5.7345681010e+01    0.1904161    0.1151562 -30.25 0.0005545591    1.619    0.382
       127 -10.4833    139.3858     44.7659   3.4894193539e+01   4.4658855146e+01    0.3141568    0.2187882 -43.07 0.0009342813    1.516    0.340
       128 -10.1065    142.4884     44.4772   3.4101249331e+01   4.3944928825e+01    0.2665334    0.2165228  61.77 0.0009399782    1.220    0.180
       129 -10.9426    133.4626     40.2193   3.4716901317e+01   4.6754034218e+01     0.535382    0.3208356 -56.46  0.002254468    2.282    0.562
       130 -10.0165    150.2631     39.7542   3.0889341644e+01   4.2700172995e+01    0.2726513    0.2213676  28.84 0.0007463068    1.340    0.254
       131  -9.9476    123.3428     38.1636   3.6432914538e+01   4.9424931044e+01     0.312672    0.1587696 -53.11  0.001163977    2.971    0.663
       132  -8.4833     87.3117     38.4492   4.6762685116e+01   5.6919313873e+01    0.1667892    0.1300862  51.90  0.000617458    1.469    0.319
       133  -9.7031     91.3874     40.8008   4.6360883164e+01   5.5784851148e+01    0.2798079    0.2102159 -24.60  0.001106898    1.292    0.226
       134  -8.1502    218.1923    228.3800   6.2119409316e+01  -5.2455258768e+00    0.1682201   0.09999163  45.83 0.0009326643    1.656    0.396
       135  -9.1230    167.1976     35.1733   2.6216551582e+01   3.9019839142e+01    0.2073197    0.1669429 -70.36 0.0004201084    1.351    0.260
       136 -10.3171    200.7469     30.5570   1.9735402087e+01   3.0987679241e+01    0.2589085    0.2467034 -21.64 0.0006112946    1.212    0.175
       137  -9.7994    197.4781     29.0424   1.9759847230e+01   3.2015228838e+01    0.4443305    0.2720769 -10.23  0.001940668    2.385    0.581
       138  -9.7480    165.1828     26.0184   2.3731751630e+01   4.0705985763e+01    0.4387609    0.3056825  83.69  0.002146973    1.549    0.354
       139  -9.7393    159.2318     22.9878   2.3790637763e+01   4.2591295991e+01    0.3308276    0.2013777 -39.08   0.00134734    1.726    0.421
       140  -8.9688    249.4268    222.2265   5.5651778204e+01  -9.3595285408e+00    0.1464891    0.1065467 -34.14 0.0008174769    1.616    0.381
       141  -9.7701    165.6696     21.1118   2.2131195114e+01   4.1162553739e+01    0.4170412     0.296435  80.16  0.001475734    1.425    0.298
       142  -9.9634    161.0496     18.9563   2.2209708665e+01   4.2590264996e+01    0.3441427    0.2788901  57.06 0.0008465904    1.139    0.122
       143  -8.7332    224.0204    218.5212   5.9432179157e+01  -4.8944757234e+00    0.1660139    0.1031355  58.39 0.0008101818    2.560    0.609
       144  -9.9556     75.0190    213.5126   8.7513670358e+01   2.1162229872e+01    0.1860059    0.1416007 -89.61  0.000451269    1.201    0.168
       145  -8.6941    191.0438    212.0537   6.4439202538e+01   1.7220147850e+00    0.1981803    0.1680499  35.23 0.0003410208    1.032    0.031
       146  -9.3909    249.6854    211.1138   5.3652525991e+01  -8.0305660372e+00    0.2760616    0.1512451  35.45  0.001535268    1.647    0.393
       147  -8.1376    145.0253     16.0144   2.4031086893e+01   4.6958253408e+01     0.157739    0.1531838  35.45  0.000362526    1.080    0.074
       148  -8.8363    109.7838     12.4055   3.0160662266e+01   5.5689901389e+01    0.1994258    0.1051091  45.95 0.0009457629    1.686    0.407
       149  -9.5802    229.5620    207.7088   5.6545193132e+01  -4.3422824303e+00    0.2296311     0.190787  48.29 0.0007043346    1.440    0.305
       150  -9.1049    206.6922    205.9185   6.0417199080e+01  -1.3189553844e-01    0.2447273    0.1714636  46.80 0.0006063935    1.413    0.292
       151 -10.6164    193.0951    195.1181   6.1088640011e+01   4.0692503139e+00    0.9364002      0.47597 -61.53  0.003167664    4.729    0.789
       152  -8.5833    225.4056    191.2634   5.4250040092e+01  -1.2529918250e+00    0.1712973    0.1222735 -42.31 0.0009437702    1.597    0.374
       153 -11.3960    210.5118    188.6622   5.6524192773e+01   1.8625502371e+00    0.6766625    0.3982236  38.52  0.003367881    1.572    0.364
       154 -11.2551    212.4841    179.4752   5.4360988809e+01   2.9836182729e+00    0.6705388     0.307403 -43.56  0.002001391    2.381    0.580
       155 -10.6409    213.8370    175.8406   5.3377687621e+01   3.3251842367e+00    0.3971463    0.3006145  83.60  0.001253424    2.275    0.560
       156 -10.5889    206.9409    179.9043   5.5506707988e+01   3.9739331238e+00    0.4698306    0.3532028 -82.31  0.002254792    2.327    0.570
       157  -9.1251    241.1747    182.9848   4.9827370684e+01  -2.7938794985e+00    0.2090429    0.1719982  30.58 0.0004792168    1.187    0.157
