#   1 NUMBER                 Running object number                                     
#   2 MAG_AUTO               Kron-like elliptical aperture magnitude                    [mag]
#   3 X_IMAGE                Object position along x                                    [pixel]
#   4 Y_IMAGE                Object position along y                                    [pixel]
#   5 X_WORLD                Barycenter position along world x axis                     [deg]
#   6 Y_WORLD                Barycenter position along world y axis                     [deg]
#   7 A_WORLD                Profile RMS along major axis (world units)                 [deg]
#   8 B_WORLD                Profile RMS along minor axis (world units)                 [deg]
#   9 THETA_WORLD            Position angle (CCW/world-x)                               [deg]
#  10 FWHM_WORLD             FWHM assuming a gaussian core                              [deg]
#  11 ELONGATION             A_IMAGE/B_IMAGE                                           
#  12 ELLIPTICITY            1 - B_IMAGE/A_IMAGE                                       
         1 -14.6453     68.4544    144.3156   1.0965379574e+02   3.7349445655e+01     4.636216     2.290774  72.52  0.007929954    3.780    0.735
         2 -12.7494    211.2810     24.5014   4.5117736150e+01   2.9344153173e+01     0.607205    0.4474367  51.80   0.00113253    1.468    0.319
         3 -14.1970    218.0470     16.8364   4.2417543446e+01   2.8580825056e+01     1.429885       1.1029  38.78  0.002717374    1.623    0.384
         4 -13.9998    194.7271     39.1722   5.1264381965e+01   3.1644000497e+01     1.721544     1.281786   1.53  0.003994369    1.795    0.443
         5 -14.1547    203.3207     32.7743   4.8303213747e+01   3.0306049763e+01     1.347174     1.305676 -60.12   0.00520225    1.096    0.087
         6 -11.8438      3.2091      3.7231   9.7364229780e+01   7.3762409659e+01    0.4917579    0.2692758 -28.33   0.00322043    1.433    0.302
         7  -9.7151     55.5029      5.5086   7.1990983284e+01   6.7486868081e+01    0.1992524    0.1164191  53.87  0.001034259    2.388    0.581
         8 -15.5893      4.0494    178.6492   1.2813182697e+02   3.6359573919e+01     6.703577    0.6121133 -72.55   0.02204291    5.562    0.820
         9 -15.4552     85.0135    246.1729   1.1790244596e+02   1.3842599128e+01     8.354187     2.589045  33.10   0.01160458    5.183    0.807
        10 -13.8708     32.2447    247.5829   1.2698266099e+02   2.0217740985e+01    0.9706655    0.6708649  41.00  0.007299189    1.578    0.366
        11 -15.9361      9.0669    241.0796   1.3037675377e+02   2.3781579616e+01     1.862155     1.377503 -71.44  0.007385111    1.676    0.403
        12 -15.6618     48.3444    199.0733   1.2077285261e+02   2.7576684375e+01     5.503144     1.887026  62.05   0.02102034    3.821    0.738
        13 -11.4455    193.1794    193.5866   8.9635490771e+01   4.9750014278e+00    0.8090096    0.4493404 -55.67  0.003515583    2.760    0.638
        14  -9.1811    141.1931    198.1369   1.0113390319e+02   1.3651259204e+01    0.1815722    0.1482378  69.79 0.0003769636    1.320    0.242
        15  -9.3187     82.0070    195.0042   1.1337160059e+02   2.3973457550e+01    0.1763475    0.1589216 -20.78 0.0006215691    1.613    0.380
        16  -8.9998    151.7233    193.3360   9.8121167195e+01   1.2657915639e+01    0.1346419     0.104866  76.77 0.0004138874    1.609    0.379
        17 -11.2052     73.6250    188.2675   1.1438881127e+02   2.6599938960e+01    0.4177027    0.2134109  67.46  0.001896688    2.320    0.569
        18  -9.1823     98.4782    186.2639   1.0866066697e+02   2.3319954420e+01     0.175002    0.1229178 -81.97 0.0005741713    1.519    0.342
        19 -12.1259     65.8719    180.3785   1.1517668103e+02   2.9378677861e+01    0.3962524    0.2859578 -40.74  0.001708317    1.944    0.486
        20 -12.0599     70.7284    174.8988   1.1341803193e+02   2.9941957558e+01    0.3178885    0.2498084 -47.89 0.0009767923    1.548    0.354
        21  -9.5979     99.6170    180.8133   1.0763024716e+02   2.4310259299e+01    0.2132214    0.1777195  38.90 0.0006433308    1.269    0.212
        22  -9.3391    205.7902    180.5884   8.4671146899e+01   4.7964700279e+00    0.1899528    0.1258538  49.88 0.0006632018    1.651    0.394
        23 -10.5044    162.4499    213.1640   9.9105678271e+01   7.2128873105e+00    0.3807795    0.2489057 -68.98  0.001903462    2.383    0.580
        24 -13.5476     67.4668    161.1500   1.1238054867e+02   3.3522690877e+01    0.5582673    0.4251741 -36.87  0.001737719    1.759    0.432
        25 -11.8645     79.7773    165.0214   1.0996328042e+02   3.0900209650e+01    0.3949401    0.2889982 -89.59 0.0003662417    1.361    0.265
        26 -12.8769     86.4425    158.6604   1.0737907608e+02   3.1368187063e+01     1.273803    0.8815116 -79.23  0.001697493    1.486    0.327
        27  -9.7451    174.4516    249.0371   1.0195378288e+02  -1.9401347753e-01    0.2274171     0.134949  49.16 0.0009669304    1.600    0.375
        28  -9.6978    145.5585    168.5084   9.5033678859e+01   1.8733144128e+01    0.1437639    0.1371063  47.39 0.0001396433    1.017    0.016
        29  -9.0723    163.6528    204.8178   9.7538010302e+01   8.4239702190e+00    0.1642051    0.1271082 -59.72 0.0004011712    1.584    0.368
        30 -13.3484     40.1709    208.4156   1.2312503832e+02   2.6623849482e+01    0.4861849     0.418308 -45.31  0.001440127    1.762    0.432
        31  -9.8705    125.6680    173.6946   1.0053130580e+02   2.1377704729e+01    0.1382345     0.113995  -2.72 0.0005111224    1.661    0.398
        32 -11.6128     53.7259    146.5655   1.1377832876e+02   3.8690268004e+01    0.3059033    0.2609777  40.31   0.00190945    1.331    0.249
        33 -10.4975    134.0000    145.9891   9.3224373602e+01   2.5847171201e+01    0.7307647    0.1882107 -51.65  0.002026925    4.216    0.763
        34 -10.5292    133.0000    140.4970   9.2285075542e+01   2.7269615426e+01     0.601033    0.1801061 -52.43  0.001764481    3.679    0.728
        35 -10.6496     38.5487    146.2929   1.1756983448e+02   4.0443365847e+01    0.2655692    0.1581534  60.15  0.001429323    1.743    0.426
        36  -9.9496    174.7701    148.6084   8.4342499492e+01   1.6844602003e+01    0.3084286    0.2052666 -51.97  0.001046272    1.660    0.397
        37 -10.4312    100.4526    143.4996   1.0118151893e+02   3.2641878665e+01    0.3153277    0.2908241 -46.71 0.0008326481    1.169    0.145
        38  -9.8816    102.9149    140.0851   9.9873982244e+01   3.3018714929e+01    0.3385895     0.255103 -14.67  0.001582173    1.985    0.496
        39 -12.3855     88.1666    142.3606   1.0416907215e+02   3.4926544342e+01    0.3871045    0.2997259  26.57 0.0009707435    1.539    0.350
        40  -8.8686     96.6007    201.1832   1.1102398990e+02   2.0509325543e+01    0.1575559    0.1181722 -57.21 0.0003710395    1.496    0.332
        41 -10.6956     34.7112    139.6069   1.1772410057e+02   4.2401663526e+01    0.2381537    0.1620087  57.21  0.001128406    1.511    0.338
        42 -11.1910     26.0896    137.8613   1.1971772072e+02   4.3616084944e+01    0.2854284    0.1465554  43.45  0.001524913    2.050    0.512
        43 -10.2193    110.5343    131.9316   9.6170760800e+01   3.3562476624e+01    0.3242224    0.2644978  15.98  0.000978374    1.524    0.344
        44 -10.1734    105.9976    130.8560   9.7145777407e+01   3.4639316029e+01    0.3322128     0.291939 -76.19  0.001104771    1.135    0.119
        45 -10.8278    160.3004    128.7848   8.2978716783e+01   2.4041195985e+01    0.3959426     0.261464 -25.29  0.001652871    1.885    0.469
        46 -11.1095    135.9270    128.8805   8.8904463156e+01   2.9265443691e+01    0.3731832    0.1945204 -56.21  0.001412829    2.167    0.539
        47 -10.1652    137.7971    170.8110   9.7234497370e+01   1.9739465570e+01    0.2011465    0.1677803  75.86 0.0007672482    1.317    0.241
        48  -9.9613    125.6770    127.2159   9.1130060650e+01   3.1734330164e+01    0.3303554    0.2281837 -87.50  0.001156907    2.197    0.545
        49 -10.2768    116.8674    126.4580   9.3265041639e+01   3.3639329074e+01    0.3187876     0.201213 -68.15  0.001325799    1.960    0.490
        50 -11.0500     98.0422    128.0266   9.8690601867e+01   3.6703703500e+01    0.3081113    0.2586868 -27.77 0.0008076837    1.402    0.287
        51 -10.5986     29.3596    128.3354   1.1770393328e+02   4.5565755020e+01    0.1963929    0.1272743 -46.35  0.001109902    1.677    0.404
        52  -9.9417    107.3738    120.0785   9.4348456581e+01   3.6909762564e+01    0.2167733    0.2042222  18.14 0.0003526379    1.170    0.145
        53 -10.4989     32.8755    118.6927   1.1539843673e+02   4.7534564618e+01    0.1895179     0.149141 -36.15 0.0006685528    1.492    0.330
        54 -10.2646    230.9890    168.2443   7.7425058391e+01   2.1411376928e+00    0.3687026    0.1560887 -48.62  0.001321465    3.597    0.722
        55 -10.0277    168.1338    113.0129   7.7193787955e+01   2.5526889091e+01    0.3700407      0.28828 -70.05  0.001260263    1.589    0.371
        56  -9.9761    134.6889    112.4695   8.5142036244e+01   3.3163747685e+01    0.2880386      0.14103 -45.09  0.001077676    2.013    0.503
        57 -10.1201    205.5057    110.2527   6.8776928537e+01   1.7388519936e+01    0.3180438    0.2418761  38.93 0.0009156754    1.392    0.281
        58 -10.3944    194.0165    167.0897   8.4273000345e+01   9.3903549685e+00    0.2967085     0.284703 -55.74 0.0008906508    1.211    0.174
        59  -9.2427     91.8820    102.8769   9.4603969999e+01   4.3665704522e+01    0.1909416    0.1679745 -88.51 -0.0006383859    1.262    0.208
        60 -12.3080    242.9140    100.8906   6.0195649793e+01   1.0761030883e+01    0.3917049    0.2614191 -25.45  0.001941194    1.478    0.324
        61 -10.3824    134.5663    102.7313   8.2568308999e+01   3.5307586508e+01    0.3563646    0.1862459 -47.00  0.001019056    1.905    0.475
        62  -9.1673    121.5457     98.5546   8.4897176056e+01   3.8999462339e+01    0.1525961    0.1487314 -42.63 7.528783e-05    1.005    0.005
        63 -11.8697      1.8874     89.2921   1.2047861704e+02   5.6572509023e+01    0.5898438    0.1311074 -72.96  0.002124127    3.758    0.734
        64 -10.5576    249.7520     87.9821   5.6160501206e+01   1.1375013211e+01    0.2028757    0.1647987 -34.74 0.0004251284    1.099    0.090
        65  -9.6684    158.4236     80.7625   7.0375593398e+01   3.4180750819e+01    0.2157033    0.1521807 -24.31 0.0006696361    1.581    0.368
        66 -10.2009    244.3324     89.3134   5.7224883977e+01   1.2309549986e+01    0.1397739    0.1078031  10.59 0.0004486927    1.680    0.405
        67  -8.9378    184.5182     77.4451   6.3953125503e+01   2.8311806830e+01    0.1529624    0.1485656  14.90 9.703706e-05    1.080    0.074
        68 -10.2203     13.5772     59.9965   1.1103854926e+02   6.2445011250e+01    0.1945222    0.1696911 -66.30 0.0004151844    1.195    0.163
        69 -10.0731     76.3180    234.0102   1.1843042440e+02   1.7162815319e+01    0.2814346    0.1400611 -73.01  0.001138464    2.179    0.541
        70 -13.6570     47.2709    220.1187   1.2266338175e+02   2.3491076643e+01     1.280119    0.7719803 -84.80  0.004948544    1.520    0.342
        71 -11.2352    169.1531    232.9040   1.0072585130e+02   2.9490036110e+00    0.1988368    0.1646035  36.22 0.0008524634    1.017    0.017
        72 -15.0334      9.3336    207.6497   1.2877129742e+02   2.9970240199e+01     1.367855     1.023183 -88.34   0.01053728    1.211    0.174
        73 -10.9579      2.3677     23.9817   1.0597883196e+02   7.0307722412e+01    0.2620176   0.08363087 -56.97  0.001252195    2.484    0.597
        74 -11.2671    143.8967     48.7862   6.3528936115e+01   4.3245030605e+01    0.5466468    0.3458988 -81.46  0.002056386    2.839    0.648
        75 -10.7813    189.5565     15.3186   4.5175562404e+01   3.5859619908e+01     0.250405    0.2111963 -89.18 0.0007431507    1.105    0.095
        76  -9.7476     71.9951    230.2409   1.1890260640e+02   1.8434066409e+01    0.2053711    0.1476223  61.18 0.0009374172    1.089    0.082
