#   1 NUMBER                 Running object number                                     
#   2 MAG_AUTO               Kron-like elliptical aperture magnitude                    [mag]
#   3 X_IMAGE                Object position along x                                    [pixel]
#   4 Y_IMAGE                Object position along y                                    [pixel]
#   5 X_WORLD                Barycenter position along world x axis                     [deg]
#   6 Y_WORLD                Barycenter position along world y axis                     [deg]
#   7 A_WORLD                Profile RMS along major axis (world units)                 [deg]
#   8 B_WORLD                Profile RMS along minor axis (world units)                 [deg]
#   9 THETA_WORLD            Position angle (CCW/world-x)                               [deg]
#  10 FWHM_WORLD             FWHM assuming a gaussian core                              [deg]
#  11 ELONGATION             A_IMAGE/B_IMAGE                                           
#  12 ELLIPTICITY            1 - B_IMAGE/A_IMAGE                                       
         1 -11.0056    167.5531      4.1763   4.6462368773e+01   4.2402182637e+01    0.5511852    0.2894063  56.10  0.002543433    1.696    0.411
         2  -9.5860    137.4937    242.4373   1.1023216451e+02   7.1079359176e+00    0.2660865    0.1843326  24.99  0.001357244    1.748    0.428
         3 -10.1290    185.7071    249.2820   1.0254640545e+02  -1.4778885910e+00    0.2437412    0.1824269   4.85  0.001640634    1.562    0.360
         4 -10.5271    187.5662    245.1474   1.0165601505e+02  -1.2526618681e+00    0.3247196    0.1594972  50.29  0.001689062    2.103    0.525
         5  -9.4963    126.3619    250.1262   1.1304452443e+02   7.6808274393e+00    0.2839026    0.1303818  35.95  0.001477157    2.117    0.528
         6 -17.7478     50.5539    240.5629   1.2513075828e+02   1.9707851835e+01     4.107217     2.552356  31.47   0.01689514    2.186    0.543
         7 -12.3890    153.8975    208.8117   1.0266039185e+02   9.7593451444e+00    0.4604173    0.4036357 -89.28  0.002597835    1.350    0.259
         8 -16.7740     38.5927    222.7791   1.2597270643e+02   2.4269958832e+01     3.683361     1.897972 -71.24   0.02219051    1.875    0.467
         9  -9.3513     17.8302    246.9954   1.3062356118e+02   2.2272968227e+01    0.2187843   0.09928858  55.81  0.001132103    1.566    0.361
        10 -10.9027    167.0459    212.5148   1.0066005204e+02   6.8402871631e+00    0.2244391    0.1876228 -77.61   0.00123025    1.587    0.370
        11 -10.8868    194.0098    206.7909   9.4545482013e+01   2.9658833570e+00    0.2154228    0.1895174 -16.12  0.001101376    1.226    0.184
        12 -11.4395    186.4558    204.3270   9.5568343050e+01   4.6872691194e+00    0.3757334    0.2605704   7.37  0.001979227    1.825    0.452
        13  -9.1704      6.9716    203.7954   1.3028668065e+02   3.1095980487e+01    0.2383296    0.1337906 -46.84   0.00122127    3.317    0.699
        14 -11.7544    152.3183    197.6682   1.0123192891e+02   1.1979872528e+01    0.5524839    0.2521801 -61.52    0.0020956    3.633    0.725
        15 -11.7232    155.1532    196.1528   1.0040748112e+02   1.1736231942e+01     0.478419    0.2592187 -42.88  0.001440438    2.120    0.528
        16  -9.5112      8.8838    215.2617   1.3054562587e+02   2.8750303111e+01    0.2795183    0.1068897 -83.58  0.001608766    2.198    0.545
        17 -11.0349      2.6082    200.5304   1.3087077341e+02   3.2115351838e+01    0.2572156    0.1480503  64.49  0.001056147    1.348    0.258
        18  -9.4616    233.5020    199.0084   8.5875467276e+01  -2.7658394406e+00    0.1849641    0.1175016 -26.97  0.001031815    1.587    0.370
        19 -10.7037    172.9613    198.0229   9.7132652933e+01   8.1545164162e+00    0.3447916    0.1780388  35.79  0.001589838    1.836    0.455
        20 -11.3984    200.5008    193.2587   9.0888703334e+01   3.8642526835e+00    0.4605215    0.2765705 -48.12   0.00227693    2.093    0.522
        21 -10.6346    144.3670    195.0058   1.0243382621e+02   1.3895976795e+01    0.2736886    0.2103274 -24.07  0.001497534    1.738    0.425
        22  -9.5331     10.5927    192.0356   1.2898906825e+02   3.3075461334e+01      0.29926    0.1290011 -60.30   0.00138563    2.517    0.603
        23 -11.7420    144.7461    240.8183   1.0873785662e+02   6.2002845588e+00    0.3975307    0.3179154  40.88  0.002760262    1.092    0.084
        24 -12.3916    207.3011    212.4300   9.3028645775e+01  -1.5780481084e-01    0.6163135    0.3662557  45.63  0.003328013    1.630    0.387
        25  -9.3875     10.9177    186.0134   1.2856044803e+02   3.4262343245e+01    0.1759956    0.1285968  51.54  0.001303461    1.391    0.281
        26 -11.0230    149.4611    237.2243   1.0743969061e+02   5.9781542927e+00    0.4750383    0.3188258  72.99  0.002720125    2.076    0.518
        27 -10.8663    109.5250    182.5041   1.0788325674e+02   2.2417834647e+01    0.3375363    0.2060798 -89.40  0.001537694    2.311    0.567
        28 -11.3130    177.9289    181.1152   9.3076720571e+01   1.0129555494e+01    0.3518616    0.2619964  53.32  0.001858589    1.406    0.289
        29 -10.3911    201.4700    180.1589   8.8190876424e+01   5.7688914398e+00    0.2873726     0.207009  14.31  0.001492485    1.511    0.338
        30  -9.5546     10.9778    176.8283   1.2795088936e+02   3.6151392297e+01    0.2060417     0.127284 -86.19 0.0009992698    1.248    0.199
        31  -9.6196    101.0114    176.0213   1.0878727176e+02   2.5177416009e+01    0.1936966    0.1734373  77.39            0    1.016    0.016
        32  -9.7037     94.4697    175.5058   1.1016453278e+02   2.6328396459e+01    0.1338864    0.1173136  77.12 -1.01947e-05    1.006    0.006
        33  -9.6283      3.9229    171.0085   1.2894624122e+02   3.7960836077e+01     0.326117    0.1139619 -79.45  0.001660758    2.255    0.556
        34  -9.2635    207.4857    242.4824   9.7784011671e+01  -4.0597012076e+00    0.1186082   0.09159674  28.36 0.0002029874    1.024    0.024
        35 -11.3062     16.4124    168.5065   1.2626279409e+02   3.7433198806e+01    0.4112175    0.1396807  50.95  0.002010556    2.735    0.634
        36 -11.6965     80.5391    162.5489   1.1145086791e+02   3.1290838206e+01    0.2904155    0.2338297  62.04  0.001114205    1.177    0.151
        37 -11.2092     18.3959    160.7781   1.2522261183e+02   3.8930743548e+01    0.3670899    0.1189823 -62.15  0.001725326    2.601    0.616
        38 -10.6007    205.3459    234.8547   9.7012520118e+01  -2.7923816463e+00    0.2535274    0.1145954  33.99  0.001280161    1.887    0.470
        39  -9.7845    141.7740    249.5088   1.1028433085e+02   5.4003171590e+00    0.1903142    0.1396183  45.75  0.001049647    1.053    0.051
        40 -13.3667     40.3454    158.3150   1.2015611127e+02   3.7332247512e+01    0.6252057    0.4624107  28.09  0.003933345    1.740    0.425
        41 -11.0774     71.9364    155.9354   1.1251033498e+02   3.4010489638e+01    0.2588306    0.1910653  10.23  0.001359649    2.139    0.533
        42  -9.1324      2.4914    226.5166   1.3208322283e+02   2.7302294438e+01    0.1047079    0.0663551  71.64 0.0008092377    1.076    0.071
        43 -11.2165    125.0903    165.8066   1.0167781708e+02   2.3211397549e+01    0.5109954    0.2815522 -46.33  0.002288025    1.961    0.490
        44 -12.0884     37.4528    150.6128   1.1996170981e+02   3.9378930216e+01    0.5210225     0.134827  43.14  0.002086845    3.579    0.721
        45  -9.5600    120.4638    150.5279   9.9899275152e+01   2.7379556303e+01    0.1439157     0.137008  82.60 0.0001219369    1.005    0.005
        46 -11.4006     80.8033    143.9978   1.0846855051e+02   3.5501773118e+01    0.4370438    0.3200948  87.46  0.002328228    1.451    0.311
        47 -11.2884     23.1879    133.6378   1.2145179567e+02   4.4610767020e+01    0.2526847    0.2268735  -7.15  0.001794655    1.566    0.361
        48 -10.5889    219.6173    221.0594   9.2263748816e+01  -3.3539853406e+00    0.3725629     0.194208  26.29  0.001914794    1.874    0.466
        49 -11.8511    116.8135    121.1889   9.4485714069e+01   3.4684246434e+01    0.6990591    0.5993584 -33.22  0.003642443    1.244    0.196
        50 -12.7630     56.6829    128.0138   1.1203319575e+02   4.2501759295e+01    0.7005267    0.4313874 -42.07  0.003553088    1.891    0.471
        51 -12.0311    244.1456    105.1269   6.3474330799e+01   9.4629836417e+00     1.068534    0.6123441 -24.96   0.00481597    1.731    0.422
        52 -12.5717    191.5346    218.0979   9.6891861380e+01   1.7390997410e+00     0.517953    0.4483033  23.65  0.003450253    1.059    0.056
        53 -10.4872    160.5939     99.7014   7.7902168365e+01   2.9826825980e+01    0.4994407    0.2976965 -39.27  0.002052311    1.649    0.394
        54 -10.4066     37.5354     97.9969   1.1221476882e+02   5.1637724244e+01     0.235865    0.2086771  20.46  0.001558155    1.397    0.284
        55 -11.0710    213.4981    218.8144   9.2982382113e+01  -2.0617367549e+00    0.3382255    0.1493456  43.44  0.001625011    2.043    0.510
        56 -10.5978    210.6779     88.5121   6.4678521959e+01   1.9768984067e+01    0.5950624    0.2394293 -43.32  0.002084915    2.472    0.595
        57  -9.8048    228.5728    110.4014   6.7279891866e+01   1.1956860758e+01    0.3262309    0.2407384   7.50  0.001560451    1.650    0.394
        58 -10.7059     84.3239     81.9325   9.3518036769e+01   4.9344168295e+01    0.4278415    0.2275266  34.98  0.001867138    2.106    0.525
        59 -10.2199    213.1933     70.2393   5.9298429357e+01   2.2152863224e+01     0.336913    0.2834863 -29.92  0.001752936    1.158    0.136
        60 -10.8119    139.3666     63.7443   7.1972671208e+01   4.1722796863e+01    0.6556174    0.4725859  70.23  0.002942544    1.727    0.421
        61 -10.2803      3.6546     64.1441   1.1698362477e+02   6.1698338756e+01    0.1570057    0.1332422 -67.19  0.001156429    1.162    0.139
        62 -10.1979     86.3085     63.1117   8.6954241107e+01   5.2935387194e+01    0.2412405    0.1688617 -27.16  0.001199216    1.428    0.300
        63 -10.9113    198.5782     47.4379   5.5153917528e+01   2.9262607427e+01    0.8881884     0.236893 -35.17  0.002786121    3.264    0.694
        64 -10.6485     81.4162     44.9147   8.1994664950e+01   5.7169609771e+01    0.2699242     0.238344 -86.67  0.001498032    1.670    0.401
        65 -10.1467     49.5067     41.0215   9.2348072713e+01   6.2630133785e+01    0.2035717    0.1087189 -42.95  0.001034611    1.596    0.373
        66 -10.1030    140.3279     38.2660   6.2947827879e+01   4.5516731867e+01    0.3540461    0.3111655  71.59  0.001892618    1.235    0.191
        67  -9.6226    172.6982     35.9570   5.5848518098e+01   3.7550875697e+01    0.2149256    0.2002911 -34.89  0.001101306    1.100    0.091
        68  -9.7364    180.7655     26.6311   5.1631700441e+01   3.6612668709e+01    0.2715375    0.1879761  -8.93  0.001207032    1.735    0.424
        69  -9.9489    142.5966     18.0762   5.5222262713e+01   4.7441463063e+01    0.2885846    0.2479977  61.98  0.001610267    1.129    0.114
        70  -9.6713    119.4235     18.2816   6.0201016481e+01   5.3070892801e+01    0.2676811    0.1372299 -16.87  0.001147201    2.148    0.534
        71  -9.7426    203.0092     18.1917   4.6199065222e+01   3.1830982031e+01    0.2466235    0.1385039  43.87  0.001093109    2.060    0.515
