#   1 NUMBER                 Running object number                                     
#   2 MAG_AUTO               Kron-like elliptical aperture magnitude                    [mag]
#   3 X_IMAGE                Object position along x                                    [pixel]
#   4 Y_IMAGE                Object position along y                                    [pixel]
#   5 X_WORLD                Barycenter position along world x axis                     [deg]
#   6 Y_WORLD                Barycenter position along world y axis                     [deg]
#   7 A_WORLD                Profile RMS along major axis (world units)                 [deg]
#   8 B_WORLD                Profile RMS along minor axis (world units)                 [deg]
#   9 THETA_WORLD            Position angle (CCW/world-x)                               [deg]
#  10 FWHM_WORLD             FWHM assuming a gaussian core                              [deg]
#  11 ELONGATION             A_IMAGE/B_IMAGE                                           
#  12 ELLIPTICITY            1 - B_IMAGE/A_IMAGE                                       
         1 -12.2507     26.5438     50.1250   8.1299188822e+01   6.5513981327e+01     1.603213    0.9235522 -76.58  0.006237755    3.820    0.738
         2 -10.8917     50.6416     15.4231   5.3767741708e+01   6.7719914203e+01    0.7335696    0.4847494 -47.01  0.003994219    2.063    0.515
         3 -10.3077     30.8599     12.7786   6.1889956351e+01   7.1404907355e+01    0.2136332    0.1702009 -28.81  0.001101979    1.350    0.259
         4 -10.8309     41.7976     18.6590   5.9446850107e+01   6.8865578576e+01    0.4470651    0.3121974  26.61  0.001874473    1.295    0.228
         5 -10.9340     40.0895     11.9158   5.6668205765e+01   7.0021041592e+01    0.6929145    0.5272681 -32.21  0.004065788    1.467    0.318
         6 -10.9642     29.8321     18.9699   6.5820035885e+01   7.0685599342e+01    0.4093593    0.1991242 -24.16  0.001237184    2.400    0.583
         7 -10.2124     34.3761     15.7163   6.1621970921e+01   7.0465822507e+01    0.4268481    0.2634375  -8.41  0.002295294    1.846    0.458
         8 -11.7835    129.6931     22.3148   3.5187532272e+01   4.9510824570e+01    0.5871359    0.3826548 -16.39  0.003061132    1.878    0.467
         9 -10.3969      9.6835     15.8782   7.6727801105e+01   7.3638481581e+01    0.3207569    0.1817349 -10.42  0.001733436    1.908    0.476
        10 -11.2578     18.6924     16.7792   7.1263799807e+01   7.2496142259e+01    0.4684569    0.3061671   5.80  0.002777186    1.487    0.328
        11 -12.1702      4.1780     16.5279   8.0920054308e+01   7.4037435238e+01    0.3891069    0.3091376  39.09  0.001453354    1.745    0.427
        12 -12.0075    159.8450     22.6788   3.0895051281e+01   4.2333176250e+01    0.4528892    0.3195401  -9.15 0.0007163162    1.922    0.480
        13 -11.1737     61.2846     13.5611   4.8655036771e+01   6.5880293769e+01    0.4496629     0.187525  53.94  0.002002584    2.269    0.559
        14 -12.4085    237.9097     17.5486   2.2761271871e+01   2.6385422890e+01    0.2662784    0.1814637 -68.50 0.0003628952    1.213    0.176
        15 -11.6803    155.4074     10.8147   2.8054236963e+01   4.4586977329e+01    0.6403699    0.2207891 -26.27  0.002666777    3.141    0.682
        16  -9.8325     83.8039     13.6056   4.1657079411e+01   6.1094532977e+01    0.2066938    0.1755351 -19.19 0.0002097639    1.290    0.225
        17 -10.6484     73.9328      6.9011   4.1377422733e+01   6.3893872387e+01    0.2211954    0.1768198   4.64 0.0006525175    1.331    0.249
        18 -11.3682     71.0658     13.0473   4.5103454552e+01   6.3917622052e+01    0.4629137    0.2772136  -8.07  0.001685314    2.030    0.507
        19 -11.4450     77.5051     10.7954   4.2146655076e+01   6.2756163153e+01    0.7199758    0.1990688  54.58  0.002761181    2.844    0.648
        20 -10.1772    225.6017     13.9565   2.2807052730e+01   2.9112554326e+01    0.2190089    0.1821088  22.32  0.001254678    1.947    0.486
        21 -12.1084    128.6217     10.9246   3.1593511971e+01   5.0903981224e+01     0.479636    0.2803785 -60.04  0.002415485    1.981    0.495
        22 -10.6294    118.1146     13.0446   3.4018056012e+01   5.3204485516e+01    0.3579609    0.2480806  12.39  0.001928034    1.903    0.475
        23 -10.4466    118.3376      7.9265   3.2183863903e+01   5.3614909196e+01     0.206708    0.1803484  54.31 0.0006113211    1.109    0.098
        24 -11.9286     65.6717     20.0665   5.0205336425e+01   6.4254475966e+01    0.5032194    0.4275483  -5.76  0.001851632    1.190    0.160
        25 -11.7931    234.5721     10.6775   2.1590529585e+01   2.7750115698e+01    0.2671819    0.1797148 -38.71 0.0008496239    1.397    0.284
        26 -11.3862    234.0262      5.7130   2.0633598702e+01   2.8368591396e+01    0.1953977    0.1730452 -48.72 0.0009047266    1.312    0.238
        27 -11.5990    237.1440      1.8530   1.9713359656e+01   2.8177798955e+01     0.250782    0.2013705 -83.78  0.001782238    1.223    0.182
        28 -10.1460    138.1951     11.0549   3.0265688574e+01   4.8617141340e+01    0.2478324    0.1556674 -51.93  0.001341103    1.660    0.398
        29 -11.3864      5.3487     10.8632   7.7134077143e+01   7.4879032774e+01    0.2207768    0.1921773  -2.51  0.000962184    1.234    0.190
        30 -11.1229      9.9241      9.2177   7.2919580647e+01   7.4669626917e+01    0.3688262    0.2130181  34.59  0.001835849    1.902    0.474
        31 -10.4933    175.9512     10.6845   2.5903046053e+01   3.9890563487e+01    0.2694429    0.1897323  54.95  0.001626048    1.570    0.363
        32 -10.6390    148.6746      1.8897   2.6221081959e+01   4.6959751261e+01    0.2250811    0.1607377  68.67 0.0004621526    1.260    0.206
        33 -11.7845    146.0211      7.2760   2.8112729072e+01   4.7113788662e+01     0.371708    0.3017236   2.21  0.001563823    1.595    0.373
        34  -9.3828    150.7057      5.6815   2.7103879535e+01   4.6157831293e+01    0.1306963    0.1091048 -80.84 0.0002573359    1.075    0.069
        35 -10.9505    241.0182      9.0288   2.0905874750e+01   2.6729577876e+01    0.1855363   0.09203119 -61.35 0.0004978965    1.655    0.396
        36 -12.4018    213.9805      6.0918   2.1887527643e+01   3.2229167447e+01    0.5538653     0.338166 -60.08  0.003421202    1.344    0.256
        37 -10.8984    209.6574      1.6945   2.1206625621e+01   3.3537337220e+01    0.2195563    0.1222488  79.61  0.001012979    1.675    0.403
        38 -10.8234    164.7351      6.3806   2.5838341057e+01   4.2847209138e+01    0.3573413    0.1726646 -23.37  0.001665076    2.412    0.585
        39 -10.3361     10.9077      3.1414   6.8555546822e+01   7.5435243184e+01    0.2822681     0.197636   8.96 0.0006472079    1.217    0.178
        40 -10.3486     24.7413      7.7884   6.2479446283e+01   7.2973444768e+01    0.2653735    0.1885974  58.68  0.001369003    2.539    0.606
        41 -11.5242     19.3379      3.7690   6.3314692514e+01   7.4258389290e+01    0.6053866    0.3472264  31.37  0.003579465    1.573    0.364
        42 -10.9527     27.6304      3.1666   5.8019055207e+01   7.3101035246e+01    0.2782183    0.2482568  88.25  0.001830967    2.039    0.509
        43 -11.0530     31.6993      1.1455   5.4585731541e+01   7.2664672717e+01    0.4068262   0.09980308  46.10  0.001554628    3.595    0.722
        44 -10.9655    190.2001      6.2806   2.3597580785e+01   3.7179244495e+01    0.3435951    0.2583387 -52.29  0.002285381    1.197    0.164
        45  -9.9975    113.1510      7.1726   3.2782648071e+01   5.4907179072e+01    0.1842102    0.1562928  51.19 0.0002454154    1.127    0.113
        46  -9.7932    100.5678      6.8766   3.4999644513e+01   5.7884683055e+01    0.1748112   0.09758902  20.43 0.0008035296    2.499    0.600
        47 -10.1932     92.4857      6.4171   3.6509525573e+01   5.9790504452e+01    0.3222957    0.1875131  22.34   0.00159696    2.180    0.541
        48  -9.6874    131.0550      5.6398   2.9513600259e+01   5.0793913881e+01    0.1781444    0.1388013  70.15 0.0003566685    1.128    0.114
        49 -10.2460     68.6497      5.0233   4.2037152277e+01   6.5194630666e+01     0.231745    0.1695831 -42.22  0.001277641    1.672    0.402
        50  -9.4268    109.4510      5.4771   3.2805185211e+01   5.5921970937e+01    0.1273592    0.1108838  61.78  0.000140356    1.025    0.024
        51  -9.0283     58.4607      5.4379   4.5566956353e+01   6.7271506661e+01    0.1259746     0.104145  32.70 0.0001513869    1.020    0.019
        52 -10.2130    178.8818      3.8233   2.3900571292e+01   3.9892746580e+01    0.2170761    0.1426733 -89.71 0.0006642842    1.355    0.262
        53 -11.0315    243.0923      2.6295   1.9569677949e+01   2.7010619373e+01    0.2188917    0.1320881 -51.23 0.0005521585    1.248    0.199
        54 -10.3422    126.0236      2.7103   2.9244700837e+01   5.2228904583e+01    0.3197294    0.1275131  60.37  0.001462277    2.075    0.518
        55  -9.6603    118.9523      3.4865   3.0537493332e+01   5.3840792946e+01    0.1958472    0.1114396  71.90 0.0008244464    1.560    0.359
        56  -9.6463     98.3729      2.8164   3.3835119060e+01   5.8725652163e+01    0.1557921    0.1179311   6.05 0.0004254131    1.555    0.357
        57 -10.9304      3.4802      1.5531   7.3064044139e+01   7.6487719185e+01    0.1917889    0.1432526  27.81 0.0007130387    1.507    0.336
        58 -10.7347    195.1877      1.9056   2.2201256786e+01   3.6528076302e+01    0.2365209    0.1354085  88.28 0.0007103345    1.586    0.370
        59 -10.1143     74.2003      1.8040   3.8927600966e+01   6.4267210659e+01    0.2287335     0.158792  87.47  0.001068296    1.894    0.472
        60 -10.4517      5.0474    168.4787   1.1000849026e+02   3.7473329829e+01    0.1800387    0.1283194  23.14  0.001030673    1.587    0.370
        61 -10.8064    247.6675    250.0944   6.5903908259e+01  -8.5233756282e+00    0.1741904    0.1245478  15.12  0.001327354    1.379    0.275
        62 -12.5451    236.4819    247.0743   6.7270302528e+01  -7.0703341652e+00    0.5659156    0.2753428   1.62  0.003050362    2.410    0.585
        63 -11.8605     89.0690    249.3664   9.6726417421e+01   1.0240300418e+01    0.3533024    0.2351343  28.40 0.0009067015    1.324    0.245
        64 -12.0935     28.8649    246.6682   1.0929926776e+02   1.7550220349e+01     0.561249    0.2934768  74.04   0.00312785    1.963    0.490
        65 -12.8748     19.0662    237.0346   1.1081552515e+02   2.0443098540e+01    0.5774894    0.3206228  47.03  0.003435904    1.459    0.315
        66 -12.8009      6.0446    245.6900   1.1386322899e+02   1.9893554271e+01    0.6997504     0.415325  80.12  0.004038181    1.527    0.345
        67 -12.9459     15.3681    245.7985   1.1200609126e+02   1.9025605481e+01    0.7154663    0.3287023  54.92  0.002913156    1.791    0.442
        68 -10.0162    186.8013    165.1850   6.1910761354e+01   1.2413106809e+01    0.2234785    0.1618604 -86.08 0.0009620539    2.931    0.659
        69  -9.9404     66.9899    165.4649   9.2053157212e+01   3.1925099348e+01    0.2249098    0.1423078  30.49  0.001037577    1.612    0.380
        70 -12.2622     21.0966    157.2194   1.0450838208e+02   3.9111381462e+01    0.5485957    0.4443393   3.92  0.003153192    1.500    0.333
        71  -9.3591    105.3786    153.3074   7.8891088527e+01   2.9170779245e+01    0.1616505    0.1181249 -14.41 0.0003781499    1.784    0.439
        72 -11.0195      9.9534    152.5608   1.0735761064e+02   4.1200794162e+01    0.3873476    0.2078634  44.98  0.001338028    1.887    0.470
        73  -9.2918    222.7734    152.0272   5.2740300555e+01   9.0630630226e+00    0.1761317   0.09188707 -38.97 0.0005020431    1.605    0.377
        74  -9.5377    169.9775    152.0000   6.2616713384e+01   1.7904360409e+01    0.2268144   0.08320797  40.81 0.0007968532    2.904    0.656
        75  -9.8666    176.8501    150.0983   6.0762860162e+01   1.7060819636e+01    0.2140173    0.1952234 -66.23 0.0007406971    1.295    0.228
        76 -10.5700    206.9450    146.7999   5.4331495008e+01   1.2501067998e+01    0.2111519     0.170232 -12.59  0.001026789    1.259    0.205
        77 -10.8714     11.4114    143.7229   1.0608655214e+02   4.3406952517e+01    0.3463744    0.3241898  37.63    0.0013416    1.206    0.171
        78 -10.5111    219.1691    144.5562   5.1802838348e+01   1.0911241934e+01    0.2892581    0.1194742  34.53  0.001159955    3.318    0.699
        79  -9.2881    204.5121    141.5342   5.3643253282e+01   1.3863198792e+01    0.1379104    0.1192878 -33.42 0.0001497394    1.033    0.032
        80 -10.9613      9.2815    136.3499   1.0601460223e+02   4.5494067570e+01    0.2607079    0.1920844 -79.13 0.0002263653    1.178    0.151
        81  -9.3744    143.7735    137.0724   6.5243813223e+01   2.5967236466e+01    0.1991573    0.1217729 -47.38 0.0004218715    1.577    0.366
        82  -9.6971     43.6820    137.2989   9.4878938462e+01   4.2194896148e+01     0.149611    0.1052288  65.25  0.000245467    1.616    0.381
        83  -9.9012     17.4926    137.0402   1.0343750274e+02   4.4720129665e+01    0.1869488    0.1808026  32.23  0.001163113    1.176    0.150
        84  -9.9921      2.6845    135.1379   1.0800825046e+02   4.6227549911e+01    0.2776723    0.1088982 -85.85  0.001089898    2.513    0.602
        85 -10.0786     21.2909    135.1496   1.0196710788e+02   4.4920677593e+01    0.2719075    0.1497077  53.33  0.001226671    2.035    0.509
        86 -10.2677    241.0619    134.0870   4.6372366885e+01   9.2657452303e+00    0.1935949    0.1535744 -36.71 0.0005318784    1.044    0.042
        87  -9.8156    249.1371    133.5190   4.5162490132e+01   8.1616341965e+00    0.1485872    0.1246776  43.11 0.0005633839    1.524    0.344
        88 -11.2298     54.9143    132.3747   9.0311010355e+01   4.2174491364e+01    0.6300446    0.2562762  28.29  0.002339282    2.581    0.613
        89  -9.7551     47.9260    133.4975   9.2844656063e+01   4.2724953917e+01    0.2116939    0.1462368  27.25  0.001020065    1.553    0.356
        90 -11.0983     36.7755    129.9716   9.6031516542e+01   4.4883698704e+01    0.4576685    0.2513824 -48.53  0.001562885    1.748    0.428
        91 -11.4009     73.6685    128.9786   8.3436461507e+01   4.0462988554e+01    0.3800855    0.3287232  36.94  0.001972834    1.205    0.170
        92 -10.6490     15.6788    125.5585   1.0264717435e+02   4.7900669998e+01     0.396268    0.1565143  20.51  0.001610004    2.791    0.642
        93 -11.3083     10.6996    122.8624   1.0403353000e+02   4.8958426152e+01    0.3695135    0.2811652  63.76  0.002069829    1.404    0.288
        94 -10.0552    219.9523    124.0197   4.7364118071e+01   1.4326117932e+01    0.2044351    0.1697488 -35.60 0.0004967416    1.016    0.016
        95  -9.9671    243.5365    122.1143   4.3632851824e+01   1.0807018410e+01    0.1965514   0.09980862 -39.10 0.0006089845    1.553    0.356
        96 -10.3624     19.9420    121.6817   1.0063932361e+02   4.8606780069e+01     0.184785    0.1773728 -61.74 0.0007580662    1.095    0.087
        97 -11.9785     15.6691    115.3758   1.0128120926e+02   5.0593125337e+01    0.3843371    0.2262201 -67.32 0.0003062327    1.451    0.311
        98 -12.1520     14.1245    109.0853   1.0093955701e+02   5.2352938013e+01    0.6159979    0.3543704 -14.03  0.002871773    2.207    0.547
        99 -10.5139      1.3837    118.5314   1.0678161636e+02   5.0646469891e+01    0.2494098    0.1103169 -74.58 6.191378e-05    1.898    0.473
       100 -10.3432     72.7681    116.8402   8.1040455252e+01   4.3716090952e+01    0.3747422    0.2428036 -80.40 0.0009855435    2.138    0.532
       101 -10.2308     23.7568    117.7002   9.8685053903e+01   4.9353827917e+01     0.271136    0.1861887 -35.83  0.001242916    1.537    0.349
       102  -9.6956    179.2904    115.9797   5.2492494598e+01   2.3315043900e+01    0.2117541    0.1771795 -40.18 0.0009325906    1.087    0.080
       103 -10.2422    214.0069    115.1199   4.6342069739e+01   1.6892755829e+01    0.2043852    0.1748086 -36.71 0.0004726905    1.031    0.030
       104 -10.0738     86.0840    116.1486   7.6449880386e+01   4.1715347816e+01    0.2279453    0.2029098 -21.69 0.0003461971    1.177    0.150
       105 -11.0586    249.5050    112.2022   4.0889809625e+01   1.1437631965e+01    0.2282243    0.1793425 -41.85 0.0005298709    1.038    0.036
       106 -10.4809     94.3022    112.4062   7.2879973946e+01   4.1175710762e+01    0.3013281    0.2849508 -43.33 0.0009397891    1.021    0.021
       107 -11.9271     54.5794    109.6137   8.5809176988e+01   4.8175278216e+01    0.5233595    0.3039422 -44.23  0.001625928    1.673    0.402
       108 -10.6081     52.1487    103.7943   8.5378380814e+01   4.9979554820e+01     0.236922    0.2121147 -34.99 0.0006219004    1.079    0.073
       109 -10.0804      1.0000    108.9882   1.0583617107e+02   5.3151812997e+01    0.3093141    0.1519874 -80.65  0.001209856    1.866    0.464
       110 -10.2791      2.3513    105.2888   1.0487278751e+02   5.4042715482e+01    0.3703189    0.2104958  84.35  0.001701391    1.926    0.481
       111 -10.7318     35.6113    108.2397   9.2621083019e+01   5.0747660577e+01    0.2744396    0.1319795 -67.84 0.0008231954    2.006    0.502
       112 -10.0855    111.9772    105.7235   6.5767363513e+01   3.9338342832e+01    0.2147318    0.1946875  40.65  0.001104447    1.134    0.118
       113 -11.1197     23.6538    106.4979   9.6882155637e+01   5.2308181045e+01    0.3269313    0.1813269   4.62  0.001457933    2.265    0.558
       114 -11.2528     26.9313    103.9100   9.5141606098e+01   5.2700764676e+01    0.4541493    0.2624495  79.10  0.001882784    2.526    0.604
       115  -9.1141    103.2947    105.2998   6.8215935435e+01   4.1154035136e+01    0.1548294    0.1213869 -11.32 0.0002678491    1.570    0.363
       116 -10.9367    119.7921    102.2085   6.2605662460e+01   3.8517970635e+01    0.7194275    0.2812443 -31.41  0.001771021    5.410    0.815
       117  -9.5067     83.3107    103.9612   7.4242645976e+01   4.5170067522e+01    0.2797039    0.1682635  -7.37 0.0009151419    3.457    0.711
       118 -10.2006     37.6994    102.8305   9.0716879341e+01   5.1931697304e+01     0.306396    0.2086801  39.83  0.001112244    1.621    0.383
       119 -11.1223    143.7365     98.4323   5.5511807657e+01   3.4201848311e+01    0.4442327    0.3492332 -76.65  0.001774556    1.573    0.364
       120 -10.9336     66.7550     93.0215   7.7117327034e+01   5.0543340390e+01    0.3727939    0.2384653  30.95 0.0003552487    1.637    0.389
       121 -11.5198     61.9156     98.6640   8.0439018264e+01   4.9912055051e+01    0.4551852    0.2874151 -46.45 0.0008261254    1.486    0.327
       122 -11.5141     66.8988     97.9841   7.8415328170e+01   4.9325574743e+01    0.2632088     0.243989   3.55  0.001434714    1.109    0.099
       123 -11.0835     51.3636     97.9055   8.4263664632e+01   5.1565426602e+01    0.4958054    0.2709712 -26.58  0.001755816    2.546    0.607
       124  -9.1264    107.7017     99.3559   6.5248715579e+01   4.1624383983e+01    0.1572736    0.1237304 -85.49 0.0005634051    1.701    0.412
       125  -9.5522     90.6428     99.3273   7.0543192869e+01   4.4943440545e+01    0.1587632    0.1230627  80.09 9.599477e-06    1.780    0.438
       126 -10.6440     10.0204     98.6561   1.0093585539e+02   5.5326470526e+01    0.2607567    0.1706183 -86.31 0.0009895833    1.585    0.369
       127 -10.9920     14.5723     96.8191   9.8794951823e+01   5.5502668467e+01    0.2800231    0.1998562 -45.52  0.001529176    1.267    0.211
       128 -12.2476    165.9372     83.7665   4.6895864970e+01   3.2094534143e+01     1.005308    0.5021838  50.48  0.004257075    2.108    0.526
       129 -11.1241    156.1729     82.6404   4.8487885034e+01   3.4462259299e+01    0.6358555     0.351643  33.23  0.002458406    2.715    0.632
       130  -9.9247    100.9952     95.5253   6.6177039895e+01   4.3817278703e+01    0.2309175    0.1519361  41.38 0.0005609286    1.554    0.357
       131  -9.9343     31.0252     92.7913   9.1228959711e+01   5.5168901759e+01     0.272718    0.1454387 -49.86 0.0008836419    1.636    0.389
       132 -10.0034     36.0826     91.5065   8.8841841830e+01   5.4976829620e+01    0.2011488    0.1402752  23.75  0.001014766    1.545    0.353
       133 -11.4549      6.3591     51.1686   9.2574081769e+01   6.7008758599e+01    0.5135176    0.4092804 -85.83  0.003055536    1.605    0.377
       134 -12.3772     21.8740     85.9941   9.3619546415e+01   5.7693080924e+01     1.720963    0.2344835 -64.27  0.004319719    5.802    0.828
       135 -11.8140     12.1966     48.2839   8.8450737290e+01   6.7227734753e+01    0.8738528    0.4216641 -71.54  0.003675734    3.029    0.670
       136 -12.2389      6.3479     73.7021   9.8038589946e+01   6.1785716592e+01    0.7241713    0.4636372 -10.27  0.003035793    1.708    0.415
       137 -11.9673     14.6914     77.4504   9.4956780940e+01   6.0346831286e+01    0.5982576     0.418555  31.05  0.002221196    1.624    0.384
       138 -14.0812     16.5642     67.4254   9.1674604992e+01   6.2602391404e+01     0.493337    0.4011046 -42.33  0.001082909    1.045    0.043
       139 -10.8947     12.0509     57.1061   9.1183306767e+01   6.5304151388e+01    0.2204049    0.1689603 -58.97 0.0003715412    1.259    0.206
       140 -12.7023      3.0687     61.3994   9.6966490219e+01   6.4879848900e+01    0.8224997     0.420579 -76.69   0.00279348    2.220    0.550
       141 -12.1075      9.7781     61.0650   9.3434258789e+01   6.4561655544e+01    0.4669605    0.2839213  36.63  0.001064076    1.975    0.494
       142 -10.5969     10.7125     90.9286   9.9365057137e+01   5.7257416171e+01    0.2062987    0.1917015  -7.65 0.0005678948    1.194    0.162
       143 -10.8917      1.5200     95.1662   1.0383209891e+02   5.6684995435e+01    0.5960106    0.1607731 -57.86  0.002291866    2.569    0.611
       144 -10.5657     95.7593     89.1101   6.5927877403e+01   4.6264280941e+01    0.4124053    0.2146675  45.25  0.001647648    1.988    0.497
       145 -10.3096     83.2904     88.4476   6.9858341667e+01   4.8783343031e+01    0.2590641    0.2258609 -30.96 0.0005391006    1.128    0.114
       146 -10.9281     78.1463     88.1029   7.1552588815e+01   4.9786019852e+01    0.4275601    0.3502004  15.06  0.001938099    1.322    0.244
       147 -10.7260     47.9131     88.1805   8.3143279718e+01   5.4407043791e+01    0.2531317    0.2189432 -74.89 0.0002903458    1.291    0.225
       148 -10.7397    114.2525     87.3624   5.9872539637e+01   4.2829883076e+01    0.4657305    0.2316035  58.37  0.001350867    2.707    0.631
       149 -10.9022     65.3057     87.4003   7.6064957262e+01   5.2097538260e+01     0.325334    0.2292116  31.05  0.001571694    1.473    0.321
       150 -10.4599     67.3300     84.2948   7.4379558378e+01   5.2489704694e+01    0.3039805    0.2280055  -9.16  0.001460657    1.590    0.371
       151 -10.0581     31.2218     88.0725   9.0073130975e+01   5.6330450655e+01    0.2146788    0.1635578 -42.14 0.0003526476    1.189    0.159
       152  -9.9757      9.4423     86.1366   9.9049254334e+01   5.8542688150e+01    0.2812146    0.1830312  60.46 0.0009281572    1.981    0.495
       153 -10.1705      7.3438     81.9328   9.9194314215e+01   5.9713282387e+01    0.3412237    0.1763027 -47.09  0.001667585    1.637    0.389
       154  -9.0058    250.3413     86.7006   3.5675437464e+01   1.5156128070e+01    0.1236289   0.07702166 -60.58  0.000546533    1.669    0.401
       155  -9.5780    120.9477     86.5179   5.7792790177e+01   4.1559654941e+01    0.2213188     0.149608  47.59 0.0005122616    1.504    0.335
       156 -10.3057      4.9855     86.0208   1.0095777143e+02   5.8823719343e+01    0.2119533    0.1255618 -39.49 0.0005251926    1.566    0.361
       157 -11.5056     29.8087     81.8647   8.9188861704e+01   5.7995585706e+01    0.5658746    0.2967008 -28.05   0.00240379    2.276    0.561
       158  -9.7208    116.6775     83.6692   5.8090751194e+01   4.3056620914e+01    0.1553652    0.1203984   2.99 0.0003519347    1.698    0.411
       159 -10.1235     74.2275     82.1290   7.1149138241e+01   5.1813970686e+01    0.3235771    0.1891206 -37.88  0.001155158    1.752    0.429
       160  -9.8689     15.3965     83.5323   9.5936006406e+01   5.8801492185e+01    0.2511217     0.134219  14.56 0.0009486293    2.095    0.523
       161  -9.1172     62.4718     82.4934   7.5706778091e+01   5.3676401392e+01    0.1470901    0.1369623 -26.25 9.117184e-06    1.002    0.002
       162  -9.4007    146.5140     80.9726   5.0032181128e+01   3.6932066872e+01    0.2200034    0.1402506 -42.11  0.000622784    1.514    0.340
       163  -9.9283    101.2509     80.9767   6.1717448430e+01   4.6874017140e+01    0.2115089    0.1934412 -39.91 0.0004292406    1.083    0.077
       164  -9.4656    183.6424     80.6556   4.3004815178e+01   2.8781847462e+01    0.1404227     0.109941  11.27 -0.0001352356    1.832    0.454
       165  -9.8035    112.4605     79.5559   5.7995621189e+01   4.4784659606e+01    0.1468897    0.1461397 -45.60 3.212002e-05    1.020    0.019
       166 -10.0777     59.6788     79.0166   7.5753038440e+01   5.4899807744e+01    0.3922727    0.1954205  14.59  0.001323082    3.484    0.713
       167 -12.8480     44.8254     74.7661   8.0650380337e+01   5.7970642725e+01    0.5539437    0.3400714  52.31 0.0006617386    2.264    0.558
       168 -10.3401     43.0553     67.7724   7.9263455093e+01   5.9774513278e+01    0.2862284    0.2221124  -0.54  0.001431189    1.349    0.259
       169 -10.5036     35.6455     68.1075   8.2750315790e+01   6.0608058577e+01    0.2761427    0.1779267  38.57 0.0005629013    1.755    0.430
       170  -9.7264    169.6897     77.1213   4.4445032192e+01   3.2413138567e+01    0.1984326    0.1705039 -45.58 0.0004252752    1.095    0.087
       171 -12.1282    161.0969     90.9394   4.9743634416e+01   3.1860023320e+01    0.7384593    0.5439347 -69.13  0.003575868    1.619    0.382
       172 -10.3629    145.5053     74.4961   4.8389428091e+01   3.8317877544e+01    0.3053398    0.1418816 -37.21  0.001200567    2.138    0.532
       173 -10.2974     75.5298     74.5221   6.8243773357e+01   5.3228416625e+01    0.4479001    0.2409875  21.56  0.001668093    2.725    0.633
       174 -10.8393    207.5146     73.1337   3.7720752253e+01   2.5028220411e+01    0.2120255    0.1969145 -86.71 0.0003041333    1.152    0.132
       175 -11.0173     93.8257     72.6673   6.1360222250e+01   5.0072042647e+01    0.3704004    0.1997649 -28.03  0.001420395    2.416    0.586
       176 -10.3965     54.6471     74.3651   7.6353909105e+01   5.6701615776e+01    0.3089334     0.166779  45.58 0.0004408049    2.211    0.548
       177  -9.9522    152.0558     71.9610   4.6320846058e+01   3.7259938033e+01    0.2091641    0.2036312 -73.87  0.000416548    1.033    0.032
       178 -10.4742    101.1098     71.8373   5.8825055542e+01   4.8717081116e+01    0.3802871    0.2032452  63.96 0.0008607228    3.039    0.671
       179 -11.9029     51.0980     68.1317   7.5842277393e+01   5.8590800233e+01    0.5386985    0.4062775  -2.93  0.001209398    1.458    0.314
       180 -10.6086     51.9102     62.3917   7.3537927620e+01   5.9689429462e+01    0.3806709    0.2510641 -23.61  0.001838234    1.682    0.406
       181 -10.6430     47.3580     60.8311   7.5000807397e+01   6.0680033700e+01    0.3646995    0.3029107  -4.24  0.001127298    1.180    0.152
       182 -11.2021    167.8167     69.6303   4.2763710552e+01   3.4071413070e+01    0.2388698    0.2158007 -53.91 0.0002953205    1.039    0.037
       183  -9.9536    122.8316     69.4275   5.2070654736e+01   4.4383541171e+01    0.2703518    0.2101087  22.99   0.00092882    1.556    0.357
       184 -11.0467     76.8898     69.5390   6.6079965033e+01   5.4008996930e+01    0.4685918    0.3058237  50.95   0.00131647    1.738    0.425
       185  -9.1234     69.2276     69.9730   6.9084412865e+01   5.5299837153e+01    0.1824246    0.1167801 -45.51 0.0003013575    1.535    0.349
       186  -9.3925    194.7972     69.6074   3.8583291561e+01   2.8187947907e+01     0.168288    0.1246764  83.01 0.0003646745    1.495    0.331
       187 -10.3049    128.3286     66.7659   4.9900176466e+01   4.3596747255e+01    0.3836387    0.2606167 -85.90  0.001639812    2.239    0.553
       188 -11.8731     44.5282     38.8243   6.7719489238e+01   6.5310856496e+01    0.4751417    0.3545594 -26.67  0.002728576    1.276    0.216
       189 -12.1701     30.3007     63.3605   8.3816354221e+01   6.2266628199e+01    0.6962345    0.5346849 -42.49  0.001790922    1.158    0.136
       190 -12.1378     36.9694    242.8354   1.0737882674e+02   1.7485263518e+01    0.6050292    0.3032259  81.13  0.002148725    2.282    0.562
       191 -10.6483     33.4013     32.2668   7.0397232832e+01   6.8062060652e+01    0.5079386     0.218005  27.32   0.00129706    2.463    0.594
       192 -13.1422     38.2052     49.5013   7.5146525275e+01   6.4237568617e+01    0.8234923    0.6585628 -23.13  0.002869764    1.138    0.121
       193 -11.6705     24.5183     34.5034   7.6271829198e+01   6.8792735524e+01    0.2580478     0.200443  -3.28 0.0006499143    1.168    0.144
       194  -9.1968    213.4517     66.9794   3.5564379051e+01   2.4768389890e+01    0.1797463    0.1101053 -40.52 7.697299e-05    1.409    0.290
       195 -10.7553     93.8446     66.6063   5.9315405478e+01   5.1236219241e+01    0.2599724    0.2341762 -30.63  0.000366949    1.110    0.099
       196 -12.1122    122.9722     63.9189   5.0285533440e+01   4.5311383219e+01     0.456231     0.325488 -75.46 0.0002831303    1.924    0.480
       197  -9.9551    119.0134     65.2840   5.1711340158e+01   4.5977950859e+01    0.2161012    0.1905372  25.20 0.0004248754    1.224    0.183
       198 -10.1301    154.3470     63.7277   4.3529041945e+01   3.8090772287e+01     0.458661    0.1724362  63.18  0.001600323    3.103    0.678
       199  -9.9666     98.9336     64.6696   5.7079041918e+01   5.0522320415e+01    0.3001741     0.124718  41.28  0.001087531    2.524    0.604
       200 -10.2418    202.2081     61.8181   3.5726678232e+01   2.7808624842e+01    0.2461927    0.1677447 -28.00  0.001331581    1.599    0.374
       201 -11.3382     83.9735     61.1879   6.0662350845e+01   5.4261138730e+01    0.4878584     0.264574  26.83  0.001896574    2.517    0.603
       202  -9.9512     76.9773     62.4685   6.3578413733e+01   5.5385658019e+01    0.2105594    0.1387543  39.56 0.0003498396    1.505    0.336
       203 -10.3270    113.2098     60.9339   5.1784010419e+01   4.8038535119e+01    0.2150458    0.1921959 -72.79 0.0004967286    1.238    0.192
       204 -12.1383     95.8677     59.0496   5.6057524630e+01   5.2182116925e+01    0.5692492    0.3416467  39.00  0.001276223    1.703    0.413
       205 -10.2827     99.8804     55.8023   5.3709844671e+01   5.1870567379e+01    0.2504454    0.1880261  37.45 0.0004443218    1.337    0.252
       206  -9.6044    168.8897     60.1167   4.0007103281e+01   3.5323391299e+01     0.176233    0.1647172  12.17  0.000424169    1.290    0.225
       207  -9.7031    127.1453     58.8830   4.7683482172e+01   4.5185950575e+01    0.1900602    0.1633849  31.44 0.0002726416    1.267    0.211
       208 -10.0107     69.9777     58.6663   6.4799812253e+01   5.7415300976e+01    0.1986151    0.1787672  20.15 0.0006574139    1.072    0.067
       209 -11.0269     59.2351     58.9896   6.9202929266e+01   5.9223546638e+01    0.3531905    0.3127807 -10.54  0.001292544    1.058    0.055
       210 -10.4294     61.9651     53.2108   6.5908393629e+01   5.9867690632e+01     0.375175    0.2075122 -31.26  0.001372681    1.962    0.490
       211 -11.3299    147.2897     56.7909   4.2829685869e+01   4.0814207595e+01    0.2860934    0.2256237 -58.04 0.0004141158    1.289    0.224
       212 -10.6389    110.0562     54.6872   5.0497300050e+01   4.9786949905e+01    0.2532056    0.2334907 -81.49  0.000401672    1.185    0.156
       213 -12.9108    105.1587     52.4311   5.1026190931e+01   5.1253166885e+01    0.3773188    0.3511156 -13.42 0.0003856084    1.116    0.104
       214 -10.3037     81.4733     55.0179   5.9266479686e+01   5.5876536053e+01    0.4142426    0.2632005  -0.68  0.001047172    2.601    0.616
       215 -10.9150     75.1674     55.5825   6.1713989449e+01   5.7014042503e+01    0.3255765    0.2012651 -39.43 0.0004085164    1.629    0.386
       216  -9.8910     73.5189     50.9734   6.0562314543e+01   5.8149358874e+01    0.2606122    0.1874283   2.58  0.001027357    1.723    0.420
       217 -10.0187    230.7996     54.5933   3.0979763812e+01   2.3166409045e+01    0.2021466    0.1450422 -37.06 0.0006394587    1.303    0.232
       218 -11.4976     34.3177     42.5690   7.4363614742e+01   6.6085950820e+01    0.6416574    0.3438667   3.01  0.002471837    2.932    0.659
       219 -11.1837     88.3755     53.3935   5.6362827885e+01   5.4742050987e+01    0.4143232    0.2594579 -38.06  0.001820114    1.633    0.388
       220 -10.9509    119.8149     52.7409   4.7390302528e+01   4.7858312788e+01     0.237614    0.2194097  46.06 0.0002855594    1.070    0.066
       221  -9.5894     95.9996     52.2348   5.3573077160e+01   5.3308041279e+01    0.1916539    0.1719607  38.62            0    1.070    0.066
       222 -11.7893    129.5573     49.2109   4.4036711201e+01   4.6115482711e+01    0.4101803    0.3302089 -15.60  0.001369305    1.447    0.309
       223  -9.4784     57.5036     51.0401   6.6920252982e+01   6.1032644030e+01    0.1967785    0.1304226 -37.97 -0.0003515109    1.479    0.324
       224 -10.4235     52.2162     50.9513   6.9172919957e+01   6.1912905499e+01    0.2624784    0.1720185 -25.12  0.001303436    1.621    0.383
       225 -12.8521     27.5995     37.7641   7.5942176252e+01   6.7826832569e+01    0.3115252    0.2742504 -33.43 0.0003785089    1.196    0.164
       226 -10.2694    205.6889     49.1032   3.2313265702e+01   2.8876011434e+01    0.2455081    0.1922436  -1.59  0.001211536    1.913    0.477
       227 -10.1918    181.8394     49.7042   3.5345045641e+01   3.3924242636e+01    0.2097641    0.1707929 -52.54 0.0002583394    1.120    0.107
       228  -9.5814    167.9482     49.0005   3.7118562831e+01   3.7161119615e+01    0.1597921    0.1454045 -74.38  0.000297759    1.005    0.005
       229 -10.3455    104.4412     46.8287   4.9222881873e+01   5.2285760922e+01    0.2702871      0.19236  45.22 0.0005997093    1.351    0.260
       230  -9.6633     78.5603     47.1929   5.7286232391e+01   5.7794092334e+01    0.1843898     0.131092 -19.54   0.00039659    1.563    0.360
       231 -10.2590    151.6941     45.7113   3.8760469412e+01   4.1395131866e+01    0.2136465    0.2030245  34.96 0.0005290714    1.194    0.162
       232 -10.6750    143.0371     45.3635   4.0171285285e+01   4.3483684367e+01    0.2564618    0.1995723 -37.50 0.0006928271    1.312    0.238
       233  -9.5185    120.2107     46.6296   4.5244440794e+01   4.8684921582e+01    0.1906322    0.1220804  48.02 0.0001942346    1.523    0.344
       234 -10.1564    101.9627     36.7219   4.6164008403e+01   5.4292967570e+01    0.3246027    0.2011599 -60.62   0.00144994    2.316    0.568
       235 -10.7096     98.2635     37.9346   4.7603060742e+01   5.4965438922e+01    0.3188724    0.2274998  30.31  0.000978562    1.527    0.345
       236 -10.8408     91.6762     43.4719   5.1598164437e+01   5.5625225861e+01     0.522597    0.2335968 -42.34  0.002001873    2.421    0.587
       237 -10.7581     95.8077     42.7359   5.0106372563e+01   5.4828196774e+01    0.3514572    0.2542724 -17.70 0.0008653922    1.576    0.366
       238 -10.2471     85.6476     44.2035   5.3750963234e+01   5.6806538646e+01    0.3580979    0.2286918 -28.05  0.001293358    1.681    0.405
       239 -10.8172     82.2978     42.3005   5.4090804286e+01   5.7803020444e+01    0.3380031    0.1717092 -43.77   0.00146925    2.187    0.543
       240 -10.0850    113.4941     44.6435   4.6141781591e+01   5.0535615568e+01    0.3474322    0.2015713  25.02  0.001384585    2.741    0.635
       241 -11.9552     53.1352     41.9855   6.5129221908e+01   6.3382008190e+01     0.657474    0.3581034 -13.71  0.002531153    3.195    0.687
       242 -12.6555     57.7576     34.0378   5.9695997069e+01   6.3869159775e+01     0.317163    0.2723335   2.34 0.0005589982    1.081    0.075
       243  -9.9884     60.9879     28.7578   5.6000168549e+01   6.4044204669e+01    0.1984417     0.158133  14.56 0.0002889987    1.212    0.175
       244  -9.8461    187.1569     42.9683   3.2949504965e+01   3.3658935887e+01    0.2012622    0.1508451 -66.28 0.0004629556    1.248    0.198
       245 -10.4931    158.1812     42.7520   3.6852489241e+01   4.0277864131e+01    0.2131101    0.1899772 -79.36  0.000368174    1.048    0.045
       246 -11.3529    131.1810     41.6446   4.1251647634e+01   4.6801934909e+01    0.3042916    0.2383811 -48.11 0.0005561098    1.313    0.238
       247 -11.3087     74.7669     35.3163   5.3779844677e+01   6.0395617442e+01    0.4149223    0.2824482  33.44  0.001089614    1.437    0.304
       248 -10.1138     71.5503     40.5090   5.7095477596e+01   6.0260521476e+01     0.192943    0.1275706 -43.36 0.0001933931    1.663    0.399
       249 -11.1359     69.5529     37.3907   5.6524822618e+01   6.1132141493e+01    0.3719549    0.2445546   4.11  0.001644711    2.048    0.512
       250 -10.4149      6.9184     41.2587   8.9187986084e+01   6.9096552200e+01    0.3079382    0.1836095 -52.49   0.00172261    1.467    0.319
       251 -10.6730    148.8239     39.6637   3.7441966894e+01   4.2884878388e+01    0.3014463    0.2133614 -34.06 0.0009048101    1.462    0.316
       252  -9.9286    121.4260     41.4751   4.3226796490e+01   4.9129251144e+01    0.1361315    0.1303519  70.14 0.0001057545    1.012    0.012
       253 -11.4531    224.9491     37.7372   2.7893682644e+01   2.6480248477e+01    0.3487008    0.2300104 -68.10  0.000489745    1.388    0.280
       254 -11.1125    226.1260     33.0344   2.6789023638e+01   2.6829854182e+01    0.1889658    0.1462763 -73.78 0.0002724213    1.148    0.129
       255 -11.2006    221.7478     31.8838   2.6897339479e+01   2.7824710315e+01    0.2328627    0.1565275 -49.57 0.0002951295    1.220    0.180
       256 -11.3302     83.9117     35.4556   5.0820601699e+01   5.8463922211e+01    0.5110677    0.2542097  35.51  0.001287411    2.274    0.560
       257  -9.5434      1.4626     37.5160   9.1252367977e+01   7.0224004233e+01    0.1270851   0.09786177 -32.92 3.833216e-06    1.044    0.042
       258 -11.0078     23.9339     41.2069   7.9362101546e+01   6.7589100031e+01    0.3036685    0.2667856  38.29  0.001009796    1.427    0.299
       259  -9.5568    134.5840     34.7797   3.8388751989e+01   4.6889972324e+01    0.1911194    0.1181631 -45.39 0.0009410123    1.669    0.401
       260  -9.6299    110.8123     35.3786   4.3492613419e+01   5.2430451769e+01    0.1989581    0.1144396  48.88 0.0006663935    1.636    0.389
       261 -12.2879      8.7468     31.8182   8.4612795202e+01   7.0856075938e+01    0.3856912    0.3433408 -27.99  0.002667901    1.172    0.147
       262 -10.7422     17.7017     30.9376   7.8711752606e+01   7.0195441465e+01    0.4097368    0.2050442  26.48   0.00210253    1.993    0.498
       263 -10.1602    192.6314     33.8864   3.0071478199e+01   3.3617567597e+01    0.2009675    0.1607431  70.22 0.0005553483    1.292    0.226
       264 -10.3765    205.8002     32.8164   2.8505671325e+01   3.0946049555e+01    0.1778424    0.1175642 -58.55 0.0007508345    1.322    0.243
       265  -9.9439    247.1765     32.6297   2.5141384736e+01   2.2963162482e+01    0.1359391   0.09764041  67.55 0.0003710866    1.651    0.394
       266 -10.1718    166.5932     32.2386   3.2698452091e+01   3.9662157274e+01    0.1716827      0.12743 -18.28 0.0009498653    1.653    0.395
       267 -10.1265    122.4361     32.4734   3.9948727335e+01   5.0064230469e+01    0.2937486    0.1257484  61.75   0.00101995    2.180    0.541
       268 -11.0657     79.8643     28.2823   4.9112985433e+01   6.0289087750e+01     0.476285     0.215743 -27.96  0.002061649    2.430    0.588
       269 -10.5553     49.7015     30.9272   6.1772717166e+01   6.5761879476e+01    0.2439271    0.2136822 -43.16 0.0003613317    1.379    0.275
       270 -10.9265     49.1832     26.0930   5.9724308131e+01   6.6570024519e+01    0.2621693    0.2217965  49.31  0.001612709    1.404    0.288
       271  -9.5468     44.1371     31.4126   6.4584020624e+01   6.6604574786e+01    0.1680125    0.1175218  46.94 0.0003621558    1.673    0.402
       272 -10.7429    102.3002     29.2837   4.3273757521e+01   5.5170435233e+01    0.3245753    0.2627316  88.82  0.001304974    1.436    0.304
       273 -10.5561    197.9768     28.0404   2.8123020588e+01   3.3168632251e+01    0.1822362    0.1449512  41.03  0.001127604    1.691    0.409
       274 -10.8031    111.9684     27.3396   4.0328019968e+01   5.3152236069e+01    0.2992889    0.2016216 -18.00  0.001552562    1.740    0.425
       275 -10.4623    113.3990     21.3122   3.7849667475e+01   5.3489762350e+01    0.3808991    0.2196503  36.58  0.001348445    2.006    0.501
       276 -10.7658     69.8508     26.1721   5.1524279908e+01   6.2647888594e+01    0.6085573    0.2508607  39.56  0.002510487    2.430    0.588
       277  -9.9803    107.4989     27.5960   4.1413189966e+01   5.4168177578e+01    0.2040946     0.122235  61.35  0.001000912    1.558    0.358
       278 -11.6306     30.7001    234.5748   1.0819961628e+02   1.9813601436e+01    0.4644015    0.1846419  79.43  0.001926301    3.381    0.704
       279 -13.2329     74.3745    238.4359   9.8890765200e+01   1.4139784375e+01    0.8222269    0.7055801 -72.56  0.005467583    1.300    0.231
       280  -9.7694    109.8557    242.7849   9.1509832787e+01   8.8313849588e+00    0.1713107    0.1297768  48.34 0.0003744518    1.333    0.250
       281 -10.3864     62.2814    242.4034   1.0190517518e+02   1.4785716512e+01    0.3336179     0.128494  52.36  0.001434131    2.723    0.633
       282 -10.3230     72.3804    250.1375   1.0037932057e+02   1.2108714465e+01    0.2170067    0.1567959  12.86  0.001014328    1.584    0.369
       283 -11.0729     88.7450    240.9189   9.5948169398e+01   1.1877613609e+01     0.241945    0.1580748 -47.62  0.001374536    1.785    0.440
       284 -10.9977     22.6700     24.2815   7.2653489259e+01   7.0802049478e+01    0.3128266    0.2153245 -15.13   0.00133692    1.368    0.269
       285 -10.8698     24.8349     21.7916   7.0135921976e+01   7.0935261227e+01    0.2537857    0.2414402 -25.57 0.0007746633    1.387    0.279
       286  -9.6792    204.4840     25.9912   2.7046884380e+01   3.2031748366e+01    0.1877861   0.06729642 -51.47 0.0008102339    2.547    0.607
       287  -9.5334    180.2014     26.4416   2.9533043241e+01   3.7248613639e+01    0.1657794    0.1089478 -86.79  0.000325987    1.507    0.337
       288 -10.6207    172.7536     25.7149   3.0175835112e+01   3.9015689790e+01     0.297759    0.2155853  43.82  0.001176933    1.695    0.410
       289 -10.1480    128.3143     26.3115   3.6752568680e+01   4.9396580242e+01    0.2627285     0.160467  52.37 0.0005115017    1.553    0.356
       290 -10.0641    195.6248    238.2642   7.3167136398e+01  -1.3875319723e+00    0.2125165    0.1339848 -24.09  0.001285336    1.474    0.321
       291  -9.8817    116.8492     26.4079   3.8972567436e+01   5.2109463309e+01    0.2608862    0.1251758  66.91  0.001132004    2.066    0.516
       292 -10.6240      1.8086     25.6526   8.6667344393e+01   7.2559917450e+01      0.21106    0.1566856 -46.50 0.0009213583    1.268    0.211
       293 -10.7248    244.1671    236.6891   6.4400174500e+01  -6.5080008344e+00    0.1564718    0.1141147 -18.30  0.001149946    1.158    0.137
       294 -11.7601     22.4800    248.7531   1.1071323193e+02   1.7769366674e+01    0.3571594    0.2340037  49.11  0.001248934    1.213    0.175
       295 -11.1942      6.8770     24.7235   8.2860560476e+01   7.2348153682e+01    0.4800051    0.1738386  19.46  0.002161001    2.821    0.646
       296 -11.3826     14.0009     23.0814   7.7437448811e+01   7.1980612582e+01    0.2620937    0.1732002   0.23 0.0003369206    1.456    0.313
       297 -10.8900      6.2809     20.3659   8.1287610737e+01   7.3185696987e+01    0.2444789    0.1631909  -9.60 0.0006929239    1.361    0.265
       298 -10.2053    160.0067    235.7000   7.9839610334e+01   3.4908083140e+00    0.1806675    0.1408408  14.94 0.0004529474    1.098    0.090
       299  -9.2498    219.4320     25.4478   2.5687345298e+01   2.9043630175e+01     0.118867    0.0943599 -62.33 0.0001111336    1.004    0.004
       300  -9.8477    214.5778     25.1676   2.6010319453e+01   3.0049659394e+01    0.1515089    0.1099351 -23.84 0.0006704603    1.671    0.402
       301 -10.0850    193.5109     25.4766   2.7933564839e+01   3.4426929830e+01    0.1260887    0.1033462 -68.44 8.850142e-05    1.033    0.032
       302  -9.5972    177.3762    234.8051   7.6178404218e+01   1.3953249209e+00    0.1718245    0.1016641 -29.89 0.0009476368    1.690    0.408
       303 -11.6732    166.8852     21.6024   2.9745996042e+01   4.0819654214e+01    0.4379547     0.237887  54.14  0.002219742    1.924    0.480
       304  -9.7186    221.4639    234.4869   6.7874182959e+01  -3.8206634801e+00    0.1189038   0.08735579  -6.81 0.0001341812    1.041    0.040
       305 -11.3778     59.3860     20.9806   5.2982032551e+01   6.5384642094e+01    0.3908925    0.2481326  30.19 0.0004115655    1.532    0.347
       306  -9.7762    186.4545     22.9249   2.7993823719e+01   3.6258268851e+01    0.1800679    0.1120094 -37.50 0.0006413903    1.544    0.352
       307 -11.0023     96.5343     22.9073   4.2224018835e+01   5.7240145954e+01    0.6005524    0.3293474  58.79  0.002923262    1.665    0.399
       308 -10.5486    102.9521     21.0373   3.9974841553e+01   5.5967024209e+01    0.3523689     0.199569  58.08  0.000341178    1.570    0.363
       309 -11.0562     84.8191     21.4439   4.4729754247e+01   6.0037988716e+01    0.5041538    0.2002115  48.44  0.002138351    2.200    0.545
       310  -9.8628    120.4744     20.9843   3.6369561521e+01   5.1848493992e+01     0.179718    0.1317996 -26.84 0.0003598664    1.504    0.335
       311  -8.9665     59.7029    167.3095   9.4426684907e+01   3.2393418801e+01    0.1494436    0.1039047  65.97 0.0003263665    1.594    0.373
       312  -9.6772    139.0954     19.5156   3.2790740282e+01   4.7567256475e+01    0.2072347     0.117263  68.01  0.001037094    1.605    0.377
       313  -9.9890    151.7954     17.8093   3.0515460710e+01   4.4737914006e+01    0.2165623    0.1605796 -77.46  0.001259441    1.318    0.241
       314 -10.7213     86.7745    232.8841   9.5545390577e+01   1.3708734358e+01    0.2643603     0.130573  50.42  0.001230718    2.119    0.528
       315 -10.0828    108.2559     17.2813   3.7414542268e+01   5.5120178884e+01    0.1996868    0.1752928  11.42 0.0006549957    1.275    0.216
       316 -10.7644    194.9806     16.8024   2.5717799664e+01   3.5073650631e+01    0.1861522    0.1495773 -56.87  0.000328896    1.102    0.093
       317  -9.7172     82.5201     17.3998   4.3649161995e+01   6.0988846571e+01    0.1952297    0.1288087 -23.33 6.392794e-05    1.657    0.396
       318  -9.9372     38.5746    232.3181   1.0633366391e+02   1.9472598476e+01    0.1767402    0.1373287 -70.53 0.0003461101    1.389    0.280
       319  -9.9820     76.4939     15.4909   4.4556198608e+01   6.2504196307e+01    0.2738544    0.1730669  43.78  0.001000021    1.403    0.287
       320 -10.1103     24.2464    232.1215   1.0944445908e+02   2.0965349098e+01     0.183544    0.1579346  26.11 0.0005857799    1.318    0.241
       321  -9.2661     58.5030    229.4826   1.0164677533e+02   1.7861846415e+01    0.1264251    0.1088172  52.13 9.731745e-05    1.006    0.006
       322 -11.4195      4.1356    226.3258   1.1344607689e+02   2.4023279823e+01    0.3346722    0.1656791  86.86  0.001833518    1.887    0.470
       323 -10.4996    143.8994     16.0659   3.1038440603e+01   4.6779730502e+01    0.1952577    0.1735746  73.21 0.0006899388    1.070    0.065
       324 -10.8323    121.2216    226.4921   8.6945942419e+01   1.0392704621e+01    0.2989047    0.1847901  69.82  0.001293825    3.049    0.672
       325 -10.2266    185.5004     14.6982   2.6039989071e+01   3.7358447469e+01    0.2120792    0.1501648  82.43  0.001305972    1.298    0.230
       326 -12.4755    226.3515    245.3098   6.8711551328e+01  -5.8113355373e+00    0.6733997    0.3390165  -6.33  0.003602732    2.313    0.568
       327 -10.9556     15.7589    221.8100   1.1071185867e+02   2.3971010741e+01    0.3311268   0.09777942  40.51  0.001466439    2.534    0.605
       328  -9.3971    190.5161    226.4616   7.2293983481e+01   1.0544707193e+00    0.1261913    0.1003989  -2.44 3.725135e-05    1.030    0.029
       329 -11.3156     21.2407    220.2878   1.0940461550e+02   2.3793977563e+01    0.2170242    0.1605048  83.87  0.001374805    1.237    0.192
       330  -9.6003    100.1789     13.0326   3.7488638691e+01   5.7422328927e+01    0.2164813     0.134107  24.17  0.001078371    2.018    0.504
       331  -9.8925    192.0000    218.0071   7.0626898076e+01   2.2240190587e+00    0.2001036   0.06585818 -43.09 0.0008073287    2.976    0.664
       332 -11.8177     10.3149    216.8131   1.1164934969e+02   2.5553451651e+01    0.3964279    0.2967065  11.43  0.002329658    1.696    0.410
       333  -9.9684     12.5222    212.4969   1.1091919354e+02   2.6322220385e+01    0.2102046    0.1084194 -81.86  0.001032569    1.816    0.449
       334 -10.7117     11.0723    207.9465   1.1099495427e+02   2.7478969017e+01    0.2817451    0.2123117 -81.04 0.0008422801    1.260    0.206
       335  -9.8471     96.2264     12.4567   3.8130790038e+01   5.8390639310e+01    0.1711347    0.1174604  77.87 0.0007112565    1.574    0.365
       336 -10.2837     15.0810     13.3730   7.1745368546e+01   7.3453191750e+01    0.1789724    0.1321988  -3.74 0.0005162773    1.155    0.134
       337  -9.9602     38.2225    217.1823   1.0530522764e+02   2.2783233440e+01    0.1833152     0.124664  58.12 0.0006483456    1.328    0.247
       338 -11.4468     29.0110    215.5803   1.0732796687e+02   2.4084545613e+01     0.267436    0.2293693  32.40  0.001118814    1.241    0.194
       339 -11.5938    235.9097    214.3399   6.2108829476e+01  -2.5821781425e+00    0.2382514    0.1404108 -27.55 0.0008034025    1.383    0.277
       340  -9.1764    169.6927    213.3018   7.4337782905e+01   6.0540851458e+00    0.1180461    0.1044055  59.84 0.0004679477    1.599    0.375
       341 -12.3996      5.5668    208.6482   1.1229427824e+02   2.7783957774e+01    0.5005273    0.2659022 -74.08  0.002215071    1.762    0.433
       342 -10.6311     20.3657    211.8107   1.0907846662e+02   2.5766508849e+01    0.2548971    0.1497324  65.85  0.001396673    1.573    0.364
       343  -9.4254    107.5731     10.5101   3.5021020933e+01   5.5928452376e+01    0.1282677    0.1136176  58.09 0.0008058595    1.027    0.027
       344  -9.6906    136.6256    215.6949   8.1917629541e+01   1.0324111700e+01    0.1418367   0.09750939  -6.27  0.000703033    1.766    0.434
       345 -10.6396    247.3320    204.0061   5.8503485835e+01  -2.3854741059e+00    0.3903036    0.2568318 -54.81  0.002158676    2.786    0.641
       346 -10.8543     20.4281    199.4163   1.0823715560e+02   2.8627676171e+01    0.3584902     0.194087 -70.21  0.001278977    1.745    0.427
       347 -10.6799    175.2386    202.2975   7.1309550455e+01   7.2452119326e+00    0.2438399    0.2046939  25.69 0.0004553884    1.214    0.176
       348 -10.0083    117.1046    201.5314   8.4315406314e+01   1.6087064991e+01    0.2128367    0.1298148  31.83 0.0007859682    1.546    0.353
       349  -9.0234    188.2999    204.7141   6.9086111292e+01   4.9581059011e+00    0.1114115     0.105698  66.29 0.0003667712    1.554    0.356
       350 -10.0304     58.2437    196.1818   9.8432228354e+01   2.5387320945e+01    0.2197184    0.1636437 -48.15  0.001133936    1.486    0.327
       351 -11.6170     16.1341    192.9726   1.0884519096e+02   3.0546446595e+01     0.441741     0.246155  25.11  0.002160686    1.902    0.474
       352 -10.2473    244.7097    188.0362   5.6103995408e+01   2.6498021253e-01    0.1747593    0.1219198 -25.78 0.0004418633    1.110    0.099
       353  -9.4383      2.3206    187.3202   1.1191014413e+02   3.3026724720e+01    0.1236356   0.08677701 -49.02 0.0004625643    1.669    0.401
       354  -9.7199     61.8196    184.8257   9.6156330751e+01   2.7708551701e+01    0.2003404    0.1548754  71.74 0.0009415227    1.338    0.253
       355 -10.4254    168.0725    183.2985   6.9365810615e+01   1.1930799216e+01    0.2642247    0.2213634  74.07  0.001416885    1.781    0.439
       356 -11.6682     15.8226    181.7411   1.0811440501e+02   3.3312175054e+01    0.4546364    0.2512993  66.10  0.002050529    1.787    0.440
       357  -9.8354     58.8746    181.8628   9.6584215740e+01   2.8808015081e+01    0.2107983    0.1903357 -35.68 0.0008653853    1.246    0.198
       358  -9.7476    244.4761    178.0318   5.4322310097e+01   1.8159940800e+00    0.1851472   0.08360466 -22.77 0.0008100286    2.675    0.626
       359  -8.8885    222.6695    178.3415   5.7899932335e+01   4.6457346378e+00    0.1172038   0.09919538 -62.23 0.0001119252    1.746    0.427
       360 -10.3107     46.7573    177.3208   9.9362597691e+01   3.1376201011e+01    0.2647704    0.2270187 -72.12  0.001320911    1.126    0.112
       361 -10.6746     18.5180    173.0399   1.0670157346e+02   3.5261123737e+01    0.2594795    0.1597424  47.16  0.000962251    1.569    0.363
       362 -12.4073     36.8858    165.6170   1.0080539984e+02   3.5440442160e+01    0.8497768    0.5971587  -5.85  0.004148343    1.912    0.477
       363 -11.0292     35.4706    161.4619   1.0073733686e+02   3.6665585074e+01    0.2250792    0.2214846  50.00 -8.73564e-07    1.128    0.113
       364 -11.8482     51.8378    161.8701   9.5963951265e+01   3.4762695997e+01    0.7842119    0.4202241 -78.72  0.003310141    2.035    0.509
       365 -10.6944     55.4856    161.4453   9.4827095113e+01   3.4434406116e+01    0.3320372    0.2780062 -81.14 0.0008633455    1.156    0.135
       366  -9.6393    177.1939    168.5955   6.4555397242e+01   1.3338548028e+01    0.1843093    0.1302252  21.25 0.0003387314    1.534    0.348
       367  -9.5201     77.3273    167.9633   8.9478036251e+01   2.9868279008e+01    0.2463881     0.121598 -87.82 0.0006779666    4.525    0.779
