#   1 NUMBER                 Running object number                                     
#   2 MAG_AUTO               Kron-like elliptical aperture magnitude                    [mag]
#   3 X_IMAGE                Object position along x                                    [pixel]
#   4 Y_IMAGE                Object position along y                                    [pixel]
#   5 X_WORLD                Barycenter position along world x axis                     [deg]
#   6 Y_WORLD                Barycenter position along world y axis                     [deg]
#   7 A_WORLD                Profile RMS along major axis (world units)                 [deg]
#   8 B_WORLD                Profile RMS along minor axis (world units)                 [deg]
#   9 THETA_WORLD            Position angle (CCW/world-x)                               [deg]
#  10 FWHM_WORLD             FWHM assuming a gaussian core                              [deg]
#  11 ELONGATION             A_IMAGE/B_IMAGE                                           
#  12 ELLIPTICITY            1 - B_IMAGE/A_IMAGE                                       
         1 -11.9817     39.6853     85.1920   1.1443544855e+02   5.4630526959e+01     3.636657     1.611234 -36.97   0.01530877    2.759    0.638
         2 -10.9590     90.5479     21.2620   7.4523466661e+01   5.9021682995e+01    0.4494322    0.3033547  22.33  0.001736907    1.523    0.343
         3 -11.2451     41.7370      4.1381   8.4285565408e+01   6.9664062488e+01    0.6546167    0.3561724  -9.33  0.003406942    2.069    0.517
         4 -12.7307    111.8624     68.4116   8.6117610596e+01   4.7074762131e+01     2.173452     1.514593  52.84  0.005027594    1.576    0.365
         5 -11.7897     77.8417     62.2613   9.4734661014e+01   5.4626647525e+01     2.558634      1.13552 -23.85  0.006205577    7.316    0.863
         6 -12.0434     54.6886      5.7875   7.9637941456e+01   6.7489494335e+01      1.58138    0.7094757  31.91  0.007551095    2.305    0.566
         7 -13.0741     72.4724     30.9784   8.4741315530e+01   6.1076294377e+01     2.263263    0.8312328  44.87  0.007256006    2.879    0.653
         8 -11.8267     50.9309     24.8254   9.0445652149e+01   6.5417425959e+01    0.5896133    0.3623244 -12.68 0.0003085804    1.790    0.441
         9  99.0000     68.4068     18.4338   8.0621309964e+01   6.3587301911e+01      1.44858    0.8933747 -11.78  0.007579803    1.695    0.410
        10 -12.7094     18.1969     96.0587   1.2351098334e+02   5.3943199622e+01     1.818283    0.7646694 -72.81  0.008595384    2.089    0.521
        11 -12.6124     54.1636     35.3758   9.3613781310e+01   6.3215778142e+01    0.8609182    0.7987101  -6.39  0.003846003    1.191    0.160
        12 -11.3998     23.6017     30.5570   1.0514866093e+02   6.7565639749e+01     1.057342    0.2441237 -52.45  0.003863269    3.797    0.737
        13 -11.7811     30.3492     20.1312   9.7618569165e+01   6.8739601771e+01     2.282941    0.3428062 -45.22   0.00693087    5.575    0.821
        14 -12.3656      8.4712     26.0804   1.1087102660e+02   6.9555931816e+01     0.799373    0.5225855 -28.27  0.003361618    1.319    0.242
        15 -12.0224     19.8056     13.7445   9.9993281982e+01   7.0850586012e+01     0.697091    0.4703742   6.08  0.004604048    1.501    0.334
        16 -12.1938     12.3136      6.9798   1.0082083231e+02   7.2609541307e+01    0.6902448    0.3250762 -36.62  0.002399256    1.657    0.397
        17 -12.6428      3.2140     17.5549   1.1046069636e+02   7.1455054833e+01    0.4064121    0.2215908 -38.98  0.000340768    1.369    0.270
        18 -13.5026      3.8661      9.6970   1.0687034963e+02   7.2796820038e+01    0.6887327    0.3114282 -50.27 0.0008820539    1.833    0.455
        19 -11.2595     25.1413      5.0922   9.2894932773e+01   7.1640324649e+01    0.6107088    0.4700318   7.44  0.004339322    1.225    0.184
        20 -13.2298    101.9365     53.5472   8.3897873249e+01   5.1824464229e+01      2.28999     1.024541  29.91    0.0011334    3.568    0.720
        21 -12.6490     77.5046     49.2857   9.0258366909e+01   5.7143832897e+01     1.571546     1.502059  86.78  0.008823873    1.363    0.266
        22 -11.9974     41.3894     40.7594   1.0101227228e+02   6.3857943433e+01     1.243922    0.7049237  -2.36  0.005867738    2.607    0.616
        23 -12.3289     40.5214     19.8833   9.2742912011e+01   6.7588549727e+01     1.270049    0.6231186 -30.27  0.004699185    1.860    0.462
        24 -11.9722    129.6593     20.0934   6.4128670580e+01   5.0337729361e+01     1.311882    0.3049366  53.18    0.0036481    3.357    0.702
        25 -10.8985    129.9128     14.2508   6.1880060778e+01   5.0895564074e+01    0.8851658    0.2605003  52.98  0.003050257    2.762    0.638
        26 -13.0156     99.2264      7.1764   6.5939086076e+01   5.8737463254e+01     1.007925      0.59579  43.87  0.001246568    1.504    0.335
        27 -11.1367    158.8879     21.8353   5.9295914654e+01   4.2832823540e+01    0.8519939    0.4943829 -28.47  0.003745897    1.777    0.437
        28 -12.2413    166.6874     23.9995   5.8743961669e+01   4.0596194020e+01    0.5456613    0.4505376 -75.75  0.001479933    1.311    0.237
        29 -11.8790    150.1715     16.6936   5.9021616039e+01   4.5600019334e+01      1.19651    0.6555697  39.80  0.002979231    1.929    0.482
        30 -10.9844    168.4498     12.9101   5.4949553263e+01   4.1323424715e+01     1.827551    0.7696829 -88.75  0.005230911    5.156    0.806
        31 -11.3156    163.8716      4.9158   5.3032863798e+01   4.3243756212e+01    0.8863334    0.6940684 -12.06  0.004987875    1.433    0.302
        32 -11.3929    100.7330     36.7896   7.7913683428e+01   5.4783435673e+01     1.476349    0.7060422 -14.41   0.00154003    3.506    0.715
        33 -11.8662    111.8615     21.4973   6.8755345335e+01   5.4376730728e+01     0.947897       0.7153 -45.05  0.005074078    1.548    0.354
        34 -10.7150    117.1913     15.2938   6.4999412545e+01   5.3834213688e+01    0.4363163    0.3387986 -79.76  0.000331692    1.745    0.427
        35 -12.0242    110.0020     30.0613   7.2654152830e+01   5.3723779377e+01    0.5876974    0.3685125  72.76 0.0003838731    2.349    0.574
        36 -11.8285    177.2888     26.4311   5.7891496913e+01   3.7602061240e+01      1.24376     0.980006 -29.59  0.006389054    1.312    0.238
        37 -11.3574    111.0689      7.7877   6.3347888552e+01   5.6006637497e+01    0.4130875    0.3012914  75.54 0.0007928936    1.621    0.383
        38 -10.2434    218.0363     13.3201   4.9341714258e+01   2.8874524264e+01    0.7865363    0.2653446  72.09  0.003028036    2.908    0.656
        39 -11.0209    215.4591     24.3389   5.2468296682e+01   2.8281967889e+01    0.8615282     0.458383 -40.29  0.004093065    1.743    0.426
        40 -10.9163    211.4991     16.3744   5.0784012986e+01   3.0130204756e+01    0.6787304    0.4438778  -6.91  0.003133995    2.003    0.501
        41 -10.3690    226.3356      8.3285   4.7342680214e+01   2.7426194098e+01    0.7115083    0.3824274  16.64  0.002693098    4.220    0.763
        42  -8.8842    221.4855      9.6844   4.8100790493e+01   2.8430190712e+01    0.3191812    0.1813197  68.75  0.001165634    1.690    0.408
        43 -10.7093    161.5548     40.6489   6.5002213840e+01   3.9836662229e+01    0.6661207     0.520052  65.42  0.002740331    1.282    0.220
        44 -10.6187    242.6215     12.9655   4.7119542577e+01   2.3213916845e+01    0.4449792    0.3431548 -32.62  0.001569861    1.292    0.226
        45 -11.8899    236.7001     30.4856   5.1836599967e+01   2.2560096455e+01     1.909571    0.8158761 -21.01  0.007626292    2.882    0.653
        46 -10.2648    238.8510     15.2883   4.7973670801e+01   2.3809654305e+01    0.3900544     0.209056 -50.45  0.001150967    1.700    0.412
        47 -11.1607    233.1724     10.8990   4.7396331084e+01   2.5573939737e+01    0.5913337    0.4871233   2.77  0.000695182    1.573    0.364
        48  -9.9577    233.5221      7.4581   4.6542172487e+01   2.5850877748e+01    0.2316254     0.201831 -81.56   4.1902e-05    1.068    0.064
        49 -11.3130    116.1256      8.8948   6.2673862055e+01   5.4724001954e+01    0.4284615    0.3017313   4.37 0.0008733391    1.534    0.348
        50 -10.5894    202.1717     18.7021   5.2418889636e+01   3.2175202401e+01    0.5735543    0.3322544  56.03  0.002334833    1.707    0.414
        51  -9.6101    185.7283     14.4135   5.3138766382e+01   3.6763877977e+01    0.6032003    0.2373989  75.65  0.002249654    2.765    0.638
        52  -9.5144    142.4207     10.6119   5.8222603445e+01   4.8156628366e+01    0.4909311    0.2292121  34.35  0.001195602    2.610    0.617
        53  -9.1375    138.8536      8.3345   5.8024283131e+01   4.9260075633e+01    0.2299276    0.1802997  75.41 0.0009234487    1.299    0.230
        54 -10.9263    132.4933      4.6115   5.7779780221e+01   5.1165518262e+01    0.5344214    0.3025249  48.00  0.001967014    1.584    0.369
        55 -11.1068    139.0173      2.1030   5.5748930546e+01   4.9761325069e+01    0.3961293    0.3094921  58.47 0.0008589889    1.146    0.128
        56 -10.0799    173.4543      8.7556   5.2981700422e+01   4.0447897723e+01     0.275046    0.2207783 -26.53 0.0005374182    1.333    0.250
        57 -10.5667    181.6841      5.2867   5.0933109491e+01   3.8678643897e+01     0.763711    0.4028693 -76.11  0.002784894    2.427    0.588
        58  -8.7562    174.6251      4.0374   5.1391711096e+01   4.0583841083e+01    0.2647405    0.2163839  43.87 0.0009861799    1.266    0.210
        59 -11.1640    199.3298      5.3823   4.9063064826e+01   3.4241031187e+01    0.5635505    0.4252115 -46.50   0.00131055    1.300    0.230
        60  -9.4487    189.9513      6.9084   5.0473295833e+01   3.6439058545e+01     0.354941    0.3366402 -73.32   0.00146425    1.059    0.055
        61  -9.4696    122.6663      9.9180   6.1691780549e+01   5.3074182573e+01    0.2725387    0.2171912 -87.19  0.001143192    1.546    0.353
        62  -8.2550     82.4505      2.5144   6.8400105565e+01   6.2732901071e+01    0.2072357     0.129692  25.93  0.000863288    1.524    0.344
        63 -10.3408     77.3870      9.2522   7.3180848984e+01   6.3051630116e+01    0.2868303    0.2294719  -7.27 0.0006469787    1.157    0.136
        64  -8.6536     77.7087      4.4115   7.0751359221e+01   6.3496843902e+01    0.3185412    0.1342438  36.11  0.001390552    2.351    0.575
        65  -9.5163    249.8050      7.5914   4.5347828739e+01   2.2200703014e+01     0.309857    0.1839528 -48.05  0.001749778    1.446    0.308
        66  -9.9857    248.5789      1.8067   4.4136284101e+01   2.3059350640e+01    0.2591957    0.1937935 -83.50 0.0008558956    1.237    0.191
        67  -9.9219    207.8141      3.1573   4.7654830413e+01   3.2365872816e+01    0.6088069    0.1944128 -41.59  0.002354946    2.805    0.644
        68 -10.8578    217.9953      4.9380   4.7209481834e+01   2.9737643170e+01    0.6839791    0.2321698  51.26 0.0003493817    3.389    0.705
        69  -9.9359    213.1521      4.1929   4.7443523710e+01   3.0972273434e+01    0.3831569    0.2074133 -83.83  0.001727159    2.007    0.502
        70 -11.0938     47.1393    129.2513   1.2018340559e+02   4.3573617778e+01    0.7955329    0.2857794 -56.85  0.003380907    2.355    0.575
        71  -9.0709    183.9637    249.9775   1.0780770959e+02  -1.8417563589e-01    0.1713754        0.127  56.48  0.001135288    1.682    0.405
        72 -10.0765     72.7104    129.2916   1.1322181318e+02   4.0390804327e+01    0.2761061    0.2195065 -65.27 0.0009121555    1.149    0.130
        73  -9.2173     35.1699    129.9014   1.2349337362e+02   4.4651597142e+01    0.1970953     0.148276  84.44 0.0008051945    1.258    0.205
        74 -11.0494     40.2883    127.1628   1.2173608694e+02   4.4784652782e+01    0.3445347    0.2532201 -82.68  0.001297929    1.226    0.185
        75 -10.8375     24.1068    127.7175   1.2615606658e+02   4.6155927580e+01     0.474628    0.2633108  15.04  0.002515783    2.585    0.613
        76 -10.7846     55.8753    125.6541   1.1721810294e+02   4.3420042269e+01    0.4525844    0.2226045 -67.01  0.001409434    1.867    0.464
        77 -10.6131     59.1303    120.9956   1.1550035107e+02   4.4121943038e+01    0.3719282     0.270426 -36.09  0.001321778    1.611    0.379
        78 -11.3605     66.1341    124.8383   1.1422467804e+02   4.2325444678e+01    0.7153246    0.2804233 -50.79  0.002895813    2.397    0.583
        79 -11.0329     68.6849    120.9924   1.1279255110e+02   4.2889344595e+01    0.7299441    0.1828603 -52.44  0.002414114    3.418    0.707
        80  -9.2041     75.0338    124.6454   1.1171241851e+02   4.1152002272e+01    0.2269823    0.1804504 -81.26 0.0006164287    1.275    0.216
        81 -10.3521     14.1534    118.0943   1.2768939116e+02   4.9150451938e+01    0.4280353    0.3448502   2.19  0.002916171    1.692    0.409
        82 -10.5737     18.0645    122.7470   1.2717590664e+02   4.7789154178e+01    0.3700033    0.1922882 -77.45  0.000735271    1.618    0.382
        83  -9.7546     20.2433    119.0024   1.2612722880e+02   4.8484455159e+01    0.2467542    0.1447367 -72.12  0.001413214    1.376    0.273
        84  -9.6593     29.1713    119.7831   1.2375565336e+02   4.7561515905e+01    0.3593949   0.09645254  34.95  0.001452554    3.639    0.725
        85  -9.5330     92.0316    120.1935   1.0607043349e+02   3.9588553413e+01    0.3341298    0.2396708 -49.27  0.001488723    1.336    0.251
        86  -8.7094    235.6732    249.3305   9.8912178716e+01  -7.5818778274e+00   0.09572975   0.08251111  43.44 0.0007051082    1.708    0.415
        87 -11.7334      5.4556     80.8066   1.2524602013e+02   5.8211244546e+01     1.519079    0.4240377 -68.00  0.006473109    2.641    0.621
        88  -8.7287    161.6748    249.6879   1.1170016333e+02   3.2155604379e+00    0.1133831   0.07887614  17.01 0.0007040763    1.661    0.398
        89  -8.8363    124.9829    249.5120   1.1820499520e+02   8.7243440996e+00    0.1560438   0.08942241  23.35 0.0008102494    2.531    0.605
        90  -9.3027    108.3457    248.6900   1.2106969536e+02   1.1246476002e+01    0.1187094   0.06900468  61.29 0.0007045083    1.704    0.413
        91  -8.9011     11.3195    248.6753   1.3723509669e+02   2.2945019976e+01    0.1070524   0.04715021  63.29 0.0007045803    1.676    0.404
        92 -13.2214    145.5446     53.5753   7.2532751223e+01   4.1951098863e+01     3.204684    0.7875382  52.99 0.0009072893    3.707    0.730
        93  -9.0637      3.5213    246.4399   1.3833902704e+02   2.4052705033e+01    0.1566464   0.06716425 -69.91  0.001031398    2.437    0.590
        94  -9.5110    189.5090    244.4708   1.0608829598e+02  -3.3558768770e-01     0.171268    0.1124421 -54.46  0.001030874    2.390    0.582
        95  -8.9698    206.3302    244.7014   1.0318293763e+02  -2.8866174622e+00    0.1049604   0.08281787  51.60 0.0004992383    1.642    0.391
        96 -10.1818    142.3000    243.5939   1.1444175379e+02   7.0103195519e+00    0.3113407    0.1691732  28.10  0.001464911    2.067    0.516
        97  -9.1040    167.7557    241.9973   1.0963636587e+02   3.3240780104e+00     0.132314      0.10156 -41.52 0.0008938328    1.630    0.387
        98 -10.3447     14.6923    236.5017   1.3619273798e+02   2.4665365318e+01    0.3563302    0.1442228 -89.70  0.001100947    2.278    0.561
        99  -9.4672     12.7197    232.0771   1.3631375526e+02   2.5625067455e+01    0.2329725    0.1083272  64.75  0.001450076    1.662    0.398
       100  -8.2758    184.3368    236.3161   1.0586662515e+02   1.5101178861e+00    0.1218966   0.08056804  14.62 0.0007047968    1.698    0.411
       101  -8.9261    227.0995    231.5094   9.7604461978e+01  -4.4203871413e+00    0.1730221    0.0938476  34.23 0.0004995716    1.517    0.341
       102 -11.5271      6.5307     55.4131   1.2005097639e+02   6.3737650052e+01     1.057213    0.6523826 -78.17  0.006275625    1.725    0.420
       103 -12.5058     38.0292     64.1857   1.0985939449e+02   5.9460529473e+01    0.9615213    0.7969332  44.57  0.006118169    1.499    0.333
       104 -11.4340     52.0861     71.1195   1.0657876104e+02   5.6425282480e+01    0.3728871    0.3167432  48.72   0.00134111    1.428    0.300
       105 -12.1181     58.8452     69.1449   1.0358432661e+02   5.6004620505e+01    0.9955288    0.6535131  36.09  0.004587831    1.715    0.417
       106 -12.1221     23.8883     81.7449   1.1912190192e+02   5.6799510649e+01    0.7121129    0.4465345  87.49  0.001857025    2.034    0.508
       107 -11.3146     17.7388     81.4602   1.2118034137e+02   5.7312030071e+01    0.2165829    0.1728131 -61.90 0.0004381267    1.009    0.009
       108  -8.9168    202.1730    228.9496   1.0156605150e+02  -3.1554562497e-01    0.1688348    0.1415365  36.39 0.0004136192    1.232    0.188
       109  -8.8667     50.3422    227.6308   1.2963551319e+02   2.2401922272e+01    0.1742278   0.09435198  65.64  0.001075814    1.608    0.378
       110  -9.0320    110.9826    224.9826   1.1813011006e+02   1.4719723065e+01    0.2012836     0.124768  64.51  0.001142817    1.725    0.420
       111  -9.0695     98.9867    223.7605   1.2028839289e+02   1.6699371706e+01    0.1633081   0.08520393  41.42 0.0008451762    1.635    0.388
       112  -8.8016    131.9911    119.6213   9.5294090915e+01   3.2316390073e+01    0.2070239    0.1963364  41.94  0.000436267    1.066    0.062
       113  -8.7842     53.6920    118.3001   1.1657299660e+02   4.5408840070e+01    0.2002135    0.1535922 -65.32 0.0005572457    1.137    0.121
       114  -9.6669     50.3574    117.7795   1.1743960006e+02   4.5913275182e+01    0.2862256    0.2152858 -49.37 0.0009020508    1.304    0.233
       115 -11.5771     42.9126    115.9545   1.1927661917e+02   4.7145888394e+01    0.5095583    0.3580552 -49.51  0.001787926    1.382    0.276
       116  -9.6792    104.3975    116.8033   1.0188978878e+02   3.8246098536e+01     0.332918    0.2130619  51.49  0.001428805    1.709    0.415
       117  -9.7002     80.5583    115.4795   1.0828793678e+02   4.2485015680e+01    0.2601011    0.2163907 -53.39 0.0004446439    1.123    0.109
       118  -9.6904     84.0212    114.2432   1.0702560418e+02   4.2242715223e+01    0.2611736     0.225583  27.15 0.0003767009    1.298    0.230
       119 -12.3526     26.5851     70.7322   1.1581116080e+02   5.9058119721e+01    0.8902629    0.8276115  23.95   0.00210716    1.306    0.234
       120  -9.5099    109.3004    115.0546   1.0013513340e+02   3.7748363491e+01    0.3348401    0.2467271  70.38  0.001568925    1.736    0.424
       121  -9.2793     97.5975    114.4845   1.0323087527e+02   3.9965916835e+01    0.3103901    0.2364414 -31.41  0.001005787    1.483    0.326
       122  -9.7247     92.1021    112.8067   1.0439189720e+02   4.1277418140e+01     0.433609    0.2945407 -53.12  0.002127934    1.383    0.277
       123 -10.0851     56.9833    115.0338   1.1503012360e+02   4.5787705251e+01    0.3455675    0.2091334  65.21 0.0004840866    2.195    0.544
       124 -10.3816     32.7019    108.8053   1.2110617506e+02   4.9811374879e+01    0.5992777    0.4484532 -59.14  0.003062319    1.156    0.135
       125 -10.6179     42.9395    107.7729   1.1786796935e+02   4.9065062016e+01    0.5483717    0.3260827 -25.78  0.001528004    2.514    0.602
       126  -9.8880     48.5201    102.4437   1.1516219465e+02   4.9719954344e+01    0.4536595    0.1758928 -58.68   0.00192974    2.130    0.531
       127 -10.5554     48.4702     98.0551   1.1429307279e+02   5.0748898067e+01    0.7196456    0.3278839  17.37  0.002916208    3.431    0.709
       128 -10.3350     52.2893     92.4012   1.1184924371e+02   5.1626702889e+01    0.4254788    0.3797004 -83.56  0.001738421    1.188    0.158
       129 -11.0993     56.8189     85.2469   1.0866033779e+02   5.2718174222e+01     0.491334    0.3745672 -53.77  0.002289576    1.148    0.129
       130 -10.5529     51.5264     87.5287   1.1098162540e+02   5.2831630737e+01    0.4917973    0.3688378  18.42  0.002816288    1.589    0.371
       131  -9.3811     52.9945     82.7262   1.0932491743e+02   5.3748812142e+01    0.2880068    0.2035441 -47.19  0.001352677    1.234    0.189
       132  -9.3016    132.6868    112.3543   9.3291416257e+01   3.3729597021e+01     0.325364    0.2535683  89.55  0.001501419    1.732    0.423
       133 -11.0286     77.6391    102.0304   1.0611024700e+02   4.6038462924e+01    0.7894045    0.3496223  35.09  0.003228349    2.486    0.598
       134 -11.2995     67.4219    107.7872   1.1049300839e+02   4.6156036014e+01    0.6798109     0.373505 -31.97  0.002827985    2.630    0.620
       135  -9.8393     74.4607    107.2714   1.0827433708e+02   4.5293962563e+01    0.4217287     0.267633  28.88  0.001367522    1.831    0.454
       136  -8.5072    104.3663    109.1734   1.0005766948e+02   3.9972470486e+01    0.2073515    0.1351252 -59.67 0.0005502896    1.621    0.383
       137  -9.0778    149.3074    106.4876   8.7639030435e+01   3.1363986288e+01    0.4126928     0.139597 -36.22  0.001221468    3.408    0.707
       138  -9.8009    141.6216    103.0170   8.8570577444e+01   3.3769759775e+01    0.3498733    0.2756135 -37.83 0.0009354583    1.257    0.204
       139  -9.7391    171.3252    102.6691   8.1601169826e+01   2.7093872148e+01    0.3659793     0.262248  27.81  0.001064568    1.623    0.384
       140  -9.4775    133.6323    102.7494   9.0508757132e+01   3.5557114762e+01    0.2243568    0.1407144 -52.13 0.0009478778    1.691    0.409
       141  -8.5751    105.4478    102.8022   9.8132122656e+01   4.1194997005e+01    0.2057099     0.134884 -37.11 0.0005022915    1.589    0.371
       142  -9.4145     53.1067    104.3289   1.1412231180e+02   4.8760681367e+01    0.3303271    0.2442258 -70.08  0.001314775    1.258    0.205
       143  -8.8384     62.4630    102.4985   1.1086020193e+02   4.8043108808e+01    0.2506456    0.1204125 -57.28 0.0006855766    1.829    0.453
       144  -9.1253     63.6456     98.0687   1.0950388519e+02   4.8917013609e+01    0.3028889    0.2838871 -29.84  0.001871893    1.134    0.118
       145  -8.6522     40.6778    221.6742   1.3095305066e+02   2.4593167712e+01   0.09335954   0.08317944 -50.40 0.0003971935    1.686    0.407
       146 -10.8874      4.3559     99.8992   1.2828192309e+02   5.3947150620e+01    0.4188239     0.208207 -58.61  0.001540386    1.593    0.372
       147  -8.2802    167.6936    220.6756   1.0668421883e+02   6.4007241553e+00    0.1234674   0.08961677  10.77 0.0002930893    1.646    0.392
       148  -8.0294    184.2912    101.3165   7.8537357862e+01   2.4328295891e+01    0.1548417    0.1191674   8.38 0.0002238684    1.597    0.374
       149 -10.1974    116.1215    100.3564   9.4503454117e+01   3.9681080731e+01    0.4226389    0.2819127  -8.11  0.001663221    2.534    0.605
       150 -10.0400    121.0243     96.9889   9.2240771516e+01   3.9411409252e+01    0.3738538    0.2614053 -66.65  0.001592689    1.850    0.459
       151  -9.4137     74.4357     89.3797   1.0394849346e+02   4.9391904500e+01    0.5720297    0.1593248  38.79  0.001900063    3.795    0.736
       152  -8.9941     77.7432     93.2187   1.0389946323e+02   4.8031213886e+01    0.3444026    0.2464017 -19.40 0.0009883692    1.794    0.442
       153 -10.2501     88.5230     98.3474   1.0191406589e+02   4.5162550890e+01    0.6245477     0.433065 -26.80  0.002961482    1.752    0.429
       154 -10.0521     82.0086     89.0434   1.0145997405e+02   4.8301569656e+01    0.5286681    0.2896442 -52.61  0.001880557    1.715    0.417
       155 -10.3680     82.2883     80.8330   9.9065961956e+01   5.0052510411e+01      0.58623    0.2490947 -54.87  0.001207288    2.537    0.606
       156  -9.2639     35.0964     98.8541   1.1867393396e+02   5.1915293754e+01    0.2500112    0.2230475 -88.08  0.000945028    1.154    0.134
       157  -9.5558     38.5171     97.4732   1.1733577882e+02   5.1913092253e+01    0.2688294    0.1346107 -42.05  0.001269223    2.096    0.523
       158  -9.0819      3.4857    213.9971   1.3704239676e+02   2.9736459951e+01    0.1577941   0.07949685 -87.21  0.001043493    1.630    0.387
       159  -9.6159    158.9043     96.4628   8.2645640593e+01   3.1160475189e+01    0.4914871    0.3414324  80.53  0.001782074    2.207    0.547
       160  -9.8165     93.0376     89.4630   9.8168915904e+01   4.6366801751e+01    0.3071867     0.280496  45.34 0.0007867268    1.181    0.153
       161 -10.0685    114.4233     95.3901   9.3606455392e+01   4.1084277523e+01    0.4471729    0.2124676  51.05  0.001675733    2.421    0.587
       162 -10.3285    124.4648     92.9577   9.0174958280e+01   3.9540777316e+01    0.5216088    0.4037393  86.75  0.002312956    1.812    0.448
       163 -10.7059    120.2236     86.5885   8.9466187734e+01   4.1741116520e+01    0.9252886    0.4252471  57.36  0.003104993    3.151    0.683
       164  -9.9744    125.0120     83.2721   8.7173874095e+01   4.1393314451e+01    0.5378004    0.2998682 -56.74   0.00205228    2.356    0.576
       165  -9.0665    101.5111     88.3866   9.5325081455e+01   4.5070257930e+01    0.2358651     0.204136 -30.48 0.0005696813    1.137    0.121
       166 -10.0790     91.3354     77.6241   9.5235890790e+01   4.9197107725e+01    0.6886649    0.3536928  31.50  0.002817158    2.325    0.570
       167  -9.4495     96.7422     72.2130   9.1860315443e+01   4.9322665403e+01    0.4156226    0.2657258  44.64  0.001951747    1.669    0.401
       168 -10.9242    101.3121     69.1227   8.9460263870e+01   4.9063399890e+01     1.314012    0.6535735 -61.53  0.003914983    4.617    0.783
       169  -9.9467    103.4192     92.5111   9.5934418896e+01   4.3826671215e+01    0.3193559    0.2343603  31.87  0.001125008    1.485    0.326
       170 -11.2531    108.3785     86.4044   9.2743020898e+01   4.4178384751e+01    0.9353106    0.6514889   0.50  0.003778052    2.163    0.538
       171 -10.8820    103.9328     80.4887   9.2270941401e+01   4.6271808365e+01    0.4988976    0.3661049 -33.08 0.0009095185    1.354    0.261
       172 -10.4550     98.7207     77.3395   9.2867836656e+01   4.7910625429e+01    0.3932006    0.3539514  53.87  0.001066688    1.240    0.193
       173  -8.1601    153.3040     87.3533   8.1328134364e+01   3.4203691586e+01    0.1616037    0.1221169   6.47 0.0007040474    1.709    0.415
       174  -9.3074    141.0824     84.5780   8.3432020158e+01   3.7563907562e+01    0.3086885    0.2545404  88.06 0.0008816225    1.544    0.352
       175 -10.6517    133.6797     79.0976   8.3626848128e+01   4.0295937212e+01    0.7023972    0.4944874 -55.82  0.002996158    1.645    0.392
       176  -9.8813    146.3022     85.3368   8.2387028720e+01   3.6217750877e+01    0.5883173    0.2951826 -35.73  0.002261651    2.013    0.503
       177  -9.6517    149.5975     78.6642   7.9602093205e+01   3.6694195408e+01    0.4029818    0.2406443  36.81  0.001397089    1.877    0.467
       178  -9.8724    164.3069     85.8329   7.8412930503e+01   3.1879561782e+01    0.2714123     0.244876   8.90 0.0004611641    1.176    0.150
       179  -9.3073    186.4748     84.5426   7.3523518479e+01   2.6771818834e+01    0.2635869    0.1490128 -21.87  0.001021532    2.140    0.533
       180  -8.2600     76.7061     84.3507   1.0186397450e+02   5.0167617973e+01    0.1396843    0.1103796 -87.20 0.0002788669    1.678    0.404
       181 -10.0704    216.8598     80.8180   6.7250086509e+01   2.0179382953e+01    0.4719372    0.2522999 -30.29  0.002015758    1.810    0.447
       182  -9.9460    160.0760     81.8689   7.8181428948e+01   3.3613269371e+01    0.4114533     0.357697 -81.02  0.002063282    1.351    0.260
       183  -9.1000    179.2218     80.3790   7.3751219959e+01   2.9241755087e+01    0.2653191    0.1971653  64.48  0.000878127    1.470    0.320
       184 -10.4096    139.4100     75.3020   8.1009973270e+01   3.9699037601e+01    0.6802077    0.3790925 -26.60  0.002672778    2.084    0.520
       185 -10.5441    138.3406     68.2460   7.9035509976e+01   4.1225370307e+01    0.6961508    0.3661788  37.26  0.001609472    2.189    0.543
       186  -9.1999    131.8833     67.6614   8.0457883778e+01   4.2825118802e+01    0.3273182    0.2606658  42.95  0.000882321    1.259    0.205
       187 -11.0232    145.3991     75.7262   7.9691442777e+01   3.8222160064e+01    0.5480236    0.4175366  -9.90  0.002549947    1.555    0.357
       188 -10.1830    144.2136     71.4199   7.8629624899e+01   3.9278623517e+01    0.3236139      0.28598 -70.80 0.0008263679    1.301    0.231
       189 -10.0331    247.8130     75.7591   6.1607435862e+01   1.4077452642e+01    0.3731592    0.1935446 -48.43  0.001192412    1.958    0.489
       190  -8.8834    203.9936     75.9988   6.8041887858e+01   2.3966343681e+01    0.2337199    0.1771601  20.39  0.000977612    1.624    0.384
       191  -9.6026     27.6586    212.5976   1.3271413792e+02   2.7687757970e+01    0.2328972    0.1318915  32.58  0.001418825    2.027    0.507
       192  -8.5997    219.5136     74.9587   6.5313770295e+01   2.0470599035e+01     0.225583    0.1327603 -35.20   0.00101928    1.571    0.363
       193  -8.5629    192.9401     75.3681   6.9765536986e+01   2.6736130838e+01    0.2605094   0.09686726  38.70 0.0007036136    4.502    0.778
       194 -10.9201     88.2618     90.5561   9.9929645168e+01   4.6944224088e+01    0.6735103    0.3959987 -46.97  0.002265528    1.575    0.365
       195  -8.8268     84.5824     74.3587   9.6385578334e+01   5.1045629112e+01    0.2296225    0.1686171   9.36   0.00112974    1.699    0.412
       196  -8.6097    215.4288     71.7604   6.5089430869e+01   2.1910520127e+01    0.2004405    0.1373843 -17.83 0.0008093534    1.626    0.385
       197  -8.6345    154.2402     71.5846   7.6369907702e+01   3.6848877951e+01    0.2154056    0.1422185  43.31  0.000504411    1.543    0.352
       198  -9.5712    163.7135     68.0768   7.3246380434e+01   3.5131946163e+01    0.4195539     0.284215 -68.80  0.001747088    2.099    0.524
       199  -9.6512     84.5384     68.1711   9.4442537721e+01   5.2323319640e+01    0.2722563    0.2359353 -19.04 0.0009831461    1.121    0.108
       200  -9.8220    250.5085     63.9950   5.8461458749e+01   1.5161484758e+01    0.3531114    0.1197859 -31.25  0.001184791    2.631    0.620
       201 -10.5344    151.1591     66.7422   7.5546801728e+01   3.8429671117e+01    0.3818451    0.3531726  25.49 0.0009530365    1.091    0.084
       202  -8.6428    158.8652     58.2513   7.1190000055e+01   3.7929494770e+01     0.325045    0.2296433  23.83  0.001455062    1.738    0.424
       203 -10.1536    165.6746     62.3949   7.1098079533e+01   3.5575567524e+01    0.4181377    0.3862178 -23.56  0.001382421    1.088    0.081
       204  -8.2095    225.3799    211.7046   9.4617240239e+01  -1.7416352161e+00    0.1108627   0.09592513  58.84 0.0007021423    1.755    0.430
       205  -9.7246    165.5240     55.1377   6.8869668496e+01   3.6747454427e+01    0.6394302    0.3343972 -35.43  0.002627449    1.879    0.468
       206 -10.3594    160.2129     50.8684   6.8559209621e+01   3.8724072460e+01    0.5709864    0.3969367  86.38  0.002529333    1.908    0.476
       207 -10.1573     67.2707     62.3968   9.8471345685e+01   5.6241207530e+01    0.2548534    0.2150505 -28.06 0.0005702489    1.075    0.070
       208  -8.9168    189.0176     49.4794   6.3000212895e+01   3.1647290516e+01    0.2388961    0.1785352  46.19 0.0006168869    1.388    0.279
       209 -10.1990    185.7345     54.5445   6.5025788462e+01   3.1745897911e+01    0.4333243    0.2491678 -14.77  0.001712066    2.277    0.561
       210  -8.9979    178.7970     59.2841   6.7645721576e+01   3.2779033495e+01    0.5444778    0.2990225 -11.29  0.001961908    2.841    0.648
       211 -10.9825    181.9550     51.2247   6.4679220576e+01   3.3180143555e+01    0.5465844    0.3267722 -36.68  0.001002189    1.635    0.388
       212  -9.2044    201.5071     59.0014   6.3756075517e+01   2.7169244067e+01    0.3225808    0.2531026  57.35  0.001649501    1.299    0.230
       213  -8.4910    202.7173     55.6624   6.2640478950e+01   2.7356776438e+01    0.2145495    0.1260611 -38.91 0.0005828374    1.617    0.382
       214 -10.3485    174.8141     56.1357   6.7421791419e+01   3.4258472492e+01    0.6880444    0.3720595  -5.95  0.002229835    3.508    0.715
       215  -9.0568    137.9918     59.1763   7.6148346039e+01   4.2867487273e+01    0.2379953    0.1902273  27.81  0.000744656    1.327    0.246
       216 -11.9247     42.8712     50.0242   1.0365035107e+02   6.1891639289e+01    0.8129985    0.4877988   9.76  0.002354388    2.122    0.529
       217 -10.1571    222.7984     56.8177   6.0112842651e+01   2.2361879043e+01    0.3915797    0.3424749  73.64  0.002241545    1.197    0.165
       218  -8.1934     54.8249     49.8315   9.8838080397e+01   6.0470219346e+01    0.3008963    0.2309183 -10.37 0.0008854394    1.342    0.255
       219  -9.9243     54.7665     45.5851   9.7328576762e+01   6.1288011658e+01    0.3344959    0.2392079  47.95  0.001433418    1.849    0.459
       220 -10.7291     60.7786     52.3004   9.7430476768e+01   5.9178928261e+01    0.6656997    0.3107595 -49.16  0.002969705    2.051    0.513
       221  -9.7722     58.7672     46.0055   9.5923110735e+01   6.0658771650e+01    0.3256171    0.1951455 -37.13  0.001102913    1.479    0.324
       222 -10.3520    195.6998     54.0157   6.3254182075e+01   2.9329373000e+01    0.5319639    0.2706106  67.56  0.002149045    2.166    0.538
       223  -8.7429    243.7154     54.3162   5.6911725420e+01   1.7947396290e+01    0.2652867    0.1411713  42.29  0.001173426    2.445    0.591
       224  -8.5352     51.6534     53.1443   1.0121472444e+02   6.0228024384e+01    0.1933025    0.1489066 -54.20  0.000529772    1.342    0.255
       225  -9.0658    126.8593     51.0281   7.6100146459e+01   4.6809578644e+01    0.2151363    0.2069929   0.01 0.0003011222    1.027    0.026
       226  -8.2879    125.6943     47.3375   7.5086261821e+01   4.7659800565e+01    0.3314024    0.2521208  73.70  0.001363027    1.648    0.393
       227 -10.0047    128.5381     45.4255   7.3697544904e+01   4.7287605495e+01    0.4577561    0.3042423 -68.47  0.001905528    2.429    0.588
       228 -10.1488    130.5997     41.4652   7.1783410323e+01   4.7383722334e+01    0.5731682    0.2184438 -32.16  0.002084174    2.597    0.615
       229  -9.8108    171.1295     48.4374   6.5724094387e+01   3.6321379539e+01    0.3964877    0.2713577 -28.42  0.001116797    1.491    0.329
       230  -8.5359     16.6130     50.1969   1.1460128604e+02   6.4224097476e+01    0.1768013   0.08014678 -49.12 0.0006720218    1.661    0.398
       231  -9.9429    225.4799     49.0629   5.7757528268e+01   2.2797586721e+01    0.2469575    0.1977388  84.13   0.00055931    1.323    0.244
       232 -10.7376    173.8672     38.4103   6.2130358703e+01   3.6997795367e+01     1.305047    0.3851001  63.87   0.00395561    3.464    0.711
       233 -10.5231    136.1827     25.0338   6.4596315238e+01   4.8178614221e+01    0.2940088    0.2371161  22.61  0.000238106    1.285    0.222
       234  -9.6759    123.9975    205.9880   1.1320715530e+02   1.6050749148e+01    0.1823293    0.1580516  51.30            0    1.007    0.007
       235 -10.0097    244.4150    204.2483   9.0025046942e+01  -3.7508761921e+00    0.2273418    0.1491802  11.19  0.001361249    1.415    0.293
       236  -8.9967    234.2342    199.7564   9.0947124276e+01  -1.5963968186e+00    0.1931827   0.09139816 -21.70 0.0008913115    2.443    0.591
       237  -9.1208     27.5923    194.2090   1.3150954305e+02   3.1289830863e+01    0.1537223   0.08824519 -69.89 0.0009557698    1.637    0.389
       238  -8.8175     10.4160    192.2467   1.3468623016e+02   3.3308261904e+01    0.1664302    0.1355919  26.05  0.001262092    1.706    0.414
       239 -10.8694    148.9141     23.8137   6.1696179474e+01   4.5143211674e+01    0.8777243    0.3095921  64.98 0.0008875798    2.870    0.652
       240 -10.1456    245.2975    186.9845   8.6662625560e+01  -1.6861924954e+00    0.2435837     0.188737  -0.69 0.0005787936    1.097    0.089
       241  -9.4051      1.5308    187.5612   1.3610794985e+02   3.5000117847e+01    0.2232256   0.08390757 -81.05  0.001210183    2.172    0.540
       242  -9.3192     11.5114    184.4847   1.3400797059e+02   3.4779710231e+01    0.1856897   0.07731182 -67.54 0.0009137867    2.133    0.531
       243  -9.6527      6.0614    182.1454   1.3493396386e+02   3.5722769530e+01    0.1771359    0.1213714 -88.06 0.0002575919    1.158    0.136
       244 -10.8566     19.7257    183.8334   1.3233520269e+02   3.4170977761e+01    0.4019283    0.1920939  28.05  0.002235014    2.581    0.613
       245  -8.3962     37.3205    179.3409   1.2835290504e+02   3.3359303700e+01    0.1114454   0.08435699 -48.37 0.0007050072    1.719    0.418
       246 -10.7903    107.8378     35.5781   7.5409950965e+01   5.3439747372e+01    0.6274176    0.4525796  81.52  0.002939755    2.169    0.539
       247  -9.5084      1.8106    177.9690   1.3552610446e+02   3.6923244493e+01     0.225961    0.1232752  87.45  0.001443712    1.455    0.313
       248 -10.7527    182.9821     27.2354   5.7312054016e+01   3.6053725576e+01     0.453917    0.3307528  31.70 0.0002597042    1.601    0.375
       249  -8.7977     80.2519    176.7575   1.1866432525e+02   2.8598385513e+01    0.2022571    0.0891676 -52.27 0.0006624461    2.457    0.593
       250  -9.0189     28.4973    177.5040   1.3005676718e+02   3.4652585288e+01    0.1703617    0.1314739  82.02 0.0008532928    1.024    0.024
       251 -12.8761     20.4801     57.2090   1.1486544252e+02   6.2469766282e+01    0.9725111    0.4523255 -35.95 0.0005608673    2.142    0.533
       252  -9.3794    230.5301     45.6433   5.6277102549e+01   2.2075819002e+01    0.3311226    0.2139009  62.27  0.001202646    1.611    0.379
       253  -9.7431    198.8862     48.4984   6.1201471890e+01   2.9313706717e+01    0.5448035    0.2970773  27.81  0.001991242    3.107    0.678
       254  -9.7407    207.4183     45.9874   5.9287188084e+01   2.7547254699e+01     0.401573    0.2005918  62.09  0.001347154    1.996    0.499
       255 -10.1151    213.9965     42.3255   5.7424823390e+01   2.6428143053e+01    0.5651218    0.3332599   5.22  0.001941704    3.095    0.677
       256  -8.5641     24.9922    176.4968   1.3071077241e+02   3.5207001821e+01    0.2047648    0.1523699  47.50 0.0007159741    1.369    0.269
       257  -9.0128     45.9805    170.9520   1.2566958280e+02   3.4217378465e+01    0.1984709    0.1208926  71.19  0.000768598    1.610    0.379
       258 -10.4701     18.3166    164.9668   1.3121838704e+02   3.8289831648e+01    0.3041247     0.177455  65.80 0.0009845957    1.568    0.362
       259 -10.3263    216.5634     35.8949   5.5395117396e+01   2.6628717597e+01    0.6498883    0.3064243  74.68  0.002187444    2.390    0.582
       260 -10.2311    210.5989     32.3530   5.5160797965e+01   2.8516227528e+01    0.4281035     0.311231 -22.38  0.001269051    1.471    0.320
       261 -10.7808     12.0241    166.3959   1.3268229617e+02   3.8521695357e+01    0.3698759    0.2420891 -69.20  0.002467593    1.400    0.286
       262 -10.9259      9.1516    160.5291   1.3287052948e+02   4.0017219508e+01    0.4456452    0.1727807 -66.36  0.002336233    2.140    0.533
       263  -8.7501    133.9236     46.4489   7.2765046560e+01   4.5856137963e+01    0.1973736    0.1331843  87.82 0.0008052483    2.369    0.578
       264  -8.5359      5.8660     40.5331   1.1663240932e+02   6.6877124211e+01    0.1444442    0.1085926  -3.12 0.0004477494    1.509    0.338
       265  -8.4802     16.9406     45.3375   1.1309511116e+02   6.5204262859e+01    0.3606266    0.1802242 -35.20  0.001942042    1.848    0.459
       266  -8.9606     12.3630     34.0000   1.1167155770e+02   6.7783426186e+01    0.2605393    0.1482854  28.11   0.00138736    2.132    0.531
       267 -10.7690     16.1608     31.3313   1.0896381562e+02   6.8027640022e+01    0.3259658    0.2457346 -58.84 0.0008721507    1.410    0.291
       268 -10.7245     12.1858     42.0856   1.1424183119e+02   6.6186793191e+01    0.5872412    0.3021495 -13.38  0.002135481    2.487    0.598
       269 -10.0778     21.1668     40.3443   1.0969581869e+02   6.5891748745e+01    0.2124341    0.1920261  49.34 0.0001360702    1.518    0.341
       270  -8.7204    179.9055     44.6605   6.3046607641e+01   3.4622006491e+01    0.2018479     0.180851  59.32 0.0005767434    1.101    0.092
       271 -10.2001      2.2555    160.2598   1.3433911962e+02   4.0605101761e+01    0.4049256    0.1799653 -82.99  0.002263681    1.809    0.447
       272 -10.3196    137.5782     42.2582   7.0452455454e+01   4.5590303349e+01    0.5965763    0.3557117 -30.49  0.002677088    1.695    0.410
       273 -10.4857    143.6006     42.6702   6.9268764224e+01   4.4057171165e+01    0.6175197    0.3022929  53.15  0.002517603    1.933    0.483
       274  -9.4486    142.7141     38.9452   6.8171709900e+01   4.4795757658e+01    0.2437786    0.2117551 -20.45 0.0005075453    1.177    0.150
       275 -10.2921    148.6365     34.6996   6.5492670224e+01   4.3887081986e+01    0.5148306    0.3030286  64.94  0.001507612    1.748    0.428
       276  -9.3178    143.4991     34.4557   6.6444737949e+01   4.5201212729e+01     0.263574    0.2039019 -42.88  0.000771543    1.377    0.274
       277  -9.5905    106.4710     44.8538   7.9352743137e+01   5.2332104246e+01    0.3936972    0.2258283  49.62  0.001778402    1.776    0.437
       278  -9.8849     66.9054     43.2446   9.1784933379e+01   5.9952989384e+01    0.4127331    0.2272372 -40.49  0.001491021    1.667    0.400
       279  -9.6553     18.4086     37.2403   1.0992773440e+02   6.6717261073e+01     0.263712     0.218847 -61.57  0.001286219    1.351    0.260
       280  -8.4630    219.7804     42.4360   5.6732650472e+01   2.5022227096e+01    0.1840967    0.1244888  52.63 0.0005173387    1.569    0.363
       281 -10.8758    202.9127     38.4584   5.7812775007e+01   2.9648551628e+01    0.5489061    0.3919381 -25.89  0.001962083    1.446    0.308
       282  -9.4455    202.9010     26.9053   5.4600944512e+01   3.1067487484e+01     0.437385    0.3775073 -77.36  0.002529234    1.127    0.113
       283  -8.7475    225.0161     41.5119   5.5865544587e+01   2.3899883263e+01    0.2027164     0.132785  66.62 0.0005587676    1.569    0.363
       284  -9.8936    199.5618     31.8560   5.6403976500e+01   3.1309047698e+01    0.4164825    0.3608206  20.79  0.002196926    1.345    0.256
       285  -8.4408    196.9763     41.5322   5.9500218207e+01   3.0729874355e+01    0.2137937    0.1396894  68.06  0.001013442    1.547    0.353
       286  -9.9991    194.5120     30.9062   5.6800043350e+01   3.2691975719e+01    0.5034974    0.3084338  14.72   0.00210301    2.591    0.614
       287  -9.4338    190.5664     40.0645   6.0009177696e+01   3.2534866058e+01    0.2567822    0.2458315 -32.16 0.0009626189    1.074    0.069
       288  -9.3259    192.7473     36.4170   5.8632453942e+01   3.2454099139e+01    0.2800312    0.2716029  72.00  0.001647662    1.045    0.043
       289  -9.2682    235.9578     38.4186   5.3864563921e+01   2.1756016513e+01    0.2202404    0.1823439 -12.63 0.0003167115    1.382    0.277
       290 -10.4816    246.1354     26.0339   4.9886274471e+01   2.0968463448e+01     0.553736    0.2635515  76.46 0.0007800286    2.288    0.563
       291 -12.2331     20.2602    147.9321   1.2928871152e+02   4.1875711708e+01     0.586435    0.4640827 -73.46  0.002827538    1.154    0.133
       292  -9.4874    242.7127     34.0258   5.2105676548e+01   2.0775199332e+01    0.2861973     0.188953 -60.56 0.0006918323    1.497    0.332
       293 -10.3811    247.8409     32.4283   5.1236703605e+01   1.9834328599e+01    0.3996288    0.2742157  35.18  0.001469941    2.001    0.500
       294 -10.5336     15.1505    143.3466   1.3007503091e+02   4.3326428982e+01    0.3370287    0.1724778 -58.78  0.001892358    1.805    0.446
       295 -10.1510    240.5727     20.3337   4.9026574160e+01   2.2862447136e+01    0.3711951    0.2054641 -37.54  0.001093381    1.604    0.377
       296 -10.8176    246.2367     19.1175   4.8259724547e+01   2.1736381836e+01    0.5344038    0.2421541  71.57  0.002215439    2.248    0.555
       297  -9.1286     30.5846    151.2556   1.2716829458e+02   4.0194018625e+01    0.1640239    0.1287831 -57.30  0.000979943    1.368    0.269
       298 -10.2204     36.1700    151.3107   1.2583931377e+02   3.9632839231e+01    0.3290398     0.193015  56.63  0.001380497    1.710    0.415
       299 -11.0589     39.3374    147.2407   1.2460369656e+02   4.0234605754e+01    0.4203654    0.3513634  87.84  0.002066612    1.034    0.033
       300  -8.5173    123.5985     36.1625   7.1530310134e+01   4.9786191238e+01    0.2369879    0.2004451  64.50 0.0008414277    1.287    0.223
       301  -9.0343    126.4506     32.0144   6.9303904205e+01   4.9670773736e+01    0.4304462    0.2044918  44.59  0.001456615    2.038    0.509
       302  -9.3799    155.0387     33.6575   6.3910741472e+01   4.2407078759e+01    0.3454517    0.2112479 -14.27  0.001253984    1.929    0.482
       303  -8.8242    138.3009     31.3419   6.6428038506e+01   4.6887034179e+01    0.2387751    0.1987096 -54.00 0.0006913466    1.361    0.265
       304  -9.3394     32.5703     33.0546   1.0196175634e+02   6.6247377240e+01    0.2179973     0.140504 -31.36 0.0007776767    1.318    0.241
       305  -9.8548     38.2902    143.0197   1.2435702482e+02   4.1308504897e+01    0.1923677    0.1785174 -64.12 0.0005566961    1.228    0.185
       306  -9.3808    228.2270     31.1960   5.2875438710e+01   2.4432159830e+01    0.2576516    0.1959761 -68.83 0.0007383029    1.301    0.231
       307 -10.3314    225.5528     27.5222   5.2223541801e+01   2.5498461323e+01     0.475343    0.3073055 -42.75  0.002390123    1.421    0.296
       308  -9.5172    152.8030     44.2061   6.7866636549e+01   4.1551320516e+01    0.3191693    0.2464695 -17.47  0.001406916    1.382    0.276
       309 -10.8173    134.7609     33.9464   6.8125704189e+01   4.7417515111e+01    0.3396962    0.2679708  -2.22 0.0002657877    1.378    0.274
       310  -9.3493    146.2994     29.2259   6.4063321978e+01   4.5162180996e+01    0.3398082    0.1978049  41.73   0.00151342    1.746    0.427
       311  -9.9565     97.3056     21.8782   7.2801164929e+01   5.7538180378e+01    0.2867348    0.2389188  17.70 0.0009718528    1.105    0.095
       312  -9.4812     87.2130    149.1578   1.1291188096e+02   3.3682757059e+01    0.2024865     0.186448 -51.20  0.000762985    1.182    0.154
       313  -9.5833    197.0482     18.2330   5.2877541502e+01   3.3504899320e+01    0.3530252    0.2398987  13.63  0.001567366    2.043    0.510
       314  -8.6423     86.9636     16.0428   7.3310342600e+01   6.0385551528e+01    0.1596712    0.1373053   2.93 0.0009668191    1.056    0.053
       315  -9.8675     66.6076    148.3884   1.1796471938e+02   3.6777803221e+01    0.2480424    0.2278218 -62.40  0.001287894    1.169    0.145
       316 -12.2392      9.6469    111.2202   1.2812835304e+02   5.1037293513e+01      1.10174    0.5774313 -42.29  0.006016787    2.158    0.537
       317  -9.2095     45.6935    148.3395   1.2317109739e+02   3.9306450519e+01    0.2420853    0.1702734 -80.22  0.001323114    1.250    0.200
       318 -10.0643     45.9916    144.9622   1.2266892210e+02   4.0048431018e+01    0.3323849    0.2618232 -25.27  0.001931355    1.785    0.440
       319 -10.1956      8.8279    134.6264   1.3080357164e+02   4.5765705461e+01    0.4275068    0.2136045  24.38  0.002216352    2.495    0.599
       320 -10.5436      5.1092    147.1521   1.3275802948e+02   4.3242547551e+01    0.2997853    0.2113236  24.06  0.001726692    1.844    0.458
       321 -11.2484      5.9574    142.5383   1.3218952201e+02   4.4201521842e+01    0.6783961     0.395032  74.52    0.0037944    1.588    0.370
       322 -11.3244     14.1686    131.2615   1.2913411904e+02   4.6135559215e+01    0.7174074    0.4911508  42.32  0.004658403    1.617    0.381
       323 -10.6994     12.4882    125.8991   1.2900656725e+02   4.7482112074e+01    0.3723129    0.2560179  43.00  0.002260711    1.622    0.383
       324 -10.9247     29.3832    141.9042   1.2645037764e+02   4.2428676586e+01    0.5300288    0.2638846 -69.23  0.002814673    1.664    0.399
       325 -10.5287     23.1179    137.1777   1.2749531279e+02   4.4066322221e+01    0.4603193    0.2559337  20.53   0.00252977    2.402    0.584
       326  -9.0774     23.3044    133.3255   1.2702038086e+02   4.4932531912e+01    0.2253404    0.1389859 -64.59   0.00102484    1.377    0.274
       327  -9.0696     80.5596    140.6722   1.1315701251e+02   3.6621230703e+01    0.2412884    0.1768037 -46.64 0.0006726241    1.446    0.308
       328  -8.5351     97.7943    140.5910   1.0868779321e+02   3.3957761588e+01    0.1941248    0.1270519  51.52 0.0003929839    1.585    0.369
       329  -9.9493     55.0894    138.0394   1.1937987261e+02   4.0612970917e+01    0.2685166    0.1675388 -59.43 0.0008811273    1.453    0.312
       330  -9.4383     48.9825    138.5960   1.2105041213e+02   4.1188631726e+01    0.3869496    0.1783082  56.86  0.001681615    2.672    0.626
       331  -9.4684    237.5037    135.4769   7.7212045553e+01   7.1174204924e+00    0.1390453    0.1221737 -10.00 0.0008102299    1.003    0.003
       332  -9.6320     86.8790    134.3162   1.1034396511e+02   3.7140196010e+01    0.3779318    0.1994904  35.51  0.001682111    2.039    0.510
       333  -8.9718     94.5832    132.9788   1.0804232013e+02   3.6225055314e+01    0.2784086     0.118466 -47.47  0.001072576    2.380    0.580
