#   1 NUMBER                 Running object number                                     
#   2 MAG_AUTO               Kron-like elliptical aperture magnitude                    [mag]
#   3 X_IMAGE                Object position along x                                    [pixel]
#   4 Y_IMAGE                Object position along y                                    [pixel]
#   5 X_WORLD                Barycenter position along world x axis                     [deg]
#   6 Y_WORLD                Barycenter position along world y axis                     [deg]
#   7 A_WORLD                Profile RMS along major axis (world units)                 [deg]
#   8 B_WORLD                Profile RMS along minor axis (world units)                 [deg]
#   9 THETA_WORLD            Position angle (CCW/world-x)                               [deg]
#  10 FWHM_WORLD             FWHM assuming a gaussian core                              [deg]
#  11 ELONGATION             A_IMAGE/B_IMAGE                                           
#  12 ELLIPTICITY            1 - B_IMAGE/A_IMAGE                                       
         1  -9.2233     76.9765     25.4624   7.4872563452e+01   6.2084433153e+01    0.2159401    0.1688794 -23.80 0.0004624142    1.167    0.143
         2  -9.7371    188.7348     20.5970   4.8449688736e+01   3.5289383138e+01    0.2975501    0.2581903 -70.51 0.0008998471    1.136    0.120
         3  -9.2838     97.7410     12.3207   6.2012627374e+01   5.9482454948e+01    0.3253537    0.1847029  -8.86  0.001354013    1.974    0.493
         4  -8.3965     80.1586     12.1961   6.7213917073e+01   6.3284101042e+01    0.1750919    0.1574371 -44.10 0.0004183054    1.349    0.259
         5  -7.9493    137.0143      6.9767   5.1153809451e+01   5.0385534553e+01    0.1672755    0.1546798  53.59            0    1.025    0.025
         6  -9.2932    237.7740      4.3797   3.9263810505e+01   2.4743097335e+01    0.1736507    0.1133867  65.88 0.0003818811    1.618    0.382
         7  -9.3831    229.9583      2.4723   3.9327828908e+01   2.6775250656e+01    0.2083112    0.1677631 -36.91 0.0007532575    1.177    0.150
         8  -8.5652     97.3317    243.2142   1.1627378400e+02   1.4046096138e+01    0.1820485    0.1527749  43.15   0.00141164    1.278    0.218
         9 -10.7699    246.1080    248.2434   9.1831517856e+01  -7.8870934568e+00    0.4946605    0.2616319  36.60  0.002685568    1.571    0.364
        10 -10.3267    250.1311    241.7547   9.0256390078e+01  -7.8265728642e+00    0.4073053    0.1649176 -27.44  0.002361119    2.661    0.624
        11 -10.2588    195.6706    248.7194   9.9988362453e+01  -9.6757623967e-01    0.3188051    0.2120669  18.75  0.002195782    1.431    0.301
        12 -10.8803    162.6529    234.2612   1.0379565050e+02   5.7423107827e+00    0.5441713    0.2151915  37.06  0.001440925    2.121    0.528
        13 -11.6184    173.8730    244.1999   1.0308788954e+02   2.7627359166e+00    0.6613103    0.5429033 -77.86  0.004731755    1.928    0.481
        14 -10.3596    169.7822    232.2367   1.0227201919e+02   4.9121299706e+00    0.3416681    0.2824423  59.27  0.001381479    1.405    0.288
        15 -11.7153    164.2347    226.5573   1.0251348681e+02   6.5516195422e+00     0.819731    0.3340049  35.17   0.00390803    2.236    0.553
        16  -9.2021    114.9206    228.4826   1.1174849778e+02   1.3850906901e+01    0.3138807    0.1560437 -54.90  0.001382298    2.450    0.592
        17  -9.4208    114.8987    221.5273   1.1100841465e+02   1.4980459010e+01    0.2443798    0.2194335 -20.78  0.001082602    1.579    0.367
        18 -10.9708     99.1593    226.9474   1.1448251785e+02   1.6382967296e+01    0.4369153    0.3268152  38.39  0.002279075    1.334    0.250
        19 -10.3996    107.7496    223.3268   1.1253522383e+02   1.5743297542e+01     0.455691    0.2903863  25.41  0.002448689    2.087    0.521
        20 -10.8783     99.7325    219.0831   1.1360137357e+02   1.7626278403e+01    0.5530329    0.3231809  57.63  0.002732643    1.520    0.342
        21 -11.5336    165.2039    248.8734   1.0513191628e+02   3.4720193132e+00    0.8357364    0.3560425  45.92  0.004351986    1.931    0.482
        22 -10.2752    236.6681    230.5471   9.0670434849e+01  -4.9154644671e+00    0.2737074    0.2452748 -35.55  0.002106895    1.755    0.430
        23  -7.9320    109.6892    232.3109   1.1308881205e+02   1.4007281933e+01    0.1175028   0.07142931  62.86 0.0002452173    1.626    0.385
        24 -10.3414    245.0411    229.1741   8.9122058662e+01  -5.9445773833e+00    0.3303948    0.2079311  43.03  0.001271536    1.776    0.437
        25  -9.9946    181.3971    227.1882   9.9529638806e+01   3.7665712577e+00    0.2642351    0.2062074 -24.27  0.001821235    1.524    0.344
        26 -10.8230    128.4919    225.4994   1.0892434828e+02   1.2283126534e+01    0.3122383    0.2686011 -77.52  0.002259071    1.377    0.274
        27 -11.5156    125.7748    221.0776   1.0891854234e+02   1.3401178969e+01    0.4783096    0.3895073 -50.11 0.0007494523    1.532    0.347
        28  -9.1820     18.8739    249.8517   1.2956291901e+02   2.2344814602e+01    0.1831935   0.09621151  54.93 0.0009195357    1.292    0.226
        29 -10.4604     88.5501    224.6700   1.1621754171e+02   1.8249193277e+01    0.6820337    0.1666083 -57.24  0.002825663    4.561    0.781
        30  -9.6352     91.4870    221.0003   1.1533502590e+02   1.8469594194e+01     0.280551    0.1057649 -61.15  0.001389276    2.967    0.663
        31  -7.9899      1.4822    226.4798   1.3148177473e+02   2.7886160137e+01     0.100601   0.06760808  68.79 8.405535e-05    1.022    0.021
        32  -9.6952     19.9811    222.9661   1.2828886157e+02   2.6739956841e+01    0.2278969    0.1629877  41.55  0.001175958    1.522    0.343
        33  -9.4577    157.6994    221.9485   1.0308997380e+02   8.2456373935e+00    0.2090998    0.1961891  -0.99 0.0007199274    1.247    0.198
        34  -9.2472    148.7997    220.8442   1.0458923046e+02   9.8281162777e+00     0.265921    0.1640139 -45.12  0.001345164    2.001    0.500
        35 -10.7943    131.9522    217.7292   1.0735423985e+02   1.2980210836e+01    0.6040183    0.3390501 -67.33   0.00323151    2.483    0.597
        36  -7.6317    214.6348    221.2546   9.2867946730e+01  -6.5941584390e-01    0.1071448   0.08384243  50.46 0.0002776735    1.628    0.386
        37  -8.0838     50.9867    222.0000   1.2283131372e+02   2.3530535606e+01    0.1693059   0.05150619  37.60 0.0007942893    2.886    0.654
        38 -10.3232    191.7678    220.1789   9.6675642248e+01   3.0423995431e+00    0.5100139    0.2630559 -33.85  0.002796994    2.318    0.569
        39  -8.9280    100.8048    233.6316   1.1481322347e+02   1.5063849037e+01    0.3023274    0.1354315  36.38  0.001601986    2.101    0.524
        40  -8.6356     75.1640    219.8383   1.1826557221e+02   2.0893041933e+01    0.1756964    0.1185937  60.19 0.0005337003    1.178    0.151
        41  -9.6682    175.9828    216.8118   9.9017522604e+01   6.0344853948e+00    0.2846811    0.2002979 -30.25  0.001422651    1.709    0.415
        42  -9.3432    143.7371    216.3379   1.0494996365e+02   1.1330424631e+01     0.260316     0.203346 -38.57  0.001143698    1.604    0.376
        43  -9.3535    112.1171    214.2834   1.1072977030e+02   1.6617445986e+01    0.2650061    0.2194163   9.80  0.001201454    1.728    0.421
        44  -8.9838    115.8270    210.5331   1.0957829848e+02   1.6696674774e+01     0.244431    0.1754438  76.07  0.001113784    1.543    0.352
        45  -8.5172     84.7737    215.4041   1.1607083817e+02   2.0384468342e+01    0.1568173     0.100668  33.95 0.0009052985    1.687    0.407
        46  -8.3490    229.2866    214.6442   8.9340468625e+01  -2.1195789340e+00   0.09744529   0.09441313  62.39 0.0007022811    1.673    0.402
        47  -8.0394    208.3103    213.3169   9.2699378477e+01   1.2900397918e+00    0.1234086   0.07990086  12.84 0.0004154512    1.638    0.389
        48 -10.4199     78.4280    211.0155   1.1687413855e+02   2.2045168531e+01    0.3195193    0.2871017  50.10  0.001786915    1.293    0.227
        49  -7.7827    223.3062    211.6657   8.9852307740e+01  -8.5887058813e-01     0.102066   0.09459237  60.93 0.0007040053    1.668    0.401
        50 -10.4981    202.3011    209.5388   9.3146798639e+01   2.7390222950e+00    0.4380984    0.2792775  26.54  0.002584121    1.407    0.289
        51 -10.4991    185.0538    226.8781   9.8839761184e+01   3.2343789124e+00    0.2652581    0.2473112 -49.49  0.001350441    1.445    0.308
        52  -9.4028     94.9721    209.6536   1.1354051394e+02   1.9975691019e+01    0.3555685    0.1123952  45.72  0.001552201    2.549    0.608
        53  -9.0576    134.3291    208.6277   1.0573959845e+02   1.4094678075e+01    0.3406909    0.1202211  43.71  0.001473766    2.355    0.575
        54 -10.0568    212.7081    207.3530   9.0956109849e+01   1.3409215777e+00      0.23984    0.2143906  29.28  0.001503243    1.250    0.200
        55  -8.7079    216.0164    204.0135   8.9817447861e+01   1.2328785456e+00     0.194375    0.1256462  11.99 0.0004571439    1.622    0.384
        56  -7.9915    162.4959    208.4515   1.0029939619e+02   9.4828040074e+00    0.1261111    0.1040233  29.59 0.0001239448    1.115    0.103
        57  -9.5699     11.7511    207.3165   1.2901329603e+02   3.0387442439e+01    0.2324036    0.1475153  23.89  0.001559764    2.336    0.572
        58  -7.9972    177.3493    206.2876   9.7174977231e+01   7.3197869810e+00    0.1272982   0.08750155  16.36 0.0005956988    1.661    0.398
        59 -10.1670    124.0045    205.9965   1.0741865729e+02   1.6200952621e+01    0.1768603    0.1472308  52.93  0.001160788    1.012    0.012
        60  -9.3735    119.6722    215.5146   1.0942396563e+02   1.5254673200e+01    0.3179093   0.09297609  43.16  0.001311039    2.735    0.634
        61  -8.4362     99.0277    206.0536   1.1235753184e+02   2.0035733654e+01    0.1999257    0.1229446  69.14  0.000853547    1.741    0.425
        62  -9.1499    248.6532    205.0360   8.4545897020e+01  -3.9280578466e+00    0.1605577    0.1221763   4.99 0.0004400332    1.058    0.055
        63  -8.0969     56.3834    205.7030   1.2065394411e+02   2.5880525894e+01    0.1276044    0.0643564  62.63 0.0007019056    1.768    0.434
        64  -9.4138    212.0723    202.9411   9.0324015767e+01   2.0100241364e+00    0.2259115    0.1690096 -67.79  0.001149576    2.756    0.637
        65  -8.9421    130.0353    201.3422   1.0561012421e+02   1.6038188012e+01    0.2725914    0.1889725  31.60  0.001566192    1.495    0.331
        66  -7.7570    186.3093    201.3070   9.4708827027e+01   6.5334232645e+00    0.1269664   0.08884303  12.69 0.0005053057    1.614    0.381
        67  -9.5850    250.1701    198.3234   8.3115702640e+01  -3.4030179993e+00    0.3090938    0.1691816 -24.28  0.001696361    1.760    0.432
        68  -8.8667     89.0320    199.5479   1.1363979965e+02   2.2708201041e+01    0.2217749    0.1493144  82.91  0.001010014    1.554    0.356
        69  -9.2385    165.2638    198.3285   9.8223428118e+01   1.0595335026e+01    0.2784301    0.1698745  20.93 0.0009239138    2.115    0.527
        70 -11.2259    173.5836    195.2620   9.6121791988e+01   9.6369492787e+00    0.5253771    0.4752744 -52.08  0.002157204    1.333    0.250
        71  -9.7839    180.3376    192.6644   9.4391817240e+01   8.8595704415e+00    0.5050145    0.2322496 -52.99  0.002095157    3.299    0.697
        72  -9.9447    126.4637    197.2064   1.0576313628e+02   1.7355906977e+01    0.2836679    0.2381781  26.80  0.001076205    1.330    0.248
        73  -9.2907    124.5317    192.1463   1.0545407796e+02   1.8594965516e+01    0.2425513    0.1999413  57.59 0.0005586642    1.089    0.082
        74  -8.2940    112.3290    197.6581   1.0869252958e+02   1.9547376546e+01    0.1335115   0.08567719  68.54 0.0007051307    1.743    0.426
        75  -8.7101    131.8274    195.2293   1.0439891096e+02   1.6822481648e+01    0.2032807    0.1888065  89.91  0.001108176    1.165    0.142
        76  -9.1156    135.5718    193.2975   1.0335811841e+02   1.6538216586e+01    0.3210262    0.1894822  57.16  0.001621795    1.796    0.443
        77  -8.2363     66.7828    195.1860   1.1769706712e+02   2.6608272491e+01    0.2198026   0.09517928  66.76 0.0009584375    2.862    0.651
        78  -8.1848    186.2428    193.6532   9.3439479622e+01   7.6759900341e+00    0.1135051    0.1010671  87.59  0.000247238    1.571    0.364
        79  -7.9020     77.9953    193.4906   1.1524175066e+02   2.5440081991e+01    0.1833259   0.07522561  56.36 0.0008097186    2.473    0.596
        80  -8.6583    149.3272    199.1154   1.0146216740e+02   1.3197823399e+01    0.2762014     0.183726 -89.95    0.0013127    2.699    0.629
        81  -8.0453    186.3772    190.2936   9.2834070104e+01   8.1610441415e+00    0.1365255   0.09192529  14.89  0.000570498    1.743    0.426
        82  -9.4768    137.9844    179.4991   1.0072307708e+02   1.8646780077e+01    0.4369606    0.2237692 -52.76  0.001849143    2.169    0.539
        83  -9.8818    139.8870    186.6426   1.0146444309e+02   1.6995445133e+01    0.6180673    0.4066014 -27.12  0.003074961    2.273    0.560
        84  -8.3454    136.6676    183.3284   1.0161397532e+02   1.8163973959e+01    0.2535161    0.1431699  50.75 0.0008119621    1.682    0.406
        85 -10.9291    211.1553    181.6207   8.6664111840e+01   5.0737907500e+00    0.9240404    0.4665362 -26.43  0.004365798    2.228    0.551
        86 -10.5954    204.7089    176.4863   8.6863031269e+01   6.9728300144e+00    0.4767466     0.381019   9.62  0.001560204    1.201    0.167
        87  -9.6833    203.4110    188.0407   8.9259166507e+01   5.5073858473e+00    0.4307723    0.3862425  69.57  0.002068051    1.553    0.356
        88 -10.3874    208.1974    170.2138   8.4994078714e+01   7.2806411731e+00    0.5514477    0.3440837  16.54  0.002426578    1.919    0.479
        89 -10.6770    214.4358    167.7525   8.3365488843e+01   6.5068555757e+00    0.9357306    0.3709759  30.62  0.003343664    3.438    0.709
        90  -9.1860    198.4032    185.7550   8.9766852146e+01   6.7193738680e+00    0.2939156    0.1973587 -20.44   0.00160552    1.664    0.399
        91  -9.1188    197.4960    181.9572   8.9237859451e+01   7.4486722301e+00    0.3530851    0.2235228 -18.89  0.001809027    1.878    0.467
        92  -8.6070    129.7824    189.0795   1.0392667889e+02   1.8282609367e+01    0.2056572    0.1606149  67.39 0.0008557793    1.327    0.247
        93  -8.8412    156.0258    187.6093   9.8322730973e+01   1.3986464993e+01    0.2287515    0.1850437 -76.60 0.0007604528    1.597    0.374
        94  -8.9585    120.6481    186.7540   1.0549557433e+02   2.0248340937e+01     0.326837    0.1503532 -63.46  0.001397775    2.731    0.634
        95  -9.8334     95.0411    187.2268   1.1096950154e+02   2.4219852793e+01    0.5324469    0.2068786  55.60  0.001716656    2.965    0.663
        96  -9.1068    232.8612    187.4019   8.3959781210e+01   6.1313542995e-01    0.2526169    0.1297254  28.90  0.001273512    1.891    0.471
        97  -9.4580    229.0038    185.4673   8.4253084849e+01   1.4977715413e+00    0.2608633    0.1835784  52.67  0.001483587    1.856    0.461
        98  -9.1127    148.6469    186.5097   9.9642229684e+01   1.5484131988e+01    0.2858234    0.1757451 -40.22  0.001258548    1.912    0.477
        99  -9.4991    147.8947    181.0846   9.8907079570e+01   1.6589017031e+01    0.3300568    0.2401564 -61.41  0.001810067    1.627    0.385
       100 -10.2807    148.9042    174.9663   9.7653156173e+01   1.7525827402e+01     0.463701    0.3263359 -62.14  0.002435713    1.710    0.415
       101  -8.1615     54.8601    187.2153   1.1940431851e+02   2.9714372201e+01    0.2196443   0.08969833  65.54 0.0009433437    2.915    0.657
       102  -9.1005    108.7580    185.3595   1.0781524432e+02   2.2455982761e+01    0.3730791    0.2063553  77.68  0.001552953    3.053    0.672
       103  -8.6601    178.5101    176.5410   9.1885280362e+01   1.1773533357e+01     0.207704     0.133269 -38.60 0.0005676156    1.690    0.408
       104  -9.8441    174.0000    182.0657   9.3780812080e+01   1.1686985020e+01    0.4031603    0.2283875 -56.42  0.001848577    2.503    0.600
       105  -8.3795    175.6495    178.7043   9.2849108544e+01   1.1942429559e+01    0.2117236    0.1734954  16.23 0.0006514252    1.249    0.200
       106 -10.4207     14.0353    182.4139   1.2733766894e+02   3.5043534251e+01    0.3554992    0.2773281 -14.44  0.002409272    2.426    0.588
       107  -8.2467    218.0074    182.7142   8.5646542597e+01   3.7285040279e+00    0.1761019     0.147913  11.99 0.0005583955    1.010    0.010
       108  -8.3035    165.4265    182.7870   9.5615650059e+01   1.3124498633e+01    0.1682263      0.12676 -27.15  0.000398388    1.547    0.353
       109  -7.6355    224.3357    182.3109   8.4461460849e+01   2.7007130557e+00    0.1347901    0.0867233  11.12 0.0004640701    1.682    0.406
       110  -8.1996     44.3633    182.7136   1.2119276656e+02   3.1879418405e+01    0.1285358   0.06842563  64.02 0.0007021988    1.691    0.409
       111  -9.3349    183.4164    180.8966   9.1725827775e+01   1.0161043073e+01    0.2288731    0.1685479  47.08 0.0005565627    1.335    0.251
       112  -8.7848    157.0310    181.0515   9.7017734688e+01   1.4947419065e+01    0.2040029    0.1796943  32.59 0.0004209821    1.069    0.064
       113  -9.0475     95.5131    178.9789   1.0981246043e+02   2.5812476807e+01    0.3734869    0.2098419 -32.87  0.001457855    4.054    0.753
       114  -8.3920    104.1261    179.4795   1.0800256763e+02   2.4364715614e+01    0.2090236    0.1475549 -72.47  0.000600762    1.500    0.333
       115  -8.8843    231.9575    177.0370   8.2137905314e+01   2.1148233954e+00    0.2501538    0.1618357 -43.52  0.001351674    1.956    0.489
       116  -8.6490    191.4520    178.2677   8.9692170158e+01   9.1106903017e+00     0.172047    0.1281721 -48.03 0.0009202486    1.612    0.380
       117  -8.2998    120.3180    178.3259   1.0431945684e+02   2.1934298820e+01    0.1265886    0.1059831  -3.66 0.0006865461    1.676    0.403
       118  -7.8712    129.6369    177.3490   1.0215658307e+02   2.0522914698e+01    0.1441748   0.09800355  72.48 0.0007023693    1.864    0.463
       119  -8.5108     87.4494    177.4507   1.1138103761e+02   2.7342808450e+01    0.2713483    0.1178693  38.06  0.001222545    2.239    0.553
       120  -9.2260     76.9620    176.0678   1.1351944646e+02   2.9142326993e+01     0.395332     0.182851  58.57  0.001685244    2.314    0.568
       121  -8.3521     59.7546    176.7821   1.1736738470e+02   3.1279935052e+01    0.2155897    0.1053737  66.72  0.001024827    2.230    0.552
       122  -8.4856     12.4445    177.5089   1.2737717800e+02   3.6193610074e+01    0.1567126    0.1109132  14.31  0.001027084    2.270    0.560
       123  -9.5068    183.1616    173.8909   9.0471812199e+01   1.1346369871e+01    0.4499126    0.2079197 -28.51  0.001766958    3.017    0.669
       124  -9.5610    104.8584    174.8904   1.0719249729e+02   2.5181521532e+01    0.3711878    0.2108007  63.75  0.001737835    2.059    0.514
       125  -9.0397    159.7237    175.6066   9.5510545330e+01   1.5418559419e+01    0.1934222     0.117948  51.23 0.0006889504    1.640    0.390
       126  -9.4517     20.4026    174.0043   1.2553075802e+02   3.6196433797e+01    0.2641488    0.1394708 -81.93  0.001512268    1.579    0.367
       127  -9.3159     15.1201    170.9826   1.2643639491e+02   3.7318805005e+01     0.368258    0.2012241  26.02  0.001805038    2.381    0.580
       128  -9.1652    193.3969    173.1389   8.8343963141e+01   9.5616348728e+00    0.2679989    0.1807807  19.33 0.0006064796    1.644    0.392
       129  -8.5822    218.1817    174.3042   8.3997624514e+01   4.8795877061e+00    0.2156967    0.1614693 -12.82 0.0007472585    1.309    0.236
       130  -9.5534    177.3104    170.2458   9.0937127221e+01   1.3057779155e+01    0.4834877    0.2224825 -29.73  0.001684446    3.035    0.671
       131  -9.7334    162.0376    170.2145   9.4048225955e+01   1.5952516770e+01    0.3176557     0.253579  50.40  0.001152426    1.223    0.183
       132 -10.2316    157.7012    164.6139   9.3904200091e+01   1.7801873590e+01    0.5399141     0.310259  46.38  0.002527783    1.645    0.392
       133  -8.6263    144.4581    186.5753   1.0051153940e+02   1.6209327160e+01    0.2026073    0.1737711  47.23 5.602104e-05    1.039    0.037
       134  -8.9792    121.8333    169.8818   1.0265634952e+02   2.3358320180e+01    0.2985749    0.1974477  71.24  0.001227303    1.887    0.470
       135  -7.9603    106.6316    170.6851   1.0617777543e+02   2.5761198949e+01    0.1290727    0.1072752  -6.80 0.0007037034    1.776    0.437
       136  -8.7702     80.1598    170.6306   1.1213716033e+02   2.9845620505e+01    0.1730258    0.1199217  30.57 0.0009477408    1.712    0.416
       137  -8.4594     55.1144    170.0797   1.1769928379e+02   3.3292719961e+01    0.2085941    0.1193171  70.04 0.0008101545    1.725    0.420
       138 -10.1584    149.5879    164.6626   9.5649734224e+01   1.9335607070e+01     0.442746    0.3282547 -61.66  0.002273925    1.566    0.361
       139 -10.2334    150.7686    159.6846   9.4448279942e+01   2.0067040108e+01    0.4291102     0.374687  38.70  0.002444615    1.094    0.086
       140  -9.0239    144.6852    159.7261   9.5789714003e+01   2.1222722118e+01    0.2827041    0.1791116  39.87 0.0004718763    1.520    0.342
       141  -9.1927    139.6894    158.7741   9.6718383517e+01   2.2358068008e+01    0.3299856    0.2416783  13.04  0.001591956    1.914    0.477
       142  -9.0415     99.1852    166.2754   1.0720452168e+02   2.7893227048e+01     0.328395    0.1974464  73.03  0.001047688    2.130    0.531
       143  -9.3362    185.7421    163.8411   8.8000035900e+01   1.2532631215e+01    0.3235779    0.1939785 -25.54  0.001380485    1.980    0.495
       144  -8.7347    139.4129    165.1335   9.7952484283e+01   2.1148333845e+01    0.2952728    0.2003907  73.03  0.001276067    2.022    0.505
       145  -8.5992     29.3924    166.3688   1.2305169012e+02   3.6956238723e+01    0.1857737    0.1136042   8.67  0.000949286    3.210    0.688
       146  -8.3144      3.9545    167.0000   1.2852814895e+02   3.9106245579e+01    0.1528067    0.0593771  29.34 0.0005411298    2.917    0.657
       147  -9.0165     79.8392    164.0407   1.1134949166e+02   3.1319637726e+01    0.4072398    0.1970794  75.68  0.001476648    3.715    0.731
       148  -8.2742     37.9443    164.9703   1.2103916394e+02   3.6375987000e+01    0.2036408    0.1114784  67.58 0.0007567301    1.711    0.415
       149  -8.5886    192.4212    162.7834   8.6477878389e+01   1.1421877699e+01    0.1949897    0.1279435 -23.19 0.0009536544    1.705    0.413
       150  -8.6181    122.6977    163.3015   1.0136131685e+02   2.4549467650e+01    0.2668808    0.1658244  21.24  0.001040368    2.481    0.597
       151  -8.9222      9.7328    161.7229   1.2699717444e+02   3.9759622285e+01    0.2708488    0.1045595  68.39  0.001311055    2.504    0.601
       152  -8.7615     93.3082    160.8992   1.0775990219e+02   2.9981778937e+01    0.3130365    0.1766896  65.65  0.001412904    2.145    0.534
       153  -8.5409    205.7531    159.6898   8.3303939787e+01   9.3629105508e+00    0.2132472     0.155839  20.57 0.0006140349    1.389    0.280
       154  -9.0326    105.6122    157.9834   1.0440960636e+02   2.8622679353e+01    0.3557926    0.2166111  70.16  0.001359394    2.122    0.529
       155  -9.7988    213.1323    155.1766   8.0993804221e+01   8.6588811791e+00    0.3002112    0.2919226  37.04  0.001293391    1.239    0.193
       156  -8.4308    177.9935    156.2086   8.7997029571e+01   1.5371621330e+01    0.2348229     0.152133  20.69 0.0009745332    1.954    0.488
       157  -8.8118    119.8457    155.7397   1.0068931502e+02   2.6637702557e+01    0.2728487    0.1805703 -89.09  0.001226727    2.149    0.535
       158  -9.1588     82.2807    155.2004   1.0953125818e+02   3.2922073359e+01    0.3525237    0.1903778  76.01  0.001454419    2.712    0.631
       159  -7.8460    226.9983    155.7907   7.8667039387e+01   5.9626033187e+00      0.16392    0.1024326  41.53 0.0003523365    1.591    0.371
       160  -8.5291    198.3430    167.9879   8.6390535314e+01   9.4545678542e+00    0.3006984    0.1561666  22.40  0.001172721    2.865    0.651
       161  -8.6136    133.9712    148.0290   9.5936661588e+01   2.5644236943e+01    0.2758799    0.1927578 -21.74  0.001245242    2.102    0.524
       162  -8.5173     68.0703    153.8642   1.1277351989e+02   3.5230979667e+01    0.2909215    0.1558689  70.02  0.001018464    2.275    0.560
       163  -8.9934    205.4400    151.7968   8.1686309260e+01   1.0683479705e+01    0.3433934    0.1335752 -34.11  0.001309684    2.634    0.620
       164  -8.2979    106.3930    153.2140   1.0342039116e+02   2.9528549123e+01    0.2760038    0.1734481   6.04 0.0009538276    4.300    0.767
       165  -9.4550    230.6119    149.7504   7.6751926651e+01   6.1771059437e+00    0.4432493    0.2227022 -50.24  0.001740687    3.231    0.690
       166  -8.2464    168.7634    152.4000   8.9117209825e+01   1.7906733233e+01    0.2093835    0.1281248  33.38 0.0009066382    1.724    0.420
       167  -8.9141    133.3528    153.1115   9.7075030546e+01   2.4705502758e+01    0.3606765    0.2363557  89.30  0.001509486    2.519    0.603
       168  -8.4182    167.6317    157.4794   9.0402996844e+01   1.7193291440e+01    0.2595552    0.1767583 -73.64  0.001127158    2.451    0.592
       169  -8.8247     28.4401    149.9326   1.2185658925e+02   4.0693108839e+01    0.3342079    0.1375022  73.92  0.001300948    2.989    0.665
       170  -9.5769    189.9862    147.8738   8.3804555789e+01   1.4426908811e+01    0.5279688    0.2026901 -38.19  0.001966138    2.652    0.623
       171  -8.9686     50.0615    155.4488   1.1728660043e+02   3.7137844575e+01    0.3403315    0.1504277  62.26  0.001488206    2.607    0.616
       172  -8.3936    220.6988    149.0267   7.8310423919e+01   8.1571374444e+00    0.1900185    0.1682192  -9.17 0.0007452654    1.055    0.052
       173  -8.8222    199.7669    146.7695   8.1659502764e+01   1.2637249967e+01    0.4015506    0.1677675 -30.56  0.001496569    2.701    0.630
       174  -8.9132     39.4669    147.7525   1.1898906637e+02   4.0074070795e+01    0.3434517    0.1673636  65.12  0.001650105    2.210    0.548
       175  -9.6863    149.3092    145.6026   9.1926710237e+01   2.3132378471e+01    0.4791944    0.3167147  84.98  0.001868906    2.773    0.639
       176  -9.5188    107.5394    145.3949   1.0175048718e+02   3.1056925885e+01    0.6146393    0.3114854  67.25  0.002062109    3.750    0.733
       177  -7.9993    195.5048    146.5272   8.2426664928e+01   1.3539061065e+01    0.1405001    0.1339633   8.83 0.0001962232    1.065    0.061
       178  -8.5257     13.4748    146.5595   1.2510204011e+02   4.2785573360e+01    0.1901561   0.08074188  45.13  0.001006588    2.207    0.547
       179  -9.4974     68.8825    145.1078   1.1135190279e+02   3.7127170175e+01    0.2834084    0.1994163  78.65  0.001410822    1.431    0.301
       180  -9.7556     69.5640    141.0088   1.1056961209e+02   3.7986502970e+01    0.4602778    0.2384508  85.49  0.001814044    2.944    0.660
       181  -8.7498    218.9262    143.9051   7.7493356958e+01   9.2900736902e+00    0.2130512    0.1931296   7.48 0.0009221405    1.045    0.043
       182  -7.9539    165.6435    144.3212   8.8052520706e+01   2.0062920293e+01    0.1489763    0.1171124  86.01   0.00070455    1.761    0.432
       183  -8.9806    125.3553    143.2955   9.7021613311e+01   2.8287356053e+01    0.3585179    0.2283099  89.85  0.001423119    2.674    0.626
       184  -8.9530     88.1166    143.9149   1.0631928841e+02   3.4594687248e+01    0.2995949    0.1791574  73.91  0.001211543    2.219    0.549
       185  -9.6125     56.6611    146.0971   1.1455129629e+02   3.8482852088e+01    0.5482565    0.2388449  66.36  0.002063497    3.445    0.710
       186  -9.6042    195.8467    142.8221   8.1533832302e+01   1.4101784719e+01    0.1897094    0.1773182  89.19 0.0006930595    1.329    0.248
       187  -8.4916      2.6113    142.0575   1.2732543497e+02   4.4625287935e+01    0.2485379     0.106183  79.29  0.001261758    2.136    0.532
       188  -8.1992    181.5876    143.1895   8.4456452968e+01   1.6978592621e+01    0.2137854    0.1351996 -24.91  0.000949064    1.833    0.454
       189  -8.6135     40.4406    140.5005   1.1793696684e+02   4.1645769634e+01    0.1889384    0.1284696  11.09  0.001023784    2.305    0.566
       190  -9.2024     23.6738    138.6190   1.2194982204e+02   4.3719918368e+01    0.4247379    0.1592865  67.32  0.001655699    3.591    0.722
       191  -8.9876    208.6301    136.9275   7.7771620361e+01   1.2469340218e+01    0.4311187    0.2674315 -69.58  0.001474591    4.197    0.762
       192  -8.3263    197.2499    137.9750   8.0159155741e+01   1.4643389040e+01     0.197061    0.1665448  82.87 0.0004881866    1.612    0.380
       193  -8.8955    107.9248    137.5655   1.0016564921e+02   3.2743154874e+01     0.391856    0.2504835   8.43  0.001448696    3.477    0.712
       194  -9.2832    150.5363    136.2130   8.9603704584e+01   2.4783531011e+01    0.4350103     0.256543  25.83  0.001710661    2.410    0.585
       195  -8.7778     57.7236    136.3258   1.1294396759e+02   4.0633844319e+01    0.2864547    0.1741135 -24.05  0.001178222    3.580    0.721
       196  -9.2285     39.1095    136.3686   1.1779009425e+02   4.2751215559e+01    0.2515106    0.1494224  66.84  0.001004181    1.707    0.414
       197  -8.4453    125.2104    136.1957   9.5592844683e+01   2.9854661203e+01    0.2420346    0.1653511  -7.65 0.0009507363    2.809    0.644
       198  -8.5540    112.8263    133.5427   9.8117355963e+01   3.2766871958e+01    0.2662962    0.1788642  83.30 0.0008766159    2.115    0.527
       199  -8.8126    232.0242    133.0286   7.2779985294e+01   8.3941686845e+00    0.2294989    0.1581442   6.12  0.001139322    1.665    0.399
       200  -8.8678    132.2832    131.8027   9.2915106975e+01   2.9423263352e+01    0.4165005    0.2603431 -79.31  0.001574407    2.780    0.640
       201  -9.7095     83.4923    131.9592   1.0542617915e+02   3.8084492644e+01    0.3962516    0.2577481  79.97  0.001186011    1.919    0.479
       202  -9.3203     69.4582    133.4971   1.0941703909e+02   3.9765262361e+01    0.2212059     0.138428  19.64  0.000980525    2.368    0.578
       203  -8.7424    227.0229    131.7067   7.3312452938e+01   9.5813856074e+00    0.1994902     0.179693  12.43  0.001168947    1.079    0.074
       204  -8.3893    143.3975    132.1169   9.0330599080e+01   2.7102325570e+01    0.2145541    0.1390545 -59.32 0.0008079395    1.769    0.435
       205  -8.9096     23.6982    130.4692   1.2112521397e+02   4.5610201718e+01    0.3603266    0.1660044 -40.41  0.001538162    3.617    0.724
       206  -9.0409     13.1227    129.8890   1.2380149947e+02   4.6612539380e+01    0.3670661    0.1340659  58.90  0.001601187    3.067    0.674
       207  -8.0274    169.3081    130.6497   8.4147082361e+01   2.1917764688e+01    0.1517667    0.1203146 -80.42 0.0007043562    1.711    0.416
       208  -8.4332    153.3735    130.0826   8.7549122102e+01   2.5437521035e+01    0.2187312     0.137564 -56.10 0.0009336956    1.819    0.450
       209  -9.6096     99.3148    128.1940   1.0050884474e+02   3.6387907263e+01    0.4757217    0.2949643  89.15  0.001547704    2.496    0.599
       210  -9.1757     73.3629    129.8418   1.0775935296e+02   4.0083998081e+01     0.265498    0.1584225  62.59  0.001062101    1.940    0.485
       211  -8.8944     40.3854    130.2278   1.1669440544e+02   4.4065139402e+01    0.2447913     0.137308 -23.46 0.0009544655    4.330    0.769
       212  -9.9228     59.7133    124.6878   1.1062137120e+02   4.3152165678e+01    0.5939389    0.3024206  79.43  0.002244801    3.261    0.693
       213  -9.0253    117.9897    125.4980   9.5069467093e+01   3.3607463409e+01    0.4019679    0.2513959  70.39  0.001623443    2.346    0.574
       214 -10.1629     44.1510    122.9865   1.1468186497e+02   4.5389504026e+01    0.6852981    0.3189125  77.04  0.002574246    3.491    0.714
       215  -8.9177    133.1535    124.9222   9.1130659660e+01   3.0734252250e+01    0.2972535    0.2054065  16.55  0.001252417    2.167    0.539
       216 -10.0049     28.5653    122.5965   1.1893707238e+02   4.7032318328e+01     0.711902    0.2851024  74.04   0.00247484    4.347    0.770
       217  -8.6594    179.4368    123.2665   8.0215770380e+01   2.1108781823e+01    0.4490244    0.2321877 -25.01  0.001638657    2.574    0.611
       218  -8.0052    153.2987    123.3840   8.5964137329e+01   2.6818697145e+01    0.1584375    0.1206266  -3.38 0.0004779833    1.775    0.436
       219  -8.7626     84.5725    122.2227   1.0328159214e+02   4.0213855254e+01    0.3390135    0.2355994   0.68  0.001483738    2.607    0.616
       220  -9.3944     13.7731    120.3583   1.2272173119e+02   4.8781998544e+01    0.3952585    0.1328194 -48.07  0.001570029    3.835    0.739
       221  -8.1898    158.3465    121.6988   8.4398146729e+01   2.6062451400e+01     0.154811    0.1223154 -89.10 0.0007038459    1.685    0.407
       222  -9.4881    142.3810    120.0695   8.7720297287e+01   2.9849420020e+01    0.4243185    0.2649108 -65.69  0.001513931    2.199    0.545
       223  -8.8996    131.2492    119.0389   9.0198937173e+01   3.2401649554e+01    0.3822747    0.2477979  89.87   0.00141051    2.854    0.650
       224  -8.6053    119.1976    119.1521   9.3297892205e+01   3.4796933192e+01    0.4175206    0.2498082   7.13  0.001088372    6.261    0.840
       225  -8.5128    107.9678    120.0591   9.6461964857e+01   3.6723762599e+01    0.2367533    0.1862241 -17.39  0.001141164    1.734    0.423
       226  -9.0989    100.3334    119.4651   9.8383050022e+01   3.8235837821e+01    0.5380619    0.2662632  23.36  0.001705635    4.203    0.762
       227  -9.5649     71.2739    118.3175   1.0624588226e+02   4.3131182884e+01    0.5966768     0.273308 -58.46  0.002493505    1.943    0.485
       228  -9.8255      3.3231    117.3688   1.2526267945e+02   5.0199824141e+01    0.5606866     0.202065  75.87  0.002246267    3.514    0.715
       229  -9.2355    109.8040    114.8414   9.4760388714e+01   3.7576732877e+01     0.407756    0.2529702 -88.91  0.001482295    3.004    0.667
       230  -9.8288     79.4466    113.0576   1.0284869550e+02   4.3188671339e+01    0.5031854    0.3071334  87.23  0.001686348    2.465    0.594
       231  -9.5117     92.7950    112.9031   9.9003571656e+01   4.1073248407e+01    0.3993541    0.2678329 -86.65  0.001307537    2.001    0.500
       232  -8.6843     59.1371    114.3479   1.0900529673e+02   4.5713859365e+01    0.2506743    0.1366342  20.54  0.001095304    2.712    0.631
       233  -8.5943    122.2550    113.0875   9.1031595026e+01   3.5544561375e+01    0.2740254     0.193831  75.15 0.0009489479    1.914    0.477
       234  -8.3352    141.3228    112.3632   8.6034499628e+01   3.1705999383e+01    0.1605643    0.1234665  -2.44 0.0007040761    1.784    0.440
       235  -9.4310     66.7496    110.9669   1.0612886890e+02   4.5528577099e+01     0.383408    0.2270395  71.29  0.001477282    2.373    0.579
       236 -11.0038     14.4960    109.2033   1.2131614719e+02   5.1358020558e+01    0.6043059    0.2841969 -71.38  0.002681013    1.641    0.391
       237 -10.6595     23.1274    102.9480   1.1794865219e+02   5.2190621587e+01    0.6848145     0.318196  70.57  0.002915011    3.024    0.669
       238  -8.5239    157.3199    111.5067   8.2034460617e+01   2.8342001144e+01    0.2609673    0.1533556  53.32  0.000715289    1.803    0.445
       239  -9.2018    133.6368    108.0679   8.6821896504e+01   3.4278364340e+01    0.5211378     0.189726 -43.15  0.001716045    2.723    0.633
       240  -9.9893     61.1728    106.3960   1.0688855468e+02   4.7374586115e+01    0.3067695    0.2460695  20.65  0.001179818    1.563    0.360
       241  -9.9625    110.5944    106.5658   9.2511235609e+01   3.9312519316e+01    0.4547507    0.2938293  28.05   0.00145928    1.978    0.494
       242  -9.0499    213.2853    107.0097   6.9649237398e+01   1.6422332278e+01    0.2226501    0.2060676  29.30 0.0003331195    1.119    0.106
       243 -10.4466     45.7899    102.6552   1.1090049753e+02   5.0117652523e+01    0.7541369    0.3701695  69.96  0.002807039    3.642    0.725
       244  -8.5908    150.4302    104.2284   8.1687101549e+01   3.1375792518e+01    0.3719724    0.2388466 -65.80  0.001235298    2.213    0.548
       245  -8.3626    139.7480    104.9527   8.4463855959e+01   3.3615451159e+01    0.2518533    0.1756334 -71.03 0.0006989336    1.949    0.487
       246  -9.1413     93.9241    103.9742   9.6574233151e+01   4.2972561941e+01    0.4100021    0.2529882  21.52  0.001686932    2.429    0.588
       247  -9.4437      6.8768    103.1870   1.2287161813e+02   5.3291417648e+01    0.1887874    0.1343366  81.64 0.0009854971    1.268    0.211
       248  -8.6204    123.9542    107.2143   8.9090338086e+01   3.6499159502e+01    0.2492102    0.1806964  13.48  0.001070778    2.012    0.503
       249  -8.5980    128.2378    102.0812   8.6603263257e+01   3.6723925173e+01    0.2890345    0.2054368  79.72  0.001216132    2.029    0.507
       250  -9.9123    109.7044     99.4382   9.0895797396e+01   4.1098369700e+01    0.6544976     0.373076  67.58  0.002123677    3.076    0.675
       251  -8.5553     82.0093    100.0455   9.9149701532e+01   4.5884788992e+01    0.2320725    0.1698466  84.63 0.0007670564    1.724    0.420
       252  -9.2725    130.2401     97.3232   8.4765548764e+01   3.7316907830e+01    0.4581445    0.2611755  28.52  0.001333335    2.551    0.608
       253  -8.8687     95.0453     97.4608   9.4593533127e+01   4.4288696775e+01    0.2745266    0.1990593 -69.48 0.0005818118    1.513    0.339
       254 -10.1711     63.9400     96.3487   1.0389390853e+02   4.9428311146e+01    0.5047322    0.2995332  79.77  0.002048008    2.813    0.645
       255  -9.3942      7.7333     96.9640   1.2190058414e+02   5.4705669377e+01    0.2321552    0.1167759 -35.56 0.0009812543    2.683    0.627
       256 -10.1102     21.8253     91.9645   1.1672669580e+02   5.4923365772e+01    0.5299773    0.2246292 -38.10   0.00222299    3.291    0.696
       257  -9.8525     45.4068     91.9549   1.0895447569e+02   5.2743236257e+01    0.4516426    0.2343809  16.38  0.002000459    2.914    0.657
       258  -8.2059    138.9574     92.4771   8.1156342327e+01   3.6395959415e+01    0.2132771     0.140778  76.96 0.0007084271    2.385    0.581
       259  -9.1214    124.7134     91.1058   8.4436071736e+01   3.9841530960e+01    0.4061111    0.2859448 -89.88  0.001433326    2.236    0.553
       260  -9.2466    108.9169     91.4473   8.8906318079e+01   4.3041368628e+01    0.5059719    0.2599522  29.54  0.001803737    2.873    0.652
       261  -9.9507     34.5978     89.3151   1.1203233314e+02   5.4471432739e+01    0.5873236      0.25104 -79.54    0.0021933    2.976    0.664
       262  -9.9503     36.9778     81.1461   1.0956034403e+02   5.6197375518e+01    0.4245466    0.2446879 -23.58  0.001971217    2.639    0.621
       263  -8.9331     96.4044     90.4818   9.2302134393e+01   4.5643504907e+01    0.3261621    0.2393881  -4.67  0.001461137    2.048    0.512
       264  -9.4150     86.6654     87.0479   9.4331919953e+01   4.8148666148e+01    0.3801506    0.2648333  85.16  0.000964915    2.183    0.542
       265  -9.1549     64.4898     87.2456   1.0155044159e+02   5.1521935510e+01    0.3206976    0.1923327 -19.82  0.001277138    3.040    0.671
       266  -8.1432    139.0183     87.4946   7.9666245987e+01   3.7400799655e+01    0.2185809    0.1343034  25.68 0.0008082442    2.391    0.582
       267  -9.7860     48.3745     84.5107   1.0633849716e+02   5.4196002507e+01     0.448714    0.2509108  66.37  0.001884456    2.920    0.658
       268 -10.2395      8.4371     83.4330   1.1989693933e+02   5.7857310768e+01    0.4529602    0.3138271 -56.97  0.001240305    1.259    0.206
       269  -8.9576    126.7037     84.1665   8.1827233624e+01   4.0867320165e+01    0.5577522     0.291855  24.46   0.00162362    4.256    0.765
       270  -9.6271     24.6918     81.2762   1.1391811261e+02   5.7249338256e+01    0.3459778    0.2186274  69.64  0.001388821    1.965    0.491
       271  -9.2083     87.1873     80.3798   9.2246605549e+01   4.9572452346e+01    0.4198764    0.2519708  14.46  0.001578183    3.079    0.675
       272  -8.5656     74.6765     80.7419   9.6431723974e+01   5.1549929792e+01    0.2807618    0.1666272 -73.28  0.001034011    2.405    0.584
       273  -9.4150    104.7962     83.3489   8.7725879799e+01   4.5640730022e+01    0.4481485    0.2909813 -76.46   0.00135415    2.547    0.607
       274  -8.7251    184.3078     77.7991   6.6853993927e+01   2.8212171050e+01    0.2807637    0.1829624 -36.64 0.0007622222    1.460    0.315
       275  -8.9659     61.7700     77.3474   9.9885068744e+01   5.4211836025e+01    0.3373818    0.1797222 -69.93   0.00138434    2.390    0.582
       276 -10.0886     50.0039     77.1250   1.0398452082e+02   5.5753493624e+01    0.4443435    0.2538997  11.74   0.00199791    2.721    0.632
       277  -9.2441    105.9462     76.5032   8.5259169720e+01   4.6886198697e+01    0.4630961    0.2457346  24.51  0.001529975    3.488    0.713
       278  -8.4771    128.1794     75.7719   7.8793927759e+01   4.2244709981e+01      0.25277    0.1666761 -77.71 0.0006699063    2.676    0.626
       279  -8.2474     13.5274     74.4894   1.1668174747e+02   5.9651126447e+01    0.1552664    0.1133604  40.74 3.381848e-05    1.665    0.399
       280  -8.9889     10.0812     74.5358   1.1794216728e+02   5.9851687060e+01    0.1703339     0.151462  33.28 0.0003511642    1.424    0.298
       281  -9.2413     82.5615     72.9717   9.1489864761e+01   5.2017919117e+01    0.3620741    0.2575542 -87.23  0.001614485    2.204    0.546
       282  -9.9323     29.5883     69.9094   1.0976306477e+02   5.9523544577e+01    0.6635216    0.2865288 -29.17  0.002424361    4.234    0.764
       283  -9.4447      4.8124     91.7482   1.2218690003e+02   5.6107462271e+01    0.3072965    0.1381351  61.13  0.001461425    2.764    0.638
       284  -8.7080    105.9725     71.9905   8.3785953027e+01   4.7828350560e+01    0.2404834    0.1861633 -77.96  0.000785074    1.724    0.420
       285  -8.6216     95.2898     71.6155   8.6935749484e+01   5.0016343360e+01    0.2908367    0.1679878 -54.41  0.001226597    1.829    0.453
       286  -9.6474     51.3714     69.8645   1.0155296651e+02   5.7274898445e+01     0.436264    0.2169887 -71.09  0.001481422    2.757    0.637
       287  -8.9657     16.7729     70.6710   1.1477375479e+02   6.0332552536e+01    0.2344021    0.1487963  75.36 0.0008025053    1.959    0.490
       288  -9.7030     17.6412     63.0851   1.1287181199e+02   6.2034777998e+01     0.520441    0.1110999 -51.06  0.001948662    3.219    0.689
       289  -9.0937      1.4594     69.5098   1.2029349163e+02   6.1480145168e+01    0.2500413    0.1120259 -67.99  0.001237256    1.620    0.383
       290 -10.4855      6.0989     68.2571   1.1835552271e+02   6.1538137140e+01    0.4612315     0.191656 -50.38   0.00234735    1.987    0.497
       291  -8.4181    129.0276     69.4884   7.6504423216e+01   4.3281097007e+01    0.2326238    0.1531089  46.27 0.0009550117    1.567    0.362
       292  -9.1123    116.3663     67.9054   7.9400671338e+01   4.6450679082e+01    0.2620229    0.2226048  41.09 0.0004057692    1.228    0.186
       293  -8.3365    105.8204     67.3733   8.2279751300e+01   4.8807100951e+01    0.2179524    0.1401455  33.80  0.000949198    1.780    0.438
       294  -9.1237     44.3065     67.3973   1.0352357882e+02   5.8659021917e+01    0.2290132    0.1345106  19.96  0.001137979    2.182    0.542
       295  -9.4530     83.4284     64.7481   8.8511858581e+01   5.3644892832e+01    0.5470448    0.3241972   9.53  0.001935174    3.588    0.721
       296  -8.6362     37.6447     64.5285   1.0531575837e+02   6.0017435950e+01    0.2198762    0.1463233 -79.05  0.001130072    1.748    0.428
       297  -8.4900    110.3678     64.1998   7.9839062390e+01   4.8482401299e+01    0.2255725    0.1339607 -48.99 0.0006725079    1.738    0.425
       298  -9.2934     73.2963     60.1238   9.0449114422e+01   5.6332545760e+01    0.3169242    0.2248299 -59.40 0.0009801277    1.524    0.344
       299  -8.8009     51.1101     60.5906   9.8912556339e+01   5.9400431586e+01    0.3661252     0.226693  51.09  0.001806602    2.159    0.537
       300 -10.2288      7.1349     57.5573   1.1595061820e+02   6.3943757367e+01    0.5370889    0.2858196  52.92   0.00281726    2.619    0.618
       301  -9.9810      2.2039     58.3981   1.1812659205e+02   6.3998581449e+01    0.2864675    0.1797006  72.61  0.001670161    1.974    0.493
       302  -7.7207    170.4335     60.5181   6.4178389257e+01   3.4613701906e+01    0.1545185    0.1497589 -20.45 0.0001205366    1.027    0.027
       303  -8.5567    111.2326     59.0008   7.7738114165e+01   4.9297555693e+01    0.2763736    0.1599069  15.96 0.0008867401    3.644    0.726
       304  -8.5032     24.7511     59.1674   1.0907599099e+02   6.2403599831e+01     0.200865     0.120392  72.68  0.000777417    2.749    0.636
       305  -9.2059     39.3158     58.1202   1.0284402390e+02   6.1297113891e+01    0.2167646    0.1730857 -10.43  0.001073043    1.450    0.310
       306  -8.1069    119.3046     55.9941   7.4377477703e+01   4.8045831687e+01    0.2518157    0.1033237 -52.84 0.0007019618    4.089    0.755
       307  -8.9680     43.9595     55.6125   1.0018940161e+02   6.1347280842e+01    0.2654052    0.1660493 -71.40  0.001041383    1.971    0.493
       308  -9.9326    100.5194     54.2887   7.9202079192e+01   5.2466526296e+01    0.2695967    0.2467429  -0.04 0.0002102184    1.101    0.092
       309  -9.1377     62.6710     54.7927   9.2514414723e+01   5.9093760622e+01    0.2688451    0.1999027 -54.91 0.0007997127    1.322    0.243
       310  -9.0236     26.1019     54.7779   1.0735788832e+02   6.3285496993e+01     0.248717    0.1715017  -2.94  0.001448801    1.842    0.457
       311  -9.2168     75.7410     49.9827   8.5862363560e+01   5.7996213550e+01    0.4187016     0.243318   5.71   0.00146028    3.821    0.738
       312  -8.6219     54.1914     53.9039   9.5508028885e+01   6.0462564020e+01     0.271704    0.1528773 -68.38  0.001132283    2.657    0.624
       313  -8.9182     31.0329     51.8175   1.0441197587e+02   6.3511973361e+01    0.2488457    0.1728988  78.22  0.001146983    2.231    0.552
       314  -8.8688     92.4038     50.9868   8.0520320324e+01   5.4728574473e+01    0.2944046    0.1919185 -58.84  0.001113437    2.008    0.502
       315  -9.0475     46.4077     49.0092   9.6976817435e+01   6.2485707399e+01    0.2406678    0.1766057  -2.34  0.001096256    1.646    0.392
       316  -9.0194     63.9345     47.1178   8.9189276456e+01   6.0478407769e+01    0.3789667    0.2414923   3.30  0.001705778    2.396    0.583
       317  -9.4541     22.5639     46.8580   1.0663802934e+02   6.5327811249e+01      0.32537    0.2196037  -2.97  0.001371844    1.845    0.458
       318  -8.3468     81.9012     47.2922   8.2619088299e+01   5.7422728706e+01    0.1925831     0.179486  -2.83 0.0005355002    1.073    0.068
       319  -8.4643    130.4311     45.8335   6.7733143716e+01   4.7134279920e+01    0.1989178    0.1456254 -14.73 0.0002678286    1.495    0.331
       320  -8.4296     54.5251     45.9910   9.2514686222e+01   6.2068205069e+01    0.2006054   0.09591635 -31.61 0.0008092495    2.489    0.598
       321  -7.8737      1.3018     46.3045   1.1606410614e+02   6.6761040491e+01    0.1241186    0.0644329 -45.93 0.0002804553    1.594    0.373
       322  -8.3368     73.8065     45.2089   8.4693845349e+01   5.9251517394e+01     0.215294    0.1071067  30.65 0.0008753079    2.518    0.603
       323  -8.5901     44.8285     45.0527   9.6228276241e+01   6.3504564709e+01    0.2040794    0.1440759 -74.30 0.0006734112    1.995    0.499
       324  -9.3497     16.3438     45.1647   1.0895878649e+02   6.6159585807e+01    0.2133452    0.1434564  56.99  0.001224871    2.139    0.532
       325  -8.9230     58.1989     43.0108   8.9859896965e+01   6.2147193687e+01    0.2146904    0.1515317 -67.35   0.00106922    2.002    0.500
       326  -9.9458      4.8599     41.5397   1.1329848632e+02   6.7640836727e+01    0.4163867    0.2035154 -83.14  0.001968547    2.695    0.629
       327  -8.5511    113.8197     41.6800   7.0413859376e+01   5.1757792795e+01    0.2314669    0.1755036  31.33 0.0005925197    1.391    0.281
       328  -8.4984     68.8753     41.6050   8.5078536896e+01   6.0761943937e+01    0.1782068    0.1317641  52.61 0.0008923679    1.713    0.416
       329  -8.3986     36.7031     41.3250   9.8433170126e+01   6.5197811076e+01    0.1818458    0.1490867  87.80  0.001051695    1.749    0.428
       330  -8.9396     84.1439     39.8520   7.8795889427e+01   5.8357154077e+01    0.2429839    0.1943684  16.31 0.0004930831    1.332    0.249
       331  -8.6760    207.5012     37.4862   5.1214289386e+01   2.8380359105e+01    0.1466483    0.1351663 -53.79 0.0002685058    1.017    0.017
       332  -9.0247    106.2140     36.9013   7.0599632165e+01   5.4247082482e+01    0.2689483     0.205211  39.93 0.0003444582    1.320    0.243
       333  -8.4142     26.0394     36.9715   1.0180122206e+02   6.7146017222e+01    0.1795444    0.1445465 -83.57 0.0007084069    1.656    0.396
       334  -8.5746     57.2395     36.7972   8.7700453372e+01   6.3484059088e+01    0.2798132   0.09920694  44.55  0.001040245    3.584    0.721
       335  -8.6068     71.0243     35.2995   8.1573274705e+01   6.1546314261e+01    0.2153318    0.1014661  23.28 0.0007026191    4.112    0.757
       336  -9.5806     16.9831     39.8528   1.0708484987e+02   6.7265781779e+01    0.3614974     0.109814 -38.25  0.001358546    3.654    0.726
       337  -8.5294    119.4627     33.8947   6.5795538052e+01   5.1620200580e+01    0.2240765    0.1411237 -31.04 0.0007859209    1.551    0.355
       338  -9.3093      6.4505     34.0657   1.1046462294e+02   6.9168208144e+01    0.1881364    0.1724904   9.22 0.0006717463    1.376    0.273
       339  -9.6861    222.2447     32.7685   4.8153074435e+01   2.5296867804e+01    0.2878134    0.1913966 -72.18  0.001089515    1.671    0.402
       340  -8.4732     60.2583     32.8204   8.4721422406e+01   6.3756342154e+01      0.19538    0.1456557 -80.78 0.0006682337    2.621    0.618
       341  -8.3801     49.5340     33.0546   8.9383965637e+01   6.5278552711e+01    0.1754086    0.1107226 -63.81 0.0008084556    2.471    0.595
       342  -8.8188     12.8065     31.6943   1.0649196852e+02   6.9278266576e+01    0.2329145    0.1420341 -66.16 0.0006732873    1.601    0.375
       343  -8.0537     72.2963     31.6464   7.9462520130e+01   6.1951678015e+01    0.1329122    0.1072959 -62.33 0.0007033917    1.691    0.409
       344  -8.3213    147.9266     29.0000   5.7631158053e+01   4.5102409292e+01    0.2502191   0.08398619  62.86 0.0008035346    2.950    0.661
       345  -8.9389      2.2685     28.0972   1.1080213568e+02   7.0643229721e+01    0.1983629    0.1668717   4.77 0.0006879468    1.457    0.314
       346  -7.9383     81.3269     27.6722   7.4379354515e+01   6.0908615751e+01    0.1347464    0.1099032 -63.98 0.0007050421    1.702    0.412
       347  -7.8560     91.3423     26.6670   7.0610055696e+01   5.9028106590e+01    0.1404837    0.1110083 -64.23 0.0007050915    1.755    0.430
       348  -8.9404    107.5289    248.9447   1.1501502652e+02   1.1786375165e+01    0.1871569    0.1269328  36.22 0.0006254964    1.415    0.293
       349  -8.9707    110.3763     24.4397   6.4158122587e+01   5.5087305309e+01    0.2471966    0.2103475  -7.36 0.0004997163    1.149    0.130
       350  -8.6776     67.4203     23.5399   7.7507868909e+01   6.4126464162e+01    0.1357825    0.1157259 -11.55 2.251927e-05    1.017    0.017
       351  -8.6167     84.8550     21.5229   7.0290573245e+01   6.1106194891e+01     0.211563    0.1800462 -43.60 0.0005335216    1.345    0.256
       352  -8.3862     88.6744    249.3468   1.1824674558e+02   1.4275247522e+01    0.1149547    0.0609457  62.55 0.0007049932    1.747    0.428
       353  -9.5720     13.0535     21.3672   1.0251322119e+02   7.1347685640e+01    0.2383621    0.1881915 -20.04 0.0008127693    1.230    0.187
       354  -7.7992     48.2937     21.6861   8.4655327816e+01   6.7473950208e+01    0.1162872    0.1003812 -60.02 0.0003035643    1.597    0.374
       355  -8.3521     40.8650     21.1765   8.7887121139e+01   6.8569552990e+01    0.1745776    0.1264791 -16.06 0.0003852751    1.303    0.233
       356  -9.0427     44.0187     25.6413   8.8535090895e+01   6.7372796358e+01    0.2060748    0.1483303 -25.80 0.0004850317    1.218    0.179
       357  -8.2722      1.4861     19.5749   1.0836582517e+02   7.2426029085e+01    0.1171693   0.08545184 -44.88 0.0001034613    1.026    0.025
       358  -9.5952     28.9625     17.8984   9.2284762409e+01   7.0556523793e+01    0.2861769      0.20265  18.49  0.000966605    1.556    0.357
       359 -11.2988    237.7530    240.8199   9.2050128763e+01  -6.0855547280e+00     0.388332    0.2864028  24.32   0.00163065    1.122    0.109
       360  -8.4433     50.4543     15.6591   8.0577213374e+01   6.8126136063e+01    0.2099378    0.1382025  11.86 0.0006963403    1.712    0.416
       361  -8.8938     58.8284     22.1566   8.0287687533e+01   6.5793350937e+01    0.1862885    0.1639015 -23.75 0.0003425848    1.132    0.116
       362  -9.2793     41.1259     13.9560   8.4040619304e+01   6.9736735227e+01     0.216204    0.1622644   9.40 0.0003812917    1.338    0.252
       363  -8.2280    103.2319    242.1302   1.1515503676e+02   1.3398567719e+01    0.1520863   0.09866267  58.87 0.0004796215    1.305    0.234
       364  -9.9193    107.8075    237.7388   1.1394905419e+02   1.3429186398e+01      0.38786    0.2285234  82.38  0.002252029    2.355    0.575
       365 -11.1437    167.9592    242.7307   1.0392277046e+02   3.8303380681e+00    0.4365986    0.2883436  47.51  0.001609509    1.341    0.254
