#   1 NUMBER                 Running object number                                     
#   2 MAG_AUTO               Kron-like elliptical aperture magnitude                    [mag]
#   3 X_IMAGE                Object position along x                                    [pixel]
#   4 Y_IMAGE                Object position along y                                    [pixel]
#   5 X_WORLD                Barycenter position along world x axis                     [deg]
#   6 Y_WORLD                Barycenter position along world y axis                     [deg]
#   7 A_WORLD                Profile RMS along major axis (world units)                 [deg]
#   8 B_WORLD                Profile RMS along minor axis (world units)                 [deg]
#   9 THETA_WORLD            Position angle (CCW/world-x)                               [deg]
#  10 FWHM_WORLD             FWHM assuming a gaussian core                              [deg]
#  11 ELONGATION             A_IMAGE/B_IMAGE                                           
#  12 ELLIPTICITY            1 - B_IMAGE/A_IMAGE                                       
         1 -13.0070    176.9303     57.9579   8.6267046290e-01   3.3936366652e+01     1.540953     1.002884  36.50  0.005705845    2.379    0.580
         2 -13.2932    192.6496     44.7720   3.5578156800e+02   3.2500254192e+01    0.9201396    0.7523224 -59.33  0.003511571    1.013    0.013
         3 -13.6508    218.1097     15.8759   3.4723434200e+02   3.0958032945e+01     1.045789    0.8158697 -40.86  0.005241679    1.273    0.215
         4 -10.7956      3.0799      3.8418   3.9979332218e+01   7.9029957342e+01    0.3426184    0.2817455 -35.35  0.002313506    1.242    0.195
         5 -12.0000      6.9691      9.6657   3.9997362937e+01   7.7587990765e+01    0.5356019    0.3368399  19.24  0.003072718    1.494    0.330
         6 -10.1580    189.5944     14.9639   3.4880930289e+02   3.6715991061e+01    0.2673743     0.151926 -51.34 0.0008099401    1.415    0.294
         7 -11.3766    119.2064      9.8362   3.5424634608e+02   5.3511339131e+01    0.6176993     0.393275  50.92  0.003067405    1.679    0.404
         8 -10.1425    192.8767      3.2009   3.4577774472e+02   3.7240162277e+01    0.2351462    0.1549478 -27.98  0.001478652    1.660    0.398
         9  -8.7263    186.0000    227.4122   3.3592279482e+01   3.6066990954e+00    0.2816815   0.05908744 -45.12  0.001027592    4.721    0.788
        10 -13.0537    246.6646    241.0284   2.5648878252e+01  -3.8119336962e+00      1.45248    0.4791358 -34.56  0.008422454    2.409    0.585
        11 -16.3925     66.3821    140.1105   4.8927775844e+01   3.8563097936e+01       8.9246     4.624011  53.88   0.03377019    2.301    0.565
        12 -11.3029     16.5398    188.2006   6.9990195044e+01   3.1495782593e+01    0.3968579    0.1579688  28.13 0.0009526766    2.177    0.541
        13 -12.5216     12.6361    195.4470   7.1467289255e+01   3.0047070785e+01    0.2655075    0.1993925  38.64 0.0005410948    1.185    0.156
        14 -11.6665      8.6335    192.8704   7.2436846494e+01   3.0992574328e+01    0.2342865    0.1754403  28.73 0.0004357913    1.285    0.222
        15 -12.0927     47.7941    177.4515   5.9993905881e+01   3.1131175842e+01     1.304915    0.5523568  56.57  0.002982896    2.852    0.649
        16 -12.5153     56.8824    189.8373   5.8667628485e+01   2.7006941243e+01     0.683475    0.4156308 -46.78  0.001918463    1.877    0.467
        17  -9.4813     43.2893    194.0357   6.2884935428e+01   2.7504143153e+01    0.3405192    0.1911769  77.41  0.001544189    2.079    0.519
        18  -9.2502    248.4650    196.4838   1.8790537609e+01   1.5626029574e+00    0.1078202    0.0766622 -20.64 6.283424e-05    1.008    0.008
        19  -9.4872     81.9752    195.8837   5.2482210716e+01   2.2483920647e+01    0.2129323    0.1866352  41.25 0.0006099399    1.070    0.066
        20  -9.2764      9.6280    198.9265   7.2446107875e+01   2.9455681102e+01    0.1687611   0.09379683  67.73 0.0008406527    1.686    0.407
        21 -15.2652      9.1786    209.9778   7.3040751315e+01   2.6910787894e+01    0.9549049    0.7453412 -59.07  0.005911439    1.507    0.336
        22 -10.2488      1.3622    188.0074   7.4231210388e+01   3.2726739036e+01    0.1575383    0.1233048  55.41 0.0006056419    1.090    0.083
        23 -18.2296     16.6907    235.0089   7.2227309337e+01   2.0830863867e+01     7.581254     5.496687  22.65   0.02270648    1.326    0.246
        24  -8.4176     75.4968    209.6122   5.5765255077e+01   2.0219961279e+01    0.1657093    0.1282947  82.30 0.0006969423    1.513    0.339
        25 -11.8794    145.9785    185.7486   3.5147633315e+01   1.5741020722e+01    0.4917381    0.3409565 -65.90  0.002260041    1.990    0.497
        26  -9.1110    195.2915    183.5894   2.4957380649e+01   9.3983706376e+00    0.2150144    0.1443737 -38.83  0.001014994    1.353    0.261
        27  -8.4863    185.0000    222.9902   3.3130832141e+01   4.3765801516e+00    0.3036339   0.07524043 -44.98  0.001007351    3.973    0.748
        28 -10.6519     10.5455    183.8372   7.1452563399e+01   3.3072966414e+01    0.4431947    0.1282104  28.48  0.001292487    2.755    0.637
        29  99.0000     20.2962    182.9243   6.8585635858e+01   3.2492560806e+01    0.3219615     0.192727  10.10  0.001542074    1.921    0.479
        30 -10.0676    183.6198    178.7653   2.6232514200e+01   1.1749946097e+01    0.4441012    0.1692661 -50.96  0.001749215    3.238    0.691
        31 -10.4814    180.2502    175.3424   2.6256081336e+01   1.2812990607e+01    0.3298973    0.2560681 -55.54 0.0009497985    1.567    0.362
        32  -8.4274     48.5170    209.1045   6.2745128950e+01   2.3408207373e+01    0.5276384    0.2060526  33.23  0.002265304    2.066    0.516
        33 -10.2162    221.2949    176.4305   1.9432785542e+01   7.3139391135e+00    0.3200336    0.1955035 -53.79  0.001788892    2.281    0.562
        34 -11.1015    231.6586    176.3058   1.7864899284e+01   6.1245474376e+00    0.3018284    0.2121727 -47.81  0.002006934    1.649    0.394
        35 -11.5779    236.2053    173.7672   1.6782289259e+01   5.9768072820e+00    0.2934125    0.1867029  38.65  0.001942848    2.007    0.502
        36  -8.7594     37.6210    176.7773   6.2972169141e+01   3.2404766883e+01    0.2500868    0.1260207  42.33 0.0007454765    1.789    0.441
        37 -11.3000     40.5630    207.4598   6.4712131000e+01   2.4616204211e+01    0.4611967    0.2689505 -39.68  0.001002321    2.270    0.559
        38  -9.7006     52.9680    197.1394   6.0488244114e+01   2.5702919331e+01    0.3798003    0.1864127  34.90   0.00120451    1.748    0.428
        39 -10.9923    245.4848    169.5143   1.4788634849e+01   5.5463543736e+00    0.2398391    0.1562746  -5.82  0.001588367    1.699    0.411
        40  -9.9375    191.7802    167.2582   2.2667777233e+01   1.2611144707e+01    0.3086244    0.2373169 -42.34  0.001171754    1.261    0.207
        41  -9.6124    187.0413    165.7436   2.3239182508e+01   1.3543213909e+01    0.3423253    0.2113906 -35.48  0.001218309    1.437    0.304
        42 -10.8131    230.7048    168.4557   1.6652370574e+01   7.3896906003e+00    0.2696414    0.1614317 -40.97  0.001682087    1.450    0.310
        43  -6.8750     35.6358    208.6842   6.6099741895e+01   2.4829521453e+01    0.2354786    0.1656707 -45.58 0.0007890909    1.723    0.420
        44  -9.4336    167.0954    225.6838   3.6928059557e+01   5.9559764853e+00    0.2174964    0.1509569 -29.64 0.0006152745    1.363    0.266
        45  -9.9884    152.8955    162.6413   2.9465438136e+01   1.9286348953e+01    0.2622354    0.1939817 -52.13  0.001042465    1.409    0.290
        46  -9.0575     80.4426    206.1986   5.4113146339e+01   2.0366181646e+01    0.2178297    0.1362386 -79.66 0.0007978866    2.020    0.505
        47 -10.9347    136.1595    154.4336   3.1689228997e+01   2.3720558352e+01    0.5532681    0.3379641 -64.69  0.002073522    2.162    0.537
        48 -11.7641    133.7676    145.9933   3.0557987456e+01   2.5959332692e+01     1.183369     0.366942 -55.24  0.003432462    4.204    0.762
        49  -9.8922    150.4477    154.0991   2.8338183195e+01   2.1410582927e+01    0.2650449    0.2123517  82.66  0.001141142    1.807    0.447
        50 -11.7893     57.4208    211.3339   6.0610894216e+01   2.1934182356e+01    0.3666776    0.3286963 -84.67  0.001240678    1.216    0.178
        51  -9.9307    136.8307    137.4405   2.8008327751e+01   2.7274847573e+01    0.4628867    0.1915275 -51.63  0.001705309    2.463    0.594
        52 -11.1399    139.7165    146.0325   2.9145361152e+01   2.4916060493e+01    0.6340094    0.4141596 -85.50   0.00242292    3.176    0.685
        53 -10.9390    145.2434    147.2513   2.8119487201e+01   2.3703693007e+01    0.4642338    0.3124907 -80.60  0.001937283    2.677    0.626
        54  -9.3891    147.1729    143.8448   2.6975758552e+01   2.4080821180e+01    0.2168526    0.1971679 -85.91    0.0012217    1.296    0.229
        55 -11.4798    124.9516    140.6996   3.1646156538e+01   2.8688987879e+01    0.5777323    0.2621597  47.25  0.001879762    2.451    0.592
        56  -9.3005     73.4700    205.7108   5.5869325835e+01   2.1327147646e+01    0.2150057    0.1722221  41.32 0.0002893599    1.134    0.118
        57 -10.4014    135.7244    127.7850   2.6126852173e+01   2.9566283910e+01    0.6353827    0.1741375 -49.37  0.001890484    3.647    0.726
        58 -11.2301    115.0362    128.3678   3.1561342969e+01   3.3324129001e+01    0.4699689    0.3719685  51.88   0.00147236    1.327    0.246
        59 -11.4286     54.2904    205.8747   6.0941544252e+01   2.3517477679e+01     0.299048    0.2112222  42.56 0.0006330056    1.249    0.200
        60  -9.2812    235.8932    125.9491   8.2187674203e+00   1.3085516443e+01    0.1791932    0.1209027 -56.42  0.001115206    1.676    0.403
        61 -11.3825     88.3419    122.3490   3.8108577152e+01   3.9652666510e+01    0.8015977     0.375584  57.23  0.002359855    3.463    0.711
        62 -10.3784    120.5215    122.9075   2.8825392654e+01   3.3540787289e+01    0.4018835    0.3623147 -18.50   0.00213075    1.214    0.176
        63 -10.5292    134.8200    117.3523   2.3900541112e+01   3.1982182135e+01    0.7326638    0.1643627 -46.63  0.001994729    4.268    0.766
        64  -9.3262    109.7984    117.9745   3.0586402678e+01   3.6738707851e+01    0.2444743    0.2162005  39.99 0.0003096969    1.157    0.136
        65  -9.8690    104.4850    116.0184   3.1646326111e+01   3.8220035216e+01    0.2997339    0.2088039  58.20 0.0007862525    1.629    0.386
        66  -9.2004     92.5804    114.3901   3.4888664349e+01   4.0860954031e+01    0.3962264    0.2246435  65.13  0.001279792    2.899    0.655
        67  -8.7552    167.5454    112.7321   1.5846695045e+01   2.6547286952e+01    0.2022608    0.1204435 -52.51 0.0009406404    1.671    0.401
        68 -11.9372    118.5338    108.3613   2.5785356854e+01   3.7199370188e+01    0.9026971    0.5710203 -43.52  0.003164604    1.573    0.364
        69  -8.5114    138.6382     95.2316   1.7424387452e+01   3.5767753417e+01    0.1933453     0.134038 -36.13 0.0002276337    1.498    0.332
        70 -10.6395    237.3911    249.4012   2.8161962601e+01  -4.0453850039e+00    0.2642424    0.1746583 -28.71  0.001293142    1.400    0.286
        71 -11.5746     37.2357    201.3983   6.5145818073e+01   2.6368442425e+01    0.3783464    0.2563473  -0.44  0.001250039    1.850    0.460
        72 -11.1859     62.0383    199.8878   5.8290155100e+01   2.4016505568e+01    0.4119111    0.2296654 -63.18  0.001400613    1.902    0.474
        73  -8.4642    155.9789     84.0082   1.0928510497e+01   3.4179002847e+01    0.1683677    0.1567353 -79.96 0.0003906539    1.064    0.060
        74 -10.6707     66.5905    194.5366   5.6480308530e+01   2.4725446907e+01    0.4547939    0.2686755  36.82  0.001970473    1.504    0.335
        75 -10.3848    193.3276    195.6451   2.7343120552e+01   7.6855926066e+00    0.4663674    0.2658864 -59.83  0.002109556    3.491    0.714
        76 -10.9572    152.3912    199.4139   3.5987551886e+01   1.2263555411e+01    0.3209018    0.2346271  12.45  0.001527961    1.320    0.242
        77  -9.0231     12.5313    190.6349   7.1249414321e+01   3.1227590481e+01    0.1789062    0.1560279  78.87 0.0002351588    1.104    0.095
        78 -12.3199     52.8526    246.7011   6.4455631358e+01   1.5085725108e+01    0.2084876    0.1748434 -83.33 0.0006837345    1.404    0.288
        79  -8.2114     57.0024    244.5544   6.3353673784e+01   1.5075041696e+01     0.166784   0.09646146  32.07 0.0007329521    1.370    0.270
        80  -8.6610     41.0687     65.4568   4.1661537730e+01   6.1626360133e+01    0.2172408    0.1389374  32.74 0.0004471002    1.553    0.356
        81 -12.4376    198.0428     39.0587   3.5390563654e+02   3.2147842531e+01    0.4685155    0.4087751 -50.48  0.001462926    1.175    0.149
        82  -9.9338    141.6485     42.0572   1.5203599044e+00   4.4199408647e+01    0.2484999    0.1917352  65.71 0.0005468767    1.286    0.222
        83 -11.2429    209.4682     33.7826   3.5173858107e+02   3.0552080610e+01    0.2539513    0.1929334  86.07 0.0008384056    1.361    0.265
        84 -14.4116     53.1213    229.4088   6.3174903216e+01   1.8503762426e+01    0.4759107    0.4280997  38.15  0.001919092    1.072    0.068
        85 -10.1868     54.2090    240.3599   6.3708889223e+01   1.6177721898e+01    0.1659102    0.1461436  17.82  0.001123288    1.168    0.144
        86  -8.3213    162.3539     12.6775   3.5035956407e+02   4.2922572645e+01    0.1412217   0.07445069 -62.94  5.78527e-05    1.758    0.431
        87  -8.5010     56.2909    236.9834   6.2975305205e+01   1.6631355563e+01    0.2088857    0.1200678  39.34 0.0005517586    1.423    0.297
        88 -10.4608    154.2333    239.1273   4.1316897895e+01   5.2694894625e+00    0.1893764    0.1759983 -69.21   0.00136684    1.620    0.383
        89  -9.5520     77.0102    231.5812   5.7586479329e+01   1.5458404941e+01    0.3913663    0.1905966 -48.82  0.001801151    2.395    0.582
        90  -8.6298     70.9557    231.9096   5.9065321320e+01   1.6069037422e+01    0.2123054    0.1819532 -66.84  0.001379841    1.363    0.266
