#   1 NUMBER                 Running object number                                     
#   2 MAG_AUTO               Kron-like elliptical aperture magnitude                    [mag]
#   3 X_IMAGE                Object position along x                                    [pixel]
#   4 Y_IMAGE                Object position along y                                    [pixel]
#   5 X_WORLD                Barycenter position along world x axis                     [deg]
#   6 Y_WORLD                Barycenter position along world y axis                     [deg]
#   7 A_WORLD                Profile RMS along major axis (world units)                 [deg]
#   8 B_WORLD                Profile RMS along minor axis (world units)                 [deg]
#   9 THETA_WORLD            Position angle (CCW/world-x)                               [deg]
#  10 FWHM_WORLD             FWHM assuming a gaussian core                              [deg]
#  11 ELONGATION             A_IMAGE/B_IMAGE                                           
#  12 ELLIPTICITY            1 - B_IMAGE/A_IMAGE                                       
         1 -12.7922    199.5511     33.4509   6.1391705500e+01   3.1148991991e+01    0.9638187    0.6648104  57.54  0.005181901    1.490    0.329
         2 -13.5445    215.5181     15.4350   5.5399493263e+01   2.9481738013e+01     1.078454    0.8979309  36.69  0.006724729    1.671    0.402
         3 -11.9921      2.1033      4.4637   1.1032172207e+02   7.4837870776e+01    0.6325133    0.2540018 -51.70  0.003211841    2.990    0.666
         4 -10.8961     18.0938     26.2300   1.1077385366e+02   7.0075557016e+01     0.325976    0.1588486  38.38  0.001677727    2.782    0.641
         5 -12.0860    199.3761    246.1524   1.0831062570e+02  -4.8425680619e+00    0.7040073    0.3604589  48.88   0.00340568    2.557    0.609
         6 -11.5309    185.0473    249.5769   1.1157795365e+02  -3.1687130660e+00    0.6113014    0.2270095  41.37  0.002746547    2.355    0.575
         7 -10.4098    163.0051    249.8925   1.1595235371e+02   1.8958451423e-01    0.1985462     0.186897 -12.38 0.0009250516    1.257    0.204
         8 -11.4119    149.5070    247.4991   1.1833408460e+02   2.6936836932e+00     0.319257    0.2652851  -6.70  0.001990752    1.450    0.310
         9 -12.2272    134.3078    248.9610   1.2159501300e+02   4.8596315011e+00      1.29089    0.2478887  36.02  0.003755044    5.083    0.803
        10 -11.3139    100.6577    248.0409   1.2830360511e+02   1.0216328794e+01    0.6149223    0.3160491  43.31  0.003070552    1.538    0.350
        11 -11.1138    121.7373    245.1625   1.2369590425e+02   7.4856511002e+00    0.4544523    0.3302439  72.41  0.001912347    1.629    0.386
        12 -11.7438    125.3139    241.8997   1.2256588496e+02   7.4923523680e+00    0.5780018    0.4299413 -66.29 0.0009556971    1.650    0.394
        13 -11.1097    114.9654    250.2782   1.2565859772e+02   7.6487869127e+00    0.8416112    0.2974964  35.91  0.003582629    2.465    0.594
        14 -11.3582    109.4284    246.9738   1.2641451274e+02   9.0769819435e+00    0.4790749    0.4053717  64.17  0.002975783    1.152    0.132
        15  -9.4699     90.9889    250.5146   1.3048454609e+02   1.1200999506e+01    0.2365037     0.142938  28.69  0.001263445    1.852    0.460
        16 -11.1077     86.6408    248.2775   1.3113756259e+02   1.2237218277e+01    0.4023845    0.2679347  31.37 0.0009061563    1.578    0.366
        17  -9.4639     81.4212    247.2212   1.3207908940e+02   1.3179253688e+01    0.2696049    0.1718708  85.90  0.001550388    1.763    0.433
        18  -8.1456     75.2989    250.6609   1.3358847815e+02   1.3405509867e+01    0.1280228   0.07219376  63.08 0.0007034529    1.663    0.399
        19 -11.1189     60.1148    246.4183   1.3620078199e+02   1.6246099644e+01    0.4859094    0.3012052  64.29  0.002585949    1.376    0.273
        20 -12.7436     11.4894    208.7185   1.4329531413e+02   2.9516487876e+01     1.323933     1.087628 -13.46  0.008967482    2.054    0.513
        21 -12.5543      3.4203    192.5685   1.4402906671e+02   3.3756485135e+01     1.688888    0.2949391 -74.34    0.0061021    4.220    0.763
        22 -12.4786      5.2269    226.1427   1.4542178467e+02   2.6507059015e+01     1.135047     0.706422  55.95  0.007777734    1.268    0.212
        23 -12.5860     43.9015    208.2238   1.3643286735e+02   2.6116962377e+01      1.79098    0.7304258  74.34  0.006875581    3.502    0.714
        24 -11.7319     19.6946    237.0041   1.4327532707e+02   2.2889176755e+01    0.4862549    0.2815926  61.49 0.0009699367    1.318    0.241
        25 -12.4159     29.0294    226.4719   1.4087472543e+02   2.3977313854e+01    0.3645836    0.2746667 -73.68 0.0007458954    1.428    0.300
        26 -13.7220     35.5341    218.4537   1.3901576432e+02   2.4904418554e+01     1.115986    0.9145369 -71.75  0.007664606    1.380    0.275
        27 -11.0874    164.5394    242.4747   1.1460631389e+02   1.0976058885e+00    0.3068706     0.192809 -53.06   0.00169596    2.071    0.517
        28 -11.5112     84.4675    240.5304   1.3083584291e+02   1.3996354233e+01    0.8158575    0.5310047  52.46  0.004857375    1.251    0.201
        29 -11.5896     99.1172    231.9665   1.2688453202e+02   1.3449565611e+01    0.5616081    0.3588856 -67.34   0.00232406    1.785    0.440
        30 -10.4028     97.1055    239.1062   1.2809106956e+02   1.2393228262e+01    0.2194689    0.1739101  84.57  0.000768756    1.338    0.252
        31 -11.1126    113.4047    231.1968   1.2375001174e+02   1.1351935059e+01    0.4101753    0.3198407 -57.02  0.002162127    1.505    0.335
        32 -10.6176     98.2147    223.4635   1.2609324028e+02   1.5269221961e+01    0.3818944    0.2743208  30.05  0.001794763    1.480    0.324
        33  -9.0058     94.2245    219.0252   1.2644164922e+02   1.6794525506e+01    0.2752786    0.1814927  61.08 0.0008966051    1.465    0.317
        34 -10.7267     84.5658    230.2604   1.2978379336e+02   1.5978983338e+01    0.4333148    0.2138053 -63.66  0.002166793    2.228    0.551
        35 -10.8185    109.1209    230.9129   1.2463042091e+02   1.2088355351e+01    0.3410113    0.2484044  82.90  0.001939855    1.613    0.380
        36 -11.1256    105.7609    228.0544   1.2500638477e+02   1.3173016070e+01    0.3903574    0.3480143  60.47  0.002004989    1.079    0.074
        37 -11.3625     91.8485    241.2612   1.2939881663e+02   1.2775463480e+01    0.3328711    0.3030564  52.72  0.001550894    1.183    0.155
        38 -10.9557     89.9852    238.0322   1.2945250290e+02   1.3663098116e+01    0.3011013     0.253032 -87.20  0.001217368    1.272    0.214
        39 -10.4916    157.7703    240.0307   1.1563197145e+02   2.5781956997e+00    0.2455853    0.1664016 -47.41  0.001369534    1.784    0.439
        40 -12.4917    143.3068    242.2690   1.1890300483e+02   4.5446775853e+00    0.9047711     0.616785  81.42  0.004640578    2.464    0.594
        41  -9.7476    132.1883    224.2762   1.1878911578e+02   9.5772139080e+00    0.2276647    0.2008445  10.12  0.001057945    1.294    0.227
        42 -10.8600    136.0910    225.2257   1.1807940056e+02   8.7439868864e+00    0.4372981    0.2475921 -42.06   0.00140936    2.182    0.542
        43 -11.3583    135.7078    240.9957   1.2030186436e+02   5.9855012127e+00    0.4251467    0.2834839  15.89  0.001790805    1.945    0.486
        44 -10.8347    134.7815    237.0204   1.1997420423e+02   6.8281424162e+00     0.302724    0.2393767 -17.03   0.00134637    1.701    0.412
        45 -11.4817    134.6561    232.1289   1.1934540946e+02   7.7204453172e+00    0.3906325    0.3141188 -38.40  0.002322688    1.516    0.340
        46 -10.4275    101.4814    240.4475   1.2733020530e+02   1.1477889709e+01    0.2006301    0.1693196 -55.24 0.0006157472    1.465    0.317
        47 -10.6552    104.3672    238.2938   1.2649319023e+02   1.1436117794e+01    0.2360177     0.185213  39.03 0.0008700451    1.174    0.148
        48 -10.4349    106.5259    235.4877   1.2572136875e+02   1.1627422464e+01    0.2549838    0.1986837 -77.57 0.0009981109    1.467    0.318
        49 -10.2883     54.4854    240.8771   1.3687556600e+02   1.8037731216e+01    0.2742439    0.1477536  36.75  0.000856698    1.739    0.425
        50 -10.9313    116.8213    238.3266   1.2389684442e+02   9.4813473738e+00    0.4244121    0.2548009 -33.52  0.001979012    2.752    0.637
        51  -8.8648     66.5067    239.5826   1.3438646443e+02   1.6701145074e+01     0.242436    0.1405911  73.14 0.0008921435    1.762    0.433
        52  -9.2581     67.1319    243.9833   1.3463169988e+02   1.5771646106e+01    0.2402446    0.1545768  24.42  0.001342752    2.058    0.514
        53  -9.6784    172.9585    236.0092   1.1195310064e+02   7.6638395882e-01    0.1817343    0.1482131  61.93  0.000363842    1.595    0.373
        54 -11.1636    128.4018    234.5266   1.2098733652e+02   8.3116975582e+00     0.462388    0.2360644  54.09  0.002136364    2.109    0.526
        55 -10.6933    122.5104    233.4030   1.2208891032e+02   9.4732216959e+00    0.3448668    0.2760395 -47.64  0.001882181    1.513    0.339
        56  -9.0509     54.7464    235.5156   1.3640978080e+02   1.9054927828e+01    0.2076409    0.1541508  87.89 0.0007483996    1.272    0.214
        57  -8.5833     70.5983    235.2314   1.3317534953e+02   1.6990669650e+01    0.1488997    0.1111793 -63.50 0.0005650214    1.560    0.359
        58  -9.7892    166.0122    234.5265   1.1314367311e+02   2.1345338053e+00    0.2066212    0.1099546  36.85  0.001027805    1.579    0.367
        59  -9.6626    169.6933    232.9837   1.1215749137e+02   1.7831861643e+00    0.1711144    0.1561517   9.54 0.0003694544    1.129    0.114
        60 -10.3149    156.6606    232.1752   1.1472540599e+02   4.0665755926e+00    0.2365232    0.2099457   0.03 0.0005676851    1.225    0.184
        61 -13.1989      5.5002    245.1830   1.4621123490e+02   2.2779720331e+01     1.110295    0.5122602  61.82            0    1.620    0.383
        62  -9.1113    141.3158    231.3185   1.1782342608e+02   6.7638290862e+00    0.1293037   0.09873874   6.24 0.0002935591    1.653    0.395
        63  -9.9756     70.8658    219.2191   1.3158867859e+02   2.0214395267e+01    0.4973919    0.3019978  65.92  0.002663203    1.601    0.376
        64 -10.2909     79.1944    225.8361   1.3046862438e+02   1.7654488936e+01    0.4165245    0.2502782 -75.14  0.001256228    1.809    0.447
        65  -9.2599     77.2175    220.6182   1.3035259412e+02   1.9015474598e+01    0.2020181    0.1531097  66.49 0.0003874277    1.166    0.143
        66 -10.4012    117.0799    224.6503   1.2212504073e+02   1.2013402735e+01    0.3178085     0.263626  27.14 0.0006707427    1.278    0.217
        67  -9.2328     92.5082    226.1080   1.2763751584e+02   1.5618159024e+01    0.2130503    0.1507394  60.20 0.0006170358    1.281    0.219
        68  -9.2103     65.0221    224.4437   1.3334720782e+02   1.9934288956e+01    0.2180329    0.1618692 -56.26 0.0007760751    1.647    0.393
        69  -8.6857    164.4740    224.4486   1.1191771038e+02   4.0784825106e+00    0.1345228    0.1147353  32.92 7.639189e-05    1.033    0.032
        70  -8.8809     87.5675    223.7473   1.2844249310e+02   1.6843469168e+01     0.239118    0.1286834  55.68  0.001174036    1.747    0.427
        71 -10.6188    142.1002    220.1734   1.1604047504e+02   8.6637934697e+00    0.3443489     0.288782 -51.34  0.002048235    1.378    0.274
        72 -10.0753    245.5892    220.6585   9.5625355747e+01  -8.0211776043e+00    0.2337462    0.1012011 -30.03  0.001158485    2.227    0.551
        73  -9.4773    110.3641    219.0857   1.2287261108e+02   1.4210762709e+01    0.4103126     0.184889 -75.52  0.001390137    4.507    0.778
        74  -8.5317     89.3103    218.6696   1.2748615023e+02   1.7624019715e+01    0.1408371   0.08771125  65.42 0.0005945262    1.668    0.401
        75  -9.2973     88.2129    212.7298   1.2703189398e+02   1.9040163661e+01      0.26112    0.1778798 -78.32 0.0009851484    1.586    0.370
        76 -10.0037     62.9855    209.6963   1.3236026901e+02   2.3345820970e+01      0.52674    0.3681601 -43.20  0.002884883    2.008    0.502
        77 -11.1130     55.3421    208.1434   1.3390830040e+02   2.4700977763e+01    0.7065784    0.3650134  83.32  0.002265943    2.243    0.554
        78  -8.6068    130.9868    211.2891   1.1716093255e+02   1.2296937647e+01    0.1897314    0.1601199  44.20  0.000228813    1.043    0.041
        79  -9.8862    156.1886    208.1427   1.1105334952e+02   8.4589088040e+00    0.2167915     0.192727  30.12 0.0002745553    1.021    0.021
        80  -9.8558    107.1088    209.4522   1.2231660050e+02   1.6726514985e+01    0.2865346    0.2080786 -18.63  0.001271737    2.255    0.557
        81  -9.2470    112.4720    208.4733   1.2095269798e+02   1.6039244644e+01    0.2407192     0.157374  79.88 0.0007770596    2.075    0.518
        82  -8.5894     74.3636    208.2733   1.2964868709e+02   2.2063501807e+01    0.1746944    0.1155916 -86.63 0.0004188803    1.582    0.368
        83  -9.2777     69.9561    208.0340   1.3062071612e+02   2.2744914388e+01    0.1923414    0.1614894  68.33  0.001186463    1.012    0.012
        84  -9.0590    125.8030    207.1326   1.1770589117e+02   1.4037118178e+01    0.2087858    0.1756069  70.98 0.0006935411    1.262    0.207
        85  -9.6393     91.5915    204.8480   1.2527999492e+02   2.0215000392e+01    0.3315995    0.1639676  38.26  0.001496906    1.848    0.459
        86  -8.7876     32.9230    207.0158   1.3870841860e+02   2.7659286758e+01     0.163983    0.1346791 -57.68 0.0004190139    1.520    0.342
        87  -8.7690    102.6766    202.8179   1.2242494215e+02   1.8873571684e+01     0.363145    0.2243593  47.96  0.001795093    1.454    0.312
        88  -9.9944    250.2069    200.9073   9.1271701192e+01  -5.9496905839e+00     0.293361    0.1369705 -17.33  0.001241111    2.962    0.662
        89  -9.9476     84.2359    201.5489   1.2657396057e+02   2.2080944527e+01    0.3001217    0.2303597 -36.05  0.001159594    1.789    0.441
        90 -13.1090     39.6679    243.7173   1.3992781927e+02   1.9326869994e+01     1.170437    0.9172065  78.40  0.007803239    1.148    0.129
        91 -11.4610    102.9182    195.9397   1.2138557433e+02   2.0342466942e+01    0.2778141    0.2646222 -19.29 0.0003986838    1.278    0.217
        92 -10.2703     27.5334    195.2634   1.3897042455e+02   3.0857109893e+01    0.4969827     0.278833  81.00  0.001142042    1.651    0.394
        93  -9.4399     21.0220    193.7632   1.4029881737e+02   3.1863217802e+01     0.432749    0.2033332 -83.32  0.002209749    1.910    0.476
        94  -9.7475    113.1523    193.2520   1.1852717147e+02   1.9192774707e+01    0.5631493    0.2818186 -60.68  0.002089152    2.222    0.550
        95 -11.6278     56.9126    194.3638   1.3215316957e+02   2.7592272302e+01    0.4838427    0.3307885 -44.57 0.0008251156    1.934    0.483
        96  -9.8357    249.7925    193.9011   9.0031110192e+01  -4.8827557511e+00    0.2862093    0.1966054 -12.05  0.001700579    1.353    0.261
        97  -8.5001     72.5648    193.1440   1.2829398941e+02   2.5717544386e+01    0.1685365    0.1219006 -56.97 0.0003651226    1.502    0.334
        98  -9.1703    191.3990    191.3803   1.0049098356e+02   5.1824439505e+00    0.2210125    0.2121456  27.99 0.0006460938    1.156    0.135
        99 -12.8342     28.3124    246.7873   1.4222081926e+02   2.0060572153e+01     1.088392    0.5540601  37.17  0.005930856    1.842    0.457
       100  -9.0443     40.9720    188.5204   1.3530567440e+02   3.0911605177e+01    0.2255929    0.1750807  86.76 0.0006486834    1.111    0.100
       101  -9.7062     15.3967    191.7108   1.4139002859e+02   3.2871078586e+01    0.2163736    0.1461245  84.04 0.0007132901    1.210    0.174
       102 -12.1580     13.7505    239.2685   1.4448054377e+02   2.3072533879e+01    0.6574343    0.3387401  73.37  0.001261857    1.594    0.373
       103 -10.1676    249.9472    188.0820   8.8898631431e+01  -4.0507497825e+00    0.3083792    0.1841363 -21.13  0.001670358    1.604    0.376
       104  -8.5856     77.0158    188.4782   1.2662216973e+02   2.6143964686e+01    0.1915652      0.12789  40.41 0.0009777645    1.433    0.302
       105 -10.2135     72.0330    186.6268   1.2760405877e+02   2.7306651389e+01    0.3878101    0.2796082 -30.62  0.001454466    2.083    0.520
       106 -11.3390     63.8824    186.2496   1.2955627568e+02   2.8542797498e+01    0.3587254    0.2411679 -50.41  0.000648736    1.722    0.419
       107  -9.7123     83.5007    186.6428   1.2477896445e+02   2.5587726026e+01    0.2331557    0.2032915  79.83 0.0002961526    1.064    0.060
       108  -9.6666     29.7012    183.8886   1.3752514587e+02   3.3233967953e+01    0.2974514    0.1859179 -57.84  0.001661392    1.704    0.413
       109  -8.8938     27.2650    179.9795   1.3775432804e+02   3.4397807087e+01    0.1781451    0.1379161 -87.55 0.0003569124    1.098    0.089
       110  -9.1130     24.2958    184.0762   1.3880182928e+02   3.3745091007e+01     0.183471    0.1743995  45.46 0.0007694045    1.325    0.245
       111  -8.2057    127.6552    182.8172   1.1328045648e+02   1.8888870443e+01    0.1907439    0.1389344 -68.29 0.0003005284    1.579    0.367
       112  -8.7332     36.3870    182.7654   1.3583838714e+02   3.2774286641e+01    0.1800634    0.1037355 -65.27 0.0009456404    1.636    0.389
       113 -11.5304     16.0022    218.4184   1.4295366685e+02   2.7026472711e+01     0.827419    0.2466055  40.48  0.003736071    2.597    0.615
       114  -8.9672     85.9944    180.0549   1.2320944435e+02   2.6743928951e+01    0.1704377    0.1535933  71.76 -0.001877172    1.001    0.001
       115  -8.4718     47.5204    179.5747   1.3280537053e+02   3.2236313369e+01    0.1320698     0.113918  80.45 0.0006186022    1.025    0.025
       116 -11.8294    240.7790    150.3510   8.2836031298e+01   3.4001855650e+00    0.7438696     0.406372 -39.55  0.003620157    1.651    0.394
       117 -11.8548    248.1923    172.3375   8.6115535980e+01  -1.3854853162e+00    0.6789869    0.3868216 -35.99  0.003572227    1.573    0.364
       118 -11.4878    245.2359    162.4719   8.4614860717e+01   6.5595899215e-01    0.5501886    0.2146677 -37.99  0.002332799    2.284    0.562
       119 -10.4166    249.4894    161.0217   8.3627918636e+01   1.8642777132e-01    0.3114455    0.2185287 -25.25  0.001777163    1.271    0.214
       120 -10.7867    247.9476    157.6205   8.3181642800e+01   9.8433395672e-01    0.5959099    0.2854651  54.37  0.002571358    3.033    0.670
       121  -8.2332     12.3573    178.3112   1.4111219387e+02   3.6200414497e+01    0.1176079   0.08411518 -48.88 5.451392e-05    1.737    0.424
       122 -10.0631     64.9344    166.9941   1.2676841346e+02   3.3020965457e+01    0.2137502    0.1891178  61.20 0.0003239189    1.093    0.085
       123 -11.4220     65.0611    175.4717   1.2789647173e+02   3.0944468015e+01     0.341721    0.2524258  44.60  2.93957e-05    1.317    0.241
       124 -11.5409     60.4404    172.6648   1.2871351296e+02   3.2250953614e+01    0.4095336    0.2583534 -45.97 0.0008365289    1.900    0.474
       125  -9.2532    103.0348    176.0249   1.1824068969e+02   2.4872242195e+01    0.2135388    0.2042823  75.60            0    1.053    0.051
       126 -10.5123     74.5752    174.4556   1.2531159706e+02   2.9827622720e+01    0.2915995    0.2437406  60.78 0.0002777944    1.115    0.103
       127 -10.5930     19.4908    174.1856   1.3910719892e+02   3.6514267584e+01    0.3859418      0.20574  76.09  0.001984835    1.826    0.452
       128  -9.9635     12.3716    172.7956   1.4069032843e+02   3.7478071911e+01     0.303984    0.1418183 -63.33  0.001558383    1.948    0.487
       129  -9.9818     46.1117    172.6102   1.3237339108e+02   3.4073303260e+01     0.328426    0.1989366 -57.44 0.0003511102    1.664    0.399
       130 -11.1283     43.7018    161.7594   1.3170870715e+02   3.6994486903e+01    0.5572438    0.2944031 -87.88  0.002512463    2.073    0.518
       131  -9.4203     27.5801    171.7751   1.3692493699e+02   3.6302171712e+01    0.2557839    0.1781252 -51.52  0.001042819    1.637    0.389
       132 -11.2930     82.5071    166.2473   1.2198528398e+02   3.0609479967e+01    0.5772086    0.4453569  28.30  0.002064997    1.452    0.311
       133 -10.9308      7.3175    166.4594   1.4140957312e+02   3.9376835939e+01    0.4183381    0.2894048 -20.99  0.002436909    2.285    0.562
       134  -8.9629     61.0221    164.7186   1.2748763227e+02   3.4111819000e+01     0.188461    0.1656954  56.30 0.0003106048    1.128    0.113
       135  -9.3193     31.3267    163.4677   1.3514391301e+02   3.7918294233e+01    0.2650011    0.1463587  54.28 0.0009404221    1.799    0.444
       136 -11.5263      2.2539    170.8450   1.4292271958e+02   3.8754651561e+01    0.6067966    0.2468981 -88.88 0.0008236702    2.208    0.547
       137 -12.1256     10.0243    156.3150   1.3991664174e+02   4.1557589348e+01    0.8144271     0.382921  73.69  0.002607355    2.276    0.561
       138 -10.7131     14.0955    167.2355   1.3982882566e+02   3.8633418738e+01    0.3153827    0.2750307  33.51  0.001607648    1.391    0.281
       139 -10.2034     84.5532    155.4438   1.1961221010e+02   3.2935738357e+01    0.2423645    0.2154504  -0.22 -8.31647e-06    1.395    0.283
       140 -10.6180     26.9501    155.3038   1.3541248187e+02   4.0333745201e+01    0.4445274    0.1476576  42.88  0.001834386    2.887    0.654
       141  -9.2739     32.5456    153.9763   1.3376260418e+02   4.0109216861e+01     0.211782    0.1399862 -59.07 0.0006269296    1.439    0.305
       142  -8.2940    228.4166    155.4886   8.6020403191e+01   4.7472241539e+00    0.1373154    0.1227394 -24.31 0.0001544141    1.041    0.039
       143 -10.8221    249.5012    151.1077   8.1593353805e+01   1.7725174057e+00    0.4207887    0.2809582 -32.51  0.002329219    1.304    0.233
       144 -11.7932    247.7193    142.4303   8.0062139716e+01   3.4899662083e+00    0.6636033    0.5459152  -3.37  0.003984364    1.284    0.221
       145 -12.4660    248.2654    133.9382   7.8183160483e+01   4.7873032875e+00     1.190366    0.6375093 -29.72  0.005642379    1.811    0.448
       146 -10.0678     95.7458    150.3702   1.1556557039e+02   3.2312466872e+01    0.3261797    0.2801744 -76.21 0.0009723521    1.164    0.141
       147  -8.7264     83.1866    149.7853   1.1897947918e+02   3.4555419601e+01    0.1927201    0.1715025 -30.96 0.0004060756    1.306    0.235
       148  -9.4296     58.6922    149.3474   1.2586248706e+02   3.8233175664e+01    0.3953584    0.1789332  67.75  0.001187722    4.615    0.783
       149 -10.6081     21.6041    149.0128   1.3616728440e+02   4.2356435213e+01    0.3037858    0.1718769  37.92  0.001014725    1.854    0.461
       150 -12.6053      6.4332    143.9001   1.3974852981e+02   4.4791241462e+01     0.628915    0.5820673 -77.39  0.004493374    1.190    0.160
       151 -11.7810     68.3366    144.2718   1.2225264438e+02   3.8183341856e+01     0.698045    0.4721784  78.09  0.002316172    1.774    0.436
       152  -9.8171     41.1624    147.2167   1.3052579407e+02   4.0872596096e+01    0.2078653    0.1902895  12.31 0.0007822472    1.340    0.253
       153  -9.6452    235.9627    146.0150   8.2711542199e+01   4.9903271120e+00    0.2102937    0.1560833  -0.72 0.0005097048    1.600    0.375
       154 -10.2739     38.7280    141.6107   1.3045099513e+02   4.2528909285e+01    0.3216836    0.2088438  67.02  0.001645745    1.682    0.405
       155  -9.7878     19.5258    141.5172   1.3591583943e+02   4.4363328184e+01    0.2371685    0.1611466  80.30 0.0006342388    1.418    0.295
       156 -10.1154     16.3030    139.6464   1.3661215925e+02   4.5081468676e+01    0.2371822    0.1732068  77.53  0.001422259    1.303    0.232
       157 -10.9166     12.9673    137.2444   1.3729048523e+02   4.5922133280e+01    0.2095658    0.1738558  66.27  0.000304918    1.221    0.181
       158  -9.3829    133.2528    140.3390   1.0323976385e+02   2.7469721004e+01    0.3140332    0.2171306 -61.27 0.0009496285    1.613    0.380
       159  -9.4172    108.4772    136.0273   1.0899090794e+02   3.3480956737e+01     0.365442    0.2510712 -23.33  0.001509223    2.093    0.522
       160 -11.0593     59.5586    136.2227   1.2344220107e+02   4.1407799537e+01    0.3290409    0.2737993  55.74 0.0003852021    1.241    0.194
       161 -11.0926      2.3371    132.7562   1.3982711494e+02   4.7730529787e+01      0.37922    0.1780584  89.76  0.001842653    2.046    0.511
       162 -10.2049     47.8535    135.7220   1.2687802251e+02   4.2986256297e+01    0.3004628    0.2197153 -60.75 0.0009945794    1.243    0.195
       163 -10.1056     45.0066    130.4827   1.2689475668e+02   4.4621600861e+01    0.3149472    0.1858729  71.65  0.000918197    2.218    0.549
       164 -11.6378     13.5496    127.6955   1.3604511079e+02   4.8198854690e+01    0.3146047    0.2474855 -86.57 -1.409764e-05    1.120    0.107
       165  -9.0312     59.4312    128.4628   1.2207654140e+02   4.3367824697e+01    0.1423019    0.1292257 -75.69 3.432088e-05    1.025    0.024
       166  -9.2818     33.3462    128.6655   1.3019050605e+02   4.6291467025e+01    0.1420012    0.0918957  68.77 0.0007049122    1.770    0.435
       167  -9.1344     67.0000    126.9709   1.1943056148e+02   4.2702607755e+01    0.2436109   0.07792021 -59.84 0.0005884995    2.922    0.658
       168 -10.3426     22.8359    127.0151   1.3316665734e+02   4.7643494171e+01    0.2965563     0.128337  53.71  0.001235687    2.912    0.657
       169  -8.9236    209.9173    125.7068   8.2697560359e+01   1.3733626384e+01    0.1940776    0.1903338 -53.21 0.0004608603    1.059    0.056
       170  -8.3617     48.3036    126.2915   1.2516136154e+02   4.5290886697e+01    0.1383122   0.09920292 -36.74 0.0003548252    1.571    0.364
       171 -11.5545      2.3032    120.1762   1.3855385901e+02   5.0740687459e+01    0.4458021    0.1551491 -64.57   0.00204541    2.128    0.530
       172 -10.2791    249.6954    117.9234   7.4547774343e+01   7.1541983364e+00    0.3873122    0.2568401 -18.48  0.001779049    1.797    0.443
       173 -11.5827    248.2399    113.0079   7.3691483275e+01   8.2296536603e+00    0.4816616     0.441836 -15.35  0.003046102    1.170    0.145
       174  -9.3265    238.5819    122.1488   7.7105133841e+01   8.5516909052e+00    0.2021677    0.1211184 -27.25 0.0009495257    1.741    0.426
       175 -11.9670     16.0776    117.8197   1.3401939931e+02   5.0415931188e+01     0.496973     0.263794 -17.63  0.002281573    2.947    0.661
       176  -9.8228    231.3116    116.5893   7.6990916753e+01   1.0931112765e+01    0.1851949    0.1319727  40.40 0.0007104033    1.607    0.378
       177  -9.6761    167.8313    113.0800   8.8048854676e+01   2.5671695955e+01     0.340122    0.2719572 -82.50  0.001029959    1.538    0.350
       178 -10.6258     31.9211    117.4265   1.2888782938e+02   4.9203420036e+01    0.4205424    0.1162085 -57.16  0.001564524    2.748    0.636
       179 -10.8745    243.6843    121.1656   7.6120899877e+01   7.7437963810e+00    0.4472295    0.2909798 -63.24  0.002171353    2.032    0.508
       180 -11.5417      9.3315    112.5913   1.3546774034e+02   5.2135434652e+01     0.254077    0.2014042 -35.20 0.0009156248    1.390    0.281
       181 -11.2584     14.1611    109.1632   1.3342711537e+02   5.2642971349e+01     0.395659    0.1731693  59.42  0.001576032    3.543    0.718
       182  -9.8122     34.9726    107.0414   1.2605347182e+02   5.1454557020e+01    0.1944778    0.1919752  -4.28 0.0004175883    1.152    0.132
       183 -12.5701    247.3374    100.8356   7.1165489973e+01   1.0380756178e+01    0.8365054    0.5994858 -38.44  0.004700473    1.224    0.183
       184 -10.2122     20.7310     93.7655   1.2861937067e+02   5.5847826582e+01     0.223248    0.1639316 -45.71 0.0004419103    1.226    0.184
       185 -11.5233      2.0000     88.4686   1.3455975830e+02   5.8226854631e+01    0.6933001    0.1105779 -72.33  0.001880773    6.343    0.842
       186 -11.5725     14.2418    103.4393   1.3254667670e+02   5.4009293867e+01    0.4351355    0.1555144  35.03  0.001903423    3.055    0.673
       187  -8.3991    184.7060     77.6201   7.5213960095e+01   2.8257788936e+01    0.1512493    0.1193396  13.66 0.0005778074    1.751    0.429
       188 -11.1188    169.7120    248.8323   1.1447518556e+02  -6.9777333598e-01    0.3975691    0.2610249   7.41 0.0006828302    1.928    0.481
       189 -10.1436     73.5751    243.5255   1.3331239931e+02   1.4974550700e+01    0.3004272    0.2921341   7.18  0.001779699    1.456    0.313
       190 -11.9228    178.1394    243.4822   1.1203479959e+02  -1.2114851909e+00    0.5312507    0.2719952  46.40  0.002644124    1.990    0.497
