#   1 NUMBER                 Running object number                                     
#   2 MAG_AUTO               Kron-like elliptical aperture magnitude                    [mag]
#   3 X_IMAGE                Object position along x                                    [pixel]
#   4 Y_IMAGE                Object position along y                                    [pixel]
#   5 X_WORLD                Barycenter position along world x axis                     [deg]
#   6 Y_WORLD                Barycenter position along world y axis                     [deg]
#   7 A_WORLD                Profile RMS along major axis (world units)                 [deg]
#   8 B_WORLD                Profile RMS along minor axis (world units)                 [deg]
#   9 THETA_WORLD            Position angle (CCW/world-x)                               [deg]
#  10 FWHM_WORLD             FWHM assuming a gaussian core                              [deg]
#  11 ELONGATION             A_IMAGE/B_IMAGE                                           
#  12 ELLIPTICITY            1 - B_IMAGE/A_IMAGE                                       
         1 -14.5343    217.3484      4.6710   4.3122592955e+01   2.8994342162e+01     2.912021     1.686527  46.56   0.01068152    2.014    0.503
         2 -13.7359    178.0186     47.1549   6.0712747665e+01   3.4244308061e+01     1.096292     1.027912   6.89 0.0008676997    1.109    0.099
         3 -14.0294    189.8087     36.7540   5.5628784669e+01   3.2551714494e+01     1.202476     1.026202 -42.19  0.003172936    1.132    0.117
         4 -14.1915    196.6228     28.0800   5.2053496404e+01   3.1827019043e+01     1.177389     1.001696   1.89   0.00143321    1.291    0.226
         5  -9.9348     80.2903    220.4707   1.1712145529e+02   2.1683704623e+01    0.2744593    0.0749523  38.34  0.001248796    2.550    0.608
         6 -16.5733     72.0724    148.0746   1.1197291159e+02   3.6314201926e+01     9.333578     4.139464  71.30   0.01913198    4.358    0.771
         7 -13.2932     56.9811    203.4975   1.2055884200e+02   2.7325469121e+01    0.3925419    0.3083398  85.02   0.00148052    1.303    0.232
         8 -12.0383     61.2887    203.6523   1.1968775730e+02   2.6795719880e+01    0.3599507    0.1792859  59.65 0.0006145387    1.788    0.441
         9 -11.8556     39.5156    212.1454   1.2453995827e+02   2.7744777574e+01    0.1955942    0.1530716  84.06  0.001549406    1.315    0.240
        10 -16.7153     64.2621    247.6727   1.2177941286e+02   1.9500641016e+01     8.377831      2.40267  28.20   0.02849533    6.921    0.856
        11 -11.9893    106.9085    210.4398   1.1101654889e+02   1.9757853981e+01    0.4595366    0.2126249  42.53  0.001631729    1.634    0.388
        12 -12.6627    113.9862    208.7789   1.0943618853e+02   1.9022414250e+01    0.3120019    0.2268533 -38.98  0.002057265    1.918    0.479
        13 -10.9824     70.1220    209.4533   1.1830978702e+02   2.4738596540e+01    0.1916259    0.1271598  64.30 0.0003031251    1.344    0.256
        14 -10.4423     30.4876    210.6008   1.2622507124e+02   2.8926885573e+01    0.1680717   0.06749073  41.70 0.0005199666    1.753    0.430
        15 -10.0140     75.8245    206.9154   1.1696422081e+02   2.4461966326e+01    0.1764812    0.1667852  68.45  0.001132257    1.298    0.230
        16  -9.8457     33.8046    205.7583   1.2536069996e+02   2.9436094676e+01    0.1492869    0.1274013  36.01 0.0007276412    1.396    0.284
        17 -11.7370    132.4870    202.4887   1.0502899203e+02   1.7280797324e+01    0.2192871    0.1740868  70.60 0.0007480916    1.526    0.345
        18 -11.2385     96.1261    200.1671   1.1218846485e+02   2.2928824610e+01    0.3335739    0.2452879  26.22  0.001773664    1.479    0.324
        19 -11.8713    193.1753    194.8769   9.2394694534e+01   8.9030992474e+00    0.7051856    0.4220836 -62.30  0.002832888    5.666    0.824
        20 -12.9434    130.0241    212.1729   1.0665061150e+02   1.6200407959e+01    0.4904511     0.275175 -66.04  0.002003809    2.715    0.632
        21 -10.7413    208.7031    196.9825   9.0006623677e+01   6.2717832419e+00    0.1593439    0.1279033   7.90 0.0004423853    1.128    0.113
        22 -19.4206     11.3131    137.5781   1.2711791080e+02   4.5065973365e+01     17.17038     1.867828 -82.06   0.04057445    9.953    0.900
        23 -13.1267     67.5423    189.9194   1.1732500310e+02   2.8507828138e+01    0.6183095    0.5479236  68.75  0.003899738    1.171    0.146
        24 -10.4341     44.6317    195.4733   1.2260994074e+02   3.0146985630e+01    0.1998358    0.1306722  57.23 0.0004577025    1.175    0.149
        25  -9.8605     40.3002    193.4279   1.2340000315e+02   3.0985851470e+01     0.202491    0.1416874  51.89  0.000791384    1.097    0.088
        26 -12.0687    135.7276    199.1448   1.0396511327e+02   1.7298745849e+01       0.3233    0.2264768  79.11  0.001864161    2.213    0.548
        27 -12.1312    152.4651    193.0255   9.9806284620e+01   1.5606329417e+01    0.4133056     0.252496  63.06  0.002079055    2.549    0.608
        28  -9.7572     48.6499    217.4364   1.2304036800e+02   2.5880331113e+01    0.2621103    0.1458328  27.54  0.001454077    1.949    0.487
        29  -9.3552     98.4813    213.5145   1.1298323364e+02   2.0426027320e+01     0.115725   0.08794346  46.22 0.0002938408    1.010    0.010
        30 -13.5132    107.5073    203.1056   1.1014533263e+02   2.0846651424e+01    0.6588125     0.436067  67.19 0.0008024038    1.711    0.416
        31 -10.3873     44.5882    210.9427   1.2348632645e+02   2.7413702145e+01    0.2385275    0.1844097  87.40  0.001856945    1.352    0.260
        32 -10.5577     71.8948    179.4877   1.1543481424e+02   2.9922286693e+01    0.1767416    0.1455867  69.94 0.0007788659    1.109    0.099
        33 -10.1792     81.5921    195.0632   1.1475615858e+02   2.5776209465e+01     0.272286    0.1638644  36.67  0.001638835    1.435    0.303
        34 -11.1443    149.3388    180.1805   9.8553062521e+01   1.8081786702e+01    0.2279135     0.176553  67.68 0.0007807991    1.653    0.395
        35 -11.3782     99.4734    180.7360   1.0936528633e+02   2.5872770758e+01    0.2319159    0.1864775  46.71 0.0005580841    1.041    0.040
        36  -9.3611    168.8803    177.8233   9.4239187723e+01   1.5164368756e+01    0.1666966    0.1386337  51.12   0.00053545    1.321    0.243
        37 -11.0949     59.6463    216.2656   1.2084306596e+02   2.4841855249e+01    0.3482045    0.2482303  47.06  0.001670503    1.089    0.082
        38 -11.7350    141.2397    175.5183   9.9535112845e+01   2.0187914318e+01    0.2750561    0.1673435  43.97  0.001052143    1.409    0.290
        39  -9.7099     66.0023    175.6917   1.1642615931e+02   3.1410216084e+01    0.1727066    0.1290753  46.74   0.00047915    1.141    0.123
        40  -9.7613     51.0118    172.9347   1.1965547814e+02   3.3754789239e+01    0.3261667   0.09983264  51.06 0.0009363468    2.798    0.643
        41 -10.4149     45.7195    171.7660   1.2079468066e+02   3.4582428960e+01    0.3105451    0.1268158  42.81  0.001599897    1.925    0.480
        42  -9.8800     42.4475    171.4831   1.2153399001e+02   3.4994849616e+01     0.199149    0.1440627  71.78 0.0008490681    1.173    0.147
        43 -10.6011    164.4961    170.6876   9.3928743889e+01   1.6993899738e+01     0.224357    0.1998778  57.39 0.0006146593    1.304    0.233
        44 -10.3492    201.4437    169.2344   8.6598368580e+01   1.0838048420e+01    0.2739685    0.2127901 -47.87  0.001636605    1.787    0.440
        45 -10.7008    204.5396    165.4608   8.5354006895e+01   1.0808732813e+01    0.4003731    0.2637349 -35.48  0.001454892    1.698    0.411
        46 -11.3523    193.1853    165.4458   8.7422195648e+01   1.2765359491e+01    0.3980485    0.2759037 -48.31   0.00171424    1.945    0.486
        47 -10.1555    158.8418    162.8620   9.3743698008e+01   1.9231040067e+01    0.1770569    0.1499708  57.30 0.0004365915    1.312    0.238
        48 -10.4575     51.9225    163.4804   1.1865807769e+02   3.5576087519e+01    0.1809609    0.1035084  38.44  0.000805915    1.555    0.357
        49 -12.8417     95.7341    154.1275   1.0678649783e+02   3.1592516743e+01    0.6205644    0.5162774 -17.44  0.003623276    1.677    0.404
        50 -10.9170    189.1004    155.3089   8.6289882542e+01   1.4933862018e+01    0.4205744    0.2680479  43.54  0.002258203    1.468    0.319
        51 -11.6936    133.8210    145.1710   9.6089311701e+01   2.6892023519e+01     1.039132     0.292326 -55.10  0.002947039    5.653    0.823
        52 -10.4870    174.4572    148.9017   8.7921739827e+01   1.8619675085e+01    0.2601828    0.2414364  67.30  0.001026653    1.322    0.244
        53 -11.4592    143.9836    147.1339   9.4116681038e+01   2.4649915153e+01    0.4174533     0.273238 -72.68  0.001884891    2.517    0.603
        54 -11.9347    107.1315    140.0161   1.0169769846e+02   3.2655745750e+01    0.5070509    0.3291548 -32.79  0.002388208    2.200    0.546
        55 -12.4788     95.1853    139.8526   1.0475691923e+02   3.4663119160e+01    0.3055841    0.2698125  28.84   0.00040794    1.244    0.196
        56 -10.0758    112.1711    141.1869   1.0062583211e+02   3.1549329039e+01     0.198175    0.1500062  62.06   0.00048911    1.358    0.264
        57 -10.0233    113.0593    151.0152   1.0206446988e+02   2.9417174258e+01    0.2241208    0.1542693  70.69  0.001131301    1.777    0.437
        58 -11.3317    105.9962    130.4414   1.0027538959e+02   3.4869328627e+01    0.3904745    0.3037378 -63.06  0.001917355    1.360    0.265
        59 -11.0945    102.2128    126.4294   1.0053392783e+02   3.6389742158e+01    0.2750155    0.2475056 -15.69 0.0008583488    1.366    0.268
        60 -11.1828    114.5865    130.3562   9.8013480596e+01   3.3361166838e+01    0.3065265    0.2614141 -28.83 0.0008108274    1.400    0.286
        61 -11.1105    135.8049    127.6833   9.2150066552e+01   2.9889247780e+01    0.5450518    0.1144175 -50.25  0.001365388    6.116    0.836
        62 -11.3194    119.9375    123.9531   9.5341377584e+01   3.3705042880e+01     0.391023    0.2851249 -16.95  0.001833328    2.017    0.504
        63 -10.1963    160.4737    127.4488   8.6398646270e+01   2.4979521298e+01     0.268672    0.2164809 -49.74  0.001436473    1.393    0.282
        64 -10.2142    109.9577    119.0897   9.6969677304e+01   3.6598150169e+01    0.2111075    0.1957136  60.43 0.0003106341    1.019    0.019
        65 -12.7688     50.7243    208.4209   1.2212990353e+02   2.7177026279e+01    0.7167343    0.2374256  40.92  0.002299251    2.090    0.522
        66 -10.0383    168.2076    113.0914   8.1395713540e+01   2.5887482975e+01    0.3195293    0.2239287 -72.53   0.00137788    2.358    0.576
        67 -11.7022    119.0747    110.3376   9.2570077402e+01   3.6731747312e+01    0.5564317    0.3880004  58.05  0.002643123    1.533    0.348
        68 -10.1436    205.6159    110.0730   7.3436392889e+01   1.8396328404e+01    0.2567981    0.1923798  35.70 0.0006579516    1.305    0.234
        69  -9.4080    134.7717    105.9831   8.7421590662e+01   3.4415955311e+01    0.2007637    0.1246804 -44.14  0.000883352    1.671    0.401
        70 -11.7516     53.6393     91.2093   1.0878692797e+02   5.1952293279e+01     0.411376    0.2736064  60.21   0.00142852    1.626    0.385
        71 -11.0703     41.7605     91.9575   1.1314123193e+02   5.3126506254e+01    0.2070062    0.1904847  51.00 0.0004999221    1.166    0.142
        72  -9.5841    189.7708     89.1724   7.0976663490e+01   2.5034780094e+01    0.2452462    0.1564093 -69.21 0.0009469093    2.798    0.643
        73  -9.0156    154.4971     80.4811   7.5705708099e+01   3.4828705653e+01    0.1526726    0.1486782  19.71 0.0008103328    1.016    0.016
        74 -11.7912    163.2357     64.0975   6.8831651013e+01   3.5482983727e+01    0.4309396    0.3207475 -74.27 0.0008432831    1.749    0.428
        75 -12.1716    164.1695     56.7609   6.6306533869e+01   3.6414760106e+01    0.5632271    0.3477357 -64.67  0.002194126    2.323    0.569
        76 -10.1292     72.2506    230.2899   1.1932875907e+02   2.1136767667e+01    0.1391333   0.08480688  52.48 0.0004192926    1.233    0.189
        77 -10.4772     60.3971    230.1240   1.2151976350e+02   2.2537709045e+01    0.1359049    0.0953071  64.01   0.00049084    1.227    0.185
        78  -9.6951     63.7903    223.3609   1.2048378356e+02   2.3210897368e+01    0.1044482   0.06009943  63.61 0.0005331446    1.556    0.357
