#   1 NUMBER                 Running object number                                     
#   2 MAG_AUTO               Kron-like elliptical aperture magnitude                    [mag]
#   3 X_IMAGE                Object position along x                                    [pixel]
#   4 Y_IMAGE                Object position along y                                    [pixel]
#   5 X_WORLD                Barycenter position along world x axis                     [deg]
#   6 Y_WORLD                Barycenter position along world y axis                     [deg]
#   7 A_WORLD                Profile RMS along major axis (world units)                 [deg]
#   8 B_WORLD                Profile RMS along minor axis (world units)                 [deg]
#   9 THETA_WORLD            Position angle (CCW/world-x)                               [deg]
#  10 FWHM_WORLD             FWHM assuming a gaussian core                              [deg]
#  11 ELONGATION             A_IMAGE/B_IMAGE                                           
#  12 ELLIPTICITY            1 - B_IMAGE/A_IMAGE                                       
         1 -15.0417     68.4748    144.3727   1.0498794427e+02   3.7395139168e+01     5.121285     2.528136  69.34  0.006681507    4.323    0.769
         2 -13.9166    224.9909     17.8825   3.7438389807e+01   2.7392914763e+01     1.106225    0.8990434  34.40   0.00284534    1.671    0.402
         3 -13.6684    199.4409     40.5645   4.5864743153e+01   3.0590355128e+01     1.281268    0.9958394  11.46  0.003802135    1.777    0.437
         4 -13.9322    208.3589     34.5841   4.3197589963e+01   2.9235233619e+01     1.354524      1.23059 -15.80  0.006829035    1.308    0.235
         5 -12.4770    215.8701     27.2374   4.0537926104e+01   2.8383837759e+01    0.5123849     0.409391  31.51  0.001218684    1.670    0.401
         6  -9.4281    132.2201     10.2822   4.7247650508e+01   5.0568912075e+01    0.1761685    0.1474199 -81.59 0.0005596745    1.355    0.262
         7 -10.8101      2.4123      4.2814   9.2687355146e+01   7.3847780811e+01    0.3276677   0.07915008 -46.17  0.001447388    3.252    0.692
         8 -10.8447     49.8807      3.1714   6.7278594688e+01   6.8400732989e+01    0.3306651    0.1731908  58.37  0.001450133    3.719    0.731
         9 -11.0983    246.8736      1.7601   3.2264368238e+01   2.4406607934e+01    0.5199764    0.1533733  75.89  0.002212962    3.270    0.694
        10 -14.0328     31.6417    248.1120   1.2377119368e+02   1.9130077919e+01     1.299786    0.8423151  21.34  0.005294586    2.387    0.581
        11 -11.4530    139.2340    249.7254   1.0373280919e+02   4.3787498509e+00    0.3472342    0.1787389  43.40  0.001858915    1.608    0.378
        12 -12.9491     64.2414    176.3851   1.1080553598e+02   3.0238674638e+01     1.311084    0.6383712 -33.53  0.004194655    5.356    0.813
        13 -14.4186      3.8596    179.9411   1.2496321243e+02   3.5654833436e+01     6.492959    0.4897984 -76.95   0.01387588   11.826    0.915
        14 -14.6706     85.9212    228.7822   1.1199871217e+02   1.6000551221e+01     2.307677     1.265413  41.48  0.008724844    1.569    0.363
        15 -14.3292     22.5221    224.2614   1.2402262202e+02   2.4622093704e+01     1.643631    0.6297892  65.79  0.007901492    2.595    0.615
        16 -16.4096     38.3571    191.0600   1.1837849199e+02   2.9954668539e+01     9.766721     4.027078  69.92   0.03904383    3.319    0.699
        17  -9.2740     72.2149    188.2210   1.1039723439e+02   2.6449762994e+01    0.1836448    0.1360691  70.39 0.0003990436    1.313    0.238
        18 -15.5642     65.6681    248.1494   1.1767452239e+02   1.5094428359e+01      9.51283     2.594383  29.44  0.007831622   10.600    0.906
        19 -10.2711    146.0565    182.0586   9.2001001628e+01   1.5738164272e+01     0.232436    0.1797924  73.43 0.0004790687    1.686    0.407
        20  -9.6383     99.3574    181.0541   1.0293395123e+02   2.4059986077e+01     0.225276    0.1932393  27.05 0.0005636306    1.282    0.220
        21 -10.7156    125.7134    174.0037   9.5337016387e+01   2.1173772156e+01     0.302776    0.1913136  10.57  0.001181228    2.705    0.630
        22 -13.5536     64.1098    159.7570   1.0857690859e+02   3.4215076815e+01    0.5814072    0.4073132 -40.20  0.001548483    1.706    0.414
        23 -11.6965     76.6908    163.8152   1.0592869037e+02   3.1526014005e+01    0.2964205    0.2664455 -73.84 0.0004550978    1.063    0.059
        24 -13.8365     82.9455    157.7765   1.0333078683e+02   3.2067106595e+01     1.531385     1.228114  64.06 0.0005088282    1.283    0.221
        25 -14.7607      9.3821    207.6658   1.2553096559e+02   2.9248248720e+01     1.219433     1.043224 -27.23  0.008977354    1.871    0.466
        26 -11.0561    138.5747    170.8945   9.1648578263e+01   1.9501190078e+01    0.4041683    0.1973747  42.46  0.001624067    1.975    0.494
        27 -11.5423     22.3751    146.6370   1.1778435978e+02   4.1853378446e+01    0.3007242    0.1777897  78.95  0.001065587    1.751    0.429
        28 -11.1341     31.7019    143.8057   1.1499254073e+02   4.1710318946e+01    0.3728342    0.2790096  82.23  0.002217349    1.285    0.222
        29 -10.9265     98.3830    142.8183   9.6403307249e+01   3.3236319281e+01    0.3756705    0.2808882 -45.75 0.0009395735    1.344    0.256
        30 -10.0312    101.0372    139.5019   9.4988934428e+01   3.3584174124e+01    0.3239967    0.2379861 -19.91  0.000959146    1.825    0.452
        31 -12.3443     86.2690    141.5135   9.9504118068e+01   3.5515464823e+01    0.3102624    0.2637965 -43.59 0.0004027773    1.209    0.173
        32 -10.0301    158.6958    161.6328   8.5006843675e+01   1.7610648383e+01    0.4323982    0.3069117  84.02   0.00178371    2.434    0.589
        33  -9.9434    159.3698    135.2580   7.8885723228e+01   2.3091208441e+01    0.2780997    0.2252051 -76.52 0.0005646457    1.584    0.369
        34 -10.2424     27.0419    135.2538   1.1518662245e+02   4.4204121324e+01    0.2126611    0.1582349 -73.27 0.0003991538    1.120    0.107
        35 -11.0027    107.5867    131.2369   9.1363579887e+01   3.4406221508e+01    0.5669851    0.3369166  41.97  0.002440436    1.724    0.420
        36 -15.6809      8.6810    239.7925   1.2728102368e+02   2.3012675898e+01       2.0502     1.825284  77.60   0.01740829    1.368    0.269
        37 -11.1029    135.6360    128.5800   8.3153646972e+01   2.9556477478e+01     0.450085    0.1512057 -52.18  0.001307006    3.478    0.712
        38 -10.3106    111.5154    197.4859   1.0255985759e+02   1.8489096688e+01    0.2049493    0.1733068 -14.09 0.0009607363    1.532    0.347
        39 -10.8951     96.7346    127.6062   9.3627164389e+01   3.7188793039e+01    0.3066477    0.2613518 -11.91 0.0007212473    1.371    0.271
        40  -9.9062    110.3167    194.6272   1.0241036164e+02   1.9293917312e+01    0.2012934    0.1409111 -84.52 0.0006094631    1.766    0.434
        41  -8.9553    125.6707    127.3101   8.5475678009e+01   3.1871411119e+01    0.1580895    0.1247988  83.19 0.0002960782    1.665    0.399
        42 -10.5424    116.1832    125.3106   8.7581034814e+01   3.4196137527e+01    0.2729424    0.2313797 -48.85  0.001369279    1.151    0.132
        43 -11.0977    133.3964    142.9944   8.7111794389e+01   2.6739026793e+01     0.749575    0.2269001 -54.40  0.002012967    4.312    0.768
        44  -9.7670    106.6166    119.9082   8.8972261650e+01   3.7266297243e+01    0.2235056    0.2060007  10.85   0.00033197    1.159    0.137
        45  -9.5559     83.2031    117.4247   9.5331686222e+01   4.1863394475e+01    0.1983002    0.1365529  48.77  0.000697444    1.615    0.381
        46  -9.5344    168.2679    113.1705   7.1269114274e+01   2.5746299236e+01    0.2850991    0.2092781  82.77  0.001201357    2.005    0.501
        47 -10.0141    205.4020    110.4243   6.2982070667e+01   1.7940016659e+01    0.2891728    0.2439303  40.58 0.0008864807    1.260    0.206
        48 -10.4594    134.4493    105.6538   7.7517236171e+01   3.4875869222e+01    0.4569266    0.1458611 -49.01  0.001308562    3.510    0.715
        49  -9.6617    174.9840    149.0065   7.8514349441e+01   1.6940356892e+01    0.2369062    0.1945732 -88.80  0.001096909    1.684    0.406
        50  -9.6061     41.7670     91.9193   1.0311419725e+02   5.3322682260e+01    0.2021672    0.1566319 -40.26 0.0005233632    1.178    0.151
        51 -10.5062     52.9955     90.9886   9.8939695691e+01   5.2312746639e+01    0.2199405    0.1902306 -41.56 0.0006659201    1.029    0.028
        52  -9.9639    249.7834     87.9538   5.0726978994e+01   1.2426945532e+01    0.1848378   0.09663175 -35.62 0.0004635845    1.673    0.402
        53  -9.2402     72.9872     83.7927   9.0005529742e+01   5.1256260340e+01     0.215409    0.1561192  59.54 0.0005958274    1.908    0.476
        54  -8.8040    151.0195     82.7754   6.6797988055e+01   3.5724106543e+01    0.1962167    0.1271118  51.21 0.0008439845    1.550    0.355
        55  -9.3748    160.1981     81.6264   6.4367011582e+01   3.3750933609e+01    0.2218071    0.1390562  42.50 0.0006881304    1.658    0.397
        56  -9.7451     47.0522     61.9619   9.3090081066e+01   5.9391875187e+01    0.1918515    0.1728716 -24.66 0.0004558224    1.093    0.085
        57 -10.5372     13.4951     59.9832   1.0644340346e+02   6.2778539100e+01    0.1990633    0.1710362 -15.07 0.0003971166    1.236    0.191
        58 -11.2424    169.9659    231.9845   9.5202381357e+01   2.4135135736e+00    0.3887918    0.1726411 -43.78  0.001818423    2.593    0.614
        59 -13.4079     34.2871    206.4838   1.2052617823e+02   2.7037600744e+01    0.5773224    0.5072228 -29.00  0.001348675    1.701    0.412
        60 -10.2617    154.4521    220.3000   9.6601208013e+01   6.9042165864e+00    0.3069917    0.1345166 -52.35  0.001322802    2.767    0.639
        61 -11.8459    183.4597    216.0691   8.9926503790e+01   2.8001941291e+00    0.3358814    0.2961465  71.01  0.002037817    1.584    0.369
        62 -10.3950    136.8519     43.0981   5.7536871756e+01   4.5667520215e+01    0.2182873    0.1927579 -75.79 0.0005349838    1.307    0.235
        63 -10.4763    139.0691     37.1157   5.5048400253e+01   4.5937443518e+01     0.420618    0.2760684 -75.53  0.001753553    2.346    0.574
        64  -9.7727    189.6703     15.0330   4.0340417753e+01   3.5987403699e+01    0.1809501    0.1653139 -59.18 0.0008695972    1.121    0.108
        65  -9.6469     10.9870     14.0000   9.2189347556e+01   7.1680896950e+01    0.1636515   0.05881561  21.90 0.0005859006    2.907    0.656
        66 -10.3490    113.2012    207.5247   1.0362181755e+02   1.6129420718e+01    0.2247576    0.1864767 -68.97 0.0005882786    1.304    0.233
        67 -10.8781     61.6079    199.4667   1.1408666625e+02   2.5344845546e+01    0.2813262    0.2115506 -86.33  0.000952715    1.239    0.193
        68 -11.1175    193.1311    195.0746   8.4192640090e+01   4.7095057932e+00    0.8579994     0.442911 -62.15  0.002444552    6.619    0.849
