#   1 NUMBER                 Running object number                                     
#   2 MAG_AUTO               Kron-like elliptical aperture magnitude                    [mag]
#   3 X_IMAGE                Object position along x                                    [pixel]
#   4 Y_IMAGE                Object position along y                                    [pixel]
#   5 X_WORLD                Barycenter position along world x axis                     [deg]
#   6 Y_WORLD                Barycenter position along world y axis                     [deg]
#   7 A_WORLD                Profile RMS along major axis (world units)                 [deg]
#   8 B_WORLD                Profile RMS along minor axis (world units)                 [deg]
#   9 THETA_WORLD            Position angle (CCW/world-x)                               [deg]
#  10 FWHM_WORLD             FWHM assuming a gaussian core                              [deg]
#  11 ELONGATION             A_IMAGE/B_IMAGE                                           
#  12 ELLIPTICITY            1 - B_IMAGE/A_IMAGE                                       
         1 -14.0756    199.4257      4.4375   5.9977232364e+01   3.4675115033e+01     1.882662    0.9712272  66.63  0.009654923    1.611    0.379
         2 -13.6128    190.4714     15.4796   6.3649840791e+01   3.5706852706e+01     1.405229    0.7202294 -87.10   0.00611709    2.375    0.579
         3 -14.3773    167.4874     46.3360   7.5374368253e+01   3.7664104505e+01     1.832676     1.214501  32.56  0.005760259    1.892    0.471
         4 -14.2123    180.9429     31.7102   6.9115622866e+01   3.6201155774e+01    0.9631683    0.8339375  70.95  0.003631182    1.040    0.038
         5 -13.6197    184.9341     25.1922   6.6832494139e+01   3.5986677348e+01    0.6920725     0.528931  76.30   0.00118682    1.139    0.122
         6 -10.7850     57.0000      4.5304   8.9353471691e+01   6.5938550932e+01    0.2360506   0.06020411 -27.43 0.0009442339    4.012    0.751
         7 -11.1546    107.0000    206.0121   1.2758998621e+02   1.7491614483e+01    0.3187851    0.1900005 -59.97  0.001270733    1.761    0.432
         8 -10.3850    159.2200    250.2198   1.2289612100e+02  -2.0668161210e-01    0.1752383    0.1345631  56.29 0.0005367906    1.302    0.232
         9 -19.6713     41.2223    158.9188   1.3653558752e+02   3.7933352214e+01     20.09375     5.674769 -70.37   0.06976349    3.514    0.715
        10 -11.7761     92.4286    185.3071   1.2786978995e+02   2.4621887014e+01    0.2890233    0.2041069  64.98 0.0005444509    1.429    0.300
        11 -10.5669    180.1526    193.3907   1.0898890710e+02   6.1813856817e+00    0.2805944    0.2030962 -67.31 0.0008045765    1.883    0.469
        12 -11.8976    207.7974    183.8133   1.0120455756e+02   2.5275185558e+00    0.3626792    0.3480711  32.76  0.001039405    1.113    0.101
        13 -11.9143    210.8185    181.0599   1.0001994582e+02   2.4476335198e+00    0.4595581    0.3092887 -28.96  0.002212646    1.563    0.360
        14 -12.1770     99.0315    180.7379   1.2556868335e+02   2.4584552490e+01    0.3704138    0.2809118  33.01 0.0009431129    1.462    0.316
        15 -11.0670      1.4229    250.2511   1.5176439071e+02   2.2590859198e+01    0.1438953   0.07614373 -89.63  0.000756496    1.480    0.324
        16 -11.9691    197.8501    175.3611   1.0151745666e+02   6.1362487104e+00     0.473646    0.3433662 -53.43   0.00122892    1.567    0.362
        17 -10.2469    145.5156    178.4768   1.1396309455e+02   1.6336170485e+01    0.1525192    0.1443738  52.25 1.170493e-05    1.016    0.016
        18 -11.6087    109.5168    203.5116   1.2665957250e+02   1.7601260808e+01    0.2926744    0.2451849  73.68 0.0007391449    1.123    0.110
        19 -10.5459     10.7861    213.6894   1.4816404082e+02   2.8809544756e+01    0.1591229    0.1054193  20.60 0.0009879206    2.446    0.591
        20 -12.1294    137.4935    170.8171   1.1438036248e+02   1.9684836267e+01    0.3851172    0.3297812  86.83  0.001382707    1.273    0.214
        21 -11.8011    104.1971    201.6456   1.2758515971e+02   1.8931777580e+01    0.4214014    0.2980251  74.94  0.001980541    1.516    0.340
        22 -11.6366    203.5826    167.6794   9.8676301437e+01   6.4583150588e+00     0.496916    0.4342678  43.76  0.001906189    1.155    0.134
        23 -11.2606    145.8123    168.8347   1.1196440592e+02   1.8430289472e+01    0.3154517    0.2154372 -37.97 0.0009459538    1.657    0.397
        24 -11.6326    140.5314    199.3978   1.1896049399e+02   1.2779627154e+01    0.3208127    0.2426029  42.65  0.001512806    1.221    0.181
        25 -13.8867     10.7422    206.6062   1.4769661648e+02   3.0292682046e+01    0.5283734    0.3141374  30.51  0.003302572    2.155    0.536
        26 -11.5574     16.7251    200.9323   1.4614806887e+02   3.0918331497e+01    0.1848504     0.143277  71.37 0.0005090946    1.129    0.114
        27 -10.3669    225.1597    165.9756   9.3997455404e+01   2.4266941168e+00    0.2335357    0.1669624 -65.67 0.0009750476    2.031    0.508
        28 -10.0985    120.8654    164.1506   1.1717902254e+02   2.4522210261e+01    0.2345516    0.1947493  77.25 0.0003713214    1.285    0.222
        29 -10.1582      1.5866    163.0903   1.4621162375e+02   4.0554965182e+01    0.1633204    0.1060558 -75.74 0.0005915699    1.192    0.161
        30 -13.1915    101.4542    155.7118   1.2051901850e+02   3.0125327097e+01    0.7074829    0.4733996 -37.59   0.00319696    1.807    0.447
        31 -10.3009    120.0050    156.1037   1.1577935643e+02   2.6589164740e+01    0.3128595    0.2076569  44.61 0.0008151674    1.484    0.326
        32 -10.3426    164.4651    204.2134   1.1445398674e+02   7.1459602653e+00    0.2545874    0.1481258 -54.69 0.0008004413    2.016    0.504
        33 -12.2413    133.9126    145.3216   1.0987270200e+02   2.6314581136e+01     1.221191    0.3350815 -55.33  0.002889788    5.397    0.815
        34 -11.0441    174.3913    148.3755   1.0072693084e+02   1.6759916268e+01    0.3950299    0.2853344 -49.93 0.0009734055    1.431    0.301
        35 -12.0834    145.1852    146.3694   1.0725614447e+02   2.3673261360e+01    0.4680541    0.3840903  70.01  0.001341018    1.350    0.259
        36 -11.6793      9.3588    145.3864   1.4272716169e+02   4.3981669079e+01    0.3703088    0.3006913   0.70   0.00178351    1.723    0.420
        37 -12.7411    110.7490    140.7242   1.1495730357e+02   3.2024236155e+01    0.6767908     0.428022 -28.55  0.002711223    2.270    0.559
        38 -12.4884    100.0689    140.8030   1.1787887192e+02   3.3959315445e+01    0.2843608    0.2833708   6.43 0.0004330233    1.087    0.080
        39  -9.8046    211.3096    203.0672   1.0432210054e+02  -1.5984488996e+00    0.1865452    0.1701301 -15.72 0.0003782205    1.118    0.105
        40 -11.6948     11.9194    136.7999   1.4112187118e+02   4.5757260953e+01    0.2082361    0.1755435 -76.03 0.0003289108    1.073    0.068
        41  -9.4364    168.3400    134.6896   9.8892634239e+01   2.1090492182e+01    0.1648409    0.1275872  88.58  0.000575766    1.691    0.409
        42 -12.1236    117.5138    130.3990   1.1076895916e+02   3.3151056066e+01    0.4612236    0.3740067 -21.75 0.0009732029    1.479    0.324
        43 -12.0460    105.6675    128.8173   1.1367449508e+02   3.5799146688e+01    0.6583818    0.3129956 -55.98  0.002489926    2.175    0.540
        44 -12.3091    117.4337    201.2841   1.2452845075e+02   1.6684429087e+01    0.5448624    0.2487721  44.27   0.00225282    1.988    0.497
        45 -12.9929    193.7095    193.3109   1.0605814537e+02   3.5114789432e+00    0.9751517    0.7411448 -75.92  0.003906836    2.002    0.500
        46 -11.1124    160.2668    128.1312   9.9197734651e+01   2.4375940273e+01    0.4692105    0.2739402 -38.21  0.001859899    1.827    0.453
        47 -11.9777    135.1866    122.1963   1.0401777015e+02   3.1343995751e+01      0.57509    0.2369674 -49.51  0.001942029    2.517    0.603
        48 -10.6606    143.4683    128.0584   1.0333850384e+02   2.8204261734e+01     0.284484    0.2176524  64.83 0.0006449969    1.470    0.320
        49 -11.5592    125.6027    127.2898   1.0783087267e+02   3.2227752772e+01    0.3762796    0.2653488  73.62  0.001133645    1.947    0.486
        50 -10.6737    111.9817    119.5575   1.0967843040e+02   3.6751674081e+01    0.2840222    0.2257457 -49.74 0.0004266703    1.238    0.192
        51 -12.5325    112.3803    196.4146   1.2492317669e+02   1.8664887811e+01    0.6137195    0.4014068   9.05  0.002392245    3.202    0.688
        52  -9.8485    177.4182    196.2222   1.1013096243e+02   6.1701511163e+00     0.195457    0.1426353 -59.13 0.0009423647    1.658    0.397
        53 -10.9779    168.6312    113.4433   9.3511498109e+01   2.5534936108e+01    0.4224658     0.308713  82.76 0.0008671232    1.837    0.456
        54 -10.0836    163.7638    110.8496   9.3965543709e+01   2.7234521452e+01    0.2205136    0.2086581 -54.74 0.0004882953    1.070    0.065
        55 -11.9180    204.5093    198.4745   1.0481663114e+02   4.7809560701e-01    0.4000256    0.2350573 -19.64  0.001686419    2.371    0.578
        56 -10.5377    205.4787    110.1742   8.4977402450e+01   1.7384142283e+01       0.3251    0.2197544  45.11 0.0009343153    1.557    0.358
        57 -12.7997    103.8699    194.4741   1.2658852224e+02   2.0592284375e+01    0.4364124    0.3503341  43.48  0.002165065    1.234    0.190
        58 -13.4671    110.7028    183.5031   1.2321616401e+02   2.1896136287e+01    0.8489543     0.361632  34.67  0.003118867    2.632    0.620
        59 -10.6588    134.6696    104.1926   9.9433255307e+01   3.5389351335e+01    0.5860336    0.1391818 -47.15   0.00147917    4.606    0.783
        60 -10.4040    152.2991    102.8430   9.4578582003e+01   3.1610773648e+01    0.2459581    0.2094909  63.86 0.0003221413    1.213    0.176
        61  -9.9696      1.8588     91.9058   1.3777079622e+02   5.6374735734e+01    0.1705769    0.1200844 -48.52 0.0004816302    1.180    0.153
        62 -10.2414     81.8567     76.0462   1.0694352647e+02   5.1490743605e+01    0.2250642    0.1885659  26.69 0.0003486496    1.203    0.169
        63 -10.5569     13.7374     59.9646   1.2712635555e+02   6.2268366538e+01     0.176683    0.1456045 -25.70  0.000462944    1.134    0.118
        64  -9.9868    168.1787    248.1890   1.2081916904e+02  -1.4279573461e+00    0.1702758     0.136523  56.09 0.0002361658    1.302    0.232
        65 -10.4527    182.3705    241.3976   1.1694308139e+02  -2.8060016239e+00    0.2156406    0.1656006 -47.14 0.0008718788    1.585    0.369
        66 -12.3237    116.0801    211.8139   1.2641894508e+02   1.4662565215e+01    0.6739853    0.3641066  77.83  0.001635617    3.627    0.724
        67 -12.6714    116.9971    206.4475   1.2541948371e+02   1.5643622608e+01    0.5611224    0.2702879  50.75  0.001225171    1.979    0.495
        68 -13.1569    108.1263    211.3030   1.2809438038e+02   1.6156423122e+01    0.9029043     0.472833  56.37  0.004022859    1.940    0.485
        69 -11.1793     13.8209     36.9695   1.2053032357e+02   6.6437788398e+01    0.2099911    0.1415066   3.53 0.0004721489    1.477    0.323
        70 -10.1256    157.4441    191.9459   1.1377196729e+02   1.1026009383e+01    0.1950513    0.1320486 -80.47 0.0004463224    2.315    0.568
