#   1 NUMBER                 Running object number                                     
#   2 MAG_AUTO               Kron-like elliptical aperture magnitude                    [mag]
#   3 X_IMAGE                Object position along x                                    [pixel]
#   4 Y_IMAGE                Object position along y                                    [pixel]
#   5 X_WORLD                Barycenter position along world x axis                     [deg]
#   6 Y_WORLD                Barycenter position along world y axis                     [deg]
#   7 A_WORLD                Profile RMS along major axis (world units)                 [deg]
#   8 B_WORLD                Profile RMS along minor axis (world units)                 [deg]
#   9 THETA_WORLD            Position angle (CCW/world-x)                               [deg]
#  10 FWHM_WORLD             FWHM assuming a gaussian core                              [deg]
#  11 ELONGATION             A_IMAGE/B_IMAGE                                           
#  12 ELLIPTICITY            1 - B_IMAGE/A_IMAGE                                       
         1 -12.8771    197.9789     32.6052   6.3817804558e+01   3.2192583133e+01    0.8677542    0.6828308  57.18  0.005222837    1.339    0.253
         2 -13.5478    214.0217     15.2530   5.8165051392e+01   3.0608841654e+01    0.9952143    0.8444983  46.65  0.006629877    1.561    0.360
         3 -12.4071      2.2344      5.5215   1.0826442234e+02   7.1815257307e+01     0.749621    0.4157708   3.15  0.005171215    1.632    0.387
         4  -9.8065     66.4854    244.0104   1.3649747517e+02   1.4911011399e+01    0.2325402    0.1767455  24.68  0.001074755    1.845    0.458
         5  -9.9366    204.7770    250.6037   1.0976402525e+02  -8.3293998904e+00    0.1936076    0.1090341  34.26 0.0003473129    1.560    0.359
         6 -11.2983    198.7783    245.9523   1.1017412271e+02  -6.6854024851e+00    0.3056893    0.2668558  40.15  0.001799921    1.254    0.203
         7 -10.8988    185.3677    250.1847   1.1348866259e+02  -5.2230940613e+00    0.4214288      0.18712  35.66  0.001541178    1.992    0.498
         8 -10.8494    169.6203    248.5856   1.1638184419e+02  -2.3995001593e+00    0.3569866    0.2436029   0.80 0.0007027143    2.089    0.521
         9 -10.3992    143.6474    249.4394   1.2175018871e+02   1.7642638175e+00     0.252357    0.1951867  57.50 0.0008576335    1.286    0.222
        10 -10.6854    136.0809    248.3644   1.2313590003e+02   3.2154512514e+00    0.2600939     0.222914  30.73 0.0007185074    1.186    0.157
        11 -10.7475    132.2348    248.8381   1.2397872549e+02   3.7659222939e+00    0.3348044    0.2163952  61.82  0.001765644    1.706    0.414
        12 -11.1560    116.7672    238.5311   1.2578410367e+02   8.2917250859e+00    0.7740075    0.3256922 -45.13  0.003112505    3.209    0.688
        13 -10.7907    128.7079    234.9603   1.2280532575e+02   6.9957971506e+00    0.3855819    0.2597618  75.34  0.001922416    1.930    0.482
        14 -10.7858    122.6468    233.2728   1.2384470648e+02   8.3568626095e+00    0.3993804    0.3225378  62.25  0.001427348    1.174    0.148
        15 -10.9938    122.4418    249.3020   1.2601660131e+02   5.2894327561e+00    0.6547548    0.2190474  43.15  0.002646134    2.499    0.600
        16 -10.9981    121.6898    244.9935   1.2561590012e+02   6.2251526578e+00    0.6209842    0.2744443  57.53  0.002455374    2.921    0.658
        17 -12.0302    124.5450    240.3335   1.2441384183e+02   6.6474228947e+00    0.6345856    0.5040891  72.66    0.0033102    1.318    0.241
        18 -10.5895    114.5047    250.1911   1.2772002086e+02   6.4092873428e+00    0.5376296    0.3021698  33.85  0.002631799    1.816    0.449
        19 -11.3525    109.1356    246.0700   1.2829673801e+02   8.0587133794e+00     0.473152    0.3174363 -89.14  0.001555753    1.805    0.446
        20 -11.4718    100.0645    247.7798   1.3031512216e+02   9.1642516200e+00     0.794036    0.3462714  51.14  0.003557782    2.076    0.518
        21 -12.2007     98.8354    232.4853   1.2873949558e+02   1.2433584108e+01    0.7423422     0.591051  73.50  0.004435752    1.178    0.151
        22 -10.7133     97.1862    238.7317   1.2983916765e+02   1.1412826041e+01    0.4286392     0.276105  72.02  0.002169119    1.681    0.405
        23 -11.3911     84.6994    230.7399   1.3146517701e+02   1.5002476591e+01    0.6333653     0.313504 -75.35  0.002880753    2.359    0.576
        24 -11.1878    113.3520    231.4050   1.2555119890e+02   1.0292140716e+01    0.4132063    0.3558142 -40.30   0.00176243    1.440    0.306
        25 -11.5673    105.0425    227.6344   1.2681004788e+02   1.2444917366e+01    0.6966478    0.4179423  70.27  0.002963644    2.046    0.511
        26 -10.7909     91.7265    241.3694   1.3125191817e+02   1.1729336632e+01     0.357596    0.3099486  55.25  0.001514415    1.125    0.111
        27  -9.8625     89.9590    238.0642   1.3123226219e+02   1.2673094167e+01    0.2567115    0.1974793 -44.12  0.001041547    1.736    0.424
        28  -9.7254     91.1456    250.2143   1.3234365899e+02   1.0067319848e+01    0.2874656    0.1767295  33.81  0.001553233    1.761    0.432
        29 -10.8448     86.8839    248.2386   1.3296580227e+02   1.1098408847e+01    0.3973403    0.2992992  29.98 0.0008637409    1.609    0.378
        30  -9.5590     81.5444    247.4944   1.3392954564e+02   1.2042238246e+01    0.2091088    0.1371048  54.49  0.001075546    1.282    0.220
        31 -10.8971     83.9163    243.2021   1.3301313720e+02   1.2546839207e+01    0.5353401    0.3299797 -52.27  0.002920228    1.978    0.494
        32  -9.6129     62.7968    250.3796   1.3778314623e+02   1.4147808370e+01    0.2348394    0.1432376  35.35 0.0008665887    1.815    0.449
        33 -11.5091     60.3116    245.7829   1.3783801617e+02   1.5405734913e+01    0.5470884    0.3573871  45.31   0.00333094    1.416    0.294
        34 -11.7700     57.0284    208.3657   1.3475162622e+02   2.3915169593e+01     1.084661    0.5244365  48.49  0.004357078    1.936    0.483
        35 -12.1699      3.7487    186.4240   1.4392606336e+02   3.4776382961e+01     1.114675     0.312999 -72.92  0.004152915    2.730    0.634
        36 -12.4710     18.3084    217.1849   1.4344322185e+02   2.6542425659e+01     1.221247    0.9527535 -19.90  0.007643742    2.384    0.581
        37 -13.6182      9.6555    209.6142   1.4453441773e+02   2.9064694562e+01     2.373232    0.9675646 -65.98   0.01234498    2.113    0.527
        38 -13.3480      5.1757    244.8407   1.4759045408e+02   2.2170559134e+01     1.161577     0.605702  76.50            0    1.539    0.350
        39 -12.8626     13.7537    238.6558   1.4576268223e+02   2.2514166814e+01    0.7810218     0.523203  58.85  0.003423864    1.262    0.207
        40 -12.7227     30.7839    226.9081   1.4182662360e+02   2.3071722163e+01    0.5439864    0.3156551 -73.62 0.0007861255    1.538    0.350
        41 -13.7885     36.9906    218.7073   1.3992953769e+02   2.4119904875e+01     1.111309    0.9842112  36.66   0.00766636    1.475    0.322
        42  -9.6421    132.4121    223.7707   1.2037638884e+02   8.6042089354e+00    0.2189181    0.1914389  19.88 0.0008781118    1.294    0.227
        43 -12.6824    135.9682    241.0137   1.2214477997e+02   4.5989169026e+00     1.107811    0.4971063  53.23   0.00459107    2.486    0.598
        44 -10.7728    136.0008    225.0126   1.1979075590e+02   7.7234853127e+00    0.4245035    0.2392986 -51.76  0.001181226    1.933    0.483
        45 -11.6174    135.3034    236.4195   1.2163007439e+02   5.5889574626e+00    0.4179345    0.3657829   0.78  0.001304849    1.416    0.294
        46 -10.9854    134.9141    231.5175   1.2099915069e+02   6.6124937918e+00    0.4202079    0.2797752 -29.05  0.001527428    2.211    0.548
        47 -13.2644     28.3525    246.7640   1.4374652859e+02   1.9252815112e+01     1.292045    0.8182134  54.94   0.00854261    1.323    0.244
        48 -11.5833    176.6615    242.7101   1.1405395951e+02  -2.5732604637e+00      0.48941    0.2505492  50.93  0.002216623    2.255    0.556
        49 -11.1013    166.6039    242.3990   1.1604700066e+02  -8.3826973464e-01     0.430259    0.1760067  41.28  0.001845471    2.148    0.534
        50 -10.7289    157.9748    241.4351   1.1766592177e+02   7.8960687685e-01    0.3635114    0.1951587 -60.89  0.001651756    2.586    0.613
        51 -10.0236    245.0000    240.9732   1.0062730132e+02  -1.2755366491e+01    0.1878368   0.06210202 -38.07 0.0008051578    2.961    0.662
        52 -10.0937    143.0278    240.7093   1.2064107670e+02   3.4605733224e+00    0.1932225    0.1603818  40.94 0.0006598293    1.068    0.064
        53  -9.8862     53.9206    240.9620   1.3861775946e+02   1.7245544403e+01    0.1846566     0.150724  74.51 0.0006282706    1.066    0.062
        54 -10.7185    105.0537    238.1199   1.2815171018e+02   1.0284687267e+01    0.2933395     0.202401  24.00  0.001419607    1.892    0.471
        55  -9.1092     61.3230    238.9561   1.3701446264e+02   1.6661436842e+01    0.2116888    0.1367183  55.51 0.0006873718    1.316    0.240
        56  -9.6663    172.9081    236.0953   1.1376155781e+02  -7.9758225684e-01    0.1868486    0.1690004  53.55            0    1.201    0.167
        57 -10.4397    166.0791    235.0854   1.1500724849e+02   5.4974448943e-01    0.2311302    0.1907066 -55.61  0.001356793    1.408    0.290
        58  -9.8317     54.9785    235.7624   1.3794577704e+02   1.8183219501e+01    0.3283074    0.1835648  63.82  0.001328581    1.641    0.390
        59  -8.4372     70.7689    235.3755   1.3480282389e+02   1.6082973815e+01    0.1580139    0.1139765  37.02 0.0006321108    1.515    0.340
        60 -10.3300    156.7039    232.1033   1.1648830946e+02   2.7190333208e+00    0.2468307    0.2223635 -21.24 0.0005492603    1.246    0.197
        61 -10.7674    249.0052    231.3883   9.8228828148e+01  -1.1935586814e+01    0.3147018    0.1717172  13.54  0.001580991    2.222    0.550
        62  -9.2818    141.1891    231.3889   1.1965026293e+02   5.5526000233e+00    0.1972754    0.1133706  48.67 0.0003949718    1.633    0.388
        63  -8.0625     57.4679    231.4592   1.3705346117e+02   1.8757853767e+01    0.1279554    0.1010043  73.70 0.0007494422    1.024    0.023
        64  -9.0560     45.9074    231.1703   1.3928712548e+02   2.0330116316e+01    0.1979114    0.1303809  68.37  0.001191253    1.295    0.228
        65 -10.6782     79.4428    225.5965   1.3196096880e+02   1.6895126327e+01    0.4170524    0.2789068 -80.46   0.00126585    1.497    0.332
        66 -10.4535    117.2285    224.4535   1.2376062994e+02   1.1081148832e+01    0.2771909    0.2559656  54.87 0.0003015519    1.076    0.070
        67  -9.6900     92.5735    226.0095   1.2924815092e+02   1.4791449849e+01     0.252144    0.1724028  52.26 0.0006900897    1.306    0.235
        68  -9.1439     64.9849    224.3829   1.3482230594e+02   1.9249959534e+01    0.2247414    0.1677292 -49.92  0.001228623    1.699    0.412
        69 -10.1182     98.2394    223.4456   1.2771282959e+02   1.4439931835e+01    0.3293361    0.2589691  22.89  0.001591458    1.620    0.383
        70  -9.3175     94.4058    219.2144   1.2798498649e+02   1.5973003167e+01    0.3411885     0.196142  61.59  0.001098267    1.855    0.461
        71  -8.9712     87.7412    224.0024   1.3002340767e+02   1.5977763258e+01    0.1903148    0.1587047  82.22 0.0006021933    1.095    0.087
        72 -10.5134    142.1111    221.5583   1.1793107316e+02   7.3447845781e+00    0.2962283    0.2419139  33.62  0.000362884    1.198    0.165
        73  -9.6828    110.7569    220.3956   1.2458875529e+02   1.3034785072e+01    0.4131149    0.1250385 -64.48  0.001186591    5.199    0.808
        74 -10.5981    245.7390    219.7466   9.6709775615e+01  -9.7391232810e+00    0.3465311    0.1520643 -32.40  0.001618818    2.196    0.545
        75  -9.8597     70.4364    218.6833   1.3305797435e+02   1.9730649336e+01    0.4743066    0.2861235 -85.59  0.002427746    1.730    0.422
        76  -8.4981     99.2891    218.3004   1.2680068966e+02   1.5386445719e+01    0.1242607    0.1095741 -19.59 0.0002638383    1.561    0.359
        77  -8.8548     89.0280    218.3233   1.2903432241e+02   1.7018597715e+01    0.1932353    0.1553868  60.47 0.0004932981    1.110    0.099
        78  -8.4481    118.6756    217.6660   1.2245675990e+02   1.2271665735e+01    0.1356318    0.1118915 -10.33 0.0007050969    1.711    0.416
        79  -9.4633    142.3924    227.1996   1.1875479784e+02   6.1655748297e+00    0.1832513    0.1318229 -70.34 0.0004074578    1.696    0.410
        80  -8.5797     62.5768    217.7714   1.3461047400e+02   2.1040455131e+01    0.1144466     0.101921  -4.50 0.0006874357    1.704    0.413
        81  -8.8660    136.9811    214.4672   1.1791579017e+02   9.7248736932e+00     0.210796    0.1308583  41.80 0.0003518993    1.494    0.331
        82  -9.3917     88.1261    212.8372   1.2851743512e+02   1.8381248544e+01    0.2671846    0.1737561 -82.72 0.0009282977    1.658    0.397
        83  -8.4776    131.1357    211.3857   1.1871615304e+02   1.1428328505e+01    0.1935915    0.1226775  50.82 0.0003079996    1.528    0.346
        84  -9.0261    101.5201    211.3622   1.2534259511e+02   1.6555348913e+01    0.2949597   0.08943311  49.36 0.0009397658    3.563    0.719
        85  -8.7943    106.5484    209.9294   1.2400795133e+02   1.6035928850e+01    0.2070128    0.1348538 -60.03 0.0004992326    1.574    0.365
        86  -9.7524    156.1262    208.1536   1.1261452664e+02   7.5449331948e+00     0.214955    0.2027221 -46.96 0.0003148696    1.123    0.110
        87  -9.4216    112.5284    208.1830   1.2239714239e+02   1.5406439377e+01    0.2395883    0.2073572 -62.82 0.0008350507    1.203    0.169
        88  -8.5149    134.3288    208.3259   1.1749945753e+02   1.1511394780e+01    0.1427913    0.1148102  -6.29 0.0005106556    1.702    0.412
        89  -8.7526     74.3763    208.2966   1.3096440274e+02   2.1499667663e+01    0.1775917    0.1171409 -81.92 0.0003024112    1.507    0.336
        90  -9.2815    125.9317    206.5400   1.1910122894e+02   1.3414207380e+01    0.2255809    0.1880492 -63.09  0.001224101    1.246    0.198
        91  -8.8081     32.9655    206.9718   1.3967646228e+02   2.7204216783e+01    0.1756916    0.1314386 -54.57 0.0005093634    1.588    0.370
        92  -9.8263     91.4790    204.9819   1.2669598370e+02   1.9635492774e+01    0.3431183    0.1872921  37.79   0.00155145    1.847    0.459
        93  -9.2945    103.2943    202.8245   1.2368450036e+02   1.8191306043e+01    0.3716348    0.2170766  51.05  0.001718601    1.662    0.398
        94 -10.1499    250.1655    200.9517   9.2405395803e+01  -7.4151052132e+00    0.3092388    0.1450129 -22.01   0.00123605    3.001    0.667
        95 -10.0006     84.0867    201.5051   1.2789076500e+02   2.1602575556e+01    0.2904471    0.2207709 -50.79  0.001354091    1.473    0.321
        96  -8.5559     64.6273    201.7453   1.3231383438e+02   2.4407897310e+01    0.1212872    0.1056894 -23.59 0.0001252344    1.644    0.392
        97  -9.4644     43.7269    199.7089   1.3667834099e+02   2.7603119697e+01    0.3362387    0.2216655 -40.10  0.001759855    2.220    0.550
        98 -10.8872     27.8004    195.2822   1.3965263633e+02   3.0444255742e+01    0.4870711    0.2970353  83.48  0.001063631    1.505    0.336
        99 -11.7005     57.9335    194.6491   1.3294725806e+02   2.6983511975e+01    0.5125868    0.3608045 -34.69  0.001533803    2.112    0.527
       100 -11.3714    103.1531    196.1009   1.2267779697e+02   1.9768556403e+01    0.2784342     0.265279  44.96 0.0003257046    1.157    0.136
       101  -9.0007     97.6818    196.2778   1.2398571538e+02   2.0644252463e+01    0.2168547     0.169056  49.53 0.0001971528    1.234    0.190
       102 -13.1463     40.1399    243.9771   1.4143243459e+02   1.8395909197e+01     1.159772    0.8235352  84.14  0.007752683    1.161    0.138
       103 -10.0374    249.7415    194.0511   9.1152416551e+01  -6.2159060143e+00    0.2688148    0.2290362 -19.42  0.001705392    1.022    0.022
       104  -9.3734     20.9682    194.9450   1.4106550560e+02   3.1232470275e+01    0.2150432    0.1448489 -63.20 0.0008405984    1.440    0.306
       105  -8.6797    119.1617    193.9796   1.1857167896e+02   1.7460137600e+01    0.2199932    0.1473834  59.03 0.0005531173    1.590    0.371
       106  -9.8410    112.5083    192.9950   1.1997271675e+02   1.8873670838e+01    0.3663543    0.1854988 -41.88 0.0009080279    2.506    0.601
       107 -10.9755     15.6051    192.0703   1.4193278561e+02   3.2418954520e+01    0.2198948    0.1662078 -85.83 0.0003172829    1.047    0.045
       108  -8.4800     72.6369    192.7612   1.2932354864e+02   2.5383183577e+01    0.1246547    0.1090877 -16.55 0.0003221367    1.597    0.374
       109  -9.4289    191.3615    191.4730   1.0185355245e+02   4.3173758969e+00    0.2443482    0.2236604 -41.83  0.000632451    1.125    0.111
       110  -9.3147     31.9806    189.9773   1.3821820926e+02   3.1225145953e+01    0.3374733    0.1460977  42.18  0.001625661    2.276    0.561
       111 -10.3613    249.8654    188.0739   8.9967081914e+01  -5.2324899681e+00    0.3279175    0.1976973 -29.02  0.001706185    1.545    0.353
       112  -9.0872     77.0240    188.5281   1.2769697978e+02   2.5746911355e+01    0.1991374    0.1699078 -82.56 0.0003368786    1.065    0.061
       113  -9.6450     72.2104    186.8443   1.2859819308e+02   2.6861346624e+01    0.3581673    0.2103494 -44.63  0.001487687    2.078    0.519
       114 -11.4530     65.0274    186.5581   1.3025926244e+02   2.7950051329e+01    0.3647567    0.2441324 -59.58 0.0005602652    1.433    0.302
       115  -9.1664     40.8795    188.2143   1.3604565353e+02   3.0635532530e+01    0.2120053    0.1525939  72.71  0.001229636    1.299    0.230
       116 -10.0984     10.0226    187.7734   1.4272997891e+02   3.3920648052e+01     0.232981    0.1570633  88.61 0.0006885758    1.197    0.165
       117  -9.8939     83.6493    186.7481   1.2585307318e+02   2.5163825442e+01    0.2447178    0.2047011  80.51 0.0003075018    1.132    0.117
       118  -9.4199     29.3199    184.1599   1.3819975407e+02   3.2876346811e+01    0.3069862    0.2071941 -28.14  0.001615829    2.461    0.594
       119  -9.1431     24.1490    184.0981   1.3934342642e+02   3.3423796088e+01     0.210476    0.1701017  52.52 0.0006925251    1.320    0.242
       120  -9.7641    127.8335    182.7476   1.1450899310e+02   1.8466582489e+01    0.2512232    0.2065315 -66.33 0.0003321757    1.243    0.196
       121  -8.8314     36.4844    182.4609   1.3639236971e+02   3.2502142569e+01    0.2143553   0.09684265 -59.88  0.001000829    1.963    0.490
       122 -12.2046    248.1492    172.9038   8.7249999480e+01  -2.3372103808e+00    0.8197032    0.4314341 -42.41  0.003940257    1.708    0.414
       123 -11.8667    245.3227    163.3057   8.5781556598e+01  -1.5133182024e-01    0.5825294    0.2565735 -44.65  0.002490547    2.078    0.519
       124  -9.2069     86.1239    180.2153   1.2423334010e+02   2.6355007050e+01    0.1976337     0.154455  72.63 0.0003253417    1.302    0.232
       125 -11.8198    246.6999    157.9345   8.4448379321e+01   5.8001861359e-01     1.004256    0.6754668  86.97  0.004277012    3.215    0.689
       126 -11.1002    150.0471    248.1886   1.2027759702e+02   9.2062604739e-01    0.4030554    0.2738028 -61.13  0.002225053    1.814    0.449
       127  -8.1987     92.6801    178.2574   1.2229703032e+02   2.5774006420e+01    0.1472916    0.1054374  69.99  0.000166277    1.542    0.352
       128  -8.5752     12.5042    178.4813   1.4136321517e+02   3.5839536571e+01    0.1239708   0.09705395 -83.29 2.990336e-05    1.033    0.032
       129  -9.0273    108.0226    182.7694   1.1930382673e+02   2.2074675244e+01    0.2321499    0.1880082  77.37 0.0007678681    1.295    0.228
       130 -11.0890     65.1501    175.7406   1.2870094744e+02   3.0557453091e+01    0.2746031    0.2359208  77.16 0.0004697997    1.099    0.090
       131 -10.6943     61.7391    172.6120   1.2908374966e+02   3.1787827912e+01    0.3021958    0.2839572 -49.36 0.0009709157    1.237    0.191
       132  -9.4987    103.0288    176.0193   1.1934407863e+02   2.4569885880e+01    0.2156136    0.2019336 -85.78  0.001194218    1.019    0.019
       133 -10.6907     75.4803    174.7477   1.2599518108e+02   2.9321474558e+01    0.2946219    0.2372829  81.52 0.0006539018    1.225    0.184
       134 -10.2432     19.1790    173.4685   1.3937140648e+02   3.6404751906e+01    0.4299574    0.2237257  80.43  0.001805107    2.098    0.523
       135 -11.1011     14.5325    167.0384   1.3977080161e+02   3.8339229550e+01     0.320725    0.2999665  40.92  0.001434846    1.355    0.262
       136 -10.1151     11.9107    173.7645   1.4104503116e+02   3.6989958440e+01    0.2724019    0.1412157 -52.01  0.001436355    2.025    0.506
       137  -8.5194    107.6226    173.1701   1.1768383641e+02   2.4453311562e+01    0.2025831    0.1351673 -48.74 0.0004812966    1.530    0.346
       138 -11.0379      3.1839    172.6445   1.4287568110e+02   3.7974882302e+01    0.3552552    0.2317935  71.76  0.001571168    1.446    0.308
       139  -9.6817      1.5958    167.1987   1.4273633712e+02   3.9354675572e+01     0.238176    0.0957184 -79.13   0.00076991    2.072    0.517
       140  -8.5932     46.1705    172.3853   1.3287348756e+02   3.3812267422e+01    0.1671811    0.1154534  52.17 0.0001924749    1.491    0.329
       141  -9.2886     27.9359    170.9761   1.3706597869e+02   3.6148558666e+01    0.3720721    0.1370777 -56.77  0.001421182    2.384    0.581
       142  -9.1955     48.2102    168.7256   1.3188113436e+02   3.4459960503e+01    0.2798907    0.1539253  43.01   0.00137199    1.898    0.473
       143 -10.4336     45.0093    165.2975   1.3220458743e+02   3.5674563272e+01    0.4574584    0.1881517 -49.99  0.001400312    2.511    0.602
       144 -11.3630     83.3102    166.1959   1.2260317462e+02   3.0233412175e+01    0.5723056    0.4893004  23.61  0.002932864    1.390    0.281
       145 -10.7170      6.2064    166.3968   1.4162050942e+02   3.9182297106e+01    0.2246081    0.1905679  88.03  0.001004027    1.123    0.110
       146  -8.6735     61.0522    164.5971   1.2804982211e+02   3.3849680951e+01    0.1821287    0.1678261  72.71 0.0002803456    1.115    0.103
       147  -8.9113     57.1992    161.1851   1.2851107242e+02   3.5194101871e+01    0.3919057     0.191092  82.26  0.001216173    4.547    0.780
       148 -12.6049     44.2243    208.1178   1.3744629934e+02   2.5612083787e+01     1.790111     0.758313  77.42   0.00641971    3.917    0.745
       149 -11.4090      9.8912    157.1662   1.3981820634e+02   4.1050431805e+01    0.6888132    0.2864858  78.12  0.002584387    3.897    0.743
       150 -10.7543     12.2447    154.0398   1.3890322009e+02   4.1599253971e+01    0.3220693     0.155271 -68.18  0.001533769    1.619    0.382
       151 -11.1495     10.9432    150.0423   1.3876776807e+02   4.2645948069e+01    0.2777558     0.228509 -55.68 0.0003365666    1.244    0.196
       152 -10.0249     16.1372    158.3135   1.3843963873e+02   4.0264222926e+01    0.2026829    0.1380215 -66.32  0.000340261    1.216    0.178
       153 -10.1439     84.5989    155.2359   1.2029201391e+02   3.2739821814e+01    0.2425513     0.162964 -44.04 0.0001116808    1.574    0.365
       154 -10.6490     25.1447    155.0471   1.3582462121e+02   4.0239239322e+01    0.3515016    0.2172565  32.31  0.001776065    1.888    0.470
       155  -8.8051    228.4500    155.0687   8.6999785220e+01   4.4140303252e+00    0.2200352    0.1286912 -41.65 0.0005602486    1.553    0.356
       156 -11.9211    243.1260    120.3050   7.7126312087e+01   8.1043507199e+00    0.7138712    0.4798079  58.98  0.003720651    1.709    0.415
       157 -12.8171    248.1068    100.2707   7.2171889573e+01   1.0691997654e+01     1.241846    0.6348388 -33.82  0.005559953    2.109    0.526
       158  -9.9115    249.7939    117.7781   7.5601920054e+01   7.2822502121e+00    0.2701204    0.2258579 -54.23 0.0006959102    1.061    0.057
       159 -11.1772    248.2860    112.9311   7.4803806554e+01   8.4331956698e+00    0.4669006    0.4011251  40.72  0.002794212    1.423    0.297
       160  -9.2922     89.9478    153.2591   1.1848842578e+02   3.2365474440e+01    0.1950631    0.1889854  79.12 0.0001954778    1.070    0.065
       161 -10.0599     96.4097    150.7944   1.1627129935e+02   3.1887962821e+01    0.3719995    0.2623442 -46.56  0.001235145    1.419    0.296
       162 -10.3599     32.0708    154.9377   1.3405768834e+02   3.9595220934e+01    0.3780064    0.2040028 -44.15 0.0009217935    2.097    0.523
       163 -10.3145     23.0169    150.0921   1.3573030173e+02   4.1622836044e+01    0.2302939    0.1708382 -32.23  0.001364406    1.687    0.407
       164 -11.8971     68.4114    144.4305   1.2266533751e+02   3.7828087713e+01    0.6853033    0.4825301  83.66  0.002434185    1.742    0.426
       165 -12.1631      2.5722    143.0099   1.4005850634e+02   4.4903604379e+01    0.7125889     0.270852 -70.18  0.003410381    1.996    0.499
       166 -11.8845      8.3871    142.8188   1.3856496987e+02   4.4538765667e+01    0.4496912    0.3433176  25.41   0.00295501    1.656    0.396
       167  -8.8525     99.9174    146.1040   1.1436087187e+02   3.2428429198e+01    0.2434482    0.1831317 -23.03   0.00111903    1.740    0.425
       168  -9.5901    133.3711    140.5876   1.0431624504e+02   2.7326559135e+01    0.3651931     0.263726 -70.67  0.001397852    1.654    0.395
       169 -10.3165     19.5293    141.5319   1.3550969453e+02   4.3970286804e+01     0.284369    0.1660833 -75.11 0.0005598178    1.472    0.321
       170 -10.9637     16.3774    139.2185   1.3603424011e+02   4.4777242480e+01    0.2685067    0.2467553   4.52  0.001865467    1.390    0.281
       171 -10.8020     13.0881    137.1673   1.3663581034e+02   4.5517763441e+01    0.2231937    0.1700934 -75.69 0.0003604093    1.087    0.080
       172 -10.2551     32.6575    140.7258   1.3187775959e+02   4.2974658449e+01     0.293537    0.1801919  82.68  0.001220782    1.984    0.496
       173  -9.8472     41.4492    147.5604   1.3054840724e+02   4.0408774174e+01    0.2229345    0.2011735 -82.44 0.0006661816    1.077    0.071
       174 -11.3540     59.9494    136.4068   1.2353481684e+02   4.0936267692e+01    0.2984959    0.2399641 -65.90 0.0003621634    1.124    0.111
       175  -9.4332    108.8322    135.9955   1.0972381354e+02   3.3257968130e+01     0.359149    0.2379546 -15.50  0.001380222    2.575    0.612
       176  -9.7411    236.0270    145.8654   8.3718844376e+01   4.7292720046e+00    0.2300084    0.1957911  34.74 0.0007744497    1.325    0.245
       177 -11.2470      2.4342    131.4029   1.3873071761e+02   4.7606134013e+01    0.4814672    0.2297358 -78.88  0.002454907    1.876    0.467
       178 -11.5953      2.1013    122.7727   1.3771829800e+02   4.9613467440e+01    0.6752905    0.1472952 -70.60  0.002354723    3.823    0.738
       179 -10.4563     44.9303    130.7668   1.2679824021e+02   4.4104198624e+01    0.3734277    0.2241272  81.97  0.001098951    2.483    0.597
       180 -10.1777     66.6610    127.6166   1.1985560399e+02   4.2171314606e+01    0.3229665    0.1725624 -63.69  0.001399139    1.864    0.463
       181  -9.9322     59.0853    127.9872   1.2215315510e+02   4.3088657408e+01    0.2104138    0.1887253 -57.62 0.0004033175    1.013    0.013
       182  -9.5614     33.4910    128.0008   1.2961392025e+02   4.5946675123e+01    0.1893063    0.1047696  89.67 0.0008104706    2.574    0.612
       183  -9.7592    209.8556    125.7187   8.3894398770e+01   1.3881156721e+01    0.2675329     0.225135 -51.41 0.0005198482    1.114    0.102
       184  -8.0369     48.3152    126.2928   1.2498832216e+02   4.4798843661e+01    0.1376437    0.0946378 -34.68  0.000310283    1.598    0.374
       185 -12.0536     19.7453    121.6289   1.3254503299e+02   4.8650886490e+01    0.4370013    0.2705487  -6.47   0.00233626    2.304    0.566
       186  -9.4580     55.1835    120.3208   1.2175772874e+02   4.5408447424e+01    0.2568091    0.1336795  18.21  0.001085561    2.659    0.624
       187 -12.2415      7.2907    118.6144   1.3567985654e+02   5.0241502162e+01     0.478436    0.2099153 -68.32  0.002391285    1.817    0.449
       188 -11.6040      9.2010    112.6136   1.3422041291e+02   5.1487696584e+01    0.3076814    0.1720793 -40.67  0.001166569    1.742    0.426
       189 -10.1248    231.5468    116.1061   7.8020189176e+01   1.1177054671e+01    0.2615625     0.200912  86.65  0.001077309    1.563    0.360
       190  -9.7806    167.9645    113.2000   8.9309094140e+01   2.5798293239e+01    0.3643894    0.2734306 -85.37  0.001352957    1.727    0.421
       191  -8.8743    203.5021    111.4967   8.1752349690e+01   1.8050248048e+01    0.1485293    0.1402616 -57.21 0.0008103958    1.038    0.036
       192 -12.3809      5.7500    108.1860   1.3455988332e+02   5.2705869247e+01    0.6257766    0.3457288  14.16  0.003263843    2.310    0.567
       193  -8.6180     35.2382    107.4004   1.2527591118e+02   5.0594185058e+01    0.1595599    0.1207311  39.76 0.0004806276    1.562    0.360
       194 -10.8394    249.6102    150.9527   8.2534164057e+01   1.3336395044e+00    0.4295853    0.2713382 -40.06  0.001845352    1.372    0.271
       195  -8.4791     71.7381     99.9810   1.1188997321e+02   4.7844725376e+01    0.1725928    0.1132755 -48.96 0.0003170614    1.401    0.286
       196 -10.1267     16.9610     99.0036   1.2947233089e+02   5.4015637921e+01    0.1845487    0.1516964 -55.43 0.0003001548    1.038    0.037
       197 -10.0979     21.4684     93.5287   1.2690902326e+02   5.4882870012e+01    0.2397252    0.1343205 -34.68  0.001004587    1.760    0.432
       198 -12.0540    247.6660    142.4170   8.1077744481e+01   3.2250881402e+00    0.8695973    0.6299697  59.04  0.004729098    1.682    0.405
       199  -9.6714      2.0000     88.9707   1.3250298096e+02   5.7135689361e+01    0.1989517    0.0536515 -64.78 0.0005883704    2.926    0.658
       200 -12.6304    248.7132    132.5916   7.8863119580e+01   4.8184990463e+00     1.254178    0.6727321 -39.82  0.005943085    1.636    0.389
       201 -10.6182    192.6301    249.0159   1.1187338764e+02  -6.1950995007e+00    0.2972554    0.1778571  40.57  0.001608406    1.529    0.346
       202 -10.5388     17.2254     25.8600   1.0936676725e+02   6.7787781669e+01    0.2169947    0.1385601  34.24  0.001185596    2.004    0.501
       203 -10.4702     73.7042    244.3197   1.3513238715e+02   1.3822699149e+01    0.3750057    0.2418891 -61.60  0.002184286    1.692    0.409
