#   1 NUMBER                 Running object number                                     
#   2 MAG_AUTO               Kron-like elliptical aperture magnitude                    [mag]
#   3 X_IMAGE                Object position along x                                    [pixel]
#   4 Y_IMAGE                Object position along y                                    [pixel]
#   5 X_WORLD                Barycenter position along world x axis                     [deg]
#   6 Y_WORLD                Barycenter position along world y axis                     [deg]
#   7 A_WORLD                Profile RMS along major axis (world units)                 [deg]
#   8 B_WORLD                Profile RMS along minor axis (world units)                 [deg]
#   9 THETA_WORLD            Position angle (CCW/world-x)                               [deg]
#  10 FWHM_WORLD             FWHM assuming a gaussian core                              [deg]
#  11 ELONGATION             A_IMAGE/B_IMAGE                                           
#  12 ELLIPTICITY            1 - B_IMAGE/A_IMAGE                                       
         1 -13.0236    201.1762     33.9960   5.8570264827e+01   3.0540309040e+01    0.9134181    0.8124935  34.71  0.004869076    1.238    0.192
         2 -13.7992    218.0410     16.2499   5.1727914462e+01   2.8398562567e+01      1.48468     1.022122  33.05  0.007602707    1.878    0.468
         3 -12.1669      2.4352     19.0212   1.1364882885e+02   7.0996973362e+01    0.5787662    0.1910036 -57.44  0.002826544    2.446    0.591
         4 -12.7385      2.8174      4.5798   1.0767028334e+02   7.3528414585e+01     1.076246    0.5252202  14.16  0.006565879    2.299    0.565
         5 -10.9266    159.0816    244.1969   1.1289481175e+02   4.7092197831e+00     0.188189    0.1616363  59.02 0.0007351429    1.277    0.217
         6 -11.9107    184.8439    249.5955   1.0907005737e+02   5.7091067392e-02    0.4955306    0.2977599  35.14  0.003173547    1.283    0.221
         7 -10.8825    164.5103    241.9687   1.1165459688e+02   4.1659503444e+00    0.2215734     0.174103 -78.62  0.001482368    1.921    0.479
         8 -10.7936    169.0899    249.1417   1.1174364373e+02   2.5172612719e+00    0.2596333     0.211696  15.05 0.0004412935    1.330    0.248
         9 -11.7298    170.5111    243.8472   1.1083011688e+02   2.9823471166e+00    0.3803415    0.1946057  49.23  0.001060153    1.809    0.447
        10 -10.6973    162.6392    250.3473   1.1301339169e+02   3.3472684141e+00    0.3315733    0.1177743  41.74 0.0008613559    2.137    0.532
        11 -10.8193    143.1681    249.1044   1.1627093251e+02   6.4727209006e+00    0.3529393    0.1983788  59.36  0.002024052    2.019    0.505
        12 -12.5639    118.7337    236.6702   1.1927387699e+02   1.1990975284e+01    0.8273333    0.6897217 -13.67  0.005426169    1.872    0.466
        13 -11.3029    134.9729    224.8815   1.1492470061e+02   1.1349531784e+01    0.4636127    0.2710678  51.40  0.001490765    1.503    0.335
        14 -12.8867    133.5952    248.6708   1.1790027646e+02   7.9725990851e+00     1.294782    0.5915069  30.36  0.006271218    2.726    0.633
        15 -11.1968    135.9385    241.2347   1.1667288078e+02   8.6945415448e+00    0.2497479    0.2308066 -43.05 0.0009271518    1.412    0.292
        16 -12.6456    135.1251    234.6322   1.1606516774e+02   9.8069410968e+00    0.6681932    0.5635087  86.98  0.004780484    1.394    0.283
        17 -11.2746    115.2847    250.3463   1.2125732313e+02   1.0419336057e+01    0.7978141    0.2499128  38.19  0.003613642    2.813    0.645
        18 -11.0213    109.8676    247.6272   1.2193948063e+02   1.1603198455e+01    0.4217704     0.273169 -89.87   0.00273319    1.970    0.492
        19 -11.3859    122.5670    245.6824   1.1952583200e+02   1.0047012177e+01    0.5075147    0.2540785  56.59  0.002287106    1.960    0.490
        20 -11.5619    125.8511    243.1385   1.1868059850e+02   9.9375953947e+00    0.3598529    0.3202026  86.46  0.001427465    1.297    0.229
        21 -11.5087     99.7873    247.8431   1.2370506585e+02   1.2994520556e+01    0.6281268    0.2896196  47.23  0.003685318    1.637    0.389
        22 -12.0513    102.4859    239.8555   1.2250571015e+02   1.3862434986e+01    0.4498902    0.3912157 -58.43 -0.0001541599    1.507    0.337
        23 -12.1674    107.3566    230.2667   1.2068066375e+02   1.4708921181e+01    0.6840328    0.3640108  66.16  0.003605248    2.266    0.559
        24 -10.9358    113.4919    230.9566   1.1962447207e+02   1.3685892036e+01    0.2610166    0.2081137 -66.10  0.001167723    1.487    0.327
        25 -10.5852     83.5581    241.1404   1.2594467507e+02   1.6273955330e+01    0.3149996    0.1927023  49.80  0.001419461    1.258    0.205
        26 -10.5705     91.9484    241.4843   1.2451065721e+02   1.5079000045e+01    0.2494409    0.1911363  45.87  0.001340267    1.207    0.172
        27 -11.0681     96.9684    239.2074   1.2342400385e+02   1.4746587830e+01    0.3466344    0.2867714 -89.21  0.002273773    1.303    0.233
        28 -11.8903     87.7874    236.7965   1.2483551271e+02   1.6411527558e+01    0.6450222    0.2621898  48.75   0.00348632    1.915    0.478
        29 -10.6602     84.4334    229.9817   1.2483661387e+02   1.8011366027e+01    0.2321414    0.1925299 -58.81  0.001701756    1.566    0.361
        30  -9.9392     81.6376    248.0277   1.2682328837e+02   1.5427993406e+01    0.3087892    0.1360108 -78.90  0.001603488    3.043    0.671
        31  -9.9907     90.8312    250.2174   1.2543895616e+02   1.3859082066e+01    0.2125978    0.1598706  48.40  0.001228025    1.158    0.136
        32 -11.2400     86.5145    248.2338   1.2601189938e+02   1.4747912094e+01    0.3121549    0.2396542  38.95 0.0009817271    1.396    0.284
        33  -9.0127     66.6025    239.7201   1.2875859749e+02   1.8709880853e+01    0.2128036    0.1004446  65.03  0.001080421    2.042    0.510
        34 -11.4166     59.7804    245.7598   1.3032493046e+02   1.8563147053e+01    0.3810402    0.2686392  48.60  0.002539827    1.248    0.199
        35  -9.9413     66.7079    244.0079   1.2904762492e+02   1.7992263021e+01    0.2456818    0.1627892  25.88  0.001129535    2.239    0.553
        36 -12.8978     13.8242    214.8847   1.3627768062e+02   2.8940603746e+01     1.381759    0.8180201  61.48  0.004057449    1.274    0.215
        37 -12.7699     11.2506    206.2227   1.3628995732e+02   3.0780984528e+01     1.313058     0.755996  51.49  0.009363562    1.446    0.309
        38 -13.2560     41.3135    206.6458   1.3087423326e+02   2.7638876130e+01     4.690975    0.8714713  54.76   0.01413801    6.945    0.856
        39 -13.4215     26.5523    247.5839   1.3576977838e+02   2.2028260600e+01     1.209185    0.6661415  36.09   0.00850065    1.976    0.494
        40 -12.4387     44.7516    243.2084   1.3264030664e+02   2.0753393436e+01    0.7345181    0.3469499  81.26  0.002461013    2.157    0.536
        41 -12.8563     25.8135    225.7436   1.3480442750e+02   2.5802237486e+01    0.3522915     0.294268  43.14 0.0008272155    1.512    0.339
        42 -14.0252     31.9298    218.8117   1.3336608682e+02   2.6401224502e+01    0.9871585    0.7571313  85.79  0.007777403    1.183    0.155
        43  -9.8566    244.6624    242.6768   9.8035155222e+01  -7.9642202069e+00    0.1178556   0.06611239  14.02 0.0006331585    1.717    0.418
        44 -11.8368    198.8966    245.9576   1.0616464111e+02  -1.6437575326e+00    0.4310983    0.1801652  47.61  0.002141878    2.410    0.585
        45  -8.8854     53.7997    241.1285   1.3101889289e+02   2.0043011717e+01    0.1257405    0.1111789  76.87 0.0005046345    1.340    0.254
        46 -14.0854      6.9983    244.1311   1.3862411098e+02   2.4539723960e+01     1.497539    0.9102688  88.24   0.01215533    1.383    0.277
        47  -9.1085     48.3000    237.2133   1.3169136745e+02   2.1345782831e+01    0.2279052   0.09888317  50.04  0.001390143    1.726    0.420
        48  -9.6201    173.3321    236.1969   1.0932603463e+02   3.5539014414e+00    0.1367153    0.1115017 -59.03 0.0002961081    1.688    0.408
        49 -11.1098    129.2808    235.3208   1.1721062272e+02   1.0602852544e+01    0.3263712    0.2035342  62.21  0.001599396    1.706    0.414
        50  -8.6999     70.6199    235.1876   1.2772480115e+02   1.8957407645e+01    0.1277204   0.09533183 -69.03 0.0008148379    1.560    0.359
        51  -9.3454     54.6163    235.3005   1.3049800864e+02   2.0924707469e+01    0.1804197   0.09233707  64.81  0.001121036    1.684    0.406
        52  -9.8534    168.9539    233.8936   1.0980629614e+02   4.5652793693e+00    0.2617662    0.1392333  21.35  0.001218958    2.804    0.643
        53 -10.0234    156.4769    232.4046   1.1188255603e+02   6.7710418372e+00    0.1628653    0.1535597  71.82 0.0006331832    1.261    0.207
        54 -10.6356     98.1931    230.2784   1.2236195760e+02   1.6037325183e+01     0.257707    0.1905924 -80.11  0.001773799    1.487    0.328
        55  -8.9473     45.4146    231.1906   1.3180080094e+02   2.2710040492e+01    0.1382505   0.07984632  81.46   0.00027255    1.561    0.359
        56 -10.2041     56.8156    228.3945   1.2963710685e+02   2.1850603318e+01    0.2035434      0.14309  81.86 0.0001298328    1.251    0.201
        57  -8.8157     52.8966    229.8835   1.3042618173e+02   2.2062111393e+01    0.1531447   0.09399722  63.88  0.000555805    1.286    0.223
        58 -10.8616     79.3395    225.7479   1.2538787835e+02   1.9431423777e+01     0.341971    0.2538333  87.12  0.001556002    1.309    0.236
        59  -9.4165     77.1604    220.7902   1.2534890669e+02   2.0598842606e+01     0.183649    0.1312597  78.02 0.0003977189    1.287    0.223
        60 -10.1229     92.6375    225.9914   1.2296712998e+02   1.7554544637e+01    0.1924298    0.1415823  40.37  0.000900262    1.330    0.248
        61  -9.5735     51.4533    225.4988   1.3037529762e+02   2.3003533265e+01    0.1762194    0.1387016  71.61 0.0005211879    1.086    0.080
        62 -10.1240    117.2782    224.3961   1.1819947917e+02   1.4191351672e+01    0.2192532    0.2021841  42.75 0.0008320495    1.222    0.182
        63  -9.4232     65.1844    224.1037   1.2782158142e+02   2.1568910159e+01     0.284877    0.1234995 -55.43  0.001500273    2.946    0.661
        64  -9.2056    164.3229    224.0073   1.0930483221e+02   6.7258192262e+00    0.1579397    0.1418777  37.21 0.0003608398    1.107    0.097
        65 -11.2632     98.3933    222.5085   1.2154818529e+02   1.7330617004e+01    0.5031123    0.2426944  58.77   0.00253103    2.098    0.523
        66 -10.5840     70.9785    219.5948   1.2638925588e+02   2.1630544873e+01    0.4339122    0.2504828  88.11  0.002597746    1.855    0.461
        67 -10.7269    142.0751    219.4952   1.1289130212e+02   1.1068404887e+01    0.3087393    0.2750757 -89.49   0.00138809    1.307    0.235
        68  -9.9682    246.2372    218.7571   9.3938853597e+01  -5.6743728401e+00    0.1753891   0.08383591 -17.74 0.0008895451    2.443    0.591
        69  -9.1262     89.4833    218.9615   1.2286891147e+02   1.9229135706e+01    0.2546791    0.1026898  62.15  0.001036751    3.451    0.710
        70 -10.0355     87.3379    223.4053   1.2370114870e+02   1.8746406164e+01    0.2127223    0.1436002  61.94 0.0008082028    1.258    0.205
        71 -10.1140    111.4287    215.5697   1.1830357307e+02   1.6593007939e+01    0.2883965    0.2258131   9.28  0.001590432    1.956    0.489
        72 -10.0218    117.9944    214.9273   1.1695464151e+02   1.5687530238e+01    0.1820035    0.1518932  57.10 0.0004836222    1.030    0.029
        73  -9.6417     88.1788    212.6893   1.2248618370e+02   2.0544590287e+01    0.2324985    0.1565856 -82.26  0.001169867    1.575    0.365
        74 -10.5902     62.7819    208.6050   1.2697976605e+02   2.4711849686e+01    0.4172566    0.2838921 -65.32  0.002088934    1.598    0.374
        75 -10.2231     63.9578    205.2733   1.2645943553e+02   2.5196208911e+01    0.2941582    0.1502614 -70.46  0.001240845    1.954    0.488
        76 -10.8127     55.3124    208.2613   1.2837042657e+02   2.5700907182e+01     0.588478    0.2984603  79.67  0.002865706    2.138    0.532
        77  -8.4184    130.7255    211.3270   1.1401324414e+02   1.4274114727e+01    0.1230427   0.08763114  69.48 0.0002316881    1.586    0.369
        78  -8.3870    156.2483    208.3185   1.0858653090e+02   1.0506119655e+01    0.1172347   0.09432831   6.23 0.0001704312    1.526    0.345
        79  -8.9913    134.3763    207.7711   1.1281550560e+02   1.4285688834e+01    0.1563769    0.1190501 -41.51 0.0009364838    1.620    0.383
        80  -9.7526    111.6877    207.2375   1.1725747909e+02   1.8035788111e+01    0.3303294    0.1935278  83.95  0.001043499    2.630    0.620
        81  -8.5953     74.4230    208.4784   1.2472953461e+02   2.3222122645e+01    0.1172105   0.09510474  67.84 0.0002167807    1.021    0.021
        82 -10.3130    246.9982    206.1922   9.1642494950e+01  -4.3524097426e+00    0.2105167    0.1124072  17.89  0.001089151    2.016    0.504
        83  -9.6983     91.0405    204.9682   1.2110481263e+02   2.1566404527e+01    0.3121841     0.159421  31.52   0.00128496    2.329    0.571
        84 -10.1644    106.9869    203.7132   1.1776585696e+02   1.9411400141e+01     0.205158     0.172717 -79.17  0.000313454    1.260    0.206
        85  -9.7818     43.1687    200.3278   1.3005340637e+02   2.8646586222e+01    0.2646378    0.1526723 -59.77  0.001309618    1.960    0.490
        86  -9.1885     75.2710    199.9632   1.2372174064e+02   2.4735494196e+01    0.1627508    0.1347615  81.16  0.000363874    1.091    0.083
        87 -12.0731     38.5700    237.8700   1.3334803408e+02   2.2340063717e+01    0.5696664    0.2551914 -65.69  0.001358939    2.446    0.591
        88 -11.8972     55.0158    193.9445   1.2719970842e+02   2.8520597244e+01    0.4131456    0.2871657 -54.56 0.0009510978    1.771    0.435
        89  -8.9482     98.3620    196.7425   1.1866775160e+02   2.2048146085e+01    0.2797393    0.1112686  60.44 0.0009783186    4.045    0.753
        90 -10.2751     83.8439    201.5347   1.2216860866e+02   2.3247647980e+01    0.2069423    0.1648491  82.71 0.0002859687    1.163    0.140
        91  -9.8382     21.6626    193.0113   1.3363668952e+02   3.2334556042e+01    0.2625579    0.1726462  70.91 0.0009674112    1.196    0.164
        92  -9.9151     26.3654    192.5080   1.3270729176e+02   3.1971208661e+01    0.3194306    0.2466568 -23.20  0.002114602    2.438    0.590
        93  -8.5736     77.9627    194.0081   1.2254820227e+02   2.5536118119e+01    0.1459308    0.1176592  60.85  0.000955636    1.068    0.063
        94  -8.3935     72.3106    193.2657   1.2362843628e+02   2.6451710369e+01    0.1021704   0.09628633 -17.23 0.0003120019    1.539    0.350
        95  -9.5165    191.4970    191.5215   9.8969590000e+01   6.9569800204e+00    0.2243731    0.1982327  24.26 0.0006292308    1.030    0.029
        96  -8.3316     38.6169    192.2654   1.3031170113e+02   3.0740533500e+01     0.122768   0.06457228  62.66 0.0006984904    1.690    0.408
        97 -10.5233     30.6808    193.0695   1.3191649842e+02   3.1421622066e+01    0.3146317    0.2792665 -24.62  0.001435385    1.840    0.457
        98 -10.6922    250.3011    187.9526   8.7753157437e+01  -2.6541262331e+00     0.295062    0.1379915 -23.60  0.001435315    2.199    0.545
        99  -8.7020     40.3831    189.1263   1.2971192118e+02   3.1177449630e+01    0.1729464   0.09002807 -89.75 0.0009628406    1.839    0.456
       100  -9.0576     76.9004    188.1209   1.2211690761e+02   2.6861799282e+01    0.2331926    0.1503485  86.90  0.001318736    1.624    0.384
       101 -10.3233     71.5607    186.8505   1.2309724332e+02   2.7844880714e+01     0.294635    0.2285004  22.15  0.001813235    1.759    0.431
       102  -9.6220     83.5347    186.8051   1.2056433657e+02   2.6197191308e+01    0.1993386    0.1555086  52.61 0.0003867359    1.161    0.138
       103 -11.6052     61.6450    185.9457   1.2507785161e+02   2.9318322997e+01    0.2318608    0.2080892 -62.18 0.0004599649    1.370    0.270
       104  -9.2696     29.5381    184.0494   1.3148096814e+02   3.3350508973e+01    0.2248673    0.1629487 -37.62  0.001431239    2.260    0.557
       105  -9.2185     24.5690    184.0761   1.3247142319e+02   3.3837920318e+01    0.1894266    0.1248557  58.42 0.0007105767    1.302    0.232
       106  -8.5673     36.3600    182.7893   1.3000546325e+02   3.2901822320e+01    0.1594086   0.08850648 -66.94 0.0009435071    1.706    0.414
       107  -8.8703     85.7328    180.3087   1.1929212147e+02   2.7209101327e+01    0.1284446   0.08648576  73.04            0    1.537    0.350
       108  -8.9170     27.1535    179.8335   1.3164270024e+02   3.4451163549e+01     0.145739    0.1104601 -71.99 0.0002647991    1.331    0.249
       109  -8.9336     47.2647    179.6627   1.2747497753e+02   3.2347038710e+01    0.1476481    0.1083645  30.57 0.0007526817    1.670    0.401
       110  -8.6198     12.4896    178.4914   1.3448381311e+02   3.6088074217e+01    0.1095702   0.08434723  84.45 0.0008097272    1.064    0.060
       111  -8.5014    102.8000    176.0266   1.1495504998e+02   2.5489304892e+01    0.1602942    0.1015815 -62.43            0    1.639    0.390
       112  -9.1961     64.9730    176.0009   1.2330257572e+02   3.0962364992e+01    0.2027288    0.1248244  68.57 0.0007692032    1.619    0.382
       113 -10.8609     72.9417    173.9419   1.2130859482e+02   3.0343374179e+01    0.2242355    0.2116004  83.41 0.0003876136    1.188    0.159
       114 -10.1997     19.3275    174.1118   1.3281273592e+02   3.6376334992e+01    0.3350037    0.1622297  81.75 0.0007797786    1.925    0.481
       115 -11.6137    248.3421    172.2700   8.5028116863e+01  -3.0334004567e-01     0.492746    0.3375889   1.09  0.002807769    1.453    0.312
       116 -11.0217     58.5728    173.0679   1.2437682909e+02   3.2392206677e+01    0.2672984    0.2660719 -23.21 0.0006133401    1.365    0.268
       117  -9.8498     12.2618    173.0708   1.3417724051e+02   3.7217970821e+01    0.2740687    0.1086884 -69.00  0.001467251    2.137    0.532
       118 -10.9141      2.9981    172.8461   1.3601612178e+02   3.8028201243e+01    0.3237461    0.1695933  74.34  0.001097408    1.593    0.372
       119 -11.1817     10.5671    157.9908   1.3347870691e+02   4.0521388925e+01    0.3690688    0.1670452  74.50 0.0002558768    2.187    0.543
       120 -10.4153     12.2829    154.0479   1.3280588882e+02   4.1227041620e+01    0.2328927    0.1281004 -77.84 0.0008000357    1.461    0.315
       121 -11.1578     12.4731    167.4822   1.3375435463e+02   3.8360436173e+01    0.3839258     0.255463  10.89  0.002432361    2.470    0.595
       122 -10.8696      4.9571    167.0569   1.3527262257e+02   3.9063441777e+01    0.2996958    0.1859137  40.65  0.001355449    1.691    0.409
       123 -11.2173      8.8687    165.6958   1.3437956931e+02   3.9033141787e+01    0.3533296    0.2006891 -65.09  0.002258294    1.670    0.401
       124 -10.1717     27.5016    171.4497   1.3091291798e+02   3.6161322711e+01    0.2830336    0.1702234 -56.60 0.0009314005    1.857    0.462
       125  -9.6712    166.9005    170.3434   1.0000540552e+02   1.5114842969e+01    0.1905487    0.1878289  65.30 0.0002984037    1.114    0.102
       126  -9.2412     51.8909    171.0934   1.2563138311e+02   3.3619157112e+01    0.1808985     0.153496  78.08 0.0007516464    1.054    0.051
       127  -8.6645     96.0701    169.1523   1.1546148399e+02   2.7986476590e+01    0.1812236    0.1353135  65.76            0    1.311    0.237
       128 -11.5856     80.6333    165.7850   1.1851561302e+02   3.1017940842e+01    0.4752122    0.4233623  29.58  0.003017217    1.353    0.261
       129 -10.5780     81.9458    158.3481   1.1715366103e+02   3.2450865875e+01    0.3782896    0.2564343 -71.24 0.0007370769    1.437    0.304
       130 -10.2040     68.2918    166.2676   1.2140585614e+02   3.2612321532e+01    0.2176955    0.1851036  78.53  0.000345954    1.016    0.015
       131  -8.6475     64.7064    167.2909   1.2234581473e+02   3.2858464413e+01    0.1568544     0.143039 -85.76 0.0005308794    1.153    0.133
       132  -9.6722     66.9342    161.8482   1.2115834118e+02   3.3754471892e+01    0.2593878    0.1688114 -71.20 0.0009771686    1.435    0.303
       133 -11.8169    240.8250    150.6222   8.1801075546e+01   4.0501168184e+00    0.6948423    0.2415158 -41.13   0.00259653    3.134    0.681
       134 -12.1748    244.9463    162.1443   8.3536972824e+01   1.6633869149e+00    0.7895926    0.2136717 -33.46  0.002809185    3.526    0.716
       135 -10.9533    249.4967    161.4696   8.2644802884e+01   9.6291110444e-01    0.4371233    0.1913403 -35.35  0.001992656    2.200    0.545
       136 -10.5997     44.9365    164.8370   1.2651977645e+02   3.5761038452e+01    0.3366653    0.2167116 -37.62  0.001826001    2.447    0.591
       137  -8.8646     43.1712    161.1739   1.2653572170e+02   3.6751799401e+01    0.1675097    0.1160527  68.48 0.0002915487    1.322    0.244
       138  -9.4457     37.5359    162.9963   1.2798584070e+02   3.6956258540e+01    0.2550315    0.1032418  51.25  0.001144743    2.384    0.581
       139 -10.0865     29.4656    161.8873   1.2967096238e+02   3.8008231697e+01    0.3557275    0.1551204  71.33 0.0009304343    2.710    0.631
       140  -9.9373     24.0002    161.9706   1.3087745063e+02   3.8508242251e+01    0.1729751    0.1363675  83.25 0.0003463627    1.019    0.018
       141  -9.5205     46.3184    156.0947   1.2526054665e+02   3.7521280198e+01    0.1713229    0.1339508 -86.93 0.0003678293    1.085    0.078
       142  -8.3296    228.4530    155.4776   8.4971008004e+01   5.6378087972e+00    0.1348185    0.1222489   0.17 0.0001257146    1.068    0.064
       143 -10.9905     25.6864    155.2656   1.2991416819e+02   3.9802687611e+01    0.4432977    0.1479457  33.25  0.002092428    3.051    0.672
       144  -9.8999     32.4792    153.5392   1.2819794825e+02   3.9534026231e+01    0.2712283    0.1400424  87.53  0.001167054    1.950    0.487
       145 -12.8470    247.7556    101.5626   6.9558623114e+01   1.0003713383e+01     1.322908     0.577825 -28.73  0.005440524    2.184    0.542
       146 -12.1045    247.6554    113.0112   7.2261744874e+01   8.3198141157e+00    0.8612259    0.5523691   0.46  0.004002963    2.077    0.519
       147 -11.8726    247.6752    142.4391   7.8901697034e+01   3.9762819845e+00    0.5721941    0.4423718   2.99  0.003298528    1.261    0.207
       148 -13.1084    247.8817    134.5414   7.7129263960e+01   5.0877858607e+00     1.539122     0.547403 -28.65  0.005758398    2.848    0.649
       149 -10.8889      5.1249    151.0131   1.3415613101e+02   4.2433774022e+01    0.1789351     0.152457  64.73 0.0007862585    1.243    0.196
       150 -10.3867     82.7980    149.3377   1.1557311144e+02   3.4327130374e+01    0.2233507    0.2016443 -67.78 0.0002910922    1.126    0.112
       151 -10.4169     58.2209    148.3241   1.2146097393e+02   3.7868630559e+01     0.497622    0.3109463  65.82  0.002673449    1.692    0.409
       152 -10.9794     21.6802    149.1745   1.3027125583e+02   4.1496364079e+01    0.3627684    0.1671406  42.65  0.001995078    2.141    0.533
       153 -12.0086     68.2293    144.2907   1.1841076622e+02   3.7506332479e+01    0.6526012     0.434793  81.90  0.002470217    1.661    0.398
       154 -12.3616      9.7678    141.7811   1.3238436117e+02   4.4087903224e+01    0.5638173    0.2276781 -77.23  0.001587463    1.986    0.496
       155 -12.6251      5.7370    141.9922   1.3333604285e+02   4.4338096970e+01    0.5458282    0.4226946 -57.03  0.002182216    1.439    0.305
       156  -9.4598    235.9614    145.9947   8.1621529820e+01   5.6447123748e+00    0.2165358    0.1509593   7.20 0.0005043866    1.601    0.375
       157 -10.2541    133.2521    141.2544   1.0171857758e+02   2.7422206976e+01     0.370794    0.2417105 -61.00  0.001172776    1.739    0.425
       158 -11.1708     16.9141    140.0643   1.3054452945e+02   4.3908904092e+01    0.2990778    0.1826847  56.99  0.001414332    1.618    0.382
       159  -8.9355     36.6699    140.3264   1.2576031094e+02   4.2069798901e+01    0.1304156   0.07933319  71.05 0.0007050869    1.706    0.414
       160  -9.7579     87.0164    151.0541   1.1481363245e+02   3.3314352693e+01     0.196723    0.1755721  83.63  0.001193812    1.024    0.023
       161  -9.6024    107.6025    135.9350   1.0695017125e+02   3.3334943310e+01    0.3711761    0.2369384 -26.53  0.001562494    2.488    0.598
       162  -9.2715     40.9662    147.4940   1.2554688616e+02   4.0015952035e+01    0.1638556    0.1184403  37.90 0.0005257203    1.532    0.347
       163 -10.9956      2.3147    131.5182   1.3329444400e+02   4.6865346716e+01    0.4173797    0.1768086 -86.45  0.002166498    2.049    0.512
       164 -12.9350      3.2489    123.0421   1.3232526405e+02   4.8677487001e+01    0.6932026    0.5045528 -58.73  0.003018677    1.354    0.261
       165  -9.0890     94.1841    133.1548   1.0985335974e+02   3.6223311979e+01    0.1985487    0.1832841 -36.20 0.0004555673    1.218    0.179
       166 -10.0587     44.3235    129.9468   1.2247140190e+02   4.3651935759e+01    0.1830593    0.1399909 -74.02 0.0006532751    1.117    0.104
       167  -8.4922    114.3139    129.3168   1.0386477560e+02   3.3599859228e+01    0.1441888    0.1163103 -12.25 0.0002081535    1.646    0.392
       168  -8.8240     34.3692    129.2749   1.2499104286e+02   4.4808683924e+01    0.1193119   0.08599202 -40.98 0.0007004872    1.678    0.404
       169 -11.7554     13.2414    127.6458   1.3023945357e+02   4.6963244462e+01    0.2584131    0.1940932  89.88 0.0008349563    1.101    0.092
       170  -9.9186     48.1373    126.0090   1.2088491157e+02   4.4148399862e+01    0.1896059    0.1741256  75.71  0.000321509    1.133    0.117
       171 -11.8830     20.8560    122.9940   1.2776897319e+02   4.7426526712e+01    0.4861833    0.1477282 -62.45  0.002160048    2.475    0.596
       172  -8.4883    209.7059    125.6979   8.1662738224e+01   1.4212295633e+01    0.1478514    0.1101673   8.95  0.000419675    1.574    0.365
       173 -10.3576     94.6224    150.3147   1.1283473118e+02   3.2300227787e+01    0.2808841    0.2398616  68.20  0.001028122    1.125    0.111
       174 -13.6378      9.7101    112.0957   1.2951354753e+02   5.0709800444e+01     1.238832    0.3371174 -68.57  0.005382183    2.622    0.619
       175 -10.8797     19.0352    105.9912   1.2613730523e+02   5.1442108489e+01    0.2257641    0.1659631  79.07  0.001060815    1.372    0.271
       176 -11.0380     14.8065    101.8332   1.2680716218e+02   5.2691088660e+01    0.2357492    0.1468128 -77.01 0.0006831091    1.329    0.248
       177  -9.7504    167.6505    112.9534   8.7044755949e+01   2.5906306332e+01    0.3119872    0.2453001 -78.62 0.0009916594    1.702    0.413
       178 -11.6284      2.2862    102.6450   1.3052223762e+02   5.3287720092e+01    0.5141245   0.08497025 -69.97  0.001878573    3.752    0.733
       179  -8.7178    203.4988    111.4981   7.9347703826e+01   1.8006808981e+01    0.1499332    0.1406755  -1.39 0.0008104608    1.034    0.033
       180 -10.7425     16.9488     99.0015   1.2578017026e+02   5.3185952929e+01    0.2056898    0.1706727  48.75 0.0003498357    1.405    0.288
       181 -11.2595    249.6982    150.7495   8.0364839185e+01   2.4211442565e+00    0.4746758    0.2510228 -33.23  0.002333588    1.767    0.434
       182  -8.5896     71.7201    100.2740   1.0929079236e+02   4.7180876194e+01    0.1305881    0.1033602  82.61 0.0001958525    1.497    0.332
       183 -10.0884    231.9193    116.2151   7.5501365296e+01   1.1042504429e+01    0.2141317    0.1910959 -47.99 0.0008715187    1.232    0.189
       184 -10.1261    249.8084    117.7986   7.3042497212e+01   7.1843054867e+00    0.2913018    0.2373554 -29.65 0.0007585947    1.125    0.111
       185 -11.5225      2.3395     77.5394   1.2725603792e+02   5.8882888341e+01    0.5377878   0.06815402 -69.20  0.001704937    4.936    0.797
       186 -11.6046    149.9486    247.0153   1.1484338363e+02   5.7303598808e+00    0.3333244    0.2426843  18.33  0.001970615    1.670    0.401
       187 -10.8872     73.7547    244.1593   1.2786614957e+02   1.7072483500e+01     0.290537    0.2272788  83.01  0.002117479    1.243    0.196
       188 -11.6241    179.2029    243.7850   1.0929238772e+02   1.6414742902e+00    0.3620309    0.1782996  37.27  0.001492767    1.599    0.374
