#   1 NUMBER                 Running object number                                     
#   2 MAG_AUTO               Kron-like elliptical aperture magnitude                    [mag]
#   3 X_IMAGE                Object position along x                                    [pixel]
#   4 Y_IMAGE                Object position along y                                    [pixel]
#   5 X_WORLD                Barycenter position along world x axis                     [deg]
#   6 Y_WORLD                Barycenter position along world y axis                     [deg]
#   7 A_WORLD                Profile RMS along major axis (world units)                 [deg]
#   8 B_WORLD                Profile RMS along minor axis (world units)                 [deg]
#   9 THETA_WORLD            Position angle (CCW/world-x)                               [deg]
#  10 FWHM_WORLD             FWHM assuming a gaussian core                              [deg]
#  11 ELONGATION             A_IMAGE/B_IMAGE                                           
#  12 ELLIPTICITY            1 - B_IMAGE/A_IMAGE                                       
         1 -13.5181     25.8752    183.0545   8.7518806545e+01   3.3012302135e+01     3.711421     1.352067  74.70   0.01453867    3.488    0.713
         2 -11.3421    231.8374     42.8462   1.0379395729e+01   2.2502143998e+01    0.7500714    0.5475776  18.77  0.002392086    1.984    0.496
         3 -11.5272    247.0003     31.5452   6.3913648470e+00   2.0711538740e+01    0.7891484    0.5087222 -39.14   0.00298217    1.273    0.214
         4  -7.9989     94.9552     13.4836   2.2236722574e+01   5.9836633193e+01    0.2012245    0.1797835  -3.12 0.0001012263    1.138    0.121
         5  -8.3930    213.9573     12.5021   4.3400267977e+00   2.9977285654e+01    0.2054421    0.1758289  -7.16 0.0004110908    1.421    0.296
         6  -9.6416    120.0933      9.1554   1.4646667838e+01   5.4010501823e+01    0.4448552     0.350412  36.09  0.001627477    1.279    0.218
         7  -8.7579     98.1456      1.8414   1.5936938742e+01   6.0179905412e+01    0.2256418    0.1835045  59.38 0.0006560079    1.139    0.122
         8  -7.5900    109.2538      1.6415   1.3523235476e+01   5.7428960893e+01     0.136113   0.09850206 -54.38 0.0002579826    1.613    0.380
         9 -11.0283     40.0630    223.3810   8.6959148850e+01   2.3268272085e+01    0.5567704    0.4824727  77.85  0.002378797    1.200    0.167
        10  -9.6254    249.0249    248.9776   5.0029738566e+01  -7.5819806608e+00    0.2486524    0.1565602 -16.95  0.001863376    1.440    0.306
        11  -8.9194    101.8689    249.6997   7.6660232627e+01   1.1211854441e+01     0.171193    0.1501257  67.73 0.0003800185    1.262    0.208
        12  -7.7217     61.4979    250.0811   8.4411497364e+01   1.6123070131e+01     0.139997    0.1020049 -84.06  0.001019353    1.551    0.355
        13  -8.6439     57.5523    249.4122   8.5112931410e+01   1.6687326599e+01    0.1970856    0.1025693 -77.13  0.001220874    2.229    0.551
        14 -12.5312      9.8258    208.4999   9.2369779883e+01   2.9138303298e+01     1.289168    0.8771331  72.37  0.009047479    1.170    0.145
        15 -12.4078     65.5271    216.1818   8.1133393589e+01   2.1707707723e+01     2.657747    0.5492641  34.86  0.009867647    3.580    0.721
        16 -11.2156     49.6001    222.9464   8.4984839339e+01   2.2296868170e+01    0.6506783    0.4107201  49.58   0.00286798    1.248    0.199
        17 -10.1001     14.0145    242.7603   9.2842710237e+01   2.2363640066e+01    0.2993511     0.187893  69.06  0.001130699    1.271    0.213
        18 -12.9618      7.1568    232.5272   9.3754893296e+01   2.4807357224e+01     1.947973     1.025664  16.11   0.01110442    2.965    0.663
        19  -9.9960      9.7470    226.3474   9.3061073072e+01   2.5708248434e+01    0.3017379    0.1731214  72.54  0.000893674    1.426    0.299
        20 -11.0909      5.3891    248.8736   9.4558136881e+01   2.2106719977e+01    0.8066102    0.4533044  29.09  0.005613826    1.856    0.461
        21 -10.1346     39.7376    211.4306   8.6286753564e+01   2.5624972795e+01     0.338432     0.184919  63.96  0.001768357    1.642    0.391
        22  -8.5476     65.4242    210.2217   8.0646753792e+01   2.2885955725e+01    0.2176315    0.1451669  38.65 0.0005039212    1.314    0.239
        23  -9.3343     79.8122    205.7388   7.7031958936e+01   2.1923155200e+01    0.5549406     0.242387 -84.48   0.00208376    4.206    0.762
        24  -9.5931    124.0007    206.0013   6.7227676518e+01   1.5498810867e+01    0.1842718    0.1580938  35.35            0    1.016    0.015
        25 -11.1199     14.8630    192.2895   9.0564201622e+01   3.2028527002e+01    0.3640656    0.3375191 -28.96 0.0008820549    1.533    0.347
        26  -8.7876    237.0498    248.9484   5.1932495523e+01  -6.2333258237e+00    0.1751953    0.1433985 -50.48  0.001225733    2.775    0.640
        27 -10.4492      6.2136    189.1792   9.2320548589e+01   3.3427609817e+01    0.4934898    0.2868932  35.72  0.003079491    1.633    0.387
        28  -8.4271     68.0910    193.1003   7.8425494730e+01   2.6062423165e+01    0.2176031    0.1615281  75.06 0.0004353225    1.320    0.242
        29  -8.7144     60.8763    183.1027   7.9124359168e+01   2.9144111544e+01    0.1827009    0.1631495  67.78 0.0002652933    1.050    0.047
        30  -7.5389    180.7280    181.0125   5.1029525124e+01   1.0673061422e+01    0.1624239     0.114408 -35.70 0.0006995561    1.470    0.320
        31 -10.5157      8.4731    178.8191   9.1325958110e+01   3.5487250888e+01    0.5454208    0.2195586  54.18  0.002606827    2.088    0.521
        32  -9.9317      2.4468    178.6637   9.2701951012e+01   3.5995995778e+01    0.3391153    0.2192779  80.63  0.001554377    1.259    0.206
        33 -10.6571      6.1395    169.5385   9.1402475266e+01   3.7742757433e+01    0.6949507    0.2387488  52.26  0.002825865    2.474    0.596
        34  -7.5165    205.5441    179.4654   4.5902815059e+01   6.8181183245e+00    0.1311766    0.1105813   2.90 0.0001425923    1.008    0.008
        35  -7.8933    229.6911    175.3223   4.0814407203e+01   3.6386916459e+00    0.1098036    0.1005649 -51.42 0.0004428157    1.647    0.393
        36  -9.3780     23.6191    203.0919   8.9229490821e+01   2.8960841490e+01     0.233886    0.1670779  50.20  0.001362703    1.173    0.148
        37  -9.8609     54.4085    164.4601   7.8748065395e+01   3.4198988976e+01    0.3007306    0.2601066  14.93 0.0008111405    1.408    0.290
        38 -10.1510     47.5716    169.2930   8.1043666804e+01   3.3867986196e+01    0.3429841    0.2769191 -15.19  0.001106301    1.752    0.429
        39  -9.4030     26.4654    164.4472   8.6025799906e+01   3.7187367308e+01    0.2316976     0.196194 -61.63 0.0005337184    1.322    0.244
        40  -8.6141     80.1303    162.1220   7.1622246415e+01   3.1335515247e+01    0.2025816    0.1552817  69.36 0.0006804991    1.339    0.253
        41  -9.7255    117.0496    199.4206   6.7873282326e+01   1.7792981201e+01    0.2313311    0.1983376 -48.17 9.592943e-05    1.332    0.249
        42  -8.2863     71.9535    159.6913   7.3464021319e+01   3.3062047972e+01    0.1904001    0.1668756  51.48 0.0003905751    1.090    0.083
        43  -9.1210     66.3381    155.9809   7.4477886227e+01   3.4705750503e+01    0.2466693    0.2170333 -41.93 0.0004957863    1.320    0.243
        44  -7.8216    123.0166    197.2824   6.6230708473e+01   1.7275092025e+01    0.1937162    0.1506386  37.56  0.000748097    1.128    0.113
        45  -8.7102    132.4961    155.1463   5.6866750148e+01   2.4196871994e+01    0.3474352    0.2407785 -24.22   0.00117085    1.847    0.459
        46  -9.4686     29.0015    155.0396   8.4567599479e+01   3.9177581663e+01    0.3716427    0.1797464  62.31  0.001731701    2.127    0.530
        47 -10.0467     73.7998    151.0434   7.1698514569e+01   3.4869079630e+01    0.4579383    0.3651903 -25.06  0.001408781    1.627    0.385
        48 -11.6359     68.1008    144.5643   7.2321830018e+01   3.7237966186e+01      1.12049    0.6244977  55.72  0.003721695    1.976    0.494
        49 -11.2317     51.7025    151.8984   7.7997101931e+01   3.7530347162e+01     0.445151    0.3167834 -28.46  0.001047008    1.972    0.493
        50  -8.1072     87.1637    151.3101   6.8035166780e+01   3.2825713078e+01    0.1943066     0.171359  59.18 0.0003945435    1.091    0.083
        51  -7.7007    243.7431    142.9782   3.2030578584e+01   6.0354764473e+00    0.1671841   0.09459487 -29.80 0.0005502028    1.509    0.337
        52  -7.8998     91.9963    139.2269   6.4527812386e+01   3.4942458797e+01    0.2902022     0.186449  31.06  0.001329053    1.645    0.392
        53  -7.7233     94.6698    136.6615   6.3267822051e+01   3.5115266438e+01    0.2373051    0.1192681 -37.14 0.0008491049    2.789    0.641
        54  -7.3448    111.6256    138.5216   5.8904475285e+01   3.1711925274e+01    0.1452728    0.1422588 -66.44 0.0001502761    1.033    0.032
        55 -10.0627     78.9552    136.6016   6.7826208685e+01   3.7634529181e+01    0.2711931    0.2543618 -62.11 0.0003417109    1.083    0.076
        56  -8.5209     54.1191    137.9422   7.5434197818e+01   4.0685252952e+01    0.2539565    0.1788312 -13.85  0.001224329    2.114    0.527
        57  -9.0386     18.3787    138.0641   8.6009732419e+01   4.4235805396e+01    0.2084322    0.1795368  42.84  0.000599022    1.259    0.206
        58 -10.5966     58.5468    132.3522   7.3245700567e+01   4.1535975634e+01     0.510816    0.3608006 -75.53  0.002630202    1.368    0.269
        59 -10.3585     55.2872    126.1639   7.3258840917e+01   4.3506770466e+01    0.6149913    0.3043319 -89.32  0.002213769    3.126    0.680
        60  -8.0539    105.3685    129.0768   5.8632091716e+01   3.5053653562e+01    0.3239568    0.1981565  17.06  0.001250177    2.476    0.596
        61  -8.2810     30.0947    128.2250   8.1473520295e+01   4.5689708154e+01    0.2382586    0.1742641  81.48 0.0007207114    1.295    0.228
        62 -10.0570      2.2907    129.5500   9.0012439763e+01   4.7449376484e+01    0.4591134    0.2161683  86.52  0.002250189    1.910    0.476
        63 -10.3381     40.6583    125.7960   7.7840281774e+01   4.5270324110e+01    0.2432652    0.2148607 -77.02 0.0002794821    1.037    0.036
        64  -7.7887     91.4304    124.7622   6.1775925294e+01   3.8537198771e+01     0.201095    0.1370556 -45.79 0.0003838815    1.499    0.333
        65  -9.6956      1.7358    121.6842   8.9604835933e+01   4.9412541877e+01    0.4293598   0.08816268 -71.28  0.001542472    3.377    0.704
        66  -7.7060    103.8055    118.1723   5.6598883158e+01   3.7920078849e+01    0.2009216    0.1774411  -7.14 0.0003479741    1.299    0.230
        67  -8.4597     32.4807    111.9481   7.8530400073e+01   4.9606568147e+01     0.195206    0.1031483  79.48 0.0007146404    2.420    0.587
        68  -9.5039     35.9564    109.4568   7.6951485794e+01   4.9912957335e+01    0.2705485    0.1903636  74.61 0.0008214861    1.540    0.351
        69  -9.5690     31.8366    105.8786   7.7828123639e+01   5.1216552999e+01    0.3908008    0.1932697  48.55   0.00132502    2.274    0.560
        70  -8.3486    187.7135    101.0363   3.1691071533e+01   2.3517405583e+01    0.2299138    0.2106556  36.94 0.0004115759    1.143    0.125
        71  -7.4985    200.5268     98.6325   2.8769741085e+01   2.1131458460e+01    0.1407292    0.1332073 -17.76 0.0007945975    1.038    0.037
        72  -7.1881    120.8454     98.4171   4.6503108677e+01   3.9031561743e+01    0.2026517    0.1493293  30.44 0.0003470761    1.496    0.332
        73  -7.6240    114.6524     94.9334   4.7282414147e+01   4.1113552694e+01    0.2094158    0.1902849 -46.44 0.0003133493    1.085    0.079
        74  -7.1895     83.4713     91.5804   5.6226543732e+01   4.7945911478e+01    0.1489391    0.1440958 -44.34 6.947018e-05    1.012    0.011
        75  -8.5045     86.8597     79.8143   5.1579861983e+01   5.0060834423e+01    0.2192981    0.1950057 -18.83 0.0003327089    1.171    0.146
        76 -10.3110      6.4631    195.6193   9.2541867984e+01   3.2051631197e+01    0.3654114    0.1940739  79.69  0.001320011    1.606    0.377
        77  -7.3769    155.4667     78.5388   3.1905691403e+01   3.5055149486e+01    0.1527908    0.1496865 -24.89 4.599486e-05    1.013    0.013
        78  -7.3209     85.7766     63.4156   4.6457921272e+01   5.3824341861e+01    0.1494326    0.1140488 -67.48 0.0006865083    1.678    0.404
        79  -8.1988    137.1075     60.9437   3.0457748264e+01   4.2670941499e+01    0.2181432    0.2175085  48.09 0.0002864931    1.007    0.007
        80 -10.9602    216.2077     52.7741   1.4555526164e+01   2.4635063501e+01    0.6252751    0.5368316 -13.73  0.003406503    1.282    0.220
        81 -11.2465    223.3807     47.4902   1.2394292808e+01   2.3742405215e+01    0.9447173    0.4911592 -46.03  0.004514505    1.723    0.419
        82  -8.6058     42.1254    247.4788   8.7890300922e+01   1.8721974647e+01    0.1578338    0.1375445  78.57 0.0006016703    1.284    0.221
        83  -8.5459     39.0492    242.4070   8.8205830543e+01   1.9921969821e+01    0.3565608    0.1389461  88.08  0.001788175    3.186    0.686
        84  -8.4571    175.6985     42.6595   1.7117912933e+01   3.5714303518e+01    0.2271761     0.208202  28.73  0.001266851    1.220    0.180
        85  -7.2389     78.7097     18.2929   2.9555158099e+01   6.2990441853e+01    0.1281312    0.1095657 -66.24   0.00027306    1.549    0.354
        86  -7.5418     87.0219    243.9522   7.9051089273e+01   1.4037765608e+01    0.1359131    0.1118022  52.06 0.0009907896    1.088    0.080
        87  -8.4286     26.6321    243.6528   9.0577176333e+01   2.0986515330e+01    0.1544242    0.1503709  42.73 0.0006768226    1.476    0.322
        88  -9.9045    247.8287    237.4122   4.8490972371e+01  -6.2956476124e+00    0.2442142    0.1312849 -13.43  0.001577942    1.712    0.416
        89  -8.7722    126.4385    231.8311   6.9959049164e+01   1.0709397915e+01    0.1842809    0.1523637 -37.39 0.0007653875    1.487    0.328
