#   1 NUMBER                 Running object number                                     
#   2 MAG_AUTO               Kron-like elliptical aperture magnitude                    [mag]
#   3 X_IMAGE                Object position along x                                    [pixel]
#   4 Y_IMAGE                Object position along y                                    [pixel]
#   5 X_WORLD                Barycenter position along world x axis                     [deg]
#   6 Y_WORLD                Barycenter position along world y axis                     [deg]
#   7 A_WORLD                Profile RMS along major axis (world units)                 [deg]
#   8 B_WORLD                Profile RMS along minor axis (world units)                 [deg]
#   9 THETA_WORLD            Position angle (CCW/world-x)                               [deg]
#  10 FWHM_WORLD             FWHM assuming a gaussian core                              [deg]
#  11 ELONGATION             A_IMAGE/B_IMAGE                                           
#  12 ELLIPTICITY            1 - B_IMAGE/A_IMAGE                                       
         1 -14.7823    158.1471     47.4083   8.2050037209e+01   3.9739034431e+01     1.358469     1.131897 -16.16  0.003663702    1.167    0.143
         2 -14.8255    169.9827     16.8872   6.8884017546e+01   4.0500064917e+01     1.095932     1.041362  34.16  0.003527647    1.037    0.036
         3 -14.1257    187.8945     13.6102   6.5039877473e+01   3.6025445684e+01     1.006523    0.6170282 -74.88   0.00414974    2.277    0.561
         4 -13.1875    198.3675      7.7400   6.1775237168e+01   3.3782963883e+01    0.4602562    0.3516948 -51.55  0.002248697    1.415    0.293
         5 -11.4769     58.0060      4.4894   9.4081896913e+01   6.7486553171e+01    0.1877851   0.09914734  17.03 0.0008105348    2.582    0.613
         6 -12.8308    116.1609    247.0882   1.3017842768e+02   1.4134038698e+01    0.2619028    0.1945358 -29.94  0.002015918    2.288    0.563
         7 -19.9072     89.5629    222.4961   1.3257920972e+02   2.0842912926e+01     6.490575     4.657433  58.61     0.048322    1.131    0.116
         8 -11.2196    168.0070    235.4475   1.2051283922e+02   8.3954264512e+00    0.1606123    0.1418774  21.57 0.0002806724    1.253    0.202
         9 -13.1934    204.3670    175.3754   1.0521067162e+02   9.8563938330e+00     0.525966    0.4036997  25.92    0.0016768    1.050    0.048
        10 -12.6201    202.0464    166.4431   1.0398070771e+02   1.1438657054e+01    0.5990344    0.4223216  10.43  0.002697189    1.429    0.300
        11 -12.3884    196.8616    176.4094   1.0678244625e+02   1.1041508563e+01    0.3541088    0.2659365  38.49 0.0009049715    1.202    0.168
        12 -14.0896    192.3418    163.6447   1.0528694698e+02   1.3593086964e+01     1.184072    0.5291355 -46.32  0.002294046    3.175    0.685
        13 -10.7006    145.0330    232.4119   1.2403579101e+02   1.2051878060e+01    0.2123939    0.1286976 -48.95  0.001458843    2.225    0.550
        14 -13.0339    230.3242    168.0170   9.9195677029e+01   6.2001094316e+00    0.4129512    0.2534769 -26.96  0.002325592    1.716    0.417
        15 -11.5829     24.6033    215.4016   1.4298344137e+02   2.8933084226e+01    0.1334911   0.09378349  53.45  0.000882315    1.171    0.146
        16 -13.2537     11.6277    205.7629   1.4469682336e+02   3.1596403643e+01     0.342919    0.2465426  24.83  0.002691968    1.933    0.483
        17 -13.1243    138.3705    199.6808   1.2141841408e+02   1.7469989285e+01    0.7554553     0.344516  37.35   0.00394908    1.876    0.467
        18 -14.4054    134.5514    147.2394   1.1422242874e+02   2.6788726312e+01     1.463129    0.5111982 -56.38  0.004913938    4.351    0.770
        19 -14.9656    143.6808    144.0248   1.1158966505e+02   2.5744710570e+01     1.037893    0.7026064 -60.12  0.004382568    1.867    0.464
        20 -14.2678    135.7689    128.1244   1.1021201462e+02   3.0144053249e+01     1.723561    0.3637356 -49.52   0.00455884    5.829    0.828
        21 -12.7595    134.5923    108.7684   1.0613746942e+02   3.4113122589e+01     1.175436      0.17151 -45.19  0.002632178    7.095    0.859
        22 -10.9153     22.9958    156.0536   1.4010777081e+02   3.9471243974e+01    0.1604065    0.1251453  78.17 0.0004194881    1.004    0.004
        23 -11.0231    176.9336    154.9634   1.0665397852e+02   1.7736519393e+01    0.2013935    0.1783836  32.24 0.0005164208    1.086    0.079
        24 -13.7314    161.2343    152.9495   1.0950216580e+02   2.0983716659e+01    0.4562178    0.4052549  52.10  0.001627854    1.205    0.170
        25 -11.8902     18.1942    151.7169   1.4081940455e+02   4.0705797813e+01    0.4547199    0.1564426 -69.21  0.002407915    2.448    0.591
        26 -10.5363     24.8489    202.6342   1.4237093870e+02   3.0958994026e+01    0.1374302    0.1023793  88.81 0.0003942356    1.253    0.202
        27 -12.8619    174.0291    148.5384   1.0597698395e+02   1.9294883698e+01    0.3703558      0.32577 -50.98  0.001289851    1.404    0.288
        28 -11.8630      7.9566    149.3031   1.4279910295e+02   4.1946732622e+01    0.1932934    0.1219946 -78.77 0.0006354443    1.344    0.256
        29 -12.3075    172.2043    138.3532   1.0424887235e+02   2.1300132885e+01    0.2470009    0.2361768  -5.25 0.0007481483    1.134    0.118
        30 -10.9559     14.1589    241.5617   1.4551819161e+02   2.5984117964e+01    0.2327357   0.07687657  82.40  0.001436192    3.129    0.680
        31 -11.4636     26.9066    194.8481   1.4163416213e+02   3.2073347055e+01    0.1781598    0.1301151  53.42 0.0009352239    1.190    0.159
        32 -10.5429     21.5000    194.2118   1.4254639632e+02   3.2663954750e+01    0.1165168   0.07830522  89.66 0.0003680885    1.296    0.229
        33 -11.7616     28.0156    127.7226   1.3674292626e+02   4.4787880622e+01    0.2144284    0.1294864  78.13  0.001157625    1.571    0.363
        34 -13.4058    160.5705    128.2276   1.0455698069e+02   2.5334497073e+01    0.4558803    0.4477642  64.97  0.001790172    1.174    0.148
        35 -10.4969     28.2741    233.3979   1.4315105741e+02   2.5880117651e+01   0.08455676   0.05984022  68.99 0.0001051886    1.102    0.093
        36 -11.5153    140.4941    120.5994   1.0745862350e+02   3.0683460583e+01    0.3381721      0.22811  67.63  0.001065913    2.156    0.536
        37 -12.4359    145.3968    191.0444   1.1893226408e+02   1.7662641026e+01    0.3778135    0.2688696 -58.60  0.001551517    1.802    0.445
        38 -11.1659    167.5925    112.7663   9.9363558374e+01   2.6592650336e+01    0.3359919     0.247115 -71.10  0.001189012    2.220    0.549
        39 -11.5003      3.9556    112.5869   1.4135056605e+02   4.9676384644e+01    0.2886413     0.178858  13.65  0.001922027    2.237    0.553
        40 -19.1208     76.5612     95.6932   1.1889640901e+02   4.6624982320e+01     16.96181    0.7962533 -56.72   0.02473362   18.725    0.947
        41 -11.7480     31.9461    104.3314   1.3317922115e+02   4.9518338377e+01    0.2723984    0.1938936  -3.03  0.001681169    2.055    0.513
        42 -10.9059    205.4442    110.1683   9.0923000115e+01   1.8801292315e+01    0.3217838     0.193701  37.82 0.0009849212    1.580    0.367
        43 -11.5135    124.8191     95.4867   1.0530558651e+02   3.8652608875e+01    0.2407555    0.2010055 -12.29 0.0009105887    1.318    0.241
        44 -12.9184     52.0400     91.8501   1.2544600435e+02   5.0437051249e+01    0.3290414    0.3071166  17.63  0.001023322    1.269    0.212
        45 -11.9440    186.0043    227.5200   1.1652334712e+02   6.6270858870e+00    0.2061897    0.1594214 -28.76  0.001021693    1.662    0.398
        46 -10.2499     22.6220     83.6660   1.3313633598e+02   5.4831405050e+01    0.1778624    0.1090564 -47.33 0.0006170988    1.607    0.378
        47 -11.1083    142.7676     81.5132   9.6768243343e+01   3.7640508181e+01    0.2811092    0.2090153 -33.86 0.0006130066    1.327    0.247
        48 -10.3285    104.7248     82.0470   1.0726449404e+02   4.5156555157e+01    0.1971597    0.1737963 -38.26 0.0002676167    1.077    0.072
        49 -14.6475    147.6219     62.4727   8.9602019483e+01   3.9919726317e+01     1.390091     1.145459   8.56  0.001239889    1.247    0.198
        50 -13.0897    185.5361    222.3577   1.1592523094e+02   7.2702938304e+00    0.3448733    0.2377507  17.92  0.001531611    1.435    0.303
        51 -13.4239    162.1892     38.6019   7.8104541204e+01   3.9954048964e+01    0.5325689    0.4799318  30.41   0.00084233    1.056    0.053
        52 -11.0805     13.4652     59.8313   1.3249594478e+02   6.0745102395e+01    0.1701204     0.162865 -62.28  0.000429649    1.228    0.186
        53  99.0000     32.4359    222.2081   1.4203017288e+02   2.7153606519e+01    0.2309418    0.1650188 -35.61  0.001686481    2.992    0.666
        54 -11.1838    151.9346    248.8939   1.2459155530e+02   9.1519042913e+00    0.2332598    0.1073521  37.15  0.001462754    1.628    0.386
        55 -11.5190    126.7225    248.6755   1.2862106688e+02   1.2566708631e+01    0.1631375    0.1144265  29.49  0.000957071    1.463    0.317
        56 -12.1849    128.2814    245.1088   1.2805462678e+02   1.2792282474e+01     0.201432    0.1851164  30.81   0.00114579    1.335    0.251
