#   1 NUMBER                 Running object number                                     
#   2 MAG_AUTO               Kron-like elliptical aperture magnitude                    [mag]
#   3 X_IMAGE                Object position along x                                    [pixel]
#   4 Y_IMAGE                Object position along y                                    [pixel]
#   5 X_WORLD                Barycenter position along world x axis                     [deg]
#   6 Y_WORLD                Barycenter position along world y axis                     [deg]
#   7 A_WORLD                Profile RMS along major axis (world units)                 [deg]
#   8 B_WORLD                Profile RMS along minor axis (world units)                 [deg]
#   9 THETA_WORLD            Position angle (CCW/world-x)                               [deg]
#  10 FWHM_WORLD             FWHM assuming a gaussian core                              [deg]
#  11 ELONGATION             A_IMAGE/B_IMAGE                                           
#  12 ELLIPTICITY            1 - B_IMAGE/A_IMAGE                                       
         1 -12.8226    239.5472     28.4438   1.1770245030e+00   2.3703382645e+01    0.8550411    0.4088295  62.01  0.004762858    2.267    0.559
         2 -14.1210    215.1928     53.8836   8.4293113789e+00   2.5217162223e+01     3.432171     1.027317 -48.78   0.01353284    3.001    0.667
         3 -13.3968    227.9859     44.4811   5.2012515840e+00   2.3898609115e+01     2.957393    0.5572172 -48.08   0.01031693    4.201    0.762
         4 -13.3275    245.5004     44.1075   3.5517362727e+00   2.0541618673e+01     1.006436    0.3947705 -52.22  0.004880097    2.081    0.519
         5 -16.3987    241.8884    114.5129   1.7411508527e+01   1.0286114305e+01     3.284592     1.579257 -46.15   0.01271085    1.727    0.421
         6 -12.9167     81.4019     38.5719   2.9850515606e+01   5.7567979174e+01    0.6154714    0.3806038 -41.17  0.003215456    1.892    0.471
         7 -14.4274    247.6308     62.7829   6.8062195704e+00   1.7524618462e+01     1.488955     1.124225 -24.73  0.007428841    1.953    0.488
         8 -12.1467     39.7171      8.0685   3.2658990483e+01   6.8605642073e+01    0.3612695     0.189079 -12.93  0.001972482    2.249    0.555
         9 -13.7790     44.2703     23.2045   3.7474093802e+01   6.6182153177e+01     0.996036    0.7581609 -12.59  0.006478401    1.273    0.214
        10 -12.8119    178.2040     23.3801   5.9708635704e+00   3.7321887936e+01    0.5168079    0.3762351 -84.48  0.003176932    1.208    0.172
        11 -13.4005    143.6262      4.3913   5.5423437993e+00   4.7199766482e+01     1.929012    0.4203043  66.83  0.007062969    3.355    0.702
        12 -13.9818    156.5401     11.9497   5.8343301137e+00   4.3517564506e+01    0.8798042    0.7709606  19.65   0.00591958    1.562    0.360
        13 -10.8243    228.3143     15.7325   3.5969303265e+02   2.7425093423e+01    0.3165517    0.1692439 -78.01  0.001706032    1.670    0.401
        14 -10.5967    231.9452      9.5339   3.5830220314e+02   2.7404031974e+01     0.233419    0.1585143  87.58  0.001347401    1.236    0.191
        15 -12.6942      3.5123      3.3940   4.9213882323e+01   7.3805237366e+01    0.5956347     0.271276  23.24  0.003563969    1.922    0.480
        16 -11.3978    205.5923      3.8543   3.5913679997e+02   3.3382080395e+01    0.4784336    0.1976576  86.26   0.00237577    2.281    0.562
        17 -11.3471     20.8316     14.0764   4.4530544133e+01   7.0580269673e+01     0.437107    0.2001478 -10.95  0.001806822    3.914    0.744
        18 -10.8864     86.0098      3.1798   1.5475672494e+01   6.0279486612e+01    0.3003019    0.1467139  58.35  0.001348898    1.640    0.390
        19 -14.3458    164.7388     11.7075   4.7735982749e+00   4.1647117702e+01     2.066725    0.9173543  52.82   0.00998711    2.292    0.564
        20  -9.9312    217.9287      1.5322   3.5778889995e+02   3.1060724696e+01    0.1676491   0.08952042  81.37 0.0007652993    1.557    0.358
        21 -12.6349    195.8931    185.1285   3.9485278947e+01   5.0344295256e+00    0.6332606    0.3667612 -43.91  0.002973984    1.642    0.391
        22 -11.9247    191.7789    185.0002   4.0302833319e+01   5.7599704534e+00    0.3548683    0.2963466 -10.90  0.001469211    1.202    0.168
        23  -9.4233    171.6734    189.7164   4.5546766147e+01   8.3051653710e+00    0.1486145    0.1109005  -4.10 0.0004669072    1.603    0.376
        24 -11.1481    235.4901    182.5269   3.1602663840e+01  -7.2373104014e-01    0.3487248     0.223988  21.80  0.001883962    1.866    0.464
        25 -10.2850     26.5154    180.4629   8.1714039689e+01   3.3537547064e+01    0.1365144    0.1183751  87.32 0.0002672174    1.010    0.010
        26 -12.7454    220.2720    173.3191   3.2493487594e+01   3.2664639713e+00    0.5531806    0.4565038  11.41  0.003268295    1.318    0.241
        27 -10.5266    101.0135    175.9541   6.0557204929e+01   2.4330802125e+01    0.2137239    0.2096837  70.62            0    1.012    0.012
        28 -10.7543     62.4862    170.5088   7.0463230930e+01   3.1789082443e+01    0.1471879    0.1383274 -86.45 -2.948778e-05    1.009    0.009
        29 -12.3584    248.3099    156.9222   2.4697247434e+01   1.8601247714e+00    0.4997243    0.2921432 -30.40  0.002637265    1.669    0.401
        30 -12.7029    220.4951    156.0341   2.9018085107e+01   6.4679296063e+00    0.6857702    0.4685847  78.87  0.003120577    2.709    0.631
        31 -10.1750    162.6558    152.3224   3.9849031760e+01   1.8140404462e+01    0.1578848    0.1233474  87.14 0.0007050209    1.732    0.423
        32 -13.3919    243.0112    144.8440   2.3175882894e+01   4.7932102532e+00    0.8410152    0.4989697  50.31  0.004505728    2.064    0.515
        33  -9.5147    173.5114    144.4712   3.5680284444e+01   1.7647920101e+01    0.1506171    0.1445982 -51.28 0.0001394689    1.020    0.020
        34 -10.1493     53.6038    143.1994   6.8588600381e+01   4.0107061459e+01    0.2206331    0.1223792 -52.36 0.0009504127    1.677    0.404
        35 -12.6702    240.6884    228.7900   3.9014387397e+01  -9.0044378734e+00    0.4892583    0.4193332  10.95  0.002506897    1.283    0.220
        36 -12.3353    248.3705    225.0938   3.7056344327e+01  -9.3517101367e+00    0.5833286    0.3504556 -28.91  0.003512099    1.379    0.275
        37 -11.2466    148.5950    110.9539   3.3349955975e+01   3.0160487217e+01     0.434737    0.2634092 -47.26  0.001856915    1.649    0.394
        38 -10.5234     94.7978    111.6148   4.8296226474e+01   4.1399372508e+01    0.3375644    0.1902096 -72.30  0.001093613    3.437    0.709
        39 -11.0792    112.8904    100.4331   3.9853707075e+01   4.0234605414e+01    0.3674116    0.2254922 -48.69  0.001576472    1.685    0.406
        40 -10.7758      2.8331     88.7206   7.6601797815e+01   5.8220232740e+01     0.235211     0.155453  78.71  0.001251098    2.108    0.526
        41 -14.6289    239.8305     93.2281   1.3491960126e+01   1.4237609340e+01     1.552027    0.7448096 -63.31  0.006295705    2.679    0.627
        42 -11.0269    100.9882     83.9782   3.8666041396e+01   4.6088081918e+01    0.2785068    0.2029356 -42.06  0.001249099    1.423    0.297
        43 -11.6586     40.7757     82.8072   5.9842877343e+01   5.6322339139e+01    0.4939783    0.2059066  31.71  0.002083036    2.430    0.589
        44 -11.9110     45.8554     80.5690   5.7180438584e+01   5.6178790466e+01    0.5819809    0.2484606 -33.00   0.00215555    2.995    0.666
        45 -10.1900     83.4913     88.4994   4.5597511407e+01   4.8603169934e+01    0.1481289       0.1381   1.65 0.0008103421    1.038    0.036
        46  -9.9571    144.8154     80.8523   2.6325658363e+01   3.6883842899e+01    0.2089886    0.1726399 -83.43 0.0009034136    1.330    0.248
        47 -12.4129     13.6219     72.9370   6.8705311617e+01   6.1034335126e+01    0.5236005     0.390206  81.77  0.002959744    2.051    0.512
        48 -11.5787    220.3937    137.1645   2.5187645350e+01   1.0034774846e+01    0.2521504    0.2457026  -2.49   0.00131911    1.156    0.135
        49 -10.6147     83.8264     69.1252   3.9535546783e+01   5.2308857359e+01    0.2126683    0.2025272  66.98  0.001005161    1.227    0.185
        50  -9.9535     74.4826     69.4787   4.2866988011e+01   5.3978566508e+01    0.1405755    0.1289045  10.84 0.0008100197    1.012    0.012
        51 -10.5472    179.1611     65.9847   1.6000374061e+01   3.1357481350e+01    0.2536838    0.1922663  70.16  0.001390914    1.249    0.199
        52 -10.7709    195.8696     56.8377   1.1431977191e+01   2.8964438395e+01    0.1914882    0.1774842  68.46 0.0009595964    1.257    0.204
        53 -10.1034    164.6537     53.5367   1.5262875737e+01   3.6610579696e+01    0.2256391    0.1271517 -38.17  0.001071548    1.885    0.469
        54 -11.4901    159.4412    231.6949   5.5748490630e+01   1.9145293154e+00    0.2340285    0.1367424 -52.76 0.0009072424    1.996    0.499
        55 -11.4669     85.3444     47.7307   3.1856920141e+01   5.5501486311e+01    0.4549786    0.2672268  40.92  0.002252119    1.539    0.350
        56 -13.2489    203.2038    221.5149   4.4769980699e+01  -2.8761185833e+00     1.089057    0.6485862  43.44  0.005540355    1.984    0.496
        57 -10.3657     97.1279     46.3695   2.7861264031e+01   5.3240970144e+01     0.195079    0.1696502  18.36  0.001151596    1.176    0.150
        58 -13.6185    209.0424    215.4199   4.2537085611e+01  -2.6584624859e+00     1.187131    0.6371475  37.20  0.005915906    1.939    0.484
        59 -10.8024    197.0343     43.3582   8.2770048616e+00   3.0600046791e+01    0.1857184      0.14758  86.72 0.0008263869    1.098    0.089
        60 -12.8960    173.8273    208.2472   4.8546443258e+01   4.1535833578e+00    0.7453917    0.4229271 -49.86  0.003415066    1.898    0.473
        61 -10.6855    180.5105     39.0012   9.3478617760e+00   3.4902385079e+01    0.1854137    0.1238452 -41.01 0.0007618759    1.578    0.366
        62 -11.4605     97.0977     36.6299   2.4561112602e+01   5.4539286832e+01    0.2409987    0.2000489  -9.00 0.0009925872    1.365    0.268
        63 -11.2561    189.1824    115.8777   2.6033332614e+01   2.0252990750e+01    0.3797033    0.2594507 -24.74  0.001737245    1.889    0.471
        64 -11.6632    141.8998    219.1090   5.7690592442e+01   7.2577877263e+00    0.2186328    0.1940981  55.67 0.0008486396    1.236    0.191
        65 -11.6221    241.6454    217.6075   3.6916314560e+01  -7.3951739990e+00     0.226897    0.1939764 -21.18  0.001325727    1.188    0.158
        66 -10.6044     67.0093    217.2526   7.5550535585e+01   1.9484663966e+01    0.1854688    0.1115702  34.91 0.0008912247    1.585    0.369
        67 -12.3273    238.0118    169.8520   2.8776990231e+01   1.1360900103e+00    0.3572035    0.2980836 -75.31  0.002154601    1.672    0.402
        68 -12.4457    172.9656     20.4950   5.9111153250e+00   3.8842024998e+01    0.3442442    0.2035549  58.07  0.001905514    1.623    0.384
        69  -9.7935    102.6750     25.6841   1.9410289441e+01   5.4587488725e+01    0.1363985   0.08687801  33.56 0.0007043548    1.669    0.401
        70 -10.2247    186.9734     19.4814   4.1097093376e+00   3.5776222406e+01    0.1904516     0.103516  74.87 0.0008629776    1.581    0.368
        71 -13.7392    245.3780    178.5968   2.9230489512e+01  -1.4558531085e+00     1.284497    0.5160243 -39.62  0.005855233    2.083    0.520
        72 -13.7420    244.3128    199.5384   3.3248948387e+01  -4.8281232179e+00    0.9688292    0.6202081 -34.81  0.003968117    1.307    0.235
        73 -11.8274    242.2130    193.4775   3.2499747720e+01  -3.5429847819e+00    0.4404579    0.3582722  -7.02  0.001987089    1.164    0.141
        74 -12.3276    141.6666    206.0770   5.5540574232e+01   1.0075747168e+01    0.8205685     0.559043  10.01  0.003711451    1.872    0.466
        75 -10.0184    123.8962    206.1000   5.9861560707e+01   1.3131578322e+01    0.1840699    0.1645919  -7.98 0.0009872922    1.226    0.184
        76 -14.0960    179.1134    218.9144   4.9299096552e+01   1.2370954966e+00     1.266243    0.5935819  33.99  0.005546939    2.042    0.510
        77 -10.5309     79.6771    224.3535   7.3339558287e+01   1.6024818121e+01     0.151248   0.09503743  64.49 0.0007047141    1.758    0.431
        78 -10.8834    202.6537    196.5079   4.0317277394e+01   1.7380781340e+00     0.302481    0.1854054 -48.72  0.001482647    1.718    0.418
        79 -11.3004      2.6391     41.1559   6.5052602994e+01   6.8052354585e+01    0.2834115    0.2135893 -24.10  0.001812514    1.029    0.028
        80 -11.3077    204.6607    192.2561   3.9111593271e+01   2.2192065466e+00    0.4292804     0.238468  25.98  0.001965194    2.079    0.519
