#   1 NUMBER                 Running object number                                     
#   2 MAG_AUTO               Kron-like elliptical aperture magnitude                    [mag]
#   3 X_IMAGE                Object position along x                                    [pixel]
#   4 Y_IMAGE                Object position along y                                    [pixel]
#   5 X_WORLD                Barycenter position along world x axis                     [deg]
#   6 Y_WORLD                Barycenter position along world y axis                     [deg]
#   7 A_WORLD                Profile RMS along major axis (world units)                 [deg]
#   8 B_WORLD                Profile RMS along minor axis (world units)                 [deg]
#   9 THETA_WORLD            Position angle (CCW/world-x)                               [deg]
#  10 FWHM_WORLD             FWHM assuming a gaussian core                              [deg]
#  11 ELONGATION             A_IMAGE/B_IMAGE                                           
#  12 ELLIPTICITY            1 - B_IMAGE/A_IMAGE                                       
         1 -14.6895     86.2804     66.5780   9.9150516742e+01   5.2288724582e+01     1.603598    0.9397573 -10.89  0.004486441    2.826    0.646
         2 -15.5798      6.6005     71.9292   1.2876890182e+02   6.0507073634e+01     1.328452    0.6686174 -50.77  0.004737265    1.477    0.323
         3 -15.4509    119.2614     54.8791   8.5963264403e+01   4.7676594258e+01     1.596488    0.9293575  34.49   0.00576533    1.883    0.469
         4 -15.1858    122.3440     36.9819   7.9484981630e+01   4.9468042891e+01     1.466181    0.5335634  43.46  0.004386728    2.725    0.633
         5 -14.7703    101.6476     50.3575   8.9215797173e+01   5.2028436564e+01    0.9842611    0.8528993 -22.03  0.001774972    1.178    0.151
         6 -12.4804    186.2946     14.4750   6.2180802972e+01   3.6990320189e+01    0.3586347    0.2150175  51.50  0.001535889    1.729    0.421
         7 -13.9419    188.9176     26.0341   6.4661686380e+01   3.5073506843e+01     1.385846    0.5952231 -62.06   0.00477956    3.460    0.711
         8 -15.0845     42.5677      8.2931   9.2726548540e+01   6.7248734670e+01     1.510518    0.9106815  -8.07  0.008709401    1.588    0.370
         9 -13.6570      9.1350      3.3075   1.0521185596e+02   7.1619958912e+01    0.5896446    0.4627094  19.60  0.003584214    1.535    0.349
        10 -14.1123     25.0062     14.0811   1.0257145484e+02   6.8740504527e+01    0.5412592    0.3346521  15.75  0.002225394    1.452    0.311
        11 -15.2759      8.2731     29.4214   1.1610875072e+02   6.8066262290e+01    0.8951253    0.6985992  20.57  0.006846785    1.545    0.353
        12 -15.4037     14.6942     19.0031   1.0926617691e+02   6.9096554473e+01     1.088686    0.5752689 -19.70  0.004845581    1.739    0.425
        13 -13.1493    139.2939     21.4655   7.1126065567e+01   4.7379230228e+01    0.5115447    0.4371684 -77.86 0.0004644952    1.309    0.236
        14 -14.8095    166.3637     30.2651   6.8995879096e+01   3.9985651296e+01     1.359929    0.6508025  67.49  0.003842943    1.934    0.483
        15 -14.8441    145.8464     30.7469   7.2664669198e+01   4.4823653915e+01     1.070958    0.5387639  59.15  0.004124621    1.732    0.423
        16 -12.9528    215.2111     21.0196   6.0444444645e+01   2.9518662224e+01    0.3451164    0.2794549   7.82  0.001438822    2.024    0.506
        17 -12.9756    218.8142     15.3592   5.8868023047e+01   2.9361854728e+01    0.4098509    0.2900431 -83.62  0.001746255    1.201    0.167
        18 -12.9936    214.6543      9.6974   5.8063253071e+01   3.0933212762e+01    0.4724672    0.2541597  71.39  0.001559198    1.597    0.374
        19 -15.7560     99.6287     12.8554   7.6731501890e+01   5.6919567884e+01     1.331403    0.6491426  53.08  0.003176167    1.738    0.425
        20 -13.8014     26.2131     31.9594   1.0916616336e+02   6.6148584109e+01    0.6509619    0.5502632 -72.38  0.004367975    2.255    0.557
        21 -11.3133    202.0536     11.4118   5.9691996018e+01   3.3630104719e+01    0.1791336    0.1699546 -88.03 0.0004684138    1.251    0.201
        22 -12.7340    222.9217      5.7522   5.6496674479e+01   2.9511638597e+01    0.5502385     0.283051 -35.04  0.003008693    2.130    0.530
        23 -11.2887    153.6374      8.1222   6.4904364393e+01   4.5324955756e+01    0.2120343    0.1505082  74.90 0.0004737213    1.245    0.196
        24 -12.0521    229.4622      4.6239   5.5722578079e+01   2.8198731827e+01    0.2239959    0.1730364 -80.07 0.0004253767    1.016    0.016
        25 -11.1796    232.9112      1.4867   5.4834330279e+01   2.7790056212e+01    0.2395713   0.09719369  75.08 0.0008004026    2.114    0.527
        26 -11.7346    120.7443      3.8070   6.9120201550e+01   5.3192537234e+01    0.2742841    0.1352561  73.05   0.00129093    2.257    0.557
        27 -11.5295     67.6521      3.8663   8.2075545098e+01   6.3756187558e+01    0.2502573    0.1574706  22.98   0.00103512    1.429    0.300
        28 -11.6075     26.5333      3.9676   9.7428733843e+01   6.9748247542e+01     0.207179    0.1193736  14.81  0.001001139    1.554    0.356
        29 -10.7737    192.7065      2.9745   5.8753421933e+01   3.6652998657e+01    0.1643262    0.1398161 -80.03  0.000414676    1.108    0.098
        30 -12.0224     80.6816      1.7458   7.7464063343e+01   6.1578316073e+01    0.5009402    0.1165692  52.21  0.002006259    3.214    0.689
        31 -10.7528     62.4681      1.4985   8.2722420421e+01   6.4838708722e+01    0.1773265   0.08335651  38.80 0.0006700365    1.744    0.426
        32 -11.2059     59.4824      1.5064   8.3694649259e+01   6.5332863377e+01    0.2165532    0.1126534  37.08  0.001044457    1.579    0.367
        33 -10.9774     33.0137      1.4078   9.3486177436e+01   6.9220362395e+01    0.1512063    0.0876396  32.00 0.0003606509    1.537    0.349
        34 -12.0329    198.6925    182.8781   1.0032328352e+02   4.5886694277e+00    0.2661264    0.1969157  29.39    0.0013268    1.413    0.292
        35 -13.4694     55.2679    247.0622   1.4011070890e+02   1.6291536627e+01    0.8401006    0.4694874  29.66  0.004396567    2.531    0.605
        36 -13.9284     28.2901    246.4755   1.4485182691e+02   1.9804725640e+01    0.5275881    0.3871802  73.22  0.003028155    1.027    0.026
        37 -11.7606      2.7262    249.8325   1.4928702037e+02   2.1961580186e+01    0.2833541    0.1570096  49.80  0.001939546    1.575    0.365
        38 -14.2369      9.0588    245.6879   1.4803818608e+02   2.2102503815e+01    0.7430434     0.409728  63.07  0.003235814    1.401    0.286
        39 -12.7525     48.8375    180.9172   1.3463857266e+02   3.1695005326e+01    0.5563692    0.2854376 -58.97  0.002718421    1.793    0.442
        40 -12.6748     85.3293    180.2424   1.2589323732e+02   2.6707781077e+01    0.4765011    0.3037289  64.07  0.002243525    1.726    0.421
        41 -12.6112    194.7304    177.5517   1.0004119290e+02   6.4243533332e+00    0.3398687    0.3143004 -32.74  0.001157094    1.066    0.062
        42 -13.4771    124.0309    166.8691   1.1398819625e+02   2.3090682025e+01    0.7590786    0.4689049 -72.16  0.003089229    2.074    0.518
        43 -11.4802    177.4913    167.4963   1.0159309871e+02   1.2022865618e+01    0.1497013     0.149155 -15.31 7.675112e-05    1.003    0.003
        44 -12.0946     27.6142    158.8074   1.3692812685e+02   3.9322601737e+01     0.392342    0.1936545 -68.52  0.001971995    1.653    0.395
        45 -12.9173     25.4028    155.7846   1.3709444707e+02   4.0253751984e+01    0.4456598    0.2780211 -36.40  0.002372358    2.140    0.533
        46 -12.3400    237.1046    159.7234   8.8130369705e+01   1.6859542016e+00    0.3187703    0.1222684  43.44  0.001219722    2.868    0.651
        47 -12.5440     77.5023    157.2806   1.2402495109e+02   3.3514673279e+01    0.4482369    0.3260757  33.04  0.001151923    1.551    0.355
        48 -13.2482     74.1901    153.3612   1.2419803222e+02   3.4971466093e+01     0.655098    0.4898535  25.51  0.003271855    1.620    0.383
        49 -12.5742    122.5003    155.6675   1.1207487410e+02   2.6054445738e+01    0.3969918    0.3003702 -17.56  0.001770315    1.873    0.466
        50 -12.5510    111.2568    155.6730   1.1494525494e+02   2.8198410739e+01    0.5437343    0.3355735  80.67  0.001997179    2.769    0.639
        51 -11.7602     55.4649    156.1060   1.2954931752e+02   3.6862757526e+01    0.3303161     0.247376 -12.43  0.001714732    2.017    0.504
        52 -12.9060    205.7991    154.9976   9.2941764952e+01   8.7242209234e+00    0.4694993    0.2610562  55.93  0.001926336    2.146    0.534
        53 -11.5970    188.4037    156.1918   9.6766247756e+01   1.2122927487e+01    0.2234381     0.141484 -53.91 0.0009527364    1.692    0.409
        54 -12.1473     85.4685    153.5182   1.2125042974e+02   3.3198223154e+01    0.5668299    0.2553607 -46.44  0.002177629    2.351    0.575
        55 -12.0996    103.5174    149.9863   1.1579051120e+02   3.0992088156e+01    0.4176387    0.3114957 -32.49  0.001962116    1.619    0.382
        56 -13.0539      6.2962    148.4373   1.4090141360e+02   4.3586467044e+01    0.5015752    0.3060697 -82.49  0.002979114    1.371    0.271
        57 -11.5770     44.8773    145.1158   1.3059807977e+02   4.0803008007e+01    0.2064605    0.1433004 -40.40 0.0006245613    1.621    0.383
        58 -11.6400    148.9786    140.8478   1.0217422462e+02   2.4043342316e+01    0.3464802    0.2637456 -75.77  0.001550332    1.595    0.373
        59 -13.7747     42.6262    139.6009   1.3032164198e+02   4.2384490848e+01    0.8385291     0.383801 -62.93  0.003827745    1.834    0.455
        60 -12.3517     47.0195    134.9751   1.2833460414e+02   4.3008291418e+01    0.5684211    0.2272689 -56.63  0.002418008    2.064    0.515
        61 -12.6528    246.2847    135.0690   8.1360310764e+01   4.4816147543e+00    0.4154943    0.2828363  84.09  0.001933827    2.356    0.576
        62 -11.8458     62.0981    134.1818   1.2395430229e+02   4.1346138821e+01    0.4226179    0.2293203  44.58  0.001362776    2.041    0.510
        63 -10.3207     11.2828    134.3257   1.3795749618e+02   4.6492963456e+01    0.1254957   0.07421774 -49.21 0.0003085007    1.599    0.375
        64 -11.5480    138.0075    132.9279   1.0299495430e+02   2.8215891954e+01    0.2512286    0.1992527  -2.92  0.001042544    1.724    0.420
        65 -12.4415    132.6880    131.2495   1.0393881620e+02   2.9730134099e+01    0.5301585    0.2749001 -57.77  0.001953113    2.215    0.549
        66 -12.3312    222.6126    127.8757   8.3722025616e+01   1.0556865554e+01    0.3117131    0.1712303 -52.69  0.001313881    1.890    0.471
        67 -12.0013     60.0999    125.4952   1.2281804159e+02   4.3692774822e+01     0.539248    0.3125208 -26.38  0.002262879    2.651    0.623
        68 -15.4243     29.7166    119.3956   1.3057510066e+02   4.8463463355e+01     2.797275    0.3323557 -53.56  0.008562565    4.439    0.775
        69 -13.2572      3.9795    119.9264   1.3801140128e+02   5.0297381936e+01    0.4677636    0.4099042  29.84  0.002270702    1.447    0.309
        70 -14.4639      2.5624     97.1093   1.3498517883e+02   5.5455328561e+01      1.27933    0.4734821 -69.55  0.005099811    2.365    0.577
        71 -15.1509     17.9591    111.0698   1.3262825572e+02   5.1349719732e+01     1.022463    0.8426393 -18.16  0.004579011    1.417    0.294
        72 -15.9136     25.3008     94.5844   1.2721975120e+02   5.4448167595e+01     2.051937      1.29283 -13.31   0.01140202    1.994    0.498
        73 -14.5019    104.8592    123.1954   1.0942617276e+02   3.7148081906e+01     1.748587    0.9354153  33.48  0.007003943    2.139    0.532
        74 -14.6015     88.4364    111.9037   1.1136565649e+02   4.2663861812e+01     2.064406     1.280499  -3.69  0.007544856    3.304    0.697
        75 -15.2998    105.1099    109.2420   1.0584556049e+02   4.0278380543e+01     1.899603     1.263555 -24.51  0.008212184    1.961    0.490
        76 -11.8355    185.1413    124.3756   9.0046354542e+01   1.9516215860e+01    0.3154469     0.231115  83.87 0.0009867725    1.801    0.445
        77 -12.3454    180.9888    121.4016   9.0189424501e+01   2.1082403887e+01    0.3924498    0.2579772  45.65  0.001262191    1.578    0.366
        78 -11.3613    194.5022    113.4840   8.5522222810e+01   1.9575684715e+01    0.1528759    0.1448871 -66.82 -4.938549e-05    1.001    0.001
        79 -12.7967     45.6507    109.9848   1.2396256227e+02   4.9049370906e+01    0.5490185    0.3779637 -42.19  0.003042304    1.352    0.261
        80 -12.0493    175.7466    111.2868   8.8780480704e+01   2.4375110265e+01    0.3045006    0.2724361 -38.73  0.001330152    1.144    0.126
        81 -12.5640    121.2895    111.7919   1.0203425923e+02   3.6504775039e+01    0.3964756    0.2529275  60.24  0.001495895    1.925    0.480
        82 -12.2657     61.5940    108.8431   1.1876846574e+02   4.7388369506e+01    0.5946692    0.3111129 -62.14  0.002633806    1.964    0.491
        83 -13.0466     62.3915     99.8324   1.1636345933e+02   4.9306845422e+01    0.6387886    0.4568025  80.08  0.003091024    2.224    0.550
        84 -13.7646     49.7535     98.4181   1.2008503451e+02   5.1192429048e+01    0.8093437    0.6126678  -5.08  0.003206567    1.554    0.356
        85 -13.0770     42.9936     91.0611   1.2055334364e+02   5.3545427853e+01    0.5771839    0.2350677 -59.74   0.00228227    2.436    0.589
        86 -12.0859    236.1749    108.5071   7.7169766234e+01   1.1324932745e+01    0.2876989    0.1440445 -56.97   0.00115684    2.304    0.566
        87 -11.0921    222.3447    109.6713   7.9629561919e+01   1.4056844958e+01    0.1545504    0.1077967 -73.40 0.0001689449    1.750    0.429
        88 -13.5989    122.5796    101.9611   9.9058064476e+01   3.8357075698e+01     1.079128     0.374451  46.22  0.001220803    2.927    0.658
        89 -12.8473    135.9467    103.3061   9.5935975546e+01   3.5185236974e+01    0.6045337    0.3716877  51.59  0.001554435    1.667    0.400
        90 -13.1818    137.0787     96.1440   9.3691801538e+01   3.6401290186e+01    0.5279867    0.3739582 -50.84  0.001981859    1.461    0.316
        91 -12.1229    127.9232     95.7891   9.5937328555e+01   3.8493240907e+01    0.2941634    0.2179604  67.36  0.001354052    1.625    0.384
        92 -12.9804     96.5038     92.6314   1.0384379331e+02   4.5451219002e+01    0.4031109    0.2717128 -31.76   0.00165845    1.572    0.364
        93 -10.5265     76.1982     95.4208   1.1084540713e+02   4.8283799253e+01    0.1772393    0.1337238  45.50 0.0004911643    1.488    0.328
        94 -13.1631    178.6512     85.8588   8.1653357850e+01   2.8590827904e+01     1.081136    0.4365766 -51.33  0.003635055    2.941    0.660
        95 -13.7847    188.3377     84.4387   7.9460526972e+01   2.6519853905e+01    0.9209065    0.5967776  68.51  0.002122671    1.650    0.394
        96 -13.3157    164.1700     71.1453   8.0590327484e+01   3.4661146783e+01    0.9914651    0.4353879  46.74  0.003747642    2.346    0.574
        97 -14.5927    160.9089     80.7582   8.3902088072e+01   3.3777488794e+01     1.523787    0.6577072  39.62  0.005080481    3.106    0.678
        98 -14.5995    170.8353     76.9067   8.0822316686e+01   3.2066672884e+01     1.194344    0.6824145  54.33  0.005205372    1.691    0.409
        99 -11.7679     89.7957     87.5821   1.0443283233e+02   4.7685285845e+01    0.4084236    0.2368177  51.76  0.001792826    2.108    0.526
       100 -13.0375    131.2992     85.6786   9.2201474789e+01   3.9743348789e+01    0.5902503    0.3644577  65.44  0.002436812    2.106    0.525
       101 -13.4099    238.0609     80.1366   7.0663726508e+01   1.5857217092e+01    0.4967919    0.3595749 -88.12  0.002290801    1.471    0.320
       102 -10.8670     98.4175     84.2101   1.0084718176e+02   4.6798250227e+01    0.1927887    0.1347281 -53.94 0.0003625198    1.581    0.367
       103 -14.8147     39.1379     67.8509   1.1578166777e+02   5.8681642531e+01     2.632898    0.5506665  25.39  0.007551443    7.156    0.860
       104 -13.9226     75.1874     74.1333   1.0508368753e+02   5.2753959433e+01      1.07821    0.6192876  22.24  0.004890405    2.121    0.529
       105 -14.7932     95.4152    236.6152   1.3133903572e+02   1.2504997824e+01     1.582096    0.7867209  61.87  0.006536806    2.236    0.553
       106 -13.7980     56.7368     78.6619   1.1262640447e+02   5.4510975214e+01    0.6399175    0.4338125 -15.06  0.003392344    1.702    0.413
       107 -13.9686     60.8682     75.5808   1.1032241724e+02   5.4574394181e+01    0.6814819    0.3847486 -41.56 0.0007692708    1.601    0.375
       108 -13.0599      5.9387     50.6014   1.2372703622e+02   6.4630159164e+01    0.8505602    0.1146431 -48.19  0.003318909    3.639    0.725
       109 -13.9012    170.9446    242.6292   1.1683386151e+02  -1.3901616347e+00    0.9216918    0.4860374  35.88  0.004503882    1.705    0.414
       110 -11.6125    219.4970     75.4588   7.2191795761e+01   2.0747762463e+01    0.4796413    0.1881423 -40.70  0.001878518    2.379    0.580
       111 -12.4569    216.5268     80.5005   7.3801708381e+01   2.0578998092e+01    0.4557052    0.3275233 -41.26  0.001684804    1.368    0.269
       112 -12.7219    210.7676     77.7865   7.4044968632e+01   2.2368106793e+01    0.5606894    0.3540615 -80.65  0.002484266    2.041    0.510
       113 -13.2835    134.8136     79.5303   8.9543904423e+01   4.0102064201e+01    0.8955963    0.4282524  54.58  0.003142411    2.174    0.540
       114 -13.6086    133.9526     67.2888   8.6146160454e+01   4.2433551754e+01     1.159792    0.7229294  34.91  0.005207035    1.809    0.447
       115 -14.5694     23.8139    224.1349   1.4405436127e+02   2.4877202236e+01     1.088278    0.6000467 -83.39  0.006472104    1.525    0.344
       116 -14.2081    112.0670     40.6039   8.3165419898e+01   5.1238402730e+01    0.8039991    0.5434273  24.52  0.002827992    1.655    0.396
       117 -13.9810      9.2143    210.7846   1.4579131665e+02   2.9248705322e+01    0.7780227    0.6245283  67.18  0.005714012    1.213    0.176
       118 -11.9984    113.9356     80.4923   9.5289857894e+01   4.4454406247e+01    0.3413696    0.3358393  45.96   0.00131726    1.067    0.063
       119 -11.8360     90.8166     80.3854   1.0200895147e+02   4.8932348195e+01    0.3609699    0.2835213  -0.07  0.001716931    1.446    0.308
       120 -12.4615     41.8980     77.3441   1.1743019885e+02   5.6521725587e+01    0.3460274    0.2402243 -44.25 0.0009549261    1.227    0.185
       121 -14.1118      5.3416     64.0061   1.2740669597e+02   6.2145148029e+01    0.4968833    0.4294318  10.38  0.003037845    1.393    0.282
       122 -13.6311    198.9464     70.5449   7.4160349115e+01   2.6360456992e+01    0.8735663    0.4937763  49.24  0.002683335    1.903    0.475
       123 -13.5769     16.6368    196.2769   1.4321996126e+02   3.1704945413e+01     1.025843    0.2398043 -66.12  0.004128294    3.185    0.686
       124 -12.0248     99.9556     64.8513   9.4443472537e+01   5.0058038355e+01    0.3396585    0.2997884  -7.49  0.001181031    1.115    0.103
       125 -11.8471    158.0358     63.5283   7.9717511365e+01   3.7385452476e+01    0.3846548    0.1935176 -51.21  0.001531993    2.335    0.572
       126 -13.9035     51.2371     69.3543   1.1184547480e+02   5.7019285943e+01    0.7808676    0.6237563 -82.55  0.004459301    1.988    0.497
       127 -13.6241     78.9439     61.1730   9.9748684793e+01   5.4481854649e+01    0.4945323    0.4224188   4.10  0.002289048    1.101    0.091
       128 -13.8662    177.8307     57.7182   7.4417575572e+01   3.3488287020e+01    0.7534924    0.5683215 -75.06   0.00239416    1.441    0.306
       129 -12.6668     39.1163     60.6349   1.1365119399e+02   6.0037384237e+01    0.2857158    0.2257844  47.06  0.001795297    1.754    0.430
       130 -12.3926     24.5504     60.0104   1.1901555234e+02   6.1547210129e+01    0.3105316     0.187073 -42.26  0.001058611    1.338    0.252
       131 -13.4201     64.2851     58.2839   1.0374096980e+02   5.7271593694e+01    0.5160362    0.3477824  54.40  0.002680081    2.204    0.546
       132 -11.7844    248.5520     55.7158   6.4234539695e+01   1.7470126408e+01    0.2304367    0.1386911 -82.75  0.001183147    1.803    0.445
       133 -13.6984     66.9402     49.4259   9.9808895771e+01   5.8330929562e+01    0.5669783    0.4676418 -21.05  0.003172972    1.122    0.109
       134 -11.5516     86.1062     49.7772   9.3628971437e+01   5.5072094647e+01    0.1871973    0.1826673  24.37 0.0006398562    1.216    0.178
       135 -13.2323    154.2113     46.5552   7.5661689860e+01   4.0824246971e+01    0.7762751    0.2127386  53.41  0.001835931    3.104    0.678
       136 -14.4317     30.2059    168.9467   1.3752925748e+02   3.6653494863e+01    0.8389592    0.6748699 -68.30  0.001206315    1.157    0.136
       137 -13.7422     22.6225    181.3482   1.4058798463e+02   3.4513298763e+01     0.580704     0.431164 -79.10   0.00242283    1.099    0.090
       138 -11.8397    195.0116     23.5721   6.3300163393e+01   3.3916462211e+01    0.3076551    0.2665312 -19.41  0.001363494    1.508    0.337
       139 -12.6457    198.7061     37.3950   6.6125487468e+01   3.1323284274e+01    0.5330522    0.2946281  87.91  0.002003758    2.092    0.522
       140 -14.0648    217.8630     41.9812   6.4780049192e+01   2.6220468346e+01     1.216812    0.4467265  66.38  0.004616561    2.570    0.611
       141 -12.7843    205.2198     40.2177   6.5944819039e+01   2.9405539725e+01    0.4976588    0.2898281 -84.85  0.002337872    1.982    0.495
       142 -13.4804    158.4991     43.4967   7.3989567601e+01   4.0209776480e+01    0.7068711    0.3122604  58.30  0.002838189    2.018    0.504
       143 -13.6705      9.2299     42.7656   1.2007828743e+02   6.5805391570e+01    0.7650024    0.5519369  40.02  0.005222696    2.039    0.510
       144 -15.1629      8.0610    183.5351   1.4389744164e+02   3.5377707970e+01     1.126964    0.9192083  75.75  0.008040949    1.158    0.136
       145 -13.2508     33.8214     32.7298   1.0627192909e+02   6.5239354055e+01    0.3973072    0.3071955  42.72  0.002384823    1.875    0.467
       146 -15.7874     15.4844    175.3567   1.4156201602e+02   3.6581557069e+01     2.497256     1.220068  81.27   0.01216553    2.218    0.549
       147 -13.2337    236.9270    230.1746   1.0194949816e+02  -1.0132068924e+01    0.4007976    0.3198571  86.14  0.002157006    2.771    0.639
       148 -13.5721     45.5281    208.6315   1.3846112662e+02   2.5691583156e+01    0.6402187    0.2819415  68.30   0.00269074    2.841    0.648
       149 -13.4400     57.3284    202.5491   1.3532270322e+02   2.5541428104e+01      1.04273    0.3270166 -68.08  0.003977112    3.028    0.670
       150 -11.2019    169.0481     43.0704   7.2013921896e+01   3.7717888602e+01     0.221582    0.1567022 -77.67 0.0006663958    1.631    0.387
       151 -11.7833     25.6583     43.0173   1.1330112082e+02   6.4449928785e+01    0.1687856    0.1213527 -31.54 0.0004774467    1.132    0.116
       152 -12.5530    245.7683     36.6400   6.0655113948e+01   2.0770315060e+01    0.4033235    0.2089779 -78.95   0.00120864    2.169    0.539
       153 -12.2020    241.0183     36.2328   6.1034977881e+01   2.1841273543e+01    0.4259157     0.186638  69.99  0.002033941    2.186    0.543
       154 -13.0285     75.8851     37.3984   9.2492899543e+01   5.8641130238e+01    0.3366788    0.2314982  34.78 0.0008191808    1.345    0.257
       155 -12.3839     70.3426     36.6055   9.4035607561e+01   5.9675502679e+01    0.2910788    0.2092635  13.18 0.0005836825    1.346    0.257
       156 -11.7302     45.3005     36.3613   1.0303882746e+02   6.3346241504e+01    0.2479693     0.148165  -4.02 0.0007848817    1.933    0.483
       157 -12.5585     46.7279     32.7101   1.0110929138e+02   6.3689454636e+01       0.4069    0.2167122   0.72  0.001893964    2.822    0.646
       158 -14.0085     67.5552    223.0631   1.3545261804e+02   1.9555989853e+01    0.7078121    0.6210774  23.89   0.00450619    1.584    0.369
       159 -14.9549     62.8600    214.8544   1.3552772111e+02   2.2012939421e+01     1.098438    0.7492813  49.58  0.006362116    1.370    0.270
       160 -13.2067    152.2204     31.5133   7.1724356527e+01   4.3224422193e+01     0.379618    0.3007203 -15.59  0.001398209    1.531    0.347
       161 -14.3044     97.4019    217.2379   1.2850389246e+02   1.6248854635e+01    0.6992084    0.5976356   8.93  0.004002288    1.672    0.402
       162 -11.0645    211.2292     33.2528   6.3601281472e+01   2.8919574938e+01    0.1829726    0.1300933 -72.14  0.000432169    1.316    0.240
       163 -13.0894    118.8300     28.0967   7.7408883199e+01   5.1296211747e+01    0.7060714    0.3449716  41.05  0.003260441    1.987    0.497
       164 -12.0498    216.3916     29.2177   6.2113524001e+01   2.8244102024e+01    0.2300018    0.1461851 -51.15 0.0006653158    1.485    0.327
       165 -13.1489     56.1005     27.5232   9.5573020683e+01   6.3087147456e+01     0.427229    0.2543194  38.20  0.001615269    1.650    0.394
       166 -12.0165     97.2655     26.8882   8.2329076564e+01   5.5964052979e+01     0.243987    0.2287651  68.48  0.001617898    1.298    0.230
       167 -11.6422    249.2176    225.3980   9.8874823625e+01  -1.1232512913e+01    0.1662573    0.1099691  41.52 0.0009623287    1.720    0.419
       168 -11.8404     85.3044    215.9784   1.3093087727e+02   1.8453492076e+01     0.308432     0.162938  49.44  0.001481588    1.725    0.420
       169 -12.9685    147.2555    238.8499   1.2106455221e+02   3.3649671325e+00    0.3720352    0.2679339 -81.69  0.001249573    1.902    0.474
       170 -11.5198    222.9144     21.8145   5.9833924738e+01   2.7678821389e+01    0.2211154    0.1569569 -89.99 0.0005492787    1.205    0.170
       171 -11.5184    185.4970    213.9968   1.0906230739e+02   1.1213857034e+00    0.1858991    0.1251399 -72.39 0.0008105111    2.551    0.608
       172 -11.0756    157.5169    213.5194   1.1488884394e+02   6.3717717412e+00    0.1416543    0.1303473  46.84 7.244368e-05    1.019    0.019
       173 -11.4791    136.8218    211.1413   1.1899460801e+02   1.0685190268e+01    0.2212151    0.1871126  73.01 0.0009295624    1.222    0.182
       174 -10.9086    163.3323    225.3230   1.1563537015e+02   3.0293478664e+00    0.1386077    0.1055642   4.39 0.0007050211    1.703    0.413
       175 -11.3241     70.9211     16.9550   8.6317162445e+01   6.1947671308e+01    0.1807285     0.147429  21.38 0.0004458316    1.024    0.023
       176 -11.6715     80.4300    208.5948   1.3104667772e+02   2.0848907079e+01    0.3117956    0.1850805  75.04  0.001468113    1.945    0.486
       177 -10.7320    149.9408    206.5419   1.1533319255e+02   9.2073953206e+00    0.2261646     0.134409  40.13  0.001026029    1.589    0.371
       178 -12.8331     41.5161    201.0197   1.3852579101e+02   2.7903297494e+01    0.2830215    0.1727802  81.16  0.001545162    1.553    0.356
       179 -13.4581     39.2490    195.3558   1.3842205035e+02   2.9469315068e+01    0.4821765    0.3639563  82.80  0.002456623    1.112    0.101
       180 -11.0774    212.4835    200.5036   1.0106740131e+02  -1.2896888171e+00    0.1390423     0.124883   0.62 5.877487e-05    1.036    0.035
       181 -12.8625    164.6196    194.9696   1.0999505067e+02   8.8028126440e+00    0.6991622    0.4094445 -66.37  0.002786036    2.531    0.605
       182 -13.0029    201.3880    191.7605   1.0156624331e+02   2.3563443391e+00     0.418205    0.3490226 -10.65  0.002035581    1.261    0.207
       183 -10.6254    107.5909    193.1984   1.2268879783e+02   1.9924995720e+01     0.202759    0.1304737 -48.66  0.000946864    1.691    0.409
       184 -12.1911     98.9397    187.2804   1.2376321087e+02   2.2796706245e+01    0.3987473    0.2736582 -20.59  0.001683142    2.688    0.628
       185 -11.4701    122.7622    182.0353   1.1718967517e+02   1.9766476154e+01    0.3742698    0.2183359 -89.98  0.001266615    3.387    0.705
