#   1 NUMBER                 Running object number                                     
#   2 MAG_AUTO               Kron-like elliptical aperture magnitude                    [mag]
#   3 X_IMAGE                Object position along x                                    [pixel]
#   4 Y_IMAGE                Object position along y                                    [pixel]
#   5 X_WORLD                Barycenter position along world x axis                     [deg]
#   6 Y_WORLD                Barycenter position along world y axis                     [deg]
#   7 A_WORLD                Profile RMS along major axis (world units)                 [deg]
#   8 B_WORLD                Profile RMS along minor axis (world units)                 [deg]
#   9 THETA_WORLD            Position angle (CCW/world-x)                               [deg]
#  10 FWHM_WORLD             FWHM assuming a gaussian core                              [deg]
#  11 ELONGATION             A_IMAGE/B_IMAGE                                           
#  12 ELLIPTICITY            1 - B_IMAGE/A_IMAGE                                       
         1 -13.8043     59.3033     53.6814   7.8852397069e+01   5.9740079474e+01     1.968253    0.8394658 -27.62  0.007089412    3.287    0.696
         2 -13.6347     73.0865     64.8684   7.7503249858e+01   5.5432566847e+01     1.627384    0.9340253 -17.96  0.006673631    2.426    0.588
         3 -14.6144      9.2859     64.3651   1.0412752593e+02   6.2756186657e+01     2.992012     1.351656 -17.85   0.01383672    2.660    0.624
         4 -14.6856      7.9232     21.0008   9.0751228857e+01   7.1269856608e+01      1.90333     1.385375 -19.52   0.01330317    1.028    0.028
         5 -13.1948     25.1113     11.3236   7.6449744598e+01   7.1037349314e+01    0.7780139     0.524522  -3.53  0.005062785    1.245    0.197
         6 -14.1620     42.4588     42.5497   8.1846625246e+01   6.4084300246e+01     1.918112    0.8643415  16.50  0.005349887    3.074    0.675
         7  -8.2316     36.3660      3.4468   6.6562768054e+01   7.0458581408e+01    0.8138602     0.283127  39.22  0.003839223    2.531    0.605
         8 -11.9315    123.4917     10.8664   4.3240266292e+01   5.2126749786e+01    0.4010736    0.2686057  57.88  0.000774258    1.260    0.206
         9 -12.3126    115.5015     11.6114   4.5059056154e+01   5.3947672514e+01    0.5822585    0.4552311 -33.94  0.003122534    1.472    0.321
        10 -10.5385     67.4976     17.3354   6.0546799410e+01   6.3698083753e+01    0.6743408    0.4624363  27.36  0.002004914    1.275    0.215
        11 -13.0866     75.7648     13.9186   5.6219361626e+01   6.2454940926e+01    0.4931306    0.4364212 -56.90  0.001342017    1.599    0.375
        12 -14.2679     84.7693     12.2404   5.2763471416e+01   6.0767695089e+01     1.373258     1.171413  40.71  0.008811507    1.084    0.077
        13 -11.5126    175.2849     13.9276   3.6462688966e+01   3.9327586484e+01    0.3108468    0.2709227 -23.96  0.001584694    1.378    0.274
        14 -12.6270    163.0435      4.3909   3.5351381562e+01   4.3162144389e+01    0.5894945    0.4882229  79.01  0.003125437    1.021    0.020
        15 -11.3776    156.1285     14.3956   3.9060833400e+01   4.3911192445e+01    0.3889142    0.2135763  56.42  0.001957561    1.620    0.383
        16 -11.1161    156.3602      9.9131   3.7739763057e+01   4.4279226926e+01    0.3010751     0.192731  78.68 0.0006545113    1.429    0.300
        17 -11.3376    150.7431      9.0356   3.8253513511e+01   4.5720387618e+01    0.3225127    0.2396915  75.22  0.001254547    1.179    0.152
        18 -12.4671    186.1418     11.6298   3.4665914243e+01   3.6983135217e+01     0.498405     0.286922  71.82  0.002319959    1.525    0.344
        19 -13.7124    106.7791      4.6572   4.4330225697e+01   5.6551261247e+01     2.059931    0.6161586  65.44  0.007554001    3.206    0.688
        20 -12.1029    188.5344      5.1087   3.2824055974e+01   3.7062619103e+01     0.442712    0.2882323 -43.57  0.002119557    1.542    0.351
        21 -10.9881    193.3956      7.8315   3.3016260567e+01   3.5672813523e+01    0.2534032    0.1920623  55.38 0.0008460783    1.445    0.308
        22 -11.0212    192.5339      4.5282   3.2309779301e+01   3.6192654747e+01    0.2294364    0.1671059 -77.08 0.0007953651    1.214    0.176
        23 -11.0883    178.9677      8.0820   3.4533180143e+01   3.9024067698e+01    0.1965552    0.1362676  45.27 0.0005712181    1.673    0.402
        24 -12.2483    138.6494      4.7667   3.8712543515e+01   4.9010387680e+01    0.6796569    0.2747578  58.80  0.002532827    1.973    0.493
        25 -10.7889      4.6881      4.3042   8.4822522772e+01   7.4101741837e+01    0.3554196     0.175007 -18.92  0.002039494    1.892    0.472
        26 -10.0722    128.8718      5.3373   4.0440245312e+01   5.1310450764e+01    0.1873617    0.1376229  61.58 0.0005921698    1.143    0.125
        27 -11.2597     73.5375      1.5268   5.1385418318e+01   6.4014093678e+01    0.2268387    0.1261697  52.70 0.0006807134    1.548    0.354
        28 -10.0373    211.9988      1.4742   2.9989994718e+01   3.2107508489e+01    0.1756559    0.1006265  79.25 0.0004665841    1.526    0.344
        29 -14.0852     20.4585     78.1967   1.0267721528e+02   5.8942278822e+01    0.7486311    0.6275611  35.42  0.004730332    1.463    0.317
        30 -10.5813    174.4436     88.9993   5.6993000386e+01   2.8797850062e+01    0.2373644    0.2023498  59.44 0.0005590615    1.198    0.165
        31 -13.2899      6.3422     82.4900   1.0922891701e+02   5.8822921574e+01     1.025025    0.2662176 -47.37  0.004110034    2.752    0.637
        32  -9.6494    249.4918     86.4466   4.4649351972e+01   1.3072994612e+01     0.131805    0.1076177 -52.78 0.0001127364    1.046    0.044
        33 -11.8681     92.9637     58.2327   6.8217691663e+01   5.2940500148e+01    0.7212015    0.2973987 -35.26   0.00274502    2.524    0.604
        34 -10.5729    246.5048    183.1090   6.5260506385e+01  -2.4573074404e+00    0.1901617    0.1598816  -6.21 0.0009926147    1.090    0.083
        35 -14.3550     58.4550     78.5422   8.7516454525e+01   5.4868536280e+01     1.355404    0.8345153 -45.03  0.006076283    1.477    0.323
        36 -13.1407     84.4985     63.2313   7.2832256310e+01   5.3701831459e+01     1.665526    0.8600674 -24.92  0.006504681    2.521    0.603
        37 -11.1798     34.1891    177.4828   1.1375078023e+02   3.3143028566e+01    0.2937267    0.2122133 -22.96  0.001575324    2.018    0.505
        38 -12.9499     69.8196     54.5094   7.5021528328e+01   5.7899913790e+01    0.6787962    0.5488453   4.43  0.002040976    1.173    0.147
        39 -12.2559    134.0921     78.8204   6.3180588066e+01   4.0220492639e+01    0.8094475    0.4127845 -22.53  0.002716475    3.118    0.679
        40 -10.8616    170.1208     82.3899   5.6061555390e+01   3.1016636948e+01    0.3018026    0.1955107  71.33  0.001296995    1.874    0.466
        41 -14.4526     97.1002     72.3251   7.1723407368e+01   4.9543240220e+01     1.556299    0.9693505  35.56  0.003532447    1.615    0.381
        42 -11.4341    156.5006     76.5098   5.7236056241e+01   3.5321001092e+01    0.3245493    0.1460805  53.33  0.001214576    2.183    0.542
        43 -11.3128    204.1660    172.8154   7.1008912191e+01   6.1964130519e+00    0.3163006    0.1755298  15.34  0.001195273    2.891    0.654
        44 -13.3364      3.1298     46.7113   1.0236539110e+02   6.6799903964e+01    0.7499377    0.7279045 -37.35  0.003884235    1.343    0.255
        45 -12.2981    240.9609    155.8544   6.0673675943e+01   2.9333490999e+00    0.3482516    0.2793497   3.77  0.002052581    1.321    0.243
        46 -12.8254    247.5312    142.1534   5.6752951709e+01   4.1877605105e+00    0.9890056     0.506574 -36.71  0.004778609    1.641    0.391
        47 -13.9805     42.0518     47.7972   8.4043752862e+01   6.3197528907e+01     1.273816    0.7237989  -7.80  0.002614267    2.274    0.560
        48 -11.3984    248.5744    130.9891   5.4245370984e+01   5.9043198574e+00    0.7145783    0.3240579 -45.03  0.003204366    1.982    0.495
        49 -11.8082    150.6283     73.4517   5.7627943090e+01   3.7268295498e+01    0.2798693    0.2411026 -48.76 0.0007462322    1.188    0.158
        50 -10.2399    128.6613     74.1517   6.3137903226e+01   4.2338781125e+01    0.2170949    0.1959414  64.63  0.001134645    1.175    0.149
        51 -12.2221    118.6430     73.5057   6.5638914223e+01   4.4735097271e+01    0.4460041    0.2690853  38.12  0.001653612    1.699    0.412
        52 -10.7945    170.3117     71.5039   5.3015139830e+01   3.2851312811e+01    0.4103933    0.2861192  77.07  0.001905167    1.670    0.401
        53  -9.7754    138.6782    152.3107   8.1491318555e+01   2.3197205410e+01    0.1584896    0.1268123  80.59 0.0004274329    1.650    0.394
        54 -12.5327    118.8281     65.2621   6.2911307186e+01   4.6166433632e+01    0.3700364    0.3049841 -22.59 0.0008496161    1.270    0.212
        55 -10.3440    164.4804     67.9496   5.3141617626e+01   3.4849031706e+01    0.2224436    0.1977974  60.29 0.0006399184    1.103    0.093
        56 -12.5394    132.9425     67.5035   5.9961494376e+01   4.2514072548e+01    0.5475569    0.3441644  72.52  0.002199667    2.237    0.553
        57 -12.6048    126.4721     65.5431   6.0972849080e+01   4.4363294204e+01    0.5450663    0.3409137  70.60  0.001631149    2.238    0.553
        58 -10.6981    129.0428     62.4641   5.9327544781e+01   4.4279438885e+01    0.3525112    0.2738284  31.26  0.001097319    1.353    0.261
        59 -12.9754    143.4846     76.1333   6.0063378738e+01   3.8502283280e+01    0.6700854      0.50864  59.16  0.003240871    1.348    0.258
        60  -9.3544    177.2938     64.2764   4.9754889241e+01   3.2341339536e+01    0.1381795    0.1120581  27.06 0.0001724259    1.526    0.345
        61 -10.8813    214.5157     61.2453   4.3378738555e+01   2.4158326241e+01       0.3868    0.2204324 -38.38  0.001836471    1.645    0.392
        62 -11.2257    170.2271     62.8951   5.0631952628e+01   3.4266478037e+01    0.2866954    0.2428771  79.31 0.0002907449    1.188    0.158
        63 -10.0605    165.9588     63.0169   5.1456682545e+01   3.5284164655e+01    0.2239181    0.1914624  35.92 0.0005253985    1.289    0.224
        64 -10.4806    157.2298     63.6165   5.3332641766e+01   3.7313931081e+01    0.2162565    0.1295253  48.07 0.0009495307    1.659    0.397
        65 -11.6080    202.1767     60.5415   4.4878813799e+01   2.7048603522e+01    0.3980819    0.3347856  28.79  0.001634269    1.538    0.350
        66 -11.8077    125.4695     57.1659   5.8499190049e+01   4.5974141991e+01    0.3143277    0.2544919  41.29 0.0004322327    1.181    0.153
        67  -9.4396    189.6395     59.2683   4.6402950260e+01   3.0164485774e+01    0.1465618    0.1019173 -75.77 0.0006993565    1.645    0.392
        68 -11.5736    174.4325     56.4216   4.8096758003e+01   3.4237290009e+01     0.261876     0.238541 -85.85 0.0002522739    1.052    0.049
        69 -11.6954    132.8304     53.8783   5.5639069326e+01   4.4741168998e+01    0.4639785    0.2700796  65.82 0.0007299088    1.952    0.488
        70 -10.6801    155.3372     51.9923   5.0276795503e+01   3.9554218041e+01    0.3192984    0.1977614  53.15   0.00103996    1.528    0.346
        71 -11.0238    145.4421     50.3828   5.1760146473e+01   4.2208633012e+01    0.3090628     0.260059 -45.46 0.0007856491    1.252    0.201
        72 -10.1641    136.1802     46.7884   5.2594644742e+01   4.4970872691e+01    0.2494067    0.1514075 -72.59 0.0009578282    2.885    0.653
        73  -9.6541    132.5166     47.5524   5.3657657071e+01   4.5745333081e+01    0.1440724    0.1330164  47.13 0.0002045438    1.016    0.015
        74 -11.2954    122.3331     43.6344   5.4737089289e+01   4.8714984574e+01    0.2599709    0.2249193  -0.74 0.0008769172    1.253    0.202
        75 -10.3038    116.0990     45.2315   5.6846624596e+01   4.9943481440e+01    0.2060622    0.1755225  29.54 0.0004556227    1.138    0.121
        76 -10.3175    204.2101     43.5860   4.0455234364e+01   2.8995961618e+01    0.2334231    0.1815214  43.34  0.001043139    1.583    0.368
        77 -11.2601    156.9717     43.6175   4.7491760519e+01   4.0325287609e+01    0.3135137    0.2303719  63.93 0.0006805644    1.272    0.214
        78 -10.4981    140.9251     43.9270   5.0674346823e+01   4.4214663348e+01    0.2141957    0.1991204  56.78  0.000386765    1.008    0.008
        79 -11.7628    217.2959     38.8222   3.7834145538e+01   2.6678288268e+01    0.3632139    0.2923473  37.78  0.001571673    1.690    0.408
        80 -10.7073    197.2296     40.5367   4.0576983945e+01   3.1017381777e+01    0.2205009    0.1775303 -43.47 0.0006756878    1.245    0.197
        81 -10.1916    225.9490     39.4598   3.7077440354e+01   2.4709987356e+01    0.1812966       0.1486 -65.41 0.0003634381    1.030    0.029
        82 -10.7457     82.4750     34.5113   6.2685847866e+01   5.8688476100e+01    0.3414637    0.2333539 -16.97  0.001814126    1.539    0.350
        83 -11.6911     78.9483     30.9745   6.2430610973e+01   5.9854898569e+01     0.398616    0.3279214  25.53  0.001184371    1.056    0.053
        84 -12.3286     74.1165     34.8269   6.5705350540e+01   6.0260680489e+01    0.8196377    0.3747057  37.29  0.003625415    2.074    0.518
        85 -10.9662     73.0108     29.0321   6.3683678894e+01   6.1250885797e+01    0.3184684    0.2931237  85.09   0.00168756    1.596    0.373
        86  -9.5347    159.5830     36.4748   4.4944945616e+01   4.0611029710e+01    0.1366416     0.126281  70.23 8.496037e-05    1.035    0.034
        87 -10.9829    140.9469     34.8492   4.7797383011e+01   4.5383092679e+01    0.4204693     0.166045  55.66  0.001032536    2.191    0.544
        88  -9.4356    240.5156     34.4794   3.4644816122e+01   2.2303851249e+01    0.1241755   0.09881867 -65.85 0.0001117302    1.015    0.015
        89 -10.2938    176.2537     33.2907   4.1499067861e+01   3.6934901395e+01    0.2249337    0.1711534  74.63 0.0004745974    1.210    0.174
        90 -11.0369     33.8548     30.0038   8.0739558395e+01   6.7249942394e+01    0.3502752     0.267031 -41.21  0.002206946    1.499    0.333
        91 -12.0053     30.3338     30.6855   8.2780783512e+01   6.7552775309e+01    0.5238644    0.4085995  66.96  0.002815736    2.981    0.665
        92 -10.0427    216.2556     28.5440   3.5609588653e+01   2.8202027816e+01    0.1711243    0.1063663  60.50 0.0009399241    1.670    0.401
        93 -11.6818    241.6826     22.5966   3.2123627212e+01   2.3526352695e+01    0.3298451    0.2023916 -72.33  0.001151632    1.470    0.320
        94 -11.6987     83.3260     22.8734   5.7646536902e+01   5.9964116741e+01    0.4285618    0.2578647  42.75  0.001115656    1.444    0.308
        95 -11.4571    149.1700     21.6245   4.2245326711e+01   4.4877362338e+01    0.4190426    0.2817294  63.49  0.001781409    1.306    0.234
        96 -11.1244    153.7613     20.0647   4.1061732389e+01   4.3918238129e+01    0.3402251    0.2443462 -72.60 0.0009195828    1.537    0.349
        97 -10.2305    235.2528     21.4433   3.2393660191e+01   2.4979482753e+01    0.2168737    0.1018123  68.86  0.001135129    2.068    0.516
        98  -9.6297    139.3311     21.3155   4.3805492899e+01   4.7310332032e+01    0.1421223   0.09161973  37.75  0.000261594    1.682    0.405
        99 -10.6588    208.6886     19.4289   3.4272302687e+01   3.0956964040e+01    0.2527011    0.2072293 -63.58  0.001642663    1.098    0.089
       100 -12.4409     47.1007    142.1798   1.0563578770e+02   4.0672234693e+01    0.5110989    0.3372713   8.44  0.002464213    2.009    0.502
       101 -10.6253    214.9619    141.4935   6.2106682392e+01   1.0113113289e+01    0.2079424    0.1445011  45.10  0.001033014    1.594    0.373
       102 -10.8627      3.6264    139.9274   1.1798335404e+02   4.5000997888e+01    0.3097461    0.1958584 -80.67  0.001764552    1.310    0.237
       103 -12.8226    197.7157    137.1242   6.4400045139e+01   1.4341992824e+01    0.5159337    0.3576193 -37.16  0.002470784    1.346    0.257
       104 -10.7401     33.9878    135.7343   1.0860141800e+02   4.3687245864e+01    0.1891166    0.1775946 -77.86   0.00114499    1.087    0.080
       105 -10.4217     34.7674     18.0615   7.4814960606e+01   6.8904888115e+01    0.3454835    0.1432667  26.89  0.001596802    2.448    0.592
       106 -10.0699    202.0143     17.3256   3.4430305742e+01   3.2703196366e+01    0.1800647     0.141116  88.85 0.0004454968    1.109    0.099
       107 -11.5343    209.7507    128.1212   6.0011934145e+01   1.3648016803e+01    0.2777431    0.1904703  16.20  0.001241611    2.077    0.518
       108 -12.3230    219.0673    122.1745   5.6998036562e+01   1.2894979286e+01    0.8335861    0.4294536 -43.35  0.003652568    1.753    0.430
       109 -10.5416    195.1309    113.1474   5.9163313907e+01   1.9556241174e+01    0.2356518    0.2083714  -5.97  0.001244585    1.254    0.203
       110 -11.2952    112.0139    110.2692   7.8501582735e+01   3.8451393738e+01     0.225097    0.2114711  32.38 0.0009824992    1.082    0.076
       111 -10.9294    199.0085    108.0212   5.7182169451e+01   1.9683703315e+01    0.2328759    0.1825497   1.57 0.0007014423    1.676    0.403
       112 -10.4778    139.5072    103.4087   6.8968647739e+01   3.4071030170e+01    0.3237428     0.221225  14.19  0.000720417    2.164    0.538
       113 -10.3850    174.8938    101.1147   6.0125148125e+01   2.6408881345e+01    0.3989598     0.298395 -11.48  0.001808092    1.732    0.423
       114 -10.2385     15.4908     98.4752   1.0869999473e+02   5.4495334376e+01    0.1321361    0.1087226 -57.09  0.000294225    1.011    0.010
       115 -10.1351    141.0215     97.0411   6.6788374880e+01   3.5051958509e+01    0.2534331     0.195984   2.74 0.0008425559    1.678    0.404
       116 -10.6922      1.9945     95.7909   1.1309701424e+02   5.5896850969e+01    0.2518867    0.1161627 -56.68  0.001273868    1.624    0.384
       117 -12.4373     67.6646     88.4597   8.6979579688e+01   5.1338728190e+01     0.598643    0.3826777 -67.99  0.002605118    2.140    0.533
       118 -13.2287     72.1320     84.5999   8.4225424394e+01   5.1511751425e+01    0.7544662    0.4040811 -40.56  0.003247897    1.784    0.440
       119 -10.1318    162.6917     90.5472   5.9864566797e+01   3.1278344841e+01    0.3031355    0.1453097  47.42   0.00114436    2.114    0.527
       120 -13.1665     33.9821     88.2621   9.9667139911e+01   5.5482155533e+01    0.6552126    0.3932572  25.63  0.003351167    1.851    0.460
       121 -14.1256     40.8402     81.9478   9.5394995258e+01   5.6260205246e+01     1.022228    0.7879084  69.98  0.005428062    1.911    0.477
