#   1 NUMBER                 Running object number                                     
#   2 MAG_AUTO               Kron-like elliptical aperture magnitude                    [mag]
#   3 X_IMAGE                Object position along x                                    [pixel]
#   4 Y_IMAGE                Object position along y                                    [pixel]
#   5 X_WORLD                Barycenter position along world x axis                     [deg]
#   6 Y_WORLD                Barycenter position along world y axis                     [deg]
#   7 A_WORLD                Profile RMS along major axis (world units)                 [deg]
#   8 B_WORLD                Profile RMS along minor axis (world units)                 [deg]
#   9 THETA_WORLD            Position angle (CCW/world-x)                               [deg]
#  10 FWHM_WORLD             FWHM assuming a gaussian core                              [deg]
#  11 ELONGATION             A_IMAGE/B_IMAGE                                           
#  12 ELLIPTICITY            1 - B_IMAGE/A_IMAGE                                       
         1 -14.4852    150.5352     60.4556   8.6302456541e+01   3.9789629712e+01     1.558521     1.251482   8.98   0.00413629    1.511    0.338
         2 -14.7777    162.0486     44.9421   7.9293965225e+01   3.9309325951e+01     1.171154    0.9938179 -20.85  0.003607264    1.312    0.238
         3 -13.5245    190.0269     14.2074   6.6317894946e+01   3.6132216667e+01     1.034662    0.4995346 -57.22  0.004489533    2.486    0.598
         4 -14.2349    173.3243     16.8524   6.9300502787e+01   3.9960843453e+01     1.568676     0.867592 -56.87  0.006509239    2.188    0.543
         5 -14.6003    176.1739     10.8090   6.7235945585e+01   3.9883629961e+01     1.004202    0.7135707  79.14  0.003136941    1.293    0.226
         6 -12.9528    192.8287      4.1100   6.3413920549e+01   3.6479882202e+01    0.5878218    0.2442291 -87.20  0.002047359    3.852    0.740
         7 -11.8470    134.9235    241.5195   1.2922267714e+02   6.1898855143e+00    0.2882546    0.2159833 -33.61  0.001117698    1.942    0.485
         8 -20.1531     77.4064    174.8354   1.3195169931e+02   2.9390586863e+01     17.61939      7.11921 -64.53   0.07298336    2.355    0.575
         9 -11.7302     21.6788    235.3529   1.4875406397e+02   2.3671882448e+01    0.1773459    0.1024438 -84.06  0.001196441    1.411    0.291
        10 -12.2427    125.3703    238.5970   1.3065442689e+02   8.3276284360e+00    0.3197369    0.1852101 -60.82  0.001425703    1.977    0.494
        11 -11.9285    187.9944    175.1784   1.0727573959e+02   8.5249216902e+00    0.3549079     0.203334 -60.01  0.001407153    2.447    0.591
        12 -11.5190     26.0217    172.4370   1.4290117721e+02   3.6273307057e+01    0.2777455    0.1958861  58.80  0.001098152    1.402    0.287
        13  -9.8453    131.0574    233.2231   1.2887683028e+02   8.3236105770e+00    0.1600074    0.1409919  63.76 0.0003328311    1.066    0.062
        14 -11.4914    163.7963    169.7983   1.1134855337e+02   1.4664532805e+01    0.2122742    0.1779321  78.24  0.001068735    1.346    0.257
        15 -12.0697    230.4922    167.5702   9.7305975739e+01   1.3437469885e+00    0.4407052    0.1834248 -48.08  0.001625512    2.847    0.649
        16 -10.8112     20.4416    166.7614   1.4350183724e+02   3.8074720991e+01     0.172775    0.1651437  72.31  0.001310704    1.359    0.264
        17  -8.9172      4.8081    233.5466   1.5131877338e+02   2.5783091416e+01    0.1134822   0.07166339  71.55  0.000287155    1.140    0.123
        18 -11.6077    141.0475    228.6030   1.2630198880e+02   7.4126533985e+00    0.3435485    0.2575351 -75.78  0.001172437    1.570    0.363
        19 -11.2308    218.3290    219.9280   1.0988874773e+02  -5.0358313901e+00    0.2725631    0.1540748 -48.89   0.00133052    2.298    0.565
        20 -11.4478     18.3213    220.9572   1.4836915793e+02   2.6824940368e+01    0.1537839   0.09563701 -85.27 0.0006239794    1.268    0.212
        21 -10.4561     22.9530    156.0984   1.4182236185e+02   4.0232229954e+01    0.1801659    0.1419853 -80.97 0.0004917507    1.028    0.027
        22 -11.3504     30.8775    206.4634   1.4507207547e+02   2.8405159497e+01    0.2161813    0.1711614  62.56 0.0009186451    1.248    0.199
        23 -10.3017    176.9751    154.9763   1.0528504559e+02   1.4955195286e+01     0.233483    0.1860737 -88.60 0.0005093456    1.595    0.373
        24 -11.1816     17.5787    153.6210   1.4274888602e+02   4.1270640059e+01    0.2328874    0.1442621 -72.12 0.0005679118    1.258    0.205
        25 -12.7873    161.6873    153.4214   1.0832740908e+02   1.8607416287e+01     0.371182    0.3135374  42.08  0.001020784    1.189    0.159
        26 -10.4626      7.3429    149.9218   1.4463338573e+02   4.2931730223e+01    0.1829216    0.1301224 -49.56 0.0006340826    1.585    0.369
        27 -11.8249    174.3659    148.5615   1.0441035524e+02   1.6871841386e+01    0.3845668     0.298789 -68.19  0.001160617    1.505    0.335
        28 -13.1081     11.5906    206.0656   1.4850882840e+02   3.0505394129e+01    0.4140437    0.2499899  34.80  0.002553769    2.087    0.521
        29 -11.8902     27.5186    145.7231   1.3953434754e+02   4.2164584035e+01    0.3365185    0.2455301 -64.48  0.001318322    1.182    0.154
        30 -11.7767     13.1895    240.1225   1.5038221959e+02   2.3693733536e+01    0.1573197    0.1135744 -81.08  0.001217211    1.369    0.269
        31 -10.2498     13.4218    236.3216   1.5012791734e+02   2.4378957030e+01    0.1177224   0.07431175  82.86 0.0002388301    1.145    0.127
        32 -11.5062    138.7146    200.3445   1.2246272367e+02   1.3286274994e+01    0.3550478    0.2457141  70.77  0.001058506    1.676    0.403
        33 -11.5285    141.4784    198.5135   1.2157203831e+02   1.3138934277e+01     0.304074    0.2519436 -86.16 0.0006089302    1.307    0.235
        34  -9.7001     16.3833    136.2338   1.4100689319e+02   4.5284196485e+01    0.1111033   0.07859322 -42.58 0.0006908673    1.629    0.386
        35 -11.3391    121.9429    198.7663   1.2577664420e+02   1.6697425407e+01    0.2269407    0.1926992 -60.92 0.0004272292    1.254    0.202
        36 -12.8168    160.5885    127.9690   1.0263493022e+02   2.4359862624e+01    0.5151573    0.3502503 -52.32  0.001979962    1.508    0.337
        37 -10.7044    150.8883    239.7144   1.2595800077e+02   3.7376639119e+00    0.1712276    0.1678058  47.61  0.000372079    1.195    0.163
        38 -11.4227    161.4313    238.7192   1.2380860039e+02   2.0539355282e+00    0.3470255    0.2059011  52.99  0.001725672    1.583    0.368
        39 -11.6507    139.9457    120.2294   1.0563631845e+02   3.0635868685e+01    0.3252043    0.2109412  58.74 0.0009534454    1.739    0.425
        40 -12.8290    153.6377    186.3597   1.1681127985e+02   1.3277708137e+01     0.383394    0.3112069  74.72 0.0008701966    1.359    0.264
        41 -11.0777    167.4396    112.5799   9.7183713430e+01   2.6022643018e+01    0.3494054    0.2503953 -88.48  0.001189533    1.996    0.499
        42  -9.8532    242.3132    184.6950   9.8717053950e+01  -3.7369339514e+00    0.1230779    0.1088608 -76.29 0.0002958108    1.618    0.382
        43 -10.7953     28.1262    237.4176   1.4784397594e+02   2.2555623327e+01    0.1511225    0.1090673  88.69 0.0003408295    1.161    0.139
        44 -10.7625    205.3467    110.2679   8.8792278343e+01   1.7493550002e+01    0.3222626    0.2124234  48.11  0.001013523    1.573    0.364
        45 -12.1026    150.8690    180.7123   1.1635736200e+02   1.5009087197e+01    0.2729614    0.2146583 -62.75 0.0006158237    1.357    0.263
        46 -13.0903    177.1326    178.2861   1.1019357433e+02   1.0154629685e+01    0.6469381    0.4128563 -83.38  0.002348483    3.301    0.697
        47 -10.6583    143.9308     81.1617   9.3989601596e+01   3.7753722602e+01     0.232025    0.2072948 -82.64 0.0005121669    1.253    0.202
        48 -11.5332    163.7733    248.3238   1.2472622122e+02   1.0925808011e-01    0.2341573    0.1705452 -47.72  0.001160523    1.672    0.402
        49 -10.5816    127.1833    249.2432   1.3161591833e+02   6.1704303051e+00    0.1432415    0.1135342  68.25  0.000306556    1.162    0.140
        50 -13.2187    166.0818     36.6667   7.6123055403e+01   3.9424359988e+01     0.450698    0.3798707  47.30 0.0008560378    1.170    0.145
        51 -11.2090     13.5057     59.8083   1.2829293623e+02   6.1838936900e+01    0.1815165    0.1669477 -50.32 0.0004063124    1.254    0.202
        52 -10.1331    143.9941     33.7620   7.9435933916e+01   4.5157898404e+01    0.1931734    0.1638779  57.13 0.0003599814    1.093    0.085
        53 -13.3987    177.3957    171.2065   1.0868749432e+02   1.1524610671e+01    0.6377195    0.3734945 -60.13   0.00259547    2.224    0.550
        54 -11.5390    135.7718    237.0826   1.2848336129e+02   6.8193587573e+00     0.217241    0.1690364 -83.45 0.0003669859    1.466    0.318
        55 -11.0243    138.9838    242.7598   1.2861885195e+02   5.2821644191e+00    0.2768762    0.1935579 -65.09 0.0007271847    1.695    0.410
