#   1 NUMBER                 Running object number                                     
#   2 MAG_AUTO               Kron-like elliptical aperture magnitude                    [mag]
#   3 X_IMAGE                Object position along x                                    [pixel]
#   4 Y_IMAGE                Object position along y                                    [pixel]
#   5 X_WORLD                Barycenter position along world x axis                     [deg]
#   6 Y_WORLD                Barycenter position along world y axis                     [deg]
#   7 A_WORLD                Profile RMS along major axis (world units)                 [deg]
#   8 B_WORLD                Profile RMS along minor axis (world units)                 [deg]
#   9 THETA_WORLD            Position angle (CCW/world-x)                               [deg]
#  10 FWHM_WORLD             FWHM assuming a gaussian core                              [deg]
#  11 ELONGATION             A_IMAGE/B_IMAGE                                           
#  12 ELLIPTICITY            1 - B_IMAGE/A_IMAGE                                       
         1 -16.3507    127.9989    100.9270   9.5702275092e+01   3.7317799603e+01      4.82829     2.094841 -40.84   0.01171982    2.356    0.576
         2 -15.6242    197.5415     72.6493   7.3456139218e+01   2.6446987358e+01     1.931823     1.030121 -49.93   0.00598772    1.864    0.463
         3 -19.0555    201.2111    117.0797   8.3491716988e+01   1.7468508988e+01     8.604214     7.206385 -28.37    0.0445643    1.299    0.230
         4 -10.2964    215.1638     12.1642   5.7406039937e+01   3.0701120458e+01    0.1966094    0.1451841  82.98 0.0003453402    1.136    0.120
         5  -9.5406     65.8887      7.1585   8.2608562858e+01   6.3579478732e+01    0.1627231    0.1099384  21.60 0.0004876277    1.291    0.226
         6  -9.5436    141.1976      2.8689   6.4117876571e+01   4.8531174330e+01    0.1687757    0.1219025  48.39  0.000420435    1.282    0.220
         7 -11.1856    227.6412      1.8868   5.4253941363e+01   2.9099555024e+01    0.2033204    0.1380261  85.38 0.0004054056    1.201    0.167
         8  -9.2913    130.4737      2.4512   6.5734154002e+01   5.0978545977e+01    0.1240556    0.1009985  57.93  5.31708e-05    1.018    0.018
         9 -10.0490    167.1338      1.4268   6.0145941209e+01   4.2708442187e+01    0.1858862   0.09935958  68.44 0.0009955144    1.522    0.343
        10 -11.5425    224.6979    241.2870   1.0441347957e+02  -9.9285558814e+00    0.2861221    0.1782374  38.39 0.0009461719    1.593    0.372
        11 -10.8338    228.9436    250.4886   1.0517544717e+02  -1.1866946932e+01    0.1836638    0.1040699  32.46 0.0008143827    1.589    0.370
        12 -10.6828    213.1251    249.2351   1.0794007801e+02  -9.3877819459e+00    0.2164071    0.1746079  13.76 0.0006317019    1.047    0.045
        13  -9.4766     56.7760    241.9135   1.3816012709e+02   1.6669784578e+01    0.1500344   0.09008989 -72.81  0.000734576    1.612    0.380
        14  -9.0817     84.2899    236.6523   1.3222186564e+02   1.3827715499e+01    0.1368234   0.08527992  71.09 0.0007026072    1.662    0.398
        15  -9.4541    101.5242    234.4866   1.2842916624e+02   1.1590573482e+01    0.1335502    0.1144977  63.41 7.338168e-05    1.003    0.003
        16 -10.7734    192.4526    232.5085   1.0918980089e+02  -3.4667570568e+00    0.2298708    0.2037711  18.13 0.0005171301    1.009    0.009
        17  -9.6328    144.1816    230.7276   1.1891596296e+02   5.1613825070e+00    0.2244528     0.152719  55.06  0.001153201    1.494    0.331
        18  -9.5511      7.4760    231.4716   1.4640992757e+02   2.4633587019e+01    0.1178521   0.08121576  76.47 0.0002684518    1.079    0.073
        19  -9.6084     69.2766    230.3900   1.3458273597e+02   1.7349240329e+01    0.1710484    0.1025627  51.50 0.0003091118    1.468    0.319
        20  -9.7698     29.9578    228.2735   1.4209115685e+02   2.2876404867e+01    0.1639972     0.127466  72.63  0.000370798    1.065    0.061
        21 -10.1710    199.0170    227.2592   1.0696474148e+02  -3.6636963413e+00     0.189388    0.1560323  24.83 0.0003243522    1.102    0.093
        22 -11.5276    203.1824    225.4086   1.0580696787e+02  -4.0390663744e+00    0.3602046    0.2727556  25.91  0.001690483    1.223    0.182
        23 -10.4109    159.7911    226.9998   1.1501969785e+02   3.1431137661e+00    0.2281146    0.1838191  38.06 0.0003551397    1.128    0.113
        24 -10.3135    149.4914    227.1713   1.1723464037e+02   4.9239301001e+00    0.2774753    0.1781126  23.52 0.0009745313    1.866    0.464
        25 -10.4924    220.7109    225.8503   1.0246320265e+02  -6.9343835971e+00    0.2314059    0.1596827  20.04 0.0006915518    1.409    0.291
        26 -13.9240    177.0897    221.8065   1.1050301460e+02   1.0700109145e+00    0.7134686    0.4280518  47.57  0.003350808    1.693    0.409
        27 -10.9279    169.3465    224.8998   1.1265587918e+02   1.8566895815e+00    0.3859359    0.1828831  42.19   0.00128806    1.944    0.486
        28 -10.9340    233.4533    220.9793   9.9176798335e+01  -8.1166575517e+00    0.3169508      0.17778  36.34 0.0003767662    1.771    0.435
        29 -10.7747     59.1653    216.7240   1.3521141209e+02   2.1740266080e+01    0.3323619    0.1988404 -71.32  0.001080579    1.563    0.360
        30 -11.1809    143.1903    215.7721   1.1676059944e+02   8.3354535158e+00    0.2731757    0.2412537 -52.96 0.0005640206    1.218    0.179
        31 -11.1670    124.0816    215.5191   1.2093780421e+02   1.1791873798e+01    0.2721017    0.2425661  64.08  0.000772007    1.048    0.046
        32 -11.4712    235.9955    214.7286   9.7553318722e+01  -7.5036706178e+00    0.3047924    0.2307614  25.87  0.001835336    1.288    0.224
        33 -10.7005     91.1985    214.5854   1.2807325522e+02   1.7506176774e+01    0.2324709    0.2145074 -58.92 0.0003314531    1.260    0.206
        34  -9.8952      1.4987    214.8848   1.4643032087e+02   2.8695674445e+01    0.1675393   0.08858784 -80.91 0.0004169452    1.496    0.332
        35 -10.7416    213.5897    211.5189   1.0121387234e+02  -3.3773204885e+00    0.4741435    0.2138714 -28.04  0.001821447    2.984    0.665
        36 -11.3284    197.2302    212.3484   1.0463996803e+02  -7.2573799943e-01    0.2725445    0.2541116 -20.32  0.001655265    1.100    0.091
        37 -11.3306    192.9887    211.8351   1.0541366711e+02   1.1325917286e-01    0.2386984    0.1994044 -32.90 0.0007065613    1.217    0.178
        38 -11.2848    168.8873    209.8834   1.1014050935e+02   4.8401873382e+00    0.2523218     0.200489  34.72 0.0006333048    1.196    0.164
        39  -9.8753    242.1496    207.7972   9.5130724843e+01  -7.3185762350e+00    0.1721408    0.1582461  -8.06 0.0003406429    1.162    0.139
        40 -10.4630    220.8568    206.6244   9.8877383129e+01  -3.7357960196e+00    0.2863103    0.2048082 -32.36 0.0008434759    1.337    0.252
        41  -9.6982    208.4823    206.4856   1.0127274875e+02  -1.6167256246e+00    0.2169093    0.1293272 -51.93 0.0005862092    2.011    0.503
        42 -14.1054    220.2986    175.1047   9.2717568385e+01   2.1118565431e+00    0.8712379    0.6253676 -54.16  0.001402809    1.557    0.358
        43  -9.2226     30.3200    249.2936   1.4357672287e+02   1.8519048653e+01   0.09667905   0.08665396 -62.33 0.0003450808    1.609    0.379
        44 -15.1425    202.7316    179.2994   9.7039674799e+01   4.5789681876e+00     3.911258     1.364334  40.38   0.01358087    3.004    0.667
        45 -11.9840    232.2589    245.3216   1.0369351019e+02  -1.1605148900e+01    0.2416676    0.1928377 -22.16 0.0008590684    1.236    0.191
        46 -15.5134    204.4638     91.6435   7.6876682988e+01   2.1552422330e+01     1.442223     1.078957  55.37   0.00438527    1.387    0.279
        47 -15.3633    181.6995     90.9897   8.0831358044e+01   2.6959118810e+01     1.509041    0.9868947  64.56  0.004247303    1.617    0.382
        48  -9.6968    132.2057    246.2353   1.2363625042e+02   4.2512948607e+00    0.1851601    0.1366821  61.63  0.000671762    1.375    0.273
        49 -10.0326     42.1450    157.9200   1.3189609148e+02   3.7802345427e+01    0.2138304    0.1635471  85.75  0.001223307    1.277    0.217
        50  -9.0056     27.3553    155.2487   1.3529406761e+02   3.9981981265e+01      0.12238    0.0893492 -40.27 0.0002562523    1.597    0.374
        51 -11.3774     90.6254    150.4523   1.1775645013e+02   3.2945888299e+01    0.5071545     0.209993 -48.83  0.001600394    2.348    0.574
        52 -10.9611     80.3956    148.5611   1.2015823773e+02   3.5046243537e+01    0.3238853    0.2273261 -77.36 0.0005936977    1.549    0.354
        53  -9.7376     34.1170    150.1149   1.3286345708e+02   4.0557600354e+01    0.1928422     0.154274 -56.51 0.0003114372    1.187    0.158
        54 -10.4428     73.8931    201.2543   1.3017168133e+02   2.3198091022e+01    0.2302833     0.178216 -66.83 0.0001858423    1.256    0.204
        55 -10.0868     89.2066    191.0289   1.2517872967e+02   2.3263231900e+01    0.2593799      0.18659  24.96  0.001283776    1.742    0.426
        56 -11.6659    247.2590    138.0379   8.0228346508e+01   4.0959028856e+00    0.3578031    0.2692115  37.67 0.0009377088    1.575    0.365
        57 -10.4624    250.2386    134.9622   7.9122678912e+01   4.1107838993e+00    0.2305694    0.1605142 -48.44 0.0006602607    1.284    0.221
        58 -12.3145    110.6347    132.7452   1.0848291654e+02   3.3693307525e+01    0.4676289    0.3612693  17.75  0.002197589    1.601    0.376
        59 -10.6383    250.2742    129.0280   7.7881140240e+01   5.1747237850e+00    0.3836926    0.1772754 -35.60  0.001632583    2.109    0.526
        60 -11.9126     99.5187    128.5533   1.1058466751e+02   3.6736443522e+01    0.4183465    0.2416642 -53.81  0.001565161    1.667    0.400
        61 -12.1328    103.0355    127.0095   1.0923483729e+02   3.6466669607e+01    0.4317156    0.3020655  66.92  0.001383177    1.878    0.468
        62 -10.4182     86.9012    128.8883   1.1424907512e+02   3.8814955451e+01     0.229155    0.1990998 -25.91 0.0007570647    1.256    0.204
        63 -10.1963     68.0406    201.3734   1.3150450651e+02   2.4014966469e+01    0.2464812    0.1770686 -82.64 0.0004295013    1.300    0.231
        64  -9.8781    242.1747    189.2188   9.1540271550e+01  -4.2081923627e+00      0.23475    0.1934919  39.68  0.001069413    1.375    0.273
        65 -10.3067      7.0388    201.2374   1.4441992637e+02   3.1158629198e+01    0.1976494    0.1316516 -83.07 0.0003592432    1.178    0.151
        66 -13.7167    100.8703    105.0559   1.0434348436e+02   4.1875172093e+01    0.8178459    0.5586261 -40.04  0.003043796    1.443    0.307
        67 -12.1148     91.0668    116.5680   1.1015331011e+02   4.1023787369e+01    0.4092219    0.3400763 -17.02  0.001478137    1.367    0.269
        68  -9.7799     70.7093    117.3326   1.1641076514e+02   4.4046091666e+01    0.1408838    0.1102589  85.29 0.0005358037    1.630    0.387
        69 -11.2499     90.4371    110.5054   1.0883123837e+02   4.2518266155e+01    0.3682926    0.2407358  73.09  0.001193786    2.687    0.628
        70 -12.6198     85.5768    104.9826   1.0888034795e+02   4.4574292516e+01    0.6863253    0.3907605  64.95   0.00122876    3.661    0.727
        71  -9.5707      2.6858    103.6763   1.3477925723e+02   5.3892356008e+01    0.1276188   0.06762504 -43.98 0.0005606016    1.662    0.398
        72 -13.9010     99.9051    114.1641   1.0698271561e+02   4.0017581299e+01     1.001148    0.7306272  18.65  0.003847443    1.682    0.405
        73  -9.6649    232.1141    200.8927   9.5648770720e+01  -4.5913547379e+00    0.1841878    0.1717437 -39.80 0.0004353105    1.257    0.204
        74 -12.8643    103.4070     90.9870   9.9731749415e+01   4.4369862952e+01    0.6230502    0.3308262 -39.88  0.001979732    1.884    0.469
        75 -11.9745     87.8896     88.7739   1.0376460246e+02   4.7645331385e+01     0.372064    0.3139776 -15.44  0.001210112    1.213    0.176
        76 -11.8069     74.6570     84.7028   1.0680452829e+02   5.0636201114e+01    0.3570138    0.2356287 -20.93  0.001723194    1.789    0.441
        77 -10.5184     48.2698     84.8220   1.1571171592e+02   5.4176291899e+01     0.222201     0.173963  38.23  0.001314164    1.497    0.332
        78 -11.4521    101.0158     82.7495   9.8043715975e+01   4.6459726917e+01    0.2492843    0.2129684 -28.55 0.0005211853    1.153    0.133
        79 -11.2920    102.9124     79.5071   9.6524385595e+01   4.6714212432e+01    0.2217951    0.1962408 -34.28  0.001234065    1.123    0.109
        80  -9.9959     52.5667     81.2367   1.1326272988e+02   5.4403602557e+01    0.1848322    0.1076343 -40.03 0.0004666488    1.538    0.350
        81 -11.1890     94.7172     77.9912   9.8504861671e+01   4.8548855012e+01    0.2066712     0.181216 -33.12 0.0009309745    1.119    0.106
        82 -10.9592     85.6070     77.1054   1.0105394260e+02   5.0339196971e+01    0.2285189    0.1930033  44.83  0.000685701    1.297    0.229
        83 -12.6579    247.9390    185.9735   8.9888169009e+01  -4.5721461419e+00    0.4292038    0.3110563 -22.93 0.0009315962    1.286    0.222
        84 -12.2093    101.3971     70.5777   9.4247092245e+01   4.8639488537e+01    0.4217237    0.2514777 -21.06  0.001515339    2.188    0.543
        85 -12.6705    119.1595     69.4179   8.8957302347e+01   4.5212007791e+01    0.4780661    0.3685918 -49.30  0.001953478    1.421    0.296
        86 -11.5910    108.9983     70.1663   9.1946610506e+01   4.7200974300e+01     0.240778    0.2029988 -31.40 0.0003702325    1.201    0.167
        87 -11.6835    126.2399     65.6417   8.5997039895e+01   4.4308384036e+01    0.4300047    0.2697847 -58.16  0.001705538    2.148    0.534
        88 -11.1132     31.8362     67.2987   1.1686916136e+02   5.9416254358e+01    0.2239244    0.1719923 -31.01 0.0003629757    1.080    0.074
        89 -10.8859     81.0896     65.6550   9.8937608869e+01   5.3202632996e+01    0.2098047    0.1777176 -41.42 0.0004487151    1.253    0.202
        90  -9.7849     10.7576     66.0002   1.2450441206e+02   6.1343088547e+01     0.150803   0.08065958 -54.34 0.0003211913    1.526    0.345
        91 -11.5610    152.0747     63.7851   7.9527414412e+01   3.8691602617e+01     0.394672    0.2711351   9.44  0.001714405    2.371    0.578
        92  -9.4974     40.7879    185.4158   1.3574720134e+02   3.1309957300e+01    0.1525382    0.1299941  16.35 0.0003567245    1.601    0.375
        93 -10.4740     62.9519     64.0797   1.0453940093e+02   5.6317416169e+01    0.1941486    0.1691892 -13.22  0.000310477    1.007    0.007
        94 -11.5877    155.2110    203.0478   1.1190620708e+02   8.7788394819e+00     0.399192    0.3041456  14.29  0.001751309    1.610    0.379
        95 -11.7313    110.8694     60.7420   8.8492947592e+01   4.8393867910e+01     0.315898    0.2784291 -30.36 0.0008397137    1.175    0.149
        96 -12.0580     88.4452     61.0688   9.5126844971e+01   5.2699876950e+01    0.2828828    0.2484153  -4.44 0.0003707605    1.072    0.067
        97  -9.4806     16.0077     58.9508   1.2063443578e+02   6.2332345146e+01    0.1393158    0.1093768 -31.63 0.0003439756    1.021    0.021
        98 -11.9613    120.8708     59.2975   8.5412697691e+01   4.6500536082e+01    0.3379092    0.2251598  36.43  0.001040751    1.523    0.343
        99 -11.0440    139.9689     56.0631   7.9908716837e+01   4.2709722353e+01    0.2185233    0.1963858  45.06  0.000469506    1.068    0.064
       100 -11.5634    128.0514     56.0364   8.2639830350e+01   4.5420689577e+01    0.2912826    0.1910014  45.17 0.0008396163    1.436    0.304
       101 -10.8535    115.8742     55.7309   8.5582113117e+01   4.8124728345e+01    0.2630455    0.2204036 -24.62 0.0002660775    1.252    0.202
       102 -12.0001    135.4049     53.0032   8.0017088285e+01   4.4209827727e+01    0.3146804    0.2524359 -12.53  0.000701798    1.459    0.315
       103 -11.8726    249.0824     52.3919   6.2230912912e+01   1.8189118429e+01     0.318722    0.1964608 -69.68 0.0004164772    1.544    0.352
       104 -11.4820    244.8229     46.9514   6.1584661536e+01   1.9852974967e+01    0.4293555    0.2529227  71.19  0.001767733    1.668    0.401
       105 -12.0823    140.8467     49.9616   7.7922488160e+01   4.3395270865e+01    0.3955049    0.2711046 -58.19  0.001656738    1.785    0.440
       106 -11.1462    138.9678     44.3461   7.6659874033e+01   4.4602654603e+01    0.2948214    0.1870297 -42.67  0.001374589    1.725    0.420
       107 -14.3925    249.4331    113.8684   7.4835653554e+01   8.0466781681e+00    0.7614921    0.3813434 -45.93  0.002441036    1.721    0.419
       108 -11.5309    105.7045     48.9930   8.6120004002e+01   5.1243871442e+01     0.426396    0.2300207 -34.61  0.002017801    1.948    0.487
       109 -10.6151    102.0318     47.9218   8.6778367035e+01   5.2140709449e+01    0.1903897    0.1841692  73.10 0.0004512954    1.233    0.189
       110 -10.6476     93.9712     51.9776   9.0448217123e+01   5.3119363928e+01    0.2076571    0.1863489  10.94 0.0004118557    1.019    0.019
       111 -10.0256     97.8457     50.1416   8.8702802753e+01   5.2646697512e+01    0.1876498    0.1473187  16.02 0.0004395656    1.296    0.228
       112 -11.9922    124.5182     47.1564   8.0744197712e+01   4.7490681711e+01    0.3936996    0.2347661 -45.04 0.0009170476    1.913    0.477
       113 -16.1005    224.1408    133.7936   8.3152357934e+01   9.3374642230e+00     2.409096    0.8231121 -38.15  0.008187431    2.916    0.657
       114 -10.0068     63.4953     46.0498   9.8298818767e+01   5.9232191024e+01    0.1874749    0.1152121 -34.87 0.0007339515    1.574    0.365
       115 -10.1694     32.4312    178.4130   1.3686499743e+02   3.3907930164e+01    0.3476784      0.14291 -47.27  0.001415313    3.123    0.680
       116 -11.4288    117.9298     43.1699   8.1071781100e+01   4.9475612048e+01    0.2473338    0.2320283 -43.61 0.0003618687    1.200    0.167
       117 -10.6015     94.8397     44.1873   8.7565059720e+01   5.4083686153e+01    0.1882286    0.1429656  16.27 0.0005106954    1.344    0.256
       118 -10.6418    241.6196     39.4406   6.0405975042e+01   2.1570656354e+01    0.2147997    0.1821803 -83.01 0.0006268044    1.115    0.104
       119 -10.5220    236.4924    176.9765   9.0109227242e+01  -1.1033142630e+00    0.2142306    0.1891821  59.18 0.0004437442    1.417    0.294
       120 -11.0568    237.5806     36.0652   6.0129532510e+01   2.2881680191e+01    0.2450138    0.2001603 -35.19  0.001569499    1.511    0.338
       121  -9.4917     40.5429     37.0090   1.0365935159e+02   6.3705628154e+01    0.1676092     0.102705 -35.83 0.0004490773    1.508    0.337
       122 -10.0815     89.6878    206.1153   1.2725955922e+02   1.9660639099e+01     0.189989    0.1661135 -78.20   0.00043678    1.118    0.106
       123 -11.6547    227.0725    191.3436   9.4723277614e+01  -2.0810840047e+00    0.3575553    0.2870099 -18.00  0.000802677    1.189    0.159
       124 -11.2773    146.3558     35.7430   7.2662990771e+01   4.3990107985e+01    0.3847195    0.1892715  67.16  0.001675457    2.088    0.521
       125 -11.5924    199.1311     33.5546   6.3893227304e+01   3.1804464834e+01    0.2674378    0.2262031  40.77  0.001628095    1.503    0.335
       126 -11.1203    134.9389     32.3833   7.3911648257e+01   4.7032476396e+01    0.5221408    0.1058834  49.42  0.001606895    4.093    0.756
       127 -11.4124    162.3082     26.9833   6.7457373251e+01   4.1272647260e+01    0.3074642    0.2263367  34.10  0.001549426    1.634    0.388
       128 -10.6103    158.7893     25.3925   6.7589190076e+01   4.2281490503e+01    0.1980774    0.1914881  58.36 0.0003007713    1.149    0.130
       129 -10.7245    157.2424     31.3230   6.9464964034e+01   4.1964639550e+01    0.2356748    0.2160037  50.95 0.0007529818    1.132    0.117
       130 -11.2746    128.5129     28.4728   7.4040046760e+01   4.8937863518e+01     0.263024    0.1832069  29.18 0.0008394719    1.593    0.372
       131  -9.4502     36.7452     30.3783   1.0270855664e+02   6.5121899087e+01    0.1000215   0.08962563 -45.87 0.0006965157    1.657    0.396
       132  -9.8661    231.3415    188.3309   9.3329373162e+01  -2.2657634049e+00    0.2216751    0.1617207 -18.07 0.0006932438    1.402    0.287
       133 -10.7480     87.9310    172.9127   1.2257995467e+02   2.7849413616e+01    0.2775796    0.1924959 -64.37 0.0007291505    1.372    0.271
       134 -10.9546    168.1183     23.5845   6.5672809448e+01   4.0284117673e+01    0.3498083    0.1993215 -16.37  0.001667314    2.570    0.611
       135  -9.3458    233.5305    192.5054   9.3751801319e+01  -3.3691942669e+00    0.1348578    0.1191965 -15.97 0.0001044638    1.013    0.013
       136 -11.0592    226.2075     23.1937   5.8628789652e+01   2.6984608634e+01    0.3270157    0.1920555  74.93  0.001737091    1.523    0.343
       137  -9.8880     81.9649     21.9898   8.3433857208e+01   5.9257744203e+01     0.161494    0.1497172 -79.98 0.0003270312    1.557    0.358
       138 -11.5281    233.6734    171.6859   8.9535955205e+01   3.4972693752e-01    0.2544769     0.231596  42.22 0.0004859092    1.242    0.195
       139 -12.2830    128.6846    189.3404   1.1551476370e+02   1.6782469218e+01    0.5111086    0.3302464 -74.04  0.002212868    1.969    0.492
       140 -11.3265    118.1678    190.5887   1.1822423286e+02   1.8423462764e+01    0.5157625    0.2547671 -56.32  0.001572462    2.055    0.513
       141  -9.4910    128.5253     15.0723   6.9907273672e+01   5.0318816809e+01    0.1654063     0.126746 -23.39 0.0003830118    1.518    0.341
       142 -11.8905    118.8994    169.3565   1.1414218896e+02   2.3315288114e+01    0.2878279    0.2362667  49.90 0.0006871393    1.215    0.177
       143  -9.1693     51.5027    245.4835   1.3946260393e+02   1.6643338806e+01    0.1218788   0.09539752  72.25 -2.374671e-05    1.019    0.019
       144  -9.8195    246.0289    165.5470   8.6119967010e+01  -6.7491659072e-01     0.182872    0.1349864  49.91  0.001001526    1.610    0.379
       145 -10.1540    236.7675    162.9788   8.7187652899e+01   1.4061736777e+00     0.381392    0.2146444 -23.73 0.0008077816    2.255    0.557
       146 -11.0564    214.6943    243.8431   1.0674404838e+02  -8.8186777452e+00    0.2426923    0.1667698  35.37  0.000892946    1.365    0.267
       147 -10.5612    250.4907    158.9471   8.4030063224e+01  -2.5317473746e-01    0.1932776    0.1402114 -37.49 0.0004763301    1.195    0.163
       148 -10.4000     31.3578    243.4225   1.4297739851e+02   1.9571070717e+01    0.2145304    0.1856338 -30.58  0.001476676    2.021    0.505
       149  -9.7430    120.8361    243.2540   1.2556412020e+02   6.6988330215e+00    0.2260639    0.1240834  68.97  0.000947435    2.767    0.639
       150  -9.6826      2.3859    242.7993   1.4794137406e+02   2.2856195014e+01    0.1474548   0.08036755 -73.35 0.0009430267    1.658    0.397
