#   1 NUMBER                 Running object number                                     
#   2 MAG_AUTO               Kron-like elliptical aperture magnitude                    [mag]
#   3 X_IMAGE                Object position along x                                    [pixel]
#   4 Y_IMAGE                Object position along y                                    [pixel]
#   5 X_WORLD                Barycenter position along world x axis                     [deg]
#   6 Y_WORLD                Barycenter position along world y axis                     [deg]
#   7 A_WORLD                Profile RMS along major axis (world units)                 [deg]
#   8 B_WORLD                Profile RMS along minor axis (world units)                 [deg]
#   9 THETA_WORLD            Position angle (CCW/world-x)                               [deg]
#  10 FWHM_WORLD             FWHM assuming a gaussian core                              [deg]
#  11 ELONGATION             A_IMAGE/B_IMAGE                                           
#  12 ELLIPTICITY            1 - B_IMAGE/A_IMAGE                                       
         1 -19.2572    221.5389     71.8883   6.9164644561e+01   1.9988060044e+01      8.75075      8.44745 -42.77   0.03505334    1.054    0.051
         2  99.0000    206.5091     16.6012   5.6937989289e+01   3.1312067721e+01     1.299273    0.5086721  51.20  0.005140179    2.515    0.602
         3 -10.3338    150.8868     11.9335   6.4023896257e+01   4.5766813259e+01    0.2181822    0.1628404  32.71 0.0006468872    1.345    0.256
         4 -10.1332    149.4817      7.5232   6.2855710988e+01   4.6534047617e+01    0.2281701    0.2002813  41.28 0.0001363617    1.060    0.057
         5 -11.3676    199.2554    143.8141   9.1008897599e+01   1.2701040200e+01    0.6479001    0.3588602  69.64  0.001702196    3.466    0.711
         6 -10.6936    161.1303    189.9126   1.0805220610e+02   1.2205040742e+01    0.2149367    0.1746394  67.89   0.00049226    1.281    0.219
         7  -9.8795    228.0846    145.1194   8.5775448111e+01   6.1838658162e+00     0.303912    0.1678189  41.56 0.0008723044    1.799    0.444
         8 -12.1369    167.7699    187.4972   1.0629308809e+02   1.1339409009e+01    0.5317554    0.2941943  67.01   0.00206025    2.956    0.662
         9 -10.1276    155.9400    218.0834   1.1353091540e+02   8.2970670085e+00    0.1916639    0.1594703  52.29 0.0003348172    1.007    0.007
        10  -9.4289    244.3467    139.1418   8.1554546024e+01   3.7557914199e+00    0.1328583   0.08931717  34.61 0.0002628022    1.551    0.355
        11 -11.8038    187.2452    137.6769   9.2059763756e+01   1.6534266102e+01    0.4234725    0.3191655  43.76  0.002062737    1.286    0.222
        12 -11.2221    165.7460    135.8634   9.6248873088e+01   2.1698813166e+01    0.5098209    0.3303061 -53.46  0.001919997    1.692    0.409
        13 -10.8725    144.1288    167.4854   1.0757331377e+02   1.9836059285e+01    0.5241349    0.3153697  81.69  0.001948565    3.217    0.689
        14 -12.0916    250.6467    134.4739   7.9445381023e+01   3.2070364092e+00    0.2851823    0.1252838 -34.22 0.0006867957    2.177    0.541
        15  -9.5626    192.2323    144.1978   9.2517260564e+01   1.4191252191e+01    0.1924937    0.1726921 -82.84 0.0003654061    1.295    0.228
        16 -10.2405    188.9312    129.8605   8.9880378923e+01   1.7633286957e+01    0.3131034    0.2385827 -46.77 0.0006784187    1.369    0.269
        17 -12.9534     34.3095    129.3622   1.2642569983e+02   4.4606611920e+01    0.4368405       0.3018  28.51  0.002807504    1.839    0.456
        18 -13.5494      3.3030    163.2987   1.3657076440e+02   4.0173496645e+01    0.3032819    0.2584268 -48.07  0.002472939    1.635    0.388
        19 -11.4085    101.8978    123.8374   1.0870399894e+02   3.6972622690e+01    0.3458291    0.3083016 -60.93  0.001452343    1.060    0.056
        20 -11.6446    205.0658    122.7879   8.4936402093e+01   1.5218238851e+01    0.4310588    0.2922395  46.68  0.001533325    1.452    0.311
        21 -12.2451    148.2258    159.7977   1.0521400122e+02   2.0569856769e+01    0.7383579    0.3712947 -63.08  0.002495243    2.903    0.656
        22 -11.8021    229.9035    124.9904   8.0833759297e+01   9.1837341863e+00     0.284089    0.2151412  58.42  0.001423956    1.432    0.302
        23 -10.8639    249.7252    124.0806   7.7244593753e+01   5.0539318347e+00    0.2309613    0.1668821  44.01 0.0007054231    1.430    0.301
        24 -10.7607     41.3914    120.9063   1.2346404540e+02   4.5745833611e+01    0.1844567    0.1559673  73.04 0.0004826573    1.253    0.202
        25 -11.0158    248.0261    212.0241   9.5709311792e+01  -7.4820030043e+00    0.2530177    0.1515687  38.26 0.0008003515    1.460    0.315
        26  -9.2037    104.6585    160.0429   1.1492288615e+02   2.8623916822e+01    0.1821374    0.1619922 -80.51 0.0004439554    1.061    0.058
        27  -9.6903    178.7665    109.7271   8.7056702046e+01   2.3845890330e+01    0.2581018    0.2064553 -22.05 0.0007993561    1.397    0.284
        28 -10.8469     86.4212    102.5422   1.0800276136e+02   4.4090794867e+01    0.3822985    0.1893979 -60.10   0.00129061    2.185    0.542
        29 -10.0605    244.1427    104.2600   7.3532373704e+01   9.4622696379e+00    0.1704168    0.1642488  69.58  0.000298615    1.103    0.093
        30  -9.5775     92.9209    160.1143   1.1754906575e+02   3.0512614912e+01    0.1966492    0.1571315  83.85 0.0003357163    1.209    0.173
        31 -10.5287    182.8525    153.8385   9.6575856306e+01   1.4444638904e+01    0.3042065    0.2361013  79.21 0.0004414134    1.666    0.400
        32 -11.3130    180.2460    149.1111   9.6095092190e+01   1.5910069400e+01     0.525329    0.3518326  34.15  0.002225391    1.596    0.373
        33 -11.9261    105.3266     78.4882   9.6467496454e+01   4.5848016671e+01    0.5007951     0.248706 -46.63  0.002138775    1.975    0.494
        34 -12.3591    111.5950     74.7880   9.3657640761e+01   4.5379712588e+01    0.4092241    0.2831712 -41.56  0.002048556    1.402    0.287
        35  -9.6869     83.9860     65.7899   9.8912514691e+01   5.1883052230e+01    0.2428021    0.1782437 -39.98 0.0009316938    1.250    0.200
        36 -11.9290    105.5939     62.1068   9.1449187855e+01   4.8828686417e+01    0.4842364    0.2895546 -21.87  0.001433714    2.033    0.508
        37 -12.3600    115.5558     61.3719   8.8467833462e+01   4.7021753654e+01    0.4873391    0.2822197  26.77  0.002071323    2.220    0.550
        38  -9.9795     90.5244     52.9443   9.2882397281e+01   5.3103441578e+01    0.2945623     0.123053 -39.36   0.00112157    2.263    0.558
        39 -10.1421     90.6961     49.3208   9.1624818207e+01   5.3679104681e+01    0.2019608    0.1548523 -29.30 0.0004844497    1.216    0.177
        40  -9.2641     55.3781     53.1762   1.0418078894e+02   5.8132935145e+01    0.1715161    0.1051256 -52.40 0.0009439573    1.653    0.395
        41 -11.9094    176.5614    190.6682   1.0510266189e+02   9.0413218177e+00    0.3366491    0.2604417 -80.85  0.001292997    1.758    0.431
        42  -9.2760     56.4494     41.4961   1.0005412688e+02   6.0032602770e+01       0.1225    0.1011469 -22.51 2.132175e-05    1.016    0.015
        43 -13.8386     41.4888    147.5492   1.2718183603e+02   3.9973207892e+01    0.8044993    0.6592651 -78.35  0.003423506    1.051    0.048
        44 -10.2941    179.7531     31.8185   6.5068669656e+01   3.6326008980e+01    0.3547157     0.182084  47.39 0.0006431318    1.899    0.473
        45 -10.6644    157.4781     31.8351   6.9110387920e+01   4.1911655711e+01    0.2654408    0.1902626  58.64 0.0005893257    1.304    0.233
        46 -12.8555    233.0087     25.8869   5.6084690154e+01   2.3637040933e+01    0.5821361    0.1980484  63.14  0.002250592    2.638    0.621
        47 -10.6412    166.1083    192.9261   1.0757509400e+02   1.0695131871e+01    0.2161252    0.1744113  67.25 0.0007571082    1.310    0.236
        48 -10.6282    166.6139    152.7973   9.9790455289e+01   1.8144518854e+01    0.2671727    0.2132114 -86.41 0.0005681087    1.569    0.363
        49 -11.8578    243.2572    240.3009   1.0135743961e+02  -1.0023484208e+01    0.1996614    0.1631407  27.64 0.0002638361    1.140    0.123
        50 -13.6646     62.6102    139.9177   1.2129655269e+02   3.9200866626e+01    0.6918923    0.5685985 -80.69  0.001967741    1.066    0.062
        51 -15.0254     73.2931    135.4596   1.1802186884e+02   3.8784101336e+01     1.639805     1.540384  -5.31  0.005804256    1.356    0.263
        52 -10.9513    158.0262    192.5377   1.0912290890e+02   1.2329927095e+01    0.2453968     0.190549 -79.38 0.0007238581    1.582    0.368
        53 -12.3283    162.4043    141.7704   9.8318240782e+01   2.1244852668e+01    0.5772795    0.4550476 -42.98  0.001924117    1.321    0.243
