#   1 NUMBER                 Running object number                                     
#   2 MAG_AUTO               Kron-like elliptical aperture magnitude                    [mag]
#   3 X_IMAGE                Object position along x                                    [pixel]
#   4 Y_IMAGE                Object position along y                                    [pixel]
#   5 X_WORLD                Barycenter position along world x axis                     [deg]
#   6 Y_WORLD                Barycenter position along world y axis                     [deg]
#   7 A_WORLD                Profile RMS along major axis (world units)                 [deg]
#   8 B_WORLD                Profile RMS along minor axis (world units)                 [deg]
#   9 THETA_WORLD            Position angle (CCW/world-x)                               [deg]
#  10 FWHM_WORLD             FWHM assuming a gaussian core                              [deg]
#  11 ELONGATION             A_IMAGE/B_IMAGE                                           
#  12 ELLIPTICITY            1 - B_IMAGE/A_IMAGE                                       
         1 -14.9857      5.1884    123.0589   1.1489279110e+02   4.9025992995e+01     7.881907     1.306224 -73.71   0.02139746    5.591    0.821
         2 -14.1605     12.1625     87.8832   1.0710799301e+02   5.7210969263e+01     1.494526     1.290053  18.62  0.009783222    1.377    0.274
         3 -14.4406     16.3912     66.2960   1.0054842221e+02   6.1858495005e+01     1.903284     1.371217 -45.03  0.009601564    1.118    0.106
         4 -13.4375      5.8435     37.1708   9.7100607856e+01   6.8472933452e+01     1.753227    0.5450528 -47.94  0.008189566    2.305    0.566
         5 -12.1368     62.0280     34.3663   6.9146319581e+01   6.2382629022e+01    0.6978208    0.5522966 -19.12  0.004181225    1.215    0.177
         6 -11.8711     58.5125     26.0138   6.6968767530e+01   6.4135353344e+01    0.7072063    0.4028977  18.01  0.003506733    1.966    0.491
         7 -13.1047    231.9851     29.8040   3.3775416408e+01   2.4991852000e+01    0.7083585    0.6203762  89.01  0.004978845    1.190    0.160
         8 -12.1098     40.1832     24.5476   7.4314781503e+01   6.7162580059e+01    0.6681756    0.3746867  34.93  0.003685177    1.754    0.430
         9 -11.2520     45.4728     16.1025   6.7935093603e+01   6.7509099159e+01    0.5003833    0.3309131   1.24   0.00297526    1.451    0.311
        10 -12.0293     31.6288     18.7623   7.5806830954e+01   6.9116915702e+01    0.6214568    0.4066592   5.31  0.003797461    1.387    0.279
        11 -11.3017     99.5972     16.2606   4.9646079046e+01   5.7067512572e+01    0.8029131     0.426044  69.43   0.00365825    2.284    0.562
        12 -12.2157    113.0267      6.6344   4.3106492160e+01   5.4877212623e+01    0.4656463    0.3700858  15.10  0.002893406    1.400    0.286
        13 -11.2494    125.2254      5.9924   4.0631134970e+01   5.2082936007e+01    0.3422136    0.1141286  51.51  0.001419577    2.431    0.589
        14 -10.3452    201.4958      2.4964   3.0494701577e+01   3.4560887168e+01    0.1207407   0.09798227 -83.27 -0.0001248093    1.013    0.013
        15 -11.8596    109.2249    214.1813   9.9048242038e+01   1.4249279691e+01    0.8686275    0.5031033  62.53  0.003745581    2.341    0.573
        16 -10.0356     56.1196    249.8812   1.1455268841e+02   1.4293600881e+01    0.2587086    0.1936357  62.15   0.00123002    1.116    0.104
        17 -11.6614     40.9790    247.8450   1.1738479533e+02   1.6498506321e+01    0.5588328    0.2779435  55.06  0.002151099    1.696    0.410
        18 -10.8320     16.7149    249.9368   1.2209257040e+02   1.8721723858e+01     0.297559    0.1523892  39.50  0.001039071    1.704    0.413
        19 -10.4288     77.8033    204.3219   1.0521894788e+02   2.1160033887e+01    0.3071025    0.2592649   1.69  0.001286778    1.511    0.338
        20 -10.5834     62.0634    202.8498   1.0882334222e+02   2.3631969634e+01    0.3692747    0.3049295  12.05   0.00181701    1.523    0.343
        21 -11.0492     43.4233    180.8559   1.1093183280e+02   3.1191799473e+01    0.2729168    0.2363771 -52.82 0.0005338292    1.267    0.211
        22 -11.2485     51.3238    174.1888   1.0808054117e+02   3.1940027447e+01    0.2681936    0.2379922 -44.22 0.0004549193    1.265    0.210
        23 -11.7446     69.9104    218.7509   1.0874885655e+02   1.8984414807e+01    0.6201788    0.4276785  64.69  0.002383537    1.424    0.298
        24 -10.3923     64.1356    164.0739   1.0317802625e+02   3.2896443002e+01    0.2254596    0.2134784 -68.91  0.000335336    1.062    0.058
        25 -12.6737     49.3310    160.5210   1.0679441912e+02   3.5642546295e+01    0.5481036     0.304947 -39.17  0.001545944    2.233    0.552
        26  -9.6785    133.9219    161.1349   8.3521492292e+01   2.2101092312e+01    0.2341592    0.2073535  84.48 0.0004749403    1.328    0.247
        27 -11.5187     73.2066    157.2164   9.9498211680e+01   3.3407016843e+01    0.5427669    0.4548712  -6.73  0.001862342    1.451    0.311
        28 -12.1633     67.9416    143.4692   9.8600881438e+01   3.7686481013e+01    0.7125586    0.4375307  60.95  0.002753289    2.113    0.527
        29 -13.4602     24.8520    138.5398   1.1086935818e+02   4.3733999354e+01    0.8881469    0.7327892  60.18  0.003251929    1.306    0.235
        30 -11.8074     34.0973    140.7079   1.0839768102e+02   4.2348950208e+01    0.5438254    0.3029673 -75.89  0.002542342    1.713    0.416
        31  -9.6588     89.3243    144.1090   9.2316306656e+01   3.4300424317e+01    0.2620983    0.2180658  15.51  0.001117228    1.346    0.257
        32 -11.5693     76.8953    141.7518   9.5562340435e+01   3.6843863194e+01    0.3882931     0.282069 -64.33 0.0004313495    1.347    0.257
        33 -10.0098    105.2629    131.3994   8.4776436379e+01   3.4715323854e+01    0.3248241     0.266937   5.80  0.001358198    1.413    0.292
        34  -9.9339     90.3123    128.0532   8.8510639441e+01   3.8188353474e+01    0.2446233    0.2219195  27.39 0.0004353313    1.149    0.130
        35 -13.1873     71.6877    117.9672   9.2133811716e+01   4.3659262564e+01     1.302274    0.7755877 -55.06  0.005770455    1.566    0.361
        36 -11.9650     46.0555    118.9750   1.0092921987e+02   4.6696682843e+01    0.5565872    0.4147141 -48.63  0.002809176    1.209    0.173
        37  -8.9644    102.9696    119.9686   8.2668892093e+01   3.7922631253e+01    0.1807264    0.1758315 -13.91 0.0009459784    1.022    0.022
        38 -11.1004     58.9371    114.3097   9.5588240475e+01   4.6335468878e+01    0.4178587    0.2085069 -61.10  0.001716375    1.938    0.484
        39 -11.5184     32.5141    229.6779   1.1780875406e+02   2.1159634691e+01    0.6741333    0.2985806  63.94   0.00325559    2.284    0.562
        40 -11.7072     57.4984    101.6343   9.3130569827e+01   4.9639991642e+01    0.3272063    0.2923094  59.85   0.00174155    1.334    0.250
        41 -14.3917     31.4161    189.2056   1.1475941722e+02   3.0443445230e+01     2.197269     1.347358  89.57   0.01171135    1.543    0.352
        42 -11.3154     35.8204     91.5757   9.8764913776e+01   5.4498216347e+01    0.3700656    0.2861057 -34.76   0.00140983    1.179    0.152
        43 -12.0485     33.6722     85.7317   9.8208664708e+01   5.6075819014e+01    0.6086702    0.4722348   6.44  0.002703853    1.394    0.283
        44 -10.5760     52.0339     89.7223   9.2107952864e+01   5.3153142771e+01    0.2001698    0.1822368 -14.32 0.0008194458    1.082    0.076
        45 -12.1107     69.3439     77.9400   8.2162309295e+01   5.3347541902e+01     1.007845    0.6020085 -59.59  0.004383921    2.138    0.532
        46 -12.0981     61.6265     79.6885   8.5607828598e+01   5.4131544573e+01    0.5862683    0.4669167  89.51  0.002951095    1.944    0.486
        47 -11.3214     37.4476     77.9053   9.4680045705e+01   5.7495092677e+01    0.5143176    0.3443335  -3.63  0.002558964    1.669    0.401
        48 -13.5559     85.8819    220.3846   1.0528852445e+02   1.6411393614e+01     1.379115      1.03991  67.58  0.005320503    1.347    0.258
        49 -10.9199     51.5088     80.4954   8.9766012967e+01   5.5315396721e+01    0.3524254    0.2678545   3.57  0.001774308    1.389    0.280
        50 -11.4803      2.5437     60.8530   1.0539622183e+02   6.3836043804e+01    0.5858772    0.2847447 -63.70  0.003055539    1.812    0.448
        51 -10.1092     52.6608     56.3289   8.1544619260e+01   6.0148368966e+01    0.1908167    0.1708882  77.98  0.001109176    1.722    0.419
        52 -12.3203    118.2792     48.9454   5.6667675216e+01   4.8856375124e+01    0.7690335    0.6835853 -28.78  0.004389388    1.194    0.162
        53 -12.3984    113.0546     41.1522   5.5328022203e+01   5.1147264030e+01    0.7378313    0.4674995  73.12  0.003327099    2.145    0.534
        54 -10.8786     94.7815     42.6551   6.1003112691e+01   5.4944291410e+01    0.2391892    0.2092097 -20.96  0.001320946    1.191    0.161
        55 -10.7115     40.3356     41.1796   8.1295453442e+01   6.4516101338e+01    0.3802457    0.2827586   1.39  0.002170042    1.219    0.180
        56 -11.8405     80.0860     37.5379   6.3785027143e+01   5.8642462691e+01    0.6653506    0.4778485 -23.72  0.003199878    1.421    0.296
        57 -11.2746     74.2674     33.3510   6.4127676880e+01   6.0334652319e+01    0.6499493    0.3441401   6.54  0.002395497    3.646    0.726
        58 -12.1748     25.8174     38.3536   8.7184002551e+01   6.6651142199e+01    0.7304599    0.3710127  25.18  0.003020624    1.994    0.499
        59 -13.0894     98.9310    217.8222   1.0195392899e+02   1.5046113510e+01     1.221845    0.7963415  83.98  0.004887921    2.092    0.522
        60 -10.9863    151.7116    230.0011   9.1740274135e+01   4.3440838317e+00    0.1895276     0.175176   6.69 0.0007527355    1.085    0.079
        61 -12.3459     53.3205    219.2754   1.1252522612e+02   2.0998486733e+01     1.473134    0.8812258 -74.25  0.008000655    1.653    0.395
        62 -13.3460     46.2583    194.5110   1.1171223464e+02   2.7547830604e+01     1.027689    0.7738692 -80.26  0.005801673    1.223    0.183
        63  -9.4744    132.6601    247.3249   9.8326486705e+01   4.1325321253e+00    0.1315031   0.09074046  58.16 0.0007051231    1.727    0.421
        64 -11.7120    155.5105    244.0374   9.3020896014e+01   1.2763860496e+00    0.3573905    0.2436892 -13.38  0.001926752    1.835    0.455
        65 -13.1068     12.9237    221.0648   1.2122610546e+02   2.5000403677e+01     1.209556    0.5158007  86.39  0.005273841    2.315    0.568
        66 -10.3375     78.0866     25.6384   5.9634086255e+01   6.0586484807e+01    0.3853304    0.1954509  41.36  0.001864438    1.735    0.424
        67 -13.2705     10.0320    207.6473   1.2100298752e+02   2.8210756769e+01    0.5370819    0.4265093 -17.89  0.001032769    1.951    0.488
        68 -14.7275     12.3296    199.3992   1.1996669876e+02   2.9873512919e+01     1.767969    0.7909414  53.15  0.008940109    2.057    0.514
