#   1 NUMBER                 Running object number                                     
#   2 MAG_AUTO               Kron-like elliptical aperture magnitude                    [mag]
#   3 X_IMAGE                Object position along x                                    [pixel]
#   4 Y_IMAGE                Object position along y                                    [pixel]
#   5 X_WORLD                Barycenter position along world x axis                     [deg]
#   6 Y_WORLD                Barycenter position along world y axis                     [deg]
#   7 A_WORLD                Profile RMS along major axis (world units)                 [deg]
#   8 B_WORLD                Profile RMS along minor axis (world units)                 [deg]
#   9 THETA_WORLD            Position angle (CCW/world-x)                               [deg]
#  10 FWHM_WORLD             FWHM assuming a gaussian core                              [deg]
#  11 ELONGATION             A_IMAGE/B_IMAGE                                           
#  12 ELLIPTICITY            1 - B_IMAGE/A_IMAGE                                       
         1 -15.1923    109.0744    112.8965   4.1060101369e+01   3.7799931480e+01     4.923619     3.468705  -6.01   0.01951052    2.304    0.566
         2 -14.8478      7.6792     76.0903   7.3215532256e+01   6.1537441789e+01     4.365399     2.834955 -59.23   0.02358635    1.345    0.257
         3 -12.2581     37.8628     31.7927   4.2896885406e+01   6.8401202819e+01     1.508136    0.6841988  29.41  0.006593809    2.199    0.545
         4 -15.2813     93.8780      9.6286   1.0289985736e+01   5.9628748497e+01     4.631487     1.988068  62.37   0.02009465    1.938    0.484
         5 -12.7387    137.8834      4.2766   6.3961827758e-01   4.8948172012e+01    0.6970258    0.3401019  68.96  0.001711362    1.705    0.413
         6 -13.7249      6.8252     23.8785   6.0022787356e+01   7.3395972843e+01     1.247749    0.9295576 -11.77  0.005764041    1.188    0.158
         7  99.0000     19.3243     13.7762   4.5786297435e+01   7.4016715909e+01     1.354024     0.754257  19.06  0.007234011    1.744    0.427
         8 -13.5803     42.7670     44.3885   4.5596003472e+01   6.5302319250e+01      1.98262    0.9984717 -29.10  0.006286388    2.635    0.620
         9 -14.7502     57.6283     36.8891   3.5057923246e+01   6.4156835707e+01     3.937191     1.230164  43.22   0.01359955    2.976    0.664
        10 -13.2454    133.2015     36.5479   1.1825022296e+01   4.6527093825e+01     1.241999    0.9260938  66.55  0.005018993    1.209    0.173
        11 -11.9190    159.8472     22.3261   3.2950449826e+00   4.1541672940e+01    0.6780567    0.4729715 -82.29  0.003689318    1.345    0.256
        12 -12.0196    150.8301     20.8532   4.0467120376e+00   4.3972320814e+01     0.709547    0.4841733 -89.93  0.003772837    1.371    0.271
        13 -12.1015    241.8985     22.7141   3.5609662201e+02   2.3345652766e+01    0.4675204    0.2555748 -63.21  0.001872575    1.532    0.347
        14 -11.3277    235.4482     20.8488   3.5613138454e+02   2.4793621080e+01    0.3011832     0.254438 -77.08   0.00132533    1.186    0.157
        15  -8.5500     48.8338     21.2892   3.1882256746e+01   6.8264865875e+01    0.4191814    0.4087265 -80.81  0.002723101    1.339    0.253
        16 -10.7661    213.8023     16.7352   3.5673177895e+02   2.9656299364e+01    0.2262614     0.205961 -53.84 0.0003911555    1.284    0.221
        17 -11.0578    208.0693     18.2851   3.5750332626e+02   3.0710235753e+01    0.4359439    0.2262647 -66.88  0.001611274    1.789    0.441
        18 -10.7898    139.4345     19.4317   5.2443496775e+00   4.7029169392e+01     0.420736    0.2808636 -41.65  0.001988767    1.568    0.362
        19 -10.9356    170.0001      9.0893   3.5851338028e+02   4.0475760382e+01    0.4206233    0.2967366  47.38  0.001980526    1.753    0.430
        20 -10.8705    187.7184      4.7387   3.5588680281e+02   3.6719319938e+01    0.3092809    0.2678165  43.68 0.0007686541    1.572    0.364
        21 -11.0631    193.5381      7.6558   3.5614841262e+02   3.5090491526e+01    0.6564255    0.1958775  60.71  0.002669142    3.311    0.698
        22 -11.2792    192.6335      3.1674   3.5514806816e+02   3.5751278096e+01    0.5440507    0.2276156  77.72  0.002640253    2.128    0.530
        23 -12.5747    185.9351     11.8019   3.5776685105e+02   3.6403808302e+01    0.8442234    0.4770778 -51.63  0.003741921    1.568    0.362
        24 -11.8437    175.8274     12.5043   3.5885830234e+02   3.8716934896e+01    0.7777489    0.4948794  16.93  0.003624062    3.120    0.679
        25 -11.4310    245.5037     16.9932   3.5476624218e+02   2.3321340489e+01    0.5316436    0.2935237 -82.15  0.003302797    1.718    0.418
        26  -9.8419    142.5148     13.7238   3.0055952475e+00   4.6853586115e+01    0.3155183    0.1803975  79.81 0.0008386672    1.587    0.370
        27 -11.0920    242.3097      9.4206   3.5347525214e+02   2.4750773314e+01    0.2580023    0.1663279 -45.62 0.0007376237    1.287    0.223
        28 -10.3841    244.8513      4.8060   3.5246314995e+02   2.4764461089e+01    0.2009804    0.1751156 -63.37 0.0005582802    1.284    0.221
        29 -10.0581    202.6065     11.1750   3.5629649082e+02   3.2689562839e+01    0.2246049    0.1518201  79.44 0.0007325179    1.377    0.274
        30 -10.9643    155.7970      9.7736   1.7689633733e-01   4.3903795885e+01    0.3079582    0.2087222 -50.68  0.001319619    1.440    0.306
        31 -11.9945    149.5165      8.2798   4.5847983197e-01   4.5626221854e+01    0.6762293    0.3185654  82.49  0.002586632    2.000    0.500
        32  -9.4946    234.4055      9.5861   3.5393154999e+02   2.6249020220e+01     0.257263   0.09748842  85.46  0.001257282    2.720    0.632
        33 -11.4774     57.9167      6.9349   2.0159445790e+01   6.8262441623e+01    0.1978238    0.1564732  41.75 0.0003336089    1.065    0.061
        34 -11.3412    161.8838      3.8447   3.5786552565e+02   4.2972617886e+01    0.4883044    0.3376676 -88.48  0.001788131    1.227    0.185
        35 -10.7617    167.3850      2.1987   3.5690707923e+02   4.1783923578e+01    0.4333579    0.2360207  80.00  0.001950328    1.576    0.365
        36 -10.8789    212.4358      1.8927   3.5358241807e+02   3.1529300023e+01      0.36741     0.171023  85.68  0.001545549    1.966    0.491
        37  -9.5133    205.0366      3.2220   3.5432711477e+02   3.2985874336e+01     0.169819    0.1435344  82.29 0.0005785094    1.273    0.215
        38 -10.1499    174.9000      1.9780   3.5620703832e+02   3.9996842642e+01    0.2456439    0.1583276 -66.02 0.0008886763    1.359    0.264
        39  -9.1013    231.2748      1.3335   3.5244768015e+02   2.7729805297e+01    0.1515396   0.08396839 -82.46 0.0005671679    1.579    0.367
        40 -10.5094     73.3835      1.3740   1.1934834235e+01   6.5326190434e+01     0.229533    0.1076426  61.19 0.0004835381    1.794    0.443
        41  -9.8298     12.6752      1.3164   4.3456517992e+01   7.6770724876e+01    0.1054083   0.09280668  46.72 0.0007043795    1.669    0.401
        42  -9.4894    196.6705     92.1232   1.6076248734e+01   2.2693545245e+01    0.2357745     0.178175  73.25 0.0008057714    1.480    0.324
        43 -10.1685    152.1260     87.4973   2.3076946196e+01   3.3472326517e+01    0.3317636    0.2686491 -69.15 0.0009265808    1.321    0.243
        44 -12.8006    150.5924     76.6791   2.0431063191e+01   3.5822702200e+01     1.571898    0.8200299  51.62   0.00651732    1.886    0.470
        45 -11.9605     87.0577     84.6696   4.0481148090e+01   4.8852085597e+01     1.603738      1.14778  25.18   0.00723761    1.584    0.369
        46 -12.4387    103.8396     62.8471   2.7908056532e+01   4.9634306024e+01     1.257399    0.8372628 -19.39  0.005362262    2.116    0.527
        47 -13.0394     96.1442     71.0072   3.3061034830e+01   4.9821835477e+01     1.162237    0.6050788  41.59 0.0007444995    1.890    0.471
        48 -11.1151     96.2957     67.3081   3.1783295188e+01   5.0520819584e+01    0.2963111    0.2499773  33.03 0.0005055336    1.209    0.173
        49  -9.6643     57.1260     86.1726   5.2557195469e+01   5.3872908311e+01    0.2054789    0.1753427  64.61 0.0004175096    1.329    0.248
        50  -9.5961    178.5063     83.5484   1.6969155021e+01   2.8092584076e+01     0.347579    0.1967925 -29.83  0.001494857    2.052    0.513
        51 -10.0399    175.3370     81.6872   1.7046816221e+01   2.9130034543e+01    0.3098801     0.225197  85.77  0.001084125    1.597    0.374
        52 -11.6504    162.1956     70.7489   1.6521240705e+01   3.4064101874e+01     0.384664    0.2793896 -78.92 0.0007583617    1.570    0.363
        53  -9.0165    216.2151     82.4549   1.1116117546e+01   2.0285728501e+01    0.1620922    0.1208215  87.92 0.0005081875    1.533    0.348
        54 -11.3014    130.9538     66.5852   2.1846334889e+01   4.2407482519e+01    0.7606393    0.5394109  73.57  0.002544256    1.538    0.350
        55 -11.4529    124.4995     57.0170   2.0377018669e+01   4.5644899163e+01     0.554607     0.292636  47.89 0.0008410089    1.859    0.462
        56 -12.0355    126.6697     80.3012   2.7049779878e+01   4.0896117625e+01     1.387439    0.5305125  42.90  0.004514554    2.889    0.654
        57 -13.5368    119.1155     72.8439   2.6786915598e+01   4.4135547780e+01     1.656152     1.318467  46.82  0.008196516    1.224    0.183
        58 -11.2425    198.8315     77.8808   1.2414201819e+01   2.4568577011e+01    0.5694115    0.4125742  42.27  0.002308689    1.705    0.414
        59 -10.3409     74.4881     80.3134   4.3819569071e+01   5.2289673255e+01    0.3707114    0.3583666  19.87  0.002031818    1.013    0.013
        60 -10.7472    205.1479     74.9240   1.0857571053e+01   2.3698964574e+01    0.5046775     0.317756 -79.20  0.002459969    2.031    0.508
        61  -9.5199    169.3815     79.7853   1.7615263322e+01   3.0827700097e+01     0.238285    0.1907643  79.04 0.0006177569    1.297    0.229
        62  -9.4242     70.5843     78.0331   4.4654978848e+01   5.3526929348e+01    0.2458079    0.1810911 -29.74  0.001150716    1.536    0.349
        63 -11.6608    234.6088     75.0249   7.3707484906e+00   1.7892032784e+01    0.4033895    0.2957879 -64.26  0.001435928    1.303    0.233
        64  -8.9861    212.8146     76.3546   1.0190524224e+01   2.1901945570e+01    0.1615829    0.1187099  53.72 0.0003040635    1.558    0.358
        65  -9.2072     67.2715     75.6673   4.5259857436e+01   5.4657329599e+01    0.2000586     0.136508  28.11 0.0004192454    1.510    0.338
        66  -9.8517    167.8750     58.1072   1.2107327534e+01   3.4733438302e+01    0.2746913    0.1757193 -54.92 0.0003131752    1.560    0.359
        67 -10.9917    176.5025     71.3134   1.4193393412e+01   3.0599265920e+01     0.433041    0.3539528 -23.91  0.002341026    1.444    0.307
        68 -11.8270    170.6363     71.1725   1.5137601221e+01   3.1991064640e+01      0.58949    0.4814532  83.01  0.003195681    1.226    0.184
        69 -11.1095    165.6928     62.3560   1.3621416257e+01   3.4595411247e+01    0.3290079    0.2897116 -42.45 0.0003873422    1.191    0.160
        70 -10.6309    170.1275     62.2330   1.2851441538e+01   3.3552414456e+01    0.2852071    0.2771408  41.50 0.0005338881    1.219    0.180
        71  -9.8461    218.6802     72.3961   8.5947835450e+00   2.1322783400e+01    0.2466633    0.1817929 -60.24 0.0007877899    1.241    0.194
        72 -12.2065    213.1922     63.2024   7.1859709975e+00   2.3784600353e+01    0.8719395     0.652144  -0.36  0.004528802    2.208    0.547
        73 -10.9754     60.0363     70.9786   4.6828988017e+01   5.6959626654e+01    0.5758553    0.3531342  23.23  0.001826098    1.812    0.448
        74 -10.7786     58.0050     66.9766   4.6420668936e+01   5.8185858685e+01     0.481233    0.3353266 -35.54  0.001716472    1.514    0.339
        75 -10.8590    200.6768     65.4528   9.2306761058e+00   2.6095717993e+01    0.4690677    0.2482119 -47.16 0.0009115954    1.693    0.409
        76 -10.4099    193.9932     73.3649   1.2028549138e+01   2.6329206417e+01     0.513245     0.324647 -81.65  0.002416387    2.039    0.509
        77 -10.3529    250.3865     64.6678   3.7387207978e+00   1.6518058526e+01     0.249517    0.1182308 -40.93 0.0009380738    1.653    0.395
        78 -11.9012    250.0226     57.8979   2.4395795583e+00   1.7486057072e+01    0.4473136    0.2292491 -62.70  0.001172091    2.015    0.504
        79  -8.9016    229.4994     65.4506   5.8983594054e+00   2.0219507881e+01    0.1228482    0.1048786 -53.45 6.048624e-05    1.069    0.065
        80 -11.2106    184.8148     62.5611   1.0687088705e+01   3.0066261553e+01    0.5174456    0.4176718  -9.42  0.002047413    1.701    0.412
        81 -10.2692    190.3988     61.2172   9.5705429396e+00   2.9001272135e+01    0.3056812     0.274707  45.36  0.001840843    1.350    0.259
        82 -12.0635      3.6833    140.1641   8.1899604078e+01   4.5200489212e+01    0.7156215    0.3400462 -88.46  0.003225958    1.984    0.496
        83 -10.3755    240.3242     60.5028   3.8135919113e+00   1.8877367837e+01    0.3085533     0.137767  52.22   0.00151675    2.904    0.656
        84  -8.9053    155.0576     61.4563   1.5256497402e+01   3.7325546254e+01    0.2113865    0.1366736  60.42 0.0006488365    1.486    0.327
        85  -9.8770    222.0304     59.1221   5.3135505558e+00   2.2571950718e+01    0.2566363    0.2011571  23.07  0.001457483    2.035    0.509
        86  -9.8711    203.3105     57.3252   6.9907826818e+00   2.6721634419e+01    0.2428434    0.2165809  46.95 0.0008864435    1.401    0.286
        87 -10.5502    210.5214     54.4319   5.4981466629e+00   2.5592464368e+01     0.267632    0.2248627  83.26 0.0005957689    1.206    0.171
        88 -10.6431    206.9805     54.7640   5.9687297912e+00   2.6297496866e+01    0.3116529    0.2344171 -76.10  0.001165767    1.265    0.209
        89 -10.3999    174.3564     56.0407   1.0544193723e+01   3.3496121534e+01    0.2486498    0.2114045  67.44 0.0004097208    1.185    0.156
        90  -9.5191    148.5417     56.1064   1.4933960593e+01   3.9787813382e+01    0.3655373    0.1501018  64.35     0.001333    2.497    0.600
        91 -10.4346     69.1447     54.6901   3.7268523259e+01   5.8712764784e+01    0.3407144    0.3093731 -86.95  0.001660104    1.340    0.254
        92 -10.8346    195.5336     52.1042   6.6814165572e+00   2.9177736230e+01    0.2672223    0.2108068 -72.31 0.0003769432    1.154    0.133
        93 -10.6231    155.1932     51.9400   1.2510628707e+01   3.8774367537e+01    0.3207757    0.2872703 -48.57  0.001033172    1.167    0.143
        94  -9.8964    132.5102     53.4613   1.7397805367e+01   4.4220103309e+01    0.3380658    0.1681606  63.11 0.0008331263    1.974    0.493
        95  -9.3041    149.2858     51.7050   1.3497089287e+01   4.0281176113e+01    0.2264381    0.1891607 -88.88 0.0005876102    1.149    0.130
        96 -11.2546    145.2225     50.2026   1.3805317558e+01   4.1526587971e+01    0.5348592    0.3129958 -37.75  0.001772871    1.775    0.437
        97 -10.0251    148.7025     47.3273   1.2304168996e+01   4.1079192531e+01    0.3453087    0.2035642 -62.30  0.001083581    1.982    0.496
        98 -10.3238    110.8834     49.3908   2.1265958283e+01   5.0261653343e+01    0.3657402    0.3121689 -60.71  0.001254785    1.269    0.212
        99 -10.6778    248.1075     48.9417   8.3337700288e-01   1.8994266889e+01    0.2797151    0.1735322 -71.11  0.001426565    1.584    0.369
       100 -10.3569    212.2172     49.5975   4.2191560750e+00   2.5903328684e+01    0.4408197    0.2301467 -68.99  0.001496179    2.221    0.550
       101  -9.7010    209.2885     46.2867   3.7689427241e+00   2.6972718339e+01     0.181625    0.1520942 -12.84 0.0005474741    1.633    0.388
       102  -9.3008    229.4765     48.8573   2.3865262795e+00   2.2498171348e+01    0.1795662    0.1020774 -40.55  0.001001568    1.503    0.335
       103  -9.6296    100.7498     49.0261   2.3983811099e+01   5.2779773948e+01    0.2776512    0.1803493  39.34  0.001264595    1.596    0.373
       104  -9.9398    134.1072     47.6863   1.5225935557e+01   4.4709216722e+01    0.5850972    0.2125118  59.13  0.002098969    2.498    0.600
       105  -9.4767    203.7792     93.8063   1.5381677184e+01   2.0954003459e+01    0.1924731    0.1497185 -65.75  0.001073493    1.334    0.251
       106  -9.8352    121.3693     44.4189   1.6944144022e+01   4.8417124858e+01    0.4254378    0.2946114  -5.38  0.001905557    2.206    0.547
       107 -10.4212    241.8612     42.8577   1.1188025488e-01   2.0912259718e+01    0.3497402    0.1320099 -47.36  0.001581869    2.043    0.511
       108  -9.7697    222.7970     45.0902   2.1881307677e+00   2.4323741712e+01    0.2103027    0.1576091  84.92 0.0006536381    1.334    0.250
       109 -10.9941    203.4657     43.3856   3.7045048354e+00   2.8620305121e+01    0.3683483    0.2145527  59.64  0.001278296    1.838    0.456
       110 -11.3498    197.0521     40.8720   3.7939208854e+00   3.0375418961e+01    0.3621147    0.2631278 -26.17  0.001587502    1.642    0.391
       111 -10.5487    180.0398     41.4815   5.9427721698e+00   3.4219204446e+01    0.4464112    0.3019882 -77.65  0.001815067    1.480    0.324
       112 -10.2640    172.6689     39.6022   6.4051292674e+00   3.6235225740e+01    0.4873697    0.1859435  59.27  0.001790012    2.457    0.593
       113  -8.8633    168.1155     45.4426   8.6229589258e+00   3.6539129309e+01     0.209406    0.1268279  65.54  0.001012199    1.566    0.362
       114 -11.7085    157.3954     43.1029   9.6016973008e+00   3.9507935636e+01    0.4500309    0.2617939  66.07 0.0005909889    1.603    0.376
       115 -13.3529     13.3234    120.0916   7.6760839316e+01   4.9820551021e+01     1.264812    0.4413738 -75.26  0.004766669    2.618    0.618
       116 -11.5049    150.3584     31.6961   7.3568675372e+00   4.2793542709e+01    0.7045776    0.2998187  66.66   0.00290734    2.121    0.529
       117 -10.1444    235.0060     42.7129   6.2871907664e-01   2.2226005403e+01    0.2533511    0.1551803  73.42 0.0009732695    1.740    0.425
       118 -10.0342    229.3260     42.4198   1.0409147653e+00   2.3367998625e+01    0.3105774    0.1794518  52.59  0.001369075    2.250    0.556
       119 -10.9161    225.5791     39.2192   6.8003405391e-01   2.4522345948e+01    0.2707077    0.2063259 -59.59 0.0005731866    1.051    0.048
       120 -10.1021    247.1540     42.3446   3.5960717812e+02   2.0004504210e+01    0.1513734     0.135432  77.05 0.0004124611    1.382    0.276
       121 -12.8964    216.3573     38.3045   1.2879229377e+00   2.6526795906e+01    0.4962675    0.2808996  61.07  0.001240438    1.934    0.483
       122  -9.4647    164.9124     39.7514   7.5186650708e+00   3.8106793129e+01    0.2036584    0.1735156  55.17 0.0006145598    1.293    0.227
       123  -9.8792    148.7190     40.1279   1.0148356791e+01   4.2095858872e+01    0.2225043    0.1866429  75.81 0.0004945493    1.082    0.076
       124 -10.9877    175.9637     43.6734   7.0478386142e+00   3.4890747723e+01    0.4759246    0.2958128 -68.92 0.0009919273    1.701    0.412
       125 -11.6700    238.8189     35.2133   3.5880175645e+02   2.2438492494e+01    0.4917299    0.3271538  55.44  0.003086065    1.959    0.490
       126 -11.0307    159.7733     36.0020   7.2061355709e+00   3.9876798641e+01    0.2732913     0.235912  86.30 0.0004769338    1.036    0.035
       127  -9.9239    197.9123     35.3424   2.3767140721e+00   3.0900304450e+01    0.3118253    0.1628281  80.43  0.001525509    1.954    0.488
       128 -12.0150    175.5988     32.4902   4.1383808149e+00   3.6453297293e+01    0.4254586    0.2553413 -62.98 0.0005479976    1.651    0.394
       129 -10.5057    248.9690     31.2677   3.5731679741e+02   2.1031769788e+01    0.3354816    0.1837491 -86.41  0.001503954    1.915    0.478
       130  -9.2257    224.1477     29.7786   3.5878149355e+02   2.5983941665e+01    0.1481394    0.1379161  72.90  0.000671546    1.376    0.273
       131  -8.8239    186.6281     30.7405   2.4301913441e+00   3.4060465153e+01    0.1258923   0.09437888  48.74 0.0006976211    1.652    0.395
       132  -9.9325    215.3065     28.1795   3.5913807962e+02   2.8005361049e+01    0.2784455    0.1529479  69.24  0.001058886    1.838    0.456
       133 -10.6126    168.3650     27.5631   3.6957991804e+00   3.8818524095e+01    0.7502209    0.2104691  67.96   0.00266597    3.171    0.685
       134 -12.8053      6.6212    126.1823   7.9793470853e+01   4.8661087646e+01     1.065184    0.4747368  49.14  0.004597434    2.307    0.566
       135 -13.2707      3.2840    115.5520   8.0052296894e+01   5.1636928807e+01     1.672338    0.5555149 -71.22   0.00657118    2.495    0.599
       136  -9.7269    244.5750    130.7949   1.7370956969e+01   7.8578459058e+00    0.1782942   0.09405176 -45.22 0.0009478505    1.707    0.414
       137 -10.9699    184.7067    123.0206   2.5255458853e+01   1.9650257525e+01    0.4608257    0.3212434  63.11  0.002190834    1.749    0.428
       138 -10.2677    184.7059     25.4595   1.3025648302e+00   3.5152070494e+01    0.3361068    0.1861674 -53.10  0.001153023    1.647    0.393
       139 -10.2962    179.3400     22.9446   1.2182100039e+00   3.6716397024e+01    0.3509578    0.2154878 -53.27  0.001330698    1.491    0.329
       140 -10.3102    201.2888     21.4415   3.5877548154e+02   3.1836270710e+01    0.2833047    0.2028395  74.72  0.001144366    1.367    0.269
       141  -8.7392    208.5444    123.4378   2.1171046699e+01   1.5031991200e+01    0.1327469    0.1192165 -33.65 0.0001481496    1.017    0.016
       142  -9.1430    162.8312    117.1629   2.8309024784e+01   2.5290502174e+01    0.1999636    0.1752273  11.11  0.000568155    1.312    0.238
       143  -9.6971    212.4759     20.4976   3.5766082217e+02   2.9510654083e+01    0.2129748    0.1539045 -80.58  0.001050319    1.195    0.163
       144  -9.3964     66.9558    113.0136   5.5265265269e+01   4.5599094230e+01    0.2223318    0.2179799  -2.63            0    1.057    0.054
       145  -9.5446    185.9008    112.1220   2.2547580244e+01   2.1416346638e+01    0.2204524    0.1897072 -71.64  0.001220271    1.267    0.211
       146 -10.6272    230.8648    111.0797   1.5286281656e+01   1.3105830869e+01    0.2815892    0.1867631  70.89  0.001546061    2.092    0.522
       147 -11.1554    249.6862    108.3414   1.2383027422e+01   1.0428131881e+01    0.2471893    0.2295696 -26.29  0.001338853    1.181    0.153
       148  -9.1336    178.4036    104.8018   2.2207745119e+01   2.4326946454e+01    0.1976353     0.134595 -31.55 0.0009366188    1.560    0.359
       149 -11.9744     16.3222    100.5712   7.3118863170e+01   5.4743445382e+01    0.5858966    0.4281508 -82.87  0.003140368    1.343    0.255
       150 -10.0252     67.1984    102.4512   5.2715308810e+01   4.8249825331e+01    0.4335089    0.2222257  49.04   0.00164435    2.202    0.546
       151  -9.5105    170.7880    102.0700   2.3002338331e+01   2.6484357276e+01    0.2287164    0.1931432 -74.66  0.001202485    1.281    0.220
       152 -10.1182    196.1219     99.1541   1.7794698392e+01   2.1613376291e+01    0.2343691    0.1908312 -66.75  0.001310076    1.281    0.219
       153  -9.6162    178.5308     18.4996   1.5139028224e-01   3.7417434064e+01    0.2131276     0.114478  75.65 0.0006648363    1.688    0.407
       154 -10.8598    236.0496     95.8914   1.1515077007e+01   1.4548044028e+01     0.308103    0.1494546 -47.12  0.001547057    1.796    0.443
       155 -11.2824    245.7627     93.2731   9.8662958331e+00   1.3278411958e+01    0.3542672    0.2405525 -46.85   0.00192574    1.212    0.175
       156 -11.5030    237.0154     87.3874   9.6589947473e+00   1.5649855951e+01    0.6041642    0.2964057  66.69  0.003002715    2.635    0.620
       157 -12.8098    247.6479     84.0675   7.8357955563e+00   1.4291199133e+01    0.7580195    0.5143409 -43.93  0.004131657    1.177    0.150
       158 -10.4949    250.2089     74.2992   5.6503808703e+00   1.5230682899e+01    0.3009729    0.1889241 -37.75  0.001031067    1.351    0.260
       159 -11.3733    140.0794     91.2920   2.6845951969e+01   3.5565397568e+01    0.5856445    0.5359245 -33.86  0.002606391    1.170    0.145
       160 -10.1020    189.1833     94.6559   1.7877629482e+01   2.3838058012e+01     0.482028     0.233975  55.13  0.002073858    2.186    0.543
       161 -11.3000    188.0199     89.7687   1.6901182211e+01   2.4928073733e+01    0.4133207     0.292197  33.91 0.0008835347    1.850    0.460
       162 -11.1013    200.5844    235.6624   4.3129029319e+01  -1.8867634624e+00    0.3076576    0.1414797  28.83  0.001654948    1.895    0.472
       163  -9.8224    226.0423    215.1898   3.5386460977e+01  -2.1113560478e+00    0.2562047    0.1191107 -17.75  0.001202315    2.753    0.637
       164 -10.2128    227.3654    179.2819   2.9032047130e+01   2.9228074739e+00    0.2540812    0.2041385 -41.15  0.001477726    1.393    0.282
       165 -10.7877      2.3596    171.3856   8.4178984060e+01   3.7386766639e+01     0.328057    0.1097284 -88.80  0.001262267    2.947    0.661
       166 -12.0306    132.1533    113.6246   3.4739259294e+01   3.2692847140e+01     1.822345     1.489206 -22.04  0.008759968    1.442    0.306
       167 -11.5443    193.8644    248.6073   4.6260490722e+01  -2.8453805978e+00    0.3659185    0.1866147  20.01  0.002082649    1.698    0.411
       168 -12.7154    114.8484     96.0954   3.4867059196e+01   4.0360676298e+01    0.8898556     0.736201  39.08   0.00209189    1.212    0.175
