#   1 NUMBER                 Running object number                                     
#   2 MAG_AUTO               Kron-like elliptical aperture magnitude                    [mag]
#   3 X_IMAGE                Object position along x                                    [pixel]
#   4 Y_IMAGE                Object position along y                                    [pixel]
#   5 X_WORLD                Barycenter position along world x axis                     [deg]
#   6 Y_WORLD                Barycenter position along world y axis                     [deg]
#   7 A_WORLD                Profile RMS along major axis (world units)                 [deg]
#   8 B_WORLD                Profile RMS along minor axis (world units)                 [deg]
#   9 THETA_WORLD            Position angle (CCW/world-x)                               [deg]
#  10 FWHM_WORLD             FWHM assuming a gaussian core                              [deg]
#  11 ELONGATION             A_IMAGE/B_IMAGE                                           
#  12 ELLIPTICITY            1 - B_IMAGE/A_IMAGE                                       
         1 -13.6468    207.8678     33.2011   5.5803925853e+01   3.0274723789e+01     1.327939     1.158449  72.15  0.006800229    1.135    0.119
         2 -13.6662    224.0265     16.9856   5.0399527509e+01   2.8641150736e+01     1.078613    0.9555002  35.83  0.002697692    1.607    0.378
         3 -13.4399    246.3918      6.3297   4.6192821862e+01   2.5068782469e+01     1.310798    0.9212877 -64.03  0.005883778    1.230    0.187
         4 -12.9279      3.1316     16.8205   1.0500685378e+02   6.8347668724e+01     1.343598    0.3077743 -37.84  0.006365031    3.256    0.693
         5 -11.6014      2.5880      5.4615   1.0120441729e+02   6.9896726421e+01    0.5566155    0.2896532 -26.19  0.003982651    1.469    0.319
         6 -11.4701    208.6088    246.9450   1.0109830459e+02  -8.4100041415e+00    0.3239635    0.1603294  35.43  0.001149633    1.812    0.448
         7 -12.7413    246.1885    248.1565   9.4306168010e+01  -1.4342921957e+01    0.9908244    0.4347605  37.55  0.005033202    2.110    0.526
         8 -10.8793     95.2583    232.1723   1.2132435666e+02   1.3534578095e+01    0.2607792    0.1669264  75.96 0.0008614836    1.640    0.390
         9 -12.8891     88.2814    226.4984   1.2202120857e+02   1.5793018933e+01     1.372845    0.2629669  49.13  0.003977456    5.309    0.812
        10 -12.2713    109.6691    230.4460   1.1826121139e+02   1.1562199819e+01    0.6155263    0.1914256  46.26  0.002341669    2.827    0.646
        11 -10.5627    248.9929    230.2447   9.0685919719e+01  -1.2206372002e+01     0.178193    0.1468293  11.99  0.000816651    1.072    0.067
        12 -11.0835    133.3006    231.2652   1.1361190703e+02   7.3755445503e+00    0.3316429    0.1706546  30.72  0.001402526    2.500    0.600
        13 -10.2627     81.4972    249.5067   1.2580460050e+02   1.2188407883e+01     0.203847    0.1132128  33.22  0.001039175    2.309    0.567
        14 -12.9631     37.2121    206.5641   1.2984970736e+02   2.6994464803e+01     1.014847    0.7211224  28.63  0.006217535    1.938    0.484
        15 -11.6158     50.5255    192.0322   1.2564825542e+02   2.8640850098e+01    0.2607685    0.2308684 -65.52 0.0005222695    1.280    0.219
        16 -13.8962     25.5872    217.3207   1.3295952257e+02   2.5995688852e+01    0.7231567    0.5109835  82.61  0.002430825    1.093    0.085
        17 -14.4173      6.8708    240.4489   1.3773086973e+02   2.3300178403e+01     2.312912      1.65236  75.64   0.01781173    1.079    0.073
        18 -12.9369     20.1060    223.1740   1.3438339064e+02   2.5369805130e+01    0.3025084    0.2398771 -81.88 0.0007546202    1.241    0.194
        19 -11.8493     57.9511    184.1927   1.2310796985e+02   2.9501289689e+01    0.2595679    0.2205348 -67.83  0.000417311    1.182    0.154
        20 -10.4400    101.5150    246.4994   1.2178812803e+02   9.7046641635e+00    0.1278626    0.1041617  66.60 0.0008105069    1.001    0.001
        21 -10.7055     69.8331    172.2853   1.1878854941e+02   3.0699839156e+01    0.2348469    0.1978547 -70.75 0.0003149784    1.083    0.077
        22 -13.0930     55.5977    169.7900   1.2171752997e+02   3.3144065186e+01    0.5276799    0.2719034 -46.58   0.00153305    2.230    0.552
        23 -11.7388     77.9049    164.1241   1.1560820458e+02   3.1488722341e+01    0.5989103     0.449321 -53.63   0.00327956    1.305    0.234
        24  -9.5219     53.9502    243.4910   1.3014393853e+02   1.7217490930e+01     0.165932    0.1002929  48.34  0.000450528    1.520    0.342
        25 -10.1481     92.6758    149.1823   1.0930196976e+02   3.2788434545e+01    0.3140672    0.2689045 -72.09 0.0008788761    1.102    0.092
        26 -11.9314     80.8582    147.8608   1.1205978308e+02   3.4918231238e+01    0.3104813    0.2368966 -52.30 0.0004885104    1.241    0.194
        27 -11.9431     67.9368    143.7935   1.1463044432e+02   3.7687295142e+01    0.6443196    0.4263366  70.87  0.002932962    1.935    0.483
        28  -9.1760     96.1665    145.3658   1.0766861363e+02   3.3126587629e+01    0.2330108    0.1855018 -49.72 0.0004412318    1.220    0.180
        29  -9.7812    106.5079    134.1818   1.0266265922e+02   3.3991849089e+01    0.5154452    0.2627476 -44.61  0.002105559    1.974    0.493
        30 -10.1051     93.0046    132.2905   1.0581800294e+02   3.6707486791e+01    0.2417394    0.1910798 -46.52  0.000396092    1.218    0.179
        31  -9.1980    104.6442    122.4513   1.0052799028e+02   3.7009041834e+01    0.1702055    0.1446022  24.20   0.00031195    1.311    0.237
        32 -13.6582     10.6917    207.4459   1.3484140370e+02   2.9595645844e+01     1.160573    0.7401539  49.87  0.005057984    1.587    0.370
        33 -12.2202    140.4213    249.2115   1.1467415388e+02   2.7733796212e+00    0.6572134    0.2416445  45.21   0.00277985    2.310    0.567
        34 -11.2492    243.2133     93.6480   6.4102888217e+01   1.2909605688e+01    0.2874652    0.1892139 -34.67  0.001231667    1.638    0.389
        35 -10.1525    161.8064     79.5578   7.5296498742e+01   3.3966735226e+01    0.2705101    0.2115623 -40.30 0.0008131096    1.324    0.245
        36 -11.7399      2.4153     51.2911   1.1524680233e+02   6.2943683874e+01    0.4115022    0.1718863 -37.91  0.002407467    1.866    0.464
        37 -11.6079      2.3295     45.1322   1.1372944138e+02   6.4007199659e+01    0.4139352      0.10485 -44.02  0.002033478    2.585    0.613
        38 -15.2729     10.4174    152.7241   1.2983603667e+02   4.1576553457e+01     11.32167     3.172594 -77.94   0.03823064    4.552    0.780
        39 -12.1036    171.7545    248.4561   1.0846535417e+02  -2.4687633296e+00      0.51403    0.3041554  35.61  0.002697478    1.548    0.354
        40 -11.5281    117.4459    247.7276   1.1890937572e+02   6.8986199113e+00    0.4691406    0.2372053  65.96  0.002057012    2.612    0.617
        41 -11.3083     88.0974    248.1251   1.2446095061e+02   1.1468367814e+01    0.3742166     0.251339 -37.77  0.001977083    2.697    0.629
