#   1 NUMBER                 Running object number                                     
#   2 MAG_AUTO               Kron-like elliptical aperture magnitude                    [mag]
#   3 X_IMAGE                Object position along x                                    [pixel]
#   4 Y_IMAGE                Object position along y                                    [pixel]
#   5 X_WORLD                Barycenter position along world x axis                     [deg]
#   6 Y_WORLD                Barycenter position along world y axis                     [deg]
#   7 A_WORLD                Profile RMS along major axis (world units)                 [deg]
#   8 B_WORLD                Profile RMS along minor axis (world units)                 [deg]
#   9 THETA_WORLD            Position angle (CCW/world-x)                               [deg]
#  10 FWHM_WORLD             FWHM assuming a gaussian core                              [deg]
#  11 ELONGATION             A_IMAGE/B_IMAGE                                           
#  12 ELLIPTICITY            1 - B_IMAGE/A_IMAGE                                       
         1 -14.5054    147.3682     59.5152   9.0807581254e+01   4.0277203799e+01     1.308742    0.9832702 -28.55 0.0009456341    1.328    0.247
         2 -14.8798    158.0136     45.1345   8.3846201678e+01   3.9823092020e+01     1.432229     1.089265 -24.79  0.003951302    1.337    0.252
         3 -14.7371    169.8208     13.1297   7.1347915103e+01   4.0622826957e+01     1.403755     1.006729  45.77  0.004805893    1.362    0.266
         4 -12.9879    189.5277     14.1586   6.9031934586e+01   3.5445385022e+01    0.5572842    0.3349452 -48.72  0.001932596    1.755    0.430
         5 -14.4343    204.7253    174.1742   1.0834540746e+02   7.3181832878e+00     1.280981    0.8274974 -52.73  0.006285775    2.118    0.528
         6 -14.5037    196.1328    236.4478   1.2051126075e+02   2.1899809332e-01    0.6406448    0.4576419  -3.28  0.003864004    1.723    0.420
         7 -14.1505    188.5835    248.7444   1.2348171440e+02  -5.2303077032e-02     1.130398    0.3151177  40.47  0.004924251    2.814    0.645
         8 -19.9542     91.9184    228.5982   1.3776138655e+02   1.7733176407e+01     7.526289     5.651851  66.41   0.04986696    1.099    0.090
         9 -12.0132    201.1749    163.6885   1.0688211775e+02   9.6625797665e+00    0.5732346    0.4304175 -39.05  0.003104639    1.424    0.298
        10 -13.5147    195.6729    169.6151   1.0914167481e+02   9.7925272342e+00    0.4659586     0.451836 -18.00  0.001404239    1.150    0.130
        11 -12.5054    193.6122    164.8078   1.0856063288e+02   1.0984208906e+01     0.345927    0.2841831  34.74  0.001086758    1.129    0.114
        12 -11.3977    150.9190    239.5120   1.2869234770e+02   7.0890792040e+00    0.1979395    0.1762944  30.93 0.0007945711    1.215    0.177
        13 -11.7913     12.7586    241.4049   1.5142778336e+02   2.5075635305e+01     0.174623    0.1199848 -84.18  0.001482563    1.401    0.286
        14 -10.9201     28.3705    237.9476   1.4891247906e+02   2.4043339056e+01     0.129195   0.08552331  86.45 0.0003869337    1.253    0.202
        15 -12.4393    230.3753    167.4067   1.0234663161e+02   3.4589270122e+00    0.4009059    0.2054937 -46.49  0.001749108    2.623    0.619
        16 -12.1812     21.7165    236.1455   1.4983540067e+02   2.5037197865e+01    0.1875906    0.1122609  89.20  0.001442062    1.385    0.278
        17 -13.5598    163.8967    157.4802   1.1303284157e+02   1.8243757278e+01    0.4390567    0.3927564 -78.27  0.001009703    1.296    0.229
        18 -10.4858      4.9858    162.2392   1.4825046466e+02   4.0373206241e+01    0.1718268    0.1105947  73.16  0.000676065    1.302    0.232
        19 -10.8843    218.3282    220.0005   1.1418770409e+02  -1.3945505868e+00    0.2163513    0.1432996 -38.60  0.001044223    1.858    0.462
        20 -10.9591     17.9435    154.0327   1.4491704320e+02   4.0992304279e+01    0.2162622    0.1374505 -65.84 0.0004707094    1.416    0.294
        21 -11.1236     18.4134    149.3985   1.4438509046e+02   4.1932990137e+01    0.2633993    0.1545045 -51.77  0.001396564    1.926    0.481
        22 -12.8955    153.7220    152.4395   1.1415581125e+02   2.1240762620e+01    0.3721984    0.2762567 -77.26  0.001796936    1.840    0.457
        23 -10.4949     23.9688    216.9252   1.4841706265e+02   2.8109526287e+01    0.1119745   0.07930994  79.09 -0.001877172    1.060    0.056
        24 -10.9715    192.4122    153.2215   1.0635001644e+02   1.3171379627e+01    0.1927999    0.1343338 -47.21 0.0005553925    1.607    0.378
        25 -13.2735    174.3260    149.6083   1.0920325614e+02   1.7558110286e+01    0.5650742    0.3610845 -50.48   0.00258776    1.762    0.433
        26 -10.5813      8.1493    148.5923   1.4652595362e+02   4.2952637552e+01    0.2240319    0.1027031 -62.99  0.001295286    1.869    0.465
        27 -10.0922    181.2891    147.6270   1.0734426276e+02   1.6462446574e+01    0.1444132    0.1159756 -78.28 0.0007021321    1.721    0.419
        28 -12.0414    174.8327    141.1432   1.0722142614e+02   1.9004755156e+01    0.2190219    0.2041796  88.43 0.0005791139    1.227    0.185
        29 -11.1496      3.3196    134.8660   1.4638318839e+02   4.6222906660e+01    0.2010809    0.1264833 -58.12 0.0006410265    1.543    0.352
        30 -11.7074    147.9921    133.7338   1.1135643314e+02   2.6093819733e+01    0.2058068    0.1896205  51.68 0.0003736454    1.077    0.071
        31 -13.4216    160.5623    128.1427   1.0724560036e+02   2.4535229171e+01    0.4880344    0.4342777 -44.59  0.001771078    1.143    0.125
        32 -13.2329     38.3122    124.1633   1.3668205181e+02   4.5598561345e+01    0.4463773     0.309218  24.81  0.002716547    1.864    0.464
        33 -10.0733     13.3979    236.3486   1.5110233093e+02   2.5839935555e+01    0.0933845   0.06613428  70.82 0.0002442123    1.073    0.068
        34 -12.9737     11.3681    206.0210   1.4987634938e+02   3.1315613119e+01    0.3772638    0.2348692  32.95  0.002144104    2.053    0.513
        35 -10.8186     19.1143    203.9887   1.4844540043e+02   3.0947241353e+01     0.221926   0.08926797 -56.57  0.001175233    3.246    0.692
        36 -10.3476     31.5512    205.2469   1.4637566667e+02   2.9442681118e+01     0.127471   0.08552362 -73.84 0.0003569869    1.438    0.304
        37 -10.8804    205.3454    110.2371   9.3688291216e+01   1.7710812963e+01    0.3095749    0.2057331  44.47 0.0008881688    1.523    0.343
        38 -12.0895     29.4557    105.1217   1.3611223483e+02   5.0694134697e+01    0.3721425    0.2342042   0.60 0.0006035426    2.576    0.612
        39 -11.0593    124.4820     95.4828   1.0737928539e+02   3.8796204708e+01    0.1484509    0.1433789 -38.10 5.810854e-05    1.009    0.009
        40 -19.1243     76.8404     98.5521   1.2122414411e+02   4.6619163014e+01     17.19937    0.7845743 -53.36   0.02406088   18.837    0.947
        41 -11.9019     41.9239     93.1443   1.3030620341e+02   5.2176043227e+01    0.3686292    0.2065287 -63.50  0.001827168    1.530    0.347
        42 -12.6020     51.3052     91.7183   1.2717470664e+02   5.1474765774e+01    0.3252806    0.2753176 -19.27  0.001313688    1.382    0.276
        43 -11.5497      3.7608     90.2379   1.4115947133e+02   5.5862122454e+01    0.2443424    0.1438128 -24.14  0.001455122    2.365    0.577
        44 -10.8063    105.4643     82.2086   1.0865214517e+02   4.5264155037e+01    0.2353789    0.2016873  41.10 0.0003626187    1.237    0.192
        45 -10.8914    142.5011     80.9666   9.8686397856e+01   3.7694597658e+01    0.2280159    0.2121259  38.70 0.0005278563    1.087    0.080
        46 -10.7195     19.6293    196.9665   1.4790767590e+02   3.2212799940e+01     0.144676    0.1019662 -76.73 0.0007177236    1.339    0.253
        47 -12.0938    199.2070    178.9306   1.1030880479e+02   7.6378736141e+00     0.402831    0.3103566 -81.29  0.001472647    2.242    0.554
        48 -13.2205    161.9325     36.2203   8.0166644072e+01   4.0030584955e+01     0.488667    0.4462461  20.74 0.0008466077    1.110    0.099
        49 -11.1520     13.3947     59.8772   1.3242824304e+02   6.1755128228e+01    0.1621624    0.1536119 -72.73 0.0004393233    1.259    0.206
        50 -11.1906     15.5572    246.7801   1.5125945061e+02   2.3934911883e+01     0.135366   0.06361958  80.48 0.0009376652    1.769    0.435
