#   1 NUMBER                 Running object number                                     
#   2 MAG_AUTO               Kron-like elliptical aperture magnitude                    [mag]
#   3 X_IMAGE                Object position along x                                    [pixel]
#   4 Y_IMAGE                Object position along y                                    [pixel]
#   5 X_WORLD                Barycenter position along world x axis                     [deg]
#   6 Y_WORLD                Barycenter position along world y axis                     [deg]
#   7 A_WORLD                Profile RMS along major axis (world units)                 [deg]
#   8 B_WORLD                Profile RMS along minor axis (world units)                 [deg]
#   9 THETA_WORLD            Position angle (CCW/world-x)                               [deg]
#  10 FWHM_WORLD             FWHM assuming a gaussian core                              [deg]
#  11 ELONGATION             A_IMAGE/B_IMAGE                                           
#  12 ELLIPTICITY            1 - B_IMAGE/A_IMAGE                                       
         1 -15.1830     21.7301    133.3643   1.2232403647e+02   4.5306827208e+01     4.611486     3.285308  32.96    0.0297466    1.507    0.336
         2 -12.0447    176.2863     47.7242   6.0271149292e+01   3.4776769470e+01     1.089573    0.8273633   2.49  0.003026827    1.472    0.321
         3 -11.9495    195.1600     28.1652   5.1523001884e+01   3.2394898273e+01    0.8905489    0.7169231 -15.04  0.002581043    1.229    0.187
         4 -12.0417    188.0791     38.0457   5.5470149268e+01   3.3042206070e+01     1.116671    0.8923728 -30.26  0.005471359    1.181    0.154
         5  -9.3503    211.7833      7.8081   4.3875169570e+01   3.0307868484e+01    0.2250418    0.1730513  59.40 0.0007899033    1.385    0.278
         6  -7.4348    137.4568      6.5369   5.1614076999e+01   4.9573038815e+01    0.1442993    0.1355348  36.63 6.307164e-05    1.038    0.037
         7  -9.5050    218.4849      2.7582   4.1965062715e+01   2.9152565086e+01    0.3683433    0.2364001  58.79   0.00197468    1.667    0.400
         8  -9.1208    214.4875      1.9971   4.2027657512e+01   3.0156924311e+01    0.2656882    0.1883941 -80.07  0.001469473    1.473    0.321
         9  -9.0558      6.5086      3.0055   1.0094611047e+02   7.6378039218e+01    0.1911602    0.0987331 -52.73  0.001039307    1.609    0.379
        10  -8.2299    126.9338    147.8035   9.7284737755e+01   2.8142177879e+01    0.1885206    0.1676839  16.74 0.0003342759    1.173    0.148
        11 -10.0409    237.6673    213.4051   8.7703660422e+01   1.5411186600e+00    0.2500609    0.1689379  35.01  0.001804137    1.472    0.321
        12 -11.8330    248.0665    212.4278   8.5990866157e+01   2.8635231522e-01    0.8326787    0.4790461 -15.87  0.005774894    1.627    0.385
        13 -12.2138    246.6017    242.7679   9.0634990019e+01  -2.0891870276e+00     1.404942    0.9481302 -13.67   0.01163903    1.512    0.339
        14  -9.8293    249.4917    224.7468   8.7652244926e+01  -9.6364673117e-01    0.4791571    0.2584996 -10.46  0.002692777    1.768    0.434
        15 -13.8866    120.6861    231.0923   1.0995529731e+02   1.5472473082e+01     4.525342      2.70521  33.25   0.01341426    1.370    0.270
        16  -9.3222    236.1495    195.8181   8.5119885619e+01   3.4582848582e+00    0.2019292    0.1526429  10.52  0.001476142    1.040    0.039
        17  -9.9147    249.1633    193.8309   8.2813072102e+01   1.8697018552e+00    0.2784242    0.1388253 -25.42  0.001431026    1.936    0.483
        18  -8.9273     57.8529    193.7691   1.1879273114e+02   2.9299036112e+01    0.1215746   0.09422772  62.76 0.0003490837    1.084    0.078
        19 -10.8093     12.0790    191.5074   1.2806863846e+02   3.4250335138e+01    0.2114078    0.1069964  70.87 0.0008386973    1.673    0.402
        20  -9.8319     15.7962    192.7331   1.2737350317e+02   3.3707186032e+01    0.1127716   0.06848613 -84.84 0.0003903672    1.556    0.357
        21 -10.8851     36.6363    189.4515   1.2291788962e+02   3.2365868478e+01    0.1672523    0.1289177  54.66 0.0002083567    1.072    0.067
        22 -13.8423     58.1378    224.0308   1.2089524500e+02   2.4126373636e+01    0.3772245    0.3077421  70.23  0.002726837    1.180    0.153
        23 -12.0776     14.7092    185.3918   1.2726591560e+02   3.5164491996e+01     0.267045     0.126192  46.80  0.001670681    1.650    0.394
        24 -10.4523     46.3764    185.0856   1.2054853303e+02   3.2176104168e+01    0.2718418    0.1316301  51.19  0.001470073    1.732    0.423
        25  -9.8152     10.0940    185.9628   1.2824269000e+02   3.5444900203e+01    0.1376747    0.1037714  64.22  0.001061683    1.010    0.010
        26 -10.4163      9.8387    181.9092   1.2812530400e+02   3.6231069193e+01    0.1796156    0.1119711 -86.34 0.0008380634    1.461    0.316
        27 -10.4023     32.6547    183.1932   1.2336232457e+02   3.3940105981e+01    0.1719821     0.157234  24.06  0.000730627    1.412    0.292
        28  -9.7071      1.2619    182.8104   1.2993468704e+02   3.6738739941e+01     0.113187   0.07412778  86.67 0.0002265715    1.318    0.241
        29  -8.6430    152.3209    181.2711   9.7552958251e+01   1.8159656333e+01    0.2220809    0.1319608  35.67 0.0006116712    1.461    0.316
        30 -10.1419    146.8171    179.7594   9.8420856864e+01   1.9279907035e+01    0.2685558    0.2438434  59.26  0.001812348    1.260    0.206
        31 -18.7745     27.4064    234.8705   1.2696081060e+02   2.5550351061e+01     3.194587     1.664952  44.86   0.02363636    1.366    0.268
        32  -7.2826    225.2531    180.6380   8.4235861236e+01   6.6590394383e+00   0.09959096   0.09075557 -33.65 0.0003456055    1.619    0.382
        33 -10.1961     16.3462    179.2108   1.2662611325e+02   3.6201890870e+01    0.1433736    0.1185288  67.33 0.0003183701    1.095    0.087
        34  -9.1073     78.7194    177.7405   1.1276658076e+02   2.9732439022e+01    0.3203845    0.2185254  33.86  0.001960614    1.417    0.294
        35  -9.3363     83.0596    172.8130   1.1122455850e+02   3.0096730980e+01    0.2578758    0.1987195 -34.57 0.0007444674    1.750    0.428
        36  -8.7040    120.0057    176.5105   1.0353181748e+02   2.4053177817e+01    0.1960724    0.1079302  40.61 0.0007613713    1.578    0.366
        37  -9.6219    175.2133    172.3822   9.1584884951e+01   1.5733523624e+01    0.2835078     0.236607  29.17 0.0007509731    1.071    0.066
        38 -14.2461      4.7398    202.9044   1.2991557247e+02   3.2812712655e+01    0.7292466    0.3980174 -71.57  0.005113941    1.977    0.494
        39  -8.6493    105.1954    170.7177   1.0595654175e+02   2.7345062889e+01    0.2297636    0.1590117 -27.69  0.001238968    2.104    0.525
        40  -8.1307     37.3125    170.7881   1.2147351440e+02   3.5902790380e+01    0.1319742     0.093497 -77.14 0.0004317196    1.385    0.278
        41  -7.7705    195.7981    169.7630   8.7292710781e+01   1.2667130520e+01     0.154793    0.1403441  37.92 0.0005821126    1.321    0.243
        42  -8.3412    113.8288    170.5809   1.0401480437e+02   2.6060471430e+01    0.2002045    0.1119958  40.15  0.001036461    1.577    0.366
        43  -8.4887    110.5105    168.0031   1.0437503801e+02   2.7042827045e+01    0.3111568    0.1852267  79.21   0.00132959    3.228    0.690
        44 -10.0588     21.7690    169.9250   1.2493038826e+02   3.7550906703e+01    0.1599726    0.1323553  73.13 0.0002969969    1.069    0.064
        45  -8.3623      7.1627    170.0860   1.2818319830e+02   3.8739295477e+01    0.1330225   0.09747889  70.29  0.000325159    1.059    0.056
        46 -14.2139     74.4776    246.8362   1.1943219751e+02   1.8912993284e+01    0.4663675    0.4311067 -45.95  0.004244295    1.578    0.366
        47  -7.1658     77.5982    168.3068   1.1194074499e+02   3.1700855824e+01      0.13597     0.078555  61.14 0.0006994445    1.850    0.459
        48  -7.8935     62.5620    166.5950   1.1525401740e+02   3.3945656208e+01    0.1192913    0.1012006  62.37 8.992772e-05    1.012    0.012
        49  -9.3901     90.2311    163.7164   1.0841601619e+02   3.0867891038e+01    0.2720692    0.2014444 -40.67  0.001090561    1.670    0.401
        50  -8.4210     86.2621    230.7569   1.1619517678e+02   1.9855591934e+01    0.1316268    0.1030613  48.78  0.000311963    1.041    0.040
        51  -8.5956    107.5650    140.7216   1.0061780188e+02   3.2804188213e+01    0.4074491    0.2624111 -21.45  0.001807819    2.621    0.618
        52  -7.9347     67.5089    160.0946   1.1335680863e+02   3.4654072738e+01    0.1853401    0.1528282  49.85 0.0009190066    1.110    0.099
        53  -7.0628    100.3273    140.2806   1.0234383859e+02   3.4069366159e+01    0.1286269    0.1055136  -5.14 0.0003134591    1.598    0.374
        54  -7.3394    122.3643    158.6900   1.0023979507e+02   2.6881642636e+01    0.1355176   0.09662804  66.85  0.000703917    1.752    0.429
        55  -8.8706    104.8798    133.3692   9.9930630652e+01   3.4755546203e+01    0.2781591    0.2081986 -70.25  0.000291324    1.503    0.334
        56  -9.1831     94.6881    157.8035   1.0653260203e+02   3.1386866109e+01    0.2819223    0.2368565 -88.08  0.001035521    1.262    0.207
        57  -8.2108    115.3754    132.2882   9.7076798989e+01   3.3181926412e+01    0.3217514    0.1982016  69.30  0.001345058    2.610    0.617
        58  -9.8483     97.6562    153.3426   1.0515119231e+02   3.1830617985e+01    0.4149589     0.288518 -64.63  0.001508802    1.553    0.356
        59  -8.4069    124.9758    127.1136   9.3636360061e+01   3.2488902981e+01    0.2304717    0.2059372 -78.92  0.000405735    1.267    0.211
        60  -8.9073    120.3725    128.1247   9.4983796213e+01   3.3129169754e+01    0.1845903    0.1755173 -69.61 0.0008969726    1.106    0.096
        61  -7.1131    141.3094    155.6975   9.5509718267e+01   2.4215183752e+01    0.1279674    0.1023403  71.10 0.0003841991    1.605    0.377
        62  -9.1585    106.2859    154.1483   1.0321669033e+02   3.0336171096e+01    0.2397258    0.1876336  47.88 0.0005334759    1.183    0.154
        63 -12.3743     67.8565    144.1666   1.1126359774e+02   3.7957581466e+01     1.108128     0.636949  63.52  0.003795072    1.977    0.494
        64  -8.0062    168.6558    114.0635   8.0704762800e+01   2.6230261327e+01    0.2014334    0.1740177 -28.35 0.0005318503    1.150    0.130
        65  -7.5742    162.0060    112.0263   8.1593936631e+01   2.7961920038e+01    0.1695426    0.1555428  26.46            0    1.055    0.052
        66  -7.5768    157.9689    110.7256   8.2137535200e+01   2.9032520634e+01     0.199878    0.1753838  38.07 0.0004442584    1.123    0.109
        67  -8.8823    118.8048    108.6686   9.0978789376e+01   3.7367711496e+01    0.4268518    0.2549535  21.75   0.00170442    2.532    0.605
        68  -8.4169    196.9314    107.0322   7.3559557512e+01   2.1453701125e+01    0.2131685    0.1905286   4.13 0.0004911858    1.025    0.025
        69  -7.4251    179.3039    107.7341   7.6997368809e+01   2.5038809665e+01    0.1843985    0.1282569  37.91 0.0002023751    1.431    0.301
        70  -7.7581    181.1616    104.7475   7.5880854237e+01   2.5120878689e+01    0.1928298    0.1755473  15.41 0.0004686303    1.047    0.045
        71  -7.3800    135.2797    106.3120   8.6238540395e+01   3.4558222235e+01    0.1450723    0.1140154  -0.14 0.0004232291    1.566    0.361
        72  -7.2199    114.6958    153.2720   1.0109358264e+02   2.9157951386e+01    0.1293532   0.09675635  66.03 0.0002340993    1.537    0.349
        73  -7.0774     69.2856     98.2981   1.0291936441e+02   4.8109992618e+01    0.1344997    0.1040769 -29.86 0.0002848584    1.550    0.355
        74  -8.0818    123.1345     96.2027   8.6643641111e+01   3.9033074206e+01     0.215366    0.1976216   3.75 0.0004002875    1.151    0.131
        75  -7.5631    112.5583     88.4823   8.7352919795e+01   4.2743698024e+01     0.146153    0.1419073 -28.28 5.348499e-05    1.013    0.013
        76  -8.3358    158.0841     84.2464   7.4958813231e+01   3.3613025638e+01    0.4336519    0.3092037 -34.70  0.002084674    1.369    0.270
        77  -7.9149    132.6587    149.0158   9.6200684156e+01   2.6922256863e+01    0.1746133    0.1691191 -17.05 0.0007374681    1.097    0.088
        78  -8.1141    109.7402     83.8554   8.6810304641e+01   4.4259952623e+01     0.209066    0.1905267 -20.62 0.0002907306    1.130    0.115
        79  -8.1873    133.6307    144.8593   9.5193586073e+01   2.7518825395e+01    0.3842354    0.1376459 -49.76   0.00118729    3.111    0.679
        80  -7.0503    120.2879     74.2793   8.0961684120e+01   4.3945353374e+01    0.1472629    0.1172129   6.29 0.0002696331    1.520    0.342
        81  -9.4680    116.7845     67.2905   7.9632572006e+01   4.6041542775e+01    0.2570378    0.2459313 -39.62 0.0002577057    1.050    0.048
        82  -9.9620    166.6148     64.2010   6.7183057021e+01   3.4826412521e+01    0.3719933    0.3296469 -71.75  0.001964917    1.302    0.232
        83  -7.7543    212.5435     58.5264   5.8229026889e+01   2.4712857741e+01     0.140342    0.1271693 -18.81 3.570337e-05    1.004    0.004
        84 -10.7178    186.2775     51.3647   5.9849559575e+01   3.1828895019e+01     1.020972    0.5594662   4.53  0.003700855    2.992    0.666
        85 -10.2936     74.3694    220.8530   1.1763434037e+02   2.2785774239e+01    0.1844211    0.1421503  20.35 0.0006581019    1.585    0.369
        86 -11.6355     68.5813    213.7905   1.1820134854e+02   2.4601353042e+01    0.1739165    0.1340742  50.31 0.0003028728    1.023    0.023
        87  -9.7155     46.2664    213.0986   1.2245506858e+02   2.7185586929e+01   0.08662385   0.05348297  32.40 0.0005671523    1.561    0.359
        88  -7.7092     32.4956     37.9273   1.0059361404e+02   6.6666847438e+01    0.1841323    0.1150065 -56.07 0.0002981375    1.419    0.295
        89  -7.7487     39.9996     26.2038   9.1834137883e+01   6.8193094339e+01    0.1770949    0.1570513 -25.02 0.0002129438    1.045    0.043
        90 -15.0384     65.4613    229.8704   1.1992801288e+02   2.2405291540e+01    0.8202859    0.4841358 -69.80  0.005841205    2.009    0.502
        91 -11.8459     60.4837    209.2405   1.1944048486e+02   2.6289194252e+01    0.1826966    0.1619135  23.87 0.0008776053    1.407    0.289
        92  -8.8941     90.0914    196.9433   1.1238721275e+02   2.4772331084e+01    0.1625444    0.1395628  47.46 0.0003319106    1.062    0.059
        93 -11.8884     17.7405    201.3941   1.2736395522e+02   3.1975903145e+01    0.2668589     0.104028  55.33  0.001566314    1.980    0.495
        94 -10.8397     57.9193    199.5743   1.1923251480e+02   2.8251665926e+01    0.1540322    0.1288576  68.74 0.0004498596    1.102    0.093
