#   1 NUMBER                 Running object number                                     
#   2 MAG_AUTO               Kron-like elliptical aperture magnitude                    [mag]
#   3 X_IMAGE                Object position along x                                    [pixel]
#   4 Y_IMAGE                Object position along y                                    [pixel]
#   5 X_WORLD                Barycenter position along world x axis                     [deg]
#   6 Y_WORLD                Barycenter position along world y axis                     [deg]
#   7 A_WORLD                Profile RMS along major axis (world units)                 [deg]
#   8 B_WORLD                Profile RMS along minor axis (world units)                 [deg]
#   9 THETA_WORLD            Position angle (CCW/world-x)                               [deg]
#  10 FWHM_WORLD             FWHM assuming a gaussian core                              [deg]
#  11 ELONGATION             A_IMAGE/B_IMAGE                                           
#  12 ELLIPTICITY            1 - B_IMAGE/A_IMAGE                                       
         1 -13.1496    199.9620     33.3066   6.2998562605e+01   3.1042608098e+01    0.9755175    0.7712927  54.71  0.006123528    1.322    0.244
         2 -13.8387    216.4599     15.2734   5.7366466032e+01   2.9484404193e+01    0.9907196    0.7896243  42.50  0.006635917    1.651    0.394
         3 -12.1848      2.4175     15.6985   1.0922201573e+02   6.9301188847e+01    0.5397981     0.163101 -41.21   0.00273575    2.799    0.643
         4 -12.4572      3.2688      4.2690   1.0408080870e+02   7.0670034780e+01    0.5850198    0.3616498 -13.27  0.004313224    1.213    0.176
         5  -9.8448     66.8987    243.8636   1.3538362695e+02   1.5395373512e+01    0.2536048    0.1686467  16.93  0.001014668    2.400    0.583
         6 -11.5116    184.1953    249.6453   1.1260537482e+02  -3.7386785120e+00     0.386885    0.2235842  32.15  0.001514245    1.528    0.345
         7 -10.7924    174.6145    250.2079   1.1460072455e+02  -2.3203793858e+00    0.3391855    0.1451244  47.41  0.001428402    2.649    0.622
         8 -11.0152    169.2455    249.1458   1.1551080445e+02  -1.2927532559e+00    0.2933128    0.2389347 -19.45  0.000382151    1.333    0.250
         9 -12.1800    166.4054    242.4086   1.1502920764e+02   2.9917046809e-01    0.6390086    0.2377636  47.21  0.002427139    3.058    0.673
        10 -11.0726    162.7839    250.0191   1.1694443355e+02  -4.0449745469e-01    0.3313774    0.2100674  38.71 0.0008595213    1.387    0.279
        11 -11.7979    149.7779    248.0865   1.1928624066e+02   2.0170719582e+00    0.4414918    0.3522953 -81.11  0.002589562    1.733    0.423
        12 -11.6883    143.2487    242.2202   1.1975535520e+02   4.1181293862e+00      0.41658    0.2609684 -48.64  0.002214562    1.788    0.441
        13 -10.7763    143.1443    249.1176   1.2078276193e+02   2.9049567869e+00    0.3571746    0.2096323  56.50  0.001538105    2.072    0.517
        14 -12.2490    133.0673    248.9428   1.2280190104e+02   4.5495767887e+00     1.105205    0.2523284  38.78  0.003672423    3.782    0.736
        15 -11.5842    109.4776    247.0119   1.2731879827e+02   8.6114365541e+00    0.5108532    0.4206362 -81.88  0.002848197    1.341    0.254
        16 -11.3074    122.0340    245.3443   1.2455463430e+02   6.9615879215e+00    0.5408046    0.3237176 -70.32  0.001167109    2.255    0.557
        17 -12.1753    125.1546    241.9396   1.2344870746e+02   7.1006426929e+00    0.5441764    0.4593603  70.25    0.0012147    1.277    0.217
        18 -11.2511     99.2768    248.2689   1.2951540466e+02   9.9240204337e+00    0.4311094    0.3173041  79.50  0.002568077    1.512    0.339
        19 -10.0598    102.7885    247.3999   1.2871014400e+02   9.5598210258e+00    0.2271076    0.2180593  77.77 0.0007618956    1.134    0.118
        20 -10.2213     90.7677    250.3947   1.3144023537e+02   1.0778502510e+01    0.2725917    0.2101164  34.55  0.001251318    1.339    0.253
        21 -11.3816     86.6948    248.1395   1.3198556865e+02   1.1799809445e+01    0.3509893    0.2866354  17.96 0.0008025586    1.586    0.370
        22 -10.0726     81.4477    247.2599   1.3291531709e+02   1.2720168698e+01    0.2472369    0.1718131 -81.05  0.001345528    1.532    0.347
        23  -8.9478     63.3329    250.2857   1.3669184917e+02   1.4615399876e+01    0.1036774    0.0944339 -14.61 0.0003169639    1.620    0.383
        24 -13.0255     11.2106    208.9419   1.4298022808e+02   2.9095846642e+01     1.308021      1.00662 -27.15   0.00861101    2.040    0.510
        25 -12.0549     15.9840    218.3398   1.4282508014e+02   2.6640511618e+01    0.8060519    0.3247347  40.05   0.00425435    2.370    0.578
        26 -13.0565      5.8661    226.5144   1.4529697467e+02   2.5925531877e+01     1.434651    0.8599768  63.17  0.009414297    1.465    0.318
        27 -13.4641     40.2189    243.5317   1.4037568127e+02   1.8835053098e+01        1.153    0.8608119  83.31  0.005196695    1.145    0.127
        28 -13.3289     27.8121    246.8434   1.4286492496e+02   1.9608829983e+01     1.201541    0.7516441  50.66   0.00762249    1.411    0.291
        29 -12.6884     41.7982    206.7176   1.3657668687e+02   2.6383252536e+01     1.724095    0.7700566  73.65  0.006450314    3.881    0.742
        30 -12.8404     13.7648    239.2786   1.4478358010e+02   2.2589172491e+01    0.5703976    0.4739808  60.40  0.004023712    1.233    0.189
        31 -12.6877     28.3380    226.2908   1.4113802208e+02   2.3690834854e+01    0.3129194    0.2593569 -72.78 0.0007798901    1.252    0.201
        32 -14.1586     34.9359    218.4673   1.3915906899e+02   2.4610532302e+01     1.116855     0.912819 -59.58  0.007580469    1.369    0.269
        33 -11.3401    159.4770    244.2431   1.1673042162e+02   1.1115489202e+00    0.3102531    0.2055343  63.27  0.001108598    2.228    0.551
        34 -11.4280    129.0644    234.9628   1.2163938880e+02   7.7919284691e+00    0.4365082    0.2469186  50.12   0.00211816    1.769    0.435
        35 -10.8996    135.9763    225.2244   1.1868802262e+02   8.5369633905e+00    0.3882101    0.2322246 -40.43 0.0009903889    1.912    0.477
        36 -12.2166    135.7131    241.0322   1.2113799706e+02   5.5639758237e+00    0.4752926     0.405581  19.62  0.001891176    1.216    0.178
        37 -10.5777    134.7257    237.0392   1.2075793522e+02   6.4700647672e+00     0.234597      0.21058 -64.14 0.0006006696    1.252    0.201
        38 -12.4181    135.2892    232.9837   1.2003299081e+02   7.1466303891e+00    0.6104574    0.4718621 -83.28  0.003371596    1.694    0.410
        39 -10.8604     83.9042    240.2933   1.3165239885e+02   1.3735828503e+01    0.4544645    0.3188183  65.12  0.002674561    1.395    0.283
        40 -12.3178    103.6357    238.6509   1.2744321602e+02   1.1118790301e+01    0.8917629    0.5885626   1.85  0.003986251    3.085    0.676
        41 -10.9683     97.0980    239.1171   1.2884205759e+02   1.2022910735e+01    0.2793851    0.2306088  60.49  0.000778692    1.104    0.094
        42 -11.2569     84.7216    230.8450   1.3036972713e+02   1.5528307892e+01    0.6558137    0.3193308 -72.78  0.002945244    2.533    0.605
        43 -10.9112     91.6695    241.3374   1.3021337752e+02   1.2395952354e+01    0.3125508    0.2914334  64.84  0.001447322    1.096    0.087
        44 -10.9975     90.0064    238.0213   1.3015358787e+02   1.3298530878e+01    0.2915727    0.2510777 -71.07  0.001070292    1.220    0.180
        45 -10.6649     74.0963    243.2854   1.3392514080e+02   1.4528097133e+01    0.2973574    0.2845559 -75.08  0.001573413    1.249    0.199
        46 -10.5353    249.5031    241.9860   9.8949855526e+01  -1.2087352203e+01    0.1819919    0.1028647 -30.92  0.001046298    1.631    0.387
        47  -9.9905     54.3675    240.9298   1.3749965869e+02   1.7617240008e+01     0.246849    0.1488023  41.56 0.0006753375    1.572    0.364
        48 -10.9803    122.1503    233.8341   1.2293079114e+02   9.1357278506e+00    0.3660926    0.2951143 -54.31  0.001690246    1.357    0.263
        49  -9.5615     66.5527    239.4310   1.3499722736e+02   1.6325515590e+01     0.241588    0.1374311  73.78 0.0007833563    2.064    0.516
        50 -11.3259    116.7353    238.2547   1.2468253248e+02   9.1464439777e+00    0.4897302    0.2807516 -33.46  0.002222507    2.693    0.629
        51  -9.8799    173.0118    235.9927   1.1263693700e+02   3.2295393921e-01     0.197464    0.1773493  20.98  0.001230713    1.036    0.035
        52  -9.5776     54.7067    235.5023   1.3691229734e+02   1.8671376781e+01    0.1961779    0.1571928  71.86 0.0008597249    1.066    0.062
        53 -11.1539     98.2883    231.2196   1.2759082202e+02   1.3424017623e+01    0.2773293    0.2468531 -35.46  0.001455661    1.364    0.267
        54 -11.1434    109.4805    232.3086   1.2538542241e+02   1.1464370345e+01    0.4018749    0.2590756  84.34   0.00192512    2.266    0.559
        55 -11.3293    113.4475    230.7261   1.2432817390e+02   1.1150555773e+01    0.3755333    0.2815438 -50.12  0.001899188    1.463    0.316
        56 -11.8807    105.3578    228.1025   1.2568056137e+02   1.2962747786e+01    0.4366201    0.3987337  53.97  0.002056205    1.026    0.026
        57 -11.1978     98.5167    223.0352   1.2644779687e+02   1.5076495573e+01    0.4180602      0.28178  39.44  0.001544352    1.414    0.293
        58  -9.4771     94.1312    219.1385   1.2686084851e+02   1.6573291399e+01    0.2316695    0.1816249  57.08 0.0004465064    1.214    0.176
        59 -10.7482    156.7458    232.1208   1.1537688424e+02   3.7229557937e+00    0.2517179    0.2053368 -34.88  0.000541078    1.328    0.247
        60 -10.6309    168.7442    233.3860   1.1308411264e+02   1.4869367060e+00     0.391359     0.203532  22.58  0.001398509    2.452    0.592
        61  -9.2788     45.4949    231.0723   1.3827452896e+02   2.0725068525e+01    0.1699838    0.1059526 -74.71 0.0003629412    1.497    0.332
        62 -10.2205    249.7796    230.0354   9.6775015975e+01  -1.0442795929e+01    0.1625293   0.08782356 -33.96 0.0008801087    1.703    0.413
        63 -10.7913     79.4121    226.1087   1.3089759785e+02   1.7279641186e+01    0.4233787    0.2727438 -72.20  0.001716993    1.604    0.377
        64 -10.6817    117.1092    224.5819   1.2265998511e+02   1.1798874722e+01     0.289748    0.2720962 -25.31 0.0009252794    1.210    0.174
        65  -9.6162     92.3535    226.0630   1.2816831533e+02   1.5386275077e+01    0.2380902    0.1615895  61.91 0.0007594584    1.522    0.343
        66  -9.7265     64.9789    224.5179   1.3370468115e+02   1.9615466829e+01    0.2281094    0.1614232 -50.69 0.0008924057    1.624    0.384
        67  -9.2663     51.6974    225.2589   1.3648183833e+02   2.1177256822e+01    0.1537518    0.1315753 -55.98 0.0005114306    1.371    0.271
        68 -11.8101    178.7176    243.9986   1.1278952415e+02  -1.9585619710e+00    0.3843873    0.2649958  39.66   0.00116599    1.357    0.263
        69  -9.5263    164.4673    224.0217   1.1239960919e+02   3.9088838215e+00    0.1914181    0.1352623 -44.95 0.0003876873    1.524    0.344
        70  -9.9550    132.1950    224.1254   1.1933085300e+02   9.3908596024e+00    0.2020361    0.1838942   2.15 0.0006783305    1.207    0.171
        71 -10.0057     87.6545    223.4709   1.2882927002e+02   1.6632319507e+01    0.2377527    0.1992972 -88.56  0.000959368    1.180    0.153
        72 -10.2844     70.6400    219.3973   1.3192957742e+02   1.9938839844e+01    0.5319883    0.3164059 -86.94  0.002651756    1.993    0.498
        73 -10.6986    110.0161    218.3497   1.2328117929e+02   1.4239019281e+01    0.4671637    0.2105258 -70.81  0.001605968    3.940    0.746
        74  -8.8232     89.3114    218.6561   1.2783979038e+02   1.7406791236e+01    0.1400943   0.09460115  71.69 0.0007045929    1.703    0.413
        75  -9.6361     77.1826    220.6926   1.3070245470e+02   1.8744777727e+01    0.1979132    0.1575242  71.49 0.0004536115    1.200    0.167
        76  -9.6129     88.1413    212.8163   1.2730055861e+02   1.8842796039e+01    0.2589335     0.176538 -79.99 0.0009009194    1.634    0.388
        77 -10.6646     62.9767    209.3985   1.3235851473e+02   2.3157798727e+01    0.4333799    0.3224742 -49.44  0.002005518    1.505    0.336
        78 -11.4142     55.3556    208.0746   1.3384408301e+02   2.4438422997e+01    0.6705797    0.3770042 -87.53  0.002275867    2.063    0.515
        79  -9.0337    130.9418    211.3236   1.1753857873e+02   1.2210557379e+01    0.1917014    0.1655297  38.53  0.000317851    1.100    0.091
        80 -10.2661    156.1945    208.2169   1.1140138898e+02   8.4047979284e+00    0.2231251    0.2155656 -36.15  0.000263332    1.102    0.092
        81  -9.0662     90.5278    208.9112   1.2622200429e+02   1.9336440038e+01    0.1922583    0.1291659 -61.49 0.0003571562    1.492    0.330
        82  -9.5955    112.4737    208.4734   1.2122093066e+02   1.5939055415e+01    0.2202597    0.1775889 -72.69 2.334885e-05    1.336    0.252
        83  -9.8586    110.6061    205.5353   1.2117696754e+02   1.6884859939e+01    0.2069585    0.1994343  77.30 0.0001364095    1.024    0.023
        84  -8.9277     74.3653    208.2513   1.2972331523e+02   2.1854557502e+01    0.1771902     0.117422 -78.17 0.0003782742    1.576    0.365
        85  -9.0750     69.8184    207.9900   1.3069040772e+02   2.2546113978e+01    0.1748972    0.1526613 -86.43 0.0003011929    1.057    0.054
        86 -11.2316    142.0961    219.8393   1.1649476395e+02   8.5589736392e+00     0.405276    0.3359609 -66.00  0.002089683    1.394    0.282
        87  -9.4489    125.6977    206.9996   1.1799369452e+02   1.4022863903e+01    0.1982242    0.1758463 -64.46 0.0009177913    1.189    0.159
        88  -9.1985     32.8955    206.9054   1.3845229903e+02   2.7343382147e+01    0.1761887    0.1452312 -59.80 0.0005431341    1.313    0.238
        89 -10.5177    246.7512    206.1057   9.2869634853e+01  -6.3953454958e+00    0.2593192    0.1527141   8.09    0.0012595    2.195    0.544
        90  -9.9217     91.2442    205.1431   1.2551467394e+02   2.0059647971e+01    0.3771827    0.1882413  31.17  0.001226363    2.243    0.554
        91  -9.8753     11.0165    188.4989   1.4123124107e+02   3.3584025997e+01    0.1653133    0.1410687  89.27  0.001132141    1.085    0.078
        92 -11.3593      4.6363    186.3693   1.4237312759e+02   3.4600456767e+01    0.3912705    0.3055851  20.72   0.00137757    1.708    0.415
        93 -10.0956      1.9544    202.0439   1.4422557222e+02   3.1403212473e+01    0.2649855    0.1512474 -80.49 0.0009297754    1.420    0.296
        94 -10.1569      3.0107    197.4626   1.4365222227e+02   3.2302682327e+01    0.2710378    0.1612715  58.09 0.0009550495    1.648    0.393
        95 -10.7960      2.7498    193.4596   1.4337373574e+02   3.3196304462e+01    0.4208754     0.216113  68.51  0.002303018    2.049    0.512
        96 -10.0298    250.1823    200.7850   9.1251739784e+01  -6.0532844882e+00    0.3228833    0.1498331 -19.82  0.001258939    3.198    0.687
        97 -10.6647     83.9558    201.6220   1.2665681501e+02   2.1947315734e+01    0.2526094    0.2083884 -60.82 0.0002602798    1.205    0.170
        98  -8.9456     64.3601    202.2604   1.3116086588e+02   2.4568229078e+01    0.1223285    0.1019026 -22.56 0.0006976956    1.629    0.386
        99  -9.5746     42.9893    200.2361   1.3561045311e+02   2.7690490573e+01    0.3234349    0.1795437 -45.93  0.001159224    2.191    0.544
       100 -12.0258     56.4727    194.2746   1.3190342771e+02   2.7408563304e+01    0.5306707    0.3097205 -45.60  0.001188494    1.977    0.494
       101 -11.4183    102.8620    195.9931   1.2142128477e+02   2.0269717151e+01    0.3096326     0.268992 -21.18  0.000453549    1.374    0.272
       102 -10.8479     27.6857    195.0175   1.3833775963e+02   3.0537066203e+01     0.464639    0.3167416  89.82  0.001382743    1.339    0.253
       103 -10.6925     20.9420    194.3394   1.3970101838e+02   3.1362811795e+01    0.3900895    0.2048815 -69.93  0.001000692    1.601    0.376
       104 -10.4495    249.6050    194.0178   9.0044706449e+01  -4.8792944885e+00    0.3136896    0.2262079  -3.59  0.001813254    1.415    0.293
       105  -9.5854    112.4820    192.7514   1.1861893843e+02   1.9398850185e+01    0.3556799    0.1129844 -45.57 0.0008838843    3.533    0.717
       106  -8.9963    118.9946    193.7706   1.1726706139e+02   1.8055742246e+01    0.1884668     0.116606  38.37 0.0003280011    1.589    0.371
       107  -9.7369    191.4926    191.4489   1.0060083401e+02   5.3039723364e+00     0.245927    0.2256496  -5.27 0.0006215686    1.007    0.007
       108  -8.7093     72.6122    192.7543   1.2798925468e+02   2.5604772801e+01    0.1283778    0.1050385 -14.97 0.0004040072    1.660    0.397
       109  -8.7603     38.7122    192.0187   1.3560941388e+02   3.0036120631e+01    0.1753166    0.1033392 -59.26 0.0006428678    1.562    0.360
       110  -9.3156     40.7839    188.7504   1.3476210025e+02   3.0551419290e+01    0.1946538    0.1585566 -80.21  0.001220776    1.065    0.061
       111  -9.1018     15.2272    191.2051   1.4060110185e+02   3.2602348030e+01     0.200727   0.08377632 -83.41 0.0008922492    2.516    0.602
       112 -13.4343      5.5646    246.0185   1.4661771848e+02   2.2094031015e+01     1.018291    0.5360208  65.73  0.006509149    1.621    0.383
       113 -10.7971    250.2293    187.8504   8.8733450995e+01  -3.9654252537e+00    0.3106278    0.1508817 -31.68  0.001461403    1.894    0.472
       114  -9.0347     77.0262    188.5180   1.2632878486e+02   2.5955352417e+01    0.1858635     0.133267  38.44 9.246145e-05    1.441    0.306
       115 -10.3971     83.6358    186.7463   1.2448117140e+02   2.5395174445e+01    0.2333995    0.2094267  84.12 0.0003146873    1.091    0.084
       116 -10.3966     71.8474    186.5822   1.2726628806e+02   2.7139222716e+01    0.4022118    0.3016158  -8.78  0.001554172    1.989    0.497
       117 -11.7914     63.3929    186.1644   1.2920559082e+02   2.8385518385e+01      0.34914    0.2428206 -44.58 0.0006166899    1.586    0.370
       118  -9.3616     29.7758    183.8294   1.3666365512e+02   3.2860820470e+01    0.2153579    0.1641068 -19.04  0.001274241    1.909    0.476
       119  -9.2627     24.1234    184.0543   1.3794996022e+02   3.3372822679e+01    0.1854116    0.1468477 -59.38 0.0006336088    1.250    0.200
       120  -9.1392     36.4376    183.0287   1.3505995674e+02   3.2346309248e+01    0.2008203    0.1080586 -66.68  0.001027636    1.608    0.378
       121 -12.0290    248.2189    172.3074   8.5987531362e+01  -1.0478435687e+00    0.4415996    0.3795953  -1.35  0.002761003    1.151    0.131
       122  -8.4916    107.5554    182.4522   1.1798179784e+02   2.2570723818e+01    0.1428342    0.1373632  85.17 0.0002097652    1.030    0.029
       123  -9.5246     85.8584    179.9000   1.2283062335e+02   2.6654463526e+01    0.1922677    0.1583289  77.94            0    1.307    0.235
       124  -8.8113     27.0236    180.0272   1.3685064328e+02   3.4009391855e+01     0.151891    0.1196045 -76.59 0.0003392235    1.067    0.063
       125  -8.8147    127.2173    182.3914   1.1323562749e+02   1.9139092682e+01    0.1949154    0.1346578  49.90 0.0003187459    1.511    0.338
       126 -10.7440      4.8582    178.8905   1.4163721013e+02   3.6248486273e+01    0.2256153    0.1323525 -80.98  0.001216433    1.426    0.299
       127  -8.8907     12.3364    178.3183   1.3995112351e+02   3.5755805231e+01    0.1209139   0.07920571 -46.56 0.0007048975    1.702    0.412
       128 -11.5464     65.2236    175.4066   1.2717212201e+02   3.0663714250e+01     0.280267    0.2550507  43.06 0.0001530377    1.186    0.157
       129  -9.4420    102.9805    176.0088   1.1793208731e+02   2.4827577202e+01    0.2119002    0.2031698 -81.67  0.001208606    1.027    0.026
       130 -11.2190     19.4889    174.5950   1.3794961724e+02   3.5971131656e+01    0.3339863    0.2084556 -89.73  0.001887054    1.564    0.361
       131 -11.0084     14.2200    167.3501   1.3834934474e+02   3.8094531768e+01    0.3755316    0.2287691  42.95  0.001504356    1.813    0.449
       132 -11.4077      7.6172    166.2918   1.3975670336e+02   3.8874269105e+01    0.3862157    0.2747223 -11.06  0.002370877    2.073    0.518
       133 -10.8993     74.2431    174.3746   1.2478141557e+02   2.9664391983e+01    0.2765392    0.2412864  69.19 0.0002628551    1.177    0.150
       134 -12.0774     60.1599    172.5217   1.2797635013e+02   3.2008615022e+01    0.4593216    0.2649288 -39.50 0.0009413075    2.103    0.524
       135 -11.0429     68.3951    166.3269   1.2492249533e+02   3.2386194396e+01    0.2574698    0.2249139 -79.57 0.0003603394    1.108    0.098
       136  -9.8491     64.6894    166.7432   1.2593158406e+02   3.2786287422e+01    0.2795823    0.2252991 -33.65 0.0001931061    1.409    0.290
       137  -9.9368     12.1776    172.7223   1.3940407647e+02   3.7039527409e+01    0.2848303     0.173367 -68.01  0.001684083    1.336    0.251
       138  -9.9024     46.1117    172.5538   1.3142053731e+02   3.3710911038e+01    0.2254849    0.1643351 -69.01 0.0003699174    1.214    0.176
       139 -11.3817      1.8237    170.5029   1.4149267321e+02   3.8366852586e+01     0.514157    0.1916314 -76.80 0.0005296407    2.360    0.576
       140  -9.9310     27.5672    171.5878   1.3572683265e+02   3.5903933521e+01    0.3439779    0.1569017 -46.98   0.00123931    2.375    0.579
       141  -9.3804     51.9188    171.0294   1.2978439163e+02   3.3386836380e+01    0.1972411    0.1784562 -83.57 0.0005722711    1.041    0.039
       142  -8.6441    166.6252    170.4718   1.0162817882e+02   1.4246137616e+01    0.1484069    0.1401933 -22.48 0.0001274059    1.031    0.030
       143 -11.8466     82.4485    166.0928   1.2129684070e+02   3.0424987816e+01    0.6919831    0.4777961  34.34  0.003258704    1.542    0.352
       144 -10.8209     82.6891    157.2124   1.1959825267e+02   3.2495045225e+01    0.4991423    0.3082536 -43.49  0.002324733    1.639    0.390
       145 -12.1276    244.9944    162.1931   8.4477606524e+01   1.2200161421e+00     0.626436    0.2502115 -45.13  0.002560925    2.402    0.584
       146 -12.2419    248.9587    159.7890   8.3333675864e+01   9.7494398421e-01     1.193084    0.5818859 -56.06  0.004574921    3.353    0.702
       147 -11.9341    243.4824    155.0111   8.3253876216e+01   2.7284830338e+00    0.7971522    0.5564055  84.51  0.003644498    2.878    0.652
       148 -10.6388     45.1695    164.8567   1.3055317273e+02   3.5632152128e+01    0.3830355    0.1691027 -45.83  0.001632181    2.430    0.589
       149  -9.6472     43.3069    161.0519   1.3046048500e+02   3.6739122430e+01    0.1828413    0.1502135 -70.38 0.0002714524    1.070    0.065
       150  -8.7968     61.0307    164.7739   1.2654038415e+02   3.3733049397e+01    0.1620628    0.1133983  34.67 0.0003415049    1.557    0.358
       151 -10.2828     31.3454    163.1220   1.3373501603e+02   3.7505497485e+01    0.2409417    0.2141857 -80.20 0.0002780861    1.060    0.056
       152  -9.2647     37.4289    162.8463   1.3219362538e+02   3.6949515507e+01    0.2741429    0.1162879  45.55  0.001194669    2.665    0.625
       153 -11.6644     10.4109    157.5885   1.3812813148e+02   4.0643484316e+01    0.4228621    0.2248854  72.11 0.0005713647    2.454    0.592
       154 -11.1146     12.2611    154.0379   1.3725445116e+02   4.1313426433e+01    0.2705351    0.1930401 -81.02  0.001135118    1.243    0.196
       155  -8.6231    119.4054    158.5406   1.1036274213e+02   2.5992832551e+01    0.1482839    0.1436491 -58.18  0.000160227    1.035    0.034
       156  -8.8693    228.4163    155.4865   8.5929238073e+01   5.3066874591e+00    0.1395623    0.1237783 -32.74 0.0001726831    1.039    0.038
       157 -10.7137     31.8176    154.5504   1.3242906547e+02   3.9467975708e+01    0.3531883    0.1959703 -30.18  0.001384742    2.608    0.617
       158 -10.9769     24.6907    155.1455   1.3431427528e+02   4.0001497584e+01    0.3652623    0.1729709  24.89  0.001781001    2.562    0.610
       159 -13.3852    248.0184    100.8255   7.1325955734e+01   1.1186946712e+01     1.307593    0.6995372 -33.91  0.006340835    1.872    0.466
       160 -10.1857    249.8087    117.7750   7.4569301393e+01   8.0406238121e+00    0.2790805    0.2359905 -31.84 0.0006454273    1.153    0.133
       161 -12.4204    247.9600    112.8001   7.3804775035e+01   9.2164604247e+00    0.9420587    0.6434286 -11.18  0.004650253    2.244    0.554
       162 -13.3599    248.1201    134.1828   7.8207993805e+01   5.5439436693e+00     1.576497    0.7307876 -36.76  0.007069814    1.945    0.486
       163 -10.6524      1.5748    152.3276   1.3964630183e+02   4.2494998014e+01    0.2335862   0.09830495 -75.36   0.00112533    2.056    0.514
       164 -10.4730     95.6791    150.4733   1.1482493792e+02   3.2027224733e+01    0.2930226    0.2751346 -87.14 0.0009145337    1.126    0.112
       165  -9.7228     83.1585    149.4995   1.1797420019e+02   3.4250260141e+01    0.2349886    0.1816633 -43.42 0.0003739441    1.258    0.205
       166 -10.9353     21.6583    149.2357   1.3427676627e+02   4.1646426726e+01    0.3396411    0.2128144  45.43  0.001493042    1.834    0.455
       167 -12.0457      5.9935    140.9944   1.3719145947e+02   4.4767047057e+01    0.3114112    0.2479901  77.14  0.002080595    1.357    0.263
       168 -12.7997      9.1978    143.9962   1.3675893102e+02   4.3852192885e+01    0.7012919    0.2447924 -54.80  0.003230395    2.227    0.551
       169 -11.8653      3.3417    144.1343   1.3825534594e+02   4.4235071405e+01    0.5892422    0.2894126  85.48  0.002722831    2.725    0.633
       170 -12.2277     68.4111    144.0198   1.2090542546e+02   3.7683633322e+01    0.6887153    0.5309774 -86.06  0.002280097    1.536    0.349
       171  -9.6503     41.0546    147.5021   1.2894751381e+02   4.0183533040e+01    0.1759233    0.1327345  28.51 0.0007650832    1.529    0.346
       172 -10.2214    236.1853    145.8175   8.2548275730e+01   5.6406538572e+00    0.2508437     0.186621  29.53 0.0006862542    1.557    0.358
       173  -9.3953     98.9473    146.0910   1.1302963724e+02   3.2504493864e+01    0.2358604    0.1748078 -19.86 0.0006115703    1.676    0.403
       174 -11.0458     38.8827    141.7908   1.2859705845e+02   4.1754448411e+01    0.2534914    0.2240026 -76.75  0.001599139    1.113    0.101
       175  -9.8036    133.2248    140.4995   1.0284452027e+02   2.7428029552e+01    0.3416962    0.2446604 -50.20  0.001115998    1.403    0.287
       176 -11.8846     17.2385    140.1521   1.3415249576e+02   4.4118405885e+01    0.3839312     0.226961  52.57  0.002071391    2.095    0.523
       177  -9.9766    108.2347    136.0840   1.0830556836e+02   3.3182467724e+01    0.4589898    0.2750991 -20.57  0.001515706    2.725    0.633
       178  -9.0867     31.6070    138.7413   1.3007938483e+02   4.3188768521e+01    0.1309578   0.08739737 -32.16 0.0006967619    1.698    0.411
       179 -10.9535     59.8201    136.2862   1.2178968450e+02   4.0638469484e+01    0.2887461    0.2180997 -61.89 0.0002823505    1.243    0.195
       180  -9.9274     55.6903    135.7257   1.2284587911e+02   4.1284625620e+01    0.2111778     0.197496 -84.80  0.000239618    1.147    0.128
       181 -10.5205     47.6884    135.5886   1.2507511735e+02   4.2256978258e+01    0.3221649    0.2065372 -55.73  0.001270204    1.347    0.258
       182 -10.7309     44.6282    130.1753   1.2493731390e+02   4.3856988989e+01    0.3314327    0.1959724 -78.84  0.001519418    2.202    0.546
       183 -12.4819     12.9104    127.6726   1.3348588556e+02   4.7307591679e+01    0.6044385    0.2509001  18.62  0.002850656    3.068    0.674
       184 -11.7462      2.1954    124.8132   1.3602061367e+02   4.8675689563e+01    0.4789715    0.1392307 -70.29  0.001874914    3.128    0.680
       185  -9.1507    210.0871    125.8177   8.2699778790e+01   1.4340624713e+01    0.1934601    0.1680044  -6.36 0.0005465675    1.293    0.227
       186  -8.4933     48.2902    126.3229   1.2313516690e+02   4.4340890512e+01    0.1399153   0.09121972 -33.99 0.0002530402    1.608    0.378
       187 -12.0229    247.7892    142.2662   7.9929210130e+01   4.2043244402e+00    0.6236174    0.5665853  21.00  0.003705001    1.236    0.191
       188 -10.4457     30.8001    118.9814   1.2686880674e+02   4.7811333145e+01    0.1902643    0.1297296 -26.88    0.0010587    1.603    0.376
       189 -11.1172     18.1856    116.8348   1.3021346912e+02   4.9359453620e+01     0.178246    0.1578122 -74.93 0.0004983775    1.190    0.160
       190 -10.5582    231.8956    116.3605   7.6944208135e+01   1.1666999834e+01    0.2431937    0.1713268 -48.67 0.0005789524    1.315    0.240
       191 -12.7815      9.5132    113.9509   1.3227662493e+02   5.0627906620e+01    0.4629877    0.2318484 -63.28  0.002033518    1.612    0.380
       192 -11.1590    249.6007    150.8817   8.1413299696e+01   2.4028380267e+00    0.4687347    0.2889674 -39.49  0.002184406    1.403    0.287
       193 -10.0269    167.8224    112.9670   8.7958332165e+01   2.5859270276e+01     0.320019    0.2549444  87.44  0.001349338    1.625    0.385
       194  -9.9431     35.0531    107.0573   1.2319018739e+02   5.0073703298e+01    0.1927043    0.1638261 -41.42 0.0003851511    1.022    0.022
       195 -12.0458     13.9701    103.3134   1.2904183048e+02   5.2656997918e+01    0.3799873    0.1980774  36.98  0.002020088    2.390    0.582
       196  -8.6420     71.7445    100.0029   1.0996276557e+02   4.7139729377e+01    0.1682044    0.1113961 -45.77 0.0002456243    1.401    0.286
       197 -10.7696     20.7333     93.6566   1.2491940836e+02   5.4219845028e+01    0.2278324    0.1826663 -43.73 0.0002216177    1.012    0.012
       198 -10.3172     14.1842     93.8178   1.2710218649e+02   5.4676691802e+01    0.1755088    0.1159621 -36.19 0.0005831551    1.324    0.245
       199  -9.1358    203.4983    111.5060   8.0595723163e+01   1.8349072234e+01    0.1426875    0.1360825 -41.76  8.48921e-05    1.027    0.026
       200 -11.4795    115.4315    249.8459   1.2648151624e+02   7.1629918228e+00    0.6143053    0.4209849  40.43  0.002783321    1.288    0.224
       201 -12.2045    199.2115    246.2680   1.0909606228e+02  -5.5365665047e+00    0.5357931    0.2455021  40.86  0.002534278    2.099    0.523
       202 -11.0497     16.9895     25.5036   1.0652363536e+02   6.6694167309e+01    0.2415932    0.1414207  38.80   0.00144525    2.481    0.597
       203 -11.4203     60.0364    245.9550   1.3690050368e+02   1.5891076982e+01    0.4027852    0.3101513  60.39  0.001907447    1.109    0.098
