#   1 NUMBER                 Running object number                                     
#   2 MAG_AUTO               Kron-like elliptical aperture magnitude                    [mag]
#   3 X_IMAGE                Object position along x                                    [pixel]
#   4 Y_IMAGE                Object position along y                                    [pixel]
#   5 X_WORLD                Barycenter position along world x axis                     [deg]
#   6 Y_WORLD                Barycenter position along world y axis                     [deg]
#   7 A_WORLD                Profile RMS along major axis (world units)                 [deg]
#   8 B_WORLD                Profile RMS along minor axis (world units)                 [deg]
#   9 THETA_WORLD            Position angle (CCW/world-x)                               [deg]
#  10 FWHM_WORLD             FWHM assuming a gaussian core                              [deg]
#  11 ELONGATION             A_IMAGE/B_IMAGE                                           
#  12 ELLIPTICITY            1 - B_IMAGE/A_IMAGE                                       
         1 -12.9407     31.9310     32.2792   6.1343322504e+01   6.7174129997e+01    0.3671278    0.3176138 -11.01   0.00241874    1.214    0.177
         2 -13.2340     84.0193     23.8495   3.8093566217e+01   5.8161411393e+01      0.41836    0.2856571 -65.07 0.0006104499    2.028    0.507
         3 -11.5346    114.0485      6.9684   2.6629597180e+01   5.3087181743e+01    0.1781821    0.1400725  76.65  0.001205963    1.015    0.014
         4 -12.4267    121.0133     12.9959   2.7247399173e+01   5.0979970729e+01    0.2401467    0.1950198  77.45 0.0004936785    1.025    0.024
         5 -12.2034    117.0668     10.8914   2.7271208165e+01   5.2059594026e+01    0.2128606    0.1860698  76.68 0.0004319817    1.123    0.110
         6 -11.6836     90.5115     11.5333   3.2369122773e+01   5.7958067227e+01    0.1720022    0.1248895 -27.54 0.0006796696    1.742    0.426
         7 -12.9351     89.5511      5.0098   3.0400208129e+01   5.8741275046e+01    0.4876201    0.2819126 -84.53  0.002495334    2.335    0.572
         8 -11.3056     55.1043     10.8572   4.2005882606e+01   6.5629035507e+01    0.2150859    0.1630445  29.31  0.001385759    1.277    0.217
         9 -12.5586     82.2312      9.2260   3.3464989400e+01   6.0003352181e+01    0.2865359    0.1887757  62.98  0.001144717    1.213    0.176
        10 -10.6374    103.5294      7.4938   2.8524983753e+01   5.5401081911e+01     0.122853   0.09671379  71.26 6.784837e-05    1.007    0.007
        11 -11.3067    106.5285      4.3052   2.7051860672e+01   5.4999366386e+01    0.1727394    0.1151102 -36.97 0.0005807825    1.805    0.446
        12 -11.1527      5.1660      3.3602   6.4331410449e+01   7.4874468716e+01    0.1812405    0.1304208  -9.35 0.0004085914    1.303    0.232
        13 -10.7878    133.9542      3.0115   2.2876147830e+01   4.9018654122e+01      0.18112    0.1149696  52.28 0.0009260272    1.689    0.408
        14 -11.1711    100.9393      2.0055   2.7292357520e+01   5.6439563160e+01    0.1915341    0.1444575  71.95 0.0008364906    1.036    0.035
        15 -10.6348    128.8279      1.3177   2.3057977751e+01   5.0286787785e+01    0.1669137   0.07984434  65.46 0.0002657172    1.654    0.395
        16 -10.3954     49.6985      1.6995   3.9983907066e+01   6.7558576174e+01    0.1236916    0.0723283  34.99 0.0002849038    1.585    0.369
        17 -11.1550     49.2845    238.9867   9.5752615830e+01   1.5587769932e+01    0.2347092    0.2085252 -28.26 0.0004567584    1.250    0.200
        18 -12.9266    247.0179    248.6055   5.3392657251e+01  -7.0987735384e+00    0.3132538     0.196098  -4.21  0.000877948    1.392    0.282
        19 -11.8143    237.3296    249.2754   5.5024802331e+01  -6.4622541040e+00    0.2506706     0.182597 -18.29  0.001349335    1.083    0.077
        20 -12.9232    115.3365    245.5669   7.9547106488e+01   6.5387100080e+00    0.6309254    0.2577561 -49.74  0.002703411    2.525    0.604
        21 -13.3066    111.7413    234.6481   7.8987781251e+01   9.2241958172e+00    0.4305698    0.3028141   3.78  0.002245159    1.386    0.279
        22 -12.6553    117.8246    240.8967   7.8317258298e+01   7.1850977154e+00    0.5723659    0.2664566  24.15   0.00253318    1.899    0.473
        23 -13.9579    118.0050    236.0103   7.7606781528e+01   8.1660721974e+00    0.6156543    0.3405514  26.49  0.001824432    1.601    0.375
        24 -11.6747     94.6397    249.7540   8.5200282993e+01   8.1235851997e+00    0.4042179     0.193817  36.46  0.001253937    1.891    0.471
        25 -10.7215     90.1582    250.1908   8.6374498160e+01   8.5536212523e+00     0.178081    0.1481207  45.43  0.001043109    1.302    0.232
        26 -10.1331     80.5099    246.4659   8.8405551333e+01   1.0453463257e+01    0.2097972    0.1202998  13.28 0.0006318056    1.716    0.417
        27 -11.6738     85.0868    250.5730   8.7693132647e+01   9.0589563258e+00    0.2553275    0.1162345  23.89 0.0003579822    1.883    0.469
        28 -12.5388     85.4517    246.3979   8.7137241446e+01   9.8954767141e+00    0.3057097    0.2769895  53.64 0.0008398466    1.259    0.205
        29 -13.4356     67.4458    245.8880   9.1694758900e+01   1.2063953265e+01    0.6747846     0.445201 -36.10   0.00331654    1.754    0.430
        30 -12.5421     70.0536    248.6593   9.1304375038e+01   1.1172043786e+01     0.353356    0.2741375 -21.07  0.001053256    1.432    0.302
        31 -12.2542     56.5159    250.7202   9.4937036904e+01   1.2211918921e+01    0.2940112    0.1371735  24.34  0.001323799    1.836    0.455
        32 -12.9590     51.7420    250.3485   9.6110593648e+01   1.2799621254e+01    0.5537892    0.2974689   3.03  0.002431785    2.371    0.578
        33 -14.4314      8.6435    185.9187   1.0269332815e+02   3.2596916537e+01     1.430726     1.079224  50.03   0.00770836    1.306    0.234
        34 -13.7907      3.9251    208.8986   1.0564128306e+02   2.7028044989e+01    0.9209897    0.5125601 -70.60  0.004526062    1.761    0.432
        35 -14.6787     44.0402    221.7928   9.5581529639e+01   2.0193503217e+01      2.38437     1.555449 -22.53   0.01131011    1.918    0.479
        36 -13.2600     77.3777    218.9473   8.6017567946e+01   1.7050380268e+01    0.3394963    0.3064622 -58.42 0.0007536264    1.217    0.178
        37 -16.0491     69.3427    184.0856   8.3595239297e+01   2.6805257338e+01     2.312414     1.960117 -50.65   0.01190272    1.206    0.171
        38 -16.3086     93.4092    195.4358   7.8188754664e+01   2.0641737790e+01     3.172591     1.450351 -53.51    0.0123775    2.186    0.543
        39 -13.9113     52.0358    189.5228   8.9694474472e+01   2.7516549155e+01     1.347545     0.509974 -46.25  0.004625613    2.870    0.652
        40 -13.4820     49.8103    183.1795   8.9572853824e+01   2.9452595964e+01    0.7319411    0.4890151 -20.28  0.003248695    1.790    0.441
        41 -14.2483     28.5098    233.6330   1.0074666650e+02   1.8917953151e+01    0.7703693    0.5731051  26.96   0.00436785    1.223    0.182
        42 -14.9279     27.4148    247.1397   1.0197088857e+02   1.5942419175e+01     1.308758    0.6408975   7.09  0.005671307    2.557    0.609
        43 -17.3263     11.6007    233.2085   1.0507182308e+02   2.0534368196e+01     3.185896     1.952973 -74.14   0.01704701    1.696    0.411
        44 -11.0442     52.7646    237.4709   9.4701934067e+01   1.5561800155e+01    0.3000554    0.1579242 -56.49  0.001147227    2.038    0.509
        45 -10.7807    147.8380    239.1709   7.0943083329e+01   3.9493973649e+00    0.1856243     0.133021  -8.29 0.0004384072    1.285    0.222
        46 -10.0806    190.3045    237.2957   6.1642539519e+01  -3.8662606901e-01     0.127676   0.07648475 -15.37 0.0002402757    1.582    0.368
        47 -11.9659     97.5212    235.0461   8.2673906226e+01   1.0893237315e+01    0.3619217    0.2188126 -32.20  0.001223873    1.863    0.463
        48 -13.8011    119.0085    211.2139   7.3709494589e+01   1.3381078464e+01    0.5496647    0.3166181 -39.60  0.001509729    1.771    0.435
        49 -12.9105    102.9019    233.4348   8.1077109659e+01   1.0579051535e+01    0.5135001    0.2939969 -39.80  0.002409575    1.863    0.463
        50 -11.4881    100.6471    227.1809   8.0826701905e+01   1.2231890874e+01    0.2159974    0.1850221  35.45 0.0005387586    1.194    0.162
        51 -13.5617    114.0036    218.2701   7.6079626632e+01   1.2482208207e+01    0.5272827    0.2860698 -43.02  0.002072323    1.878    0.467
        52 -13.7884    114.5189    226.8128   7.7192318565e+01   1.0547081207e+01    0.5347447    0.3656497 -20.51   0.00121494    1.567    0.362
        53 -11.4876     72.3531    234.0163   8.9161333727e+01   1.4147263581e+01     0.465686    0.1855787  24.09  0.001508227    2.231    0.552
        54 -12.0229     71.6094    229.6135   8.8866185162e+01   1.5243731459e+01    0.7638072    0.3537777  22.83  0.003186268    1.969    0.492
        55 -13.1044     62.0503    232.5145   9.1748997019e+01   1.5676422172e+01    0.6758268     0.456653  38.45  0.003485896    1.355    0.262
        56 -13.3596    219.9161    230.2987   5.5125026581e+01  -2.1355800920e+00    0.2838071     0.221328 -11.71 0.0006562033    1.104    0.094
        57 -10.6772    181.6664    231.6811   6.2504621432e+01   1.4945015389e+00    0.1357422   0.08060668 -15.19 0.0007048762    1.696    0.411
        58 -13.0980    106.0978    227.0814   7.9393201707e+01   1.1562317166e+01    0.3945058    0.2844345  29.45 0.0004829406    1.278    0.218
        59 -11.2740    178.0080    228.4714   6.2753868767e+01   2.4699479646e+00    0.1845005    0.1453109 -21.82 0.0001643622    1.081    0.075
        60 -12.0492    149.6541    229.2842   6.9049891639e+01   5.6349524768e+00    0.2320478    0.1761051   9.17 0.0008515954    1.174    0.148
        61 -10.6940     84.2352    229.4244   8.5458237849e+01   1.3771053645e+01    0.2039849    0.1171899  33.95 0.0005162227    1.566    0.361
        62 -12.1686    231.5616    227.6190   5.2769858680e+01  -2.7751278812e+00    0.2800611    0.1573284 -35.52  0.001783609    1.376    0.273
        63 -11.2844     56.7746    233.0230   9.3211678504e+01   1.6148437503e+01     0.251374    0.1666064 -70.99 0.0007400863    1.706    0.414
        64 -12.1960    248.5475    225.9035   4.9860676927e+01  -3.9672447470e+00    0.2439415    0.1256187 -46.76  0.001199364    1.919    0.479
        65 -10.9689    193.9025    230.7422   5.9937604600e+01   3.5377394272e-01    0.2240212    0.1424856  23.37  0.001334633    1.590    0.371
        66 -11.7435     95.8337    225.2556   8.1836242276e+01   1.3272223954e+01    0.2310518    0.2040911  86.44  0.001065199    1.424    0.298
        67 -11.2385     91.3611    225.3342   8.3036933000e+01   1.3818434292e+01    0.2546447    0.1729305  79.90   0.00114502    2.296    0.564
        68 -12.9844    130.0211    231.5101   7.4016483597e+01   7.6054210010e+00     0.396782    0.1984429  44.01  0.001668778    2.523    0.604
        69 -11.4441    214.1642    233.5219   5.6618894819e+01  -2.1100147515e+00    0.1955692    0.1300017 -32.39 0.0002810327    1.228    0.186
        70 -11.4776    212.6700    223.1782   5.5291504428e+01  -2.9247878780e-01    0.3163303    0.1492544 -29.15  0.001208887    1.937    0.484
        71 -11.3914     65.8524    224.9125   8.9899438983e+01   1.7018680873e+01    0.5025985     0.202525  28.16  0.001980918    2.129    0.530
        72 -12.3596    159.8262    222.1284   6.5642075025e+01   5.7849943717e+00    0.3559701    0.2185667  18.67 0.0007754506    1.564    0.360
        73 -13.1503    125.0234    221.5102   7.3763110461e+01   1.0330347505e+01    0.3844852    0.2676859  21.81 0.0006128054    1.315    0.240
        74 -11.9605    129.6252    218.2093   7.2114176182e+01   1.0432221184e+01    0.2481751    0.2289236   3.58 0.0009917071    1.105    0.095
        75 -11.4598    237.8089    221.1779   5.0797089931e+01  -2.3420292800e+00    0.1618905    0.1015605 -20.00   0.00107901    1.338    0.253
        76 -11.9457    223.3248    220.3879   5.3023188001e+01  -8.8102365365e-01    0.1989056    0.1544566 -26.44 0.0002889179    1.104    0.094
        77 -11.5713    189.7653    220.0719   5.9063121451e+01   2.6559079609e+00    0.1778516    0.1376706 -19.28 0.0002920889    1.051    0.049
        78 -11.8175    173.1237    219.2476   6.2308608458e+01   4.7269436630e+00    0.2482538    0.1835976 -45.25  0.001447384    1.411    0.292
        79 -10.8585     33.8754    220.0531   9.8227241617e+01   2.1653200339e+01     0.213687    0.1609946  48.76 0.0006310622    1.264    0.209
        80 -11.5933    231.2037    218.8573   5.1491766948e+01  -1.3823432383e+00    0.1635673    0.1318393 -30.55 0.0004843619    1.223    0.182
        81 -13.7389    109.9038    214.8566   7.6640561730e+01   1.3791571783e+01    0.6296037    0.2965032 -38.51  0.002498991    2.360    0.576
        82 -14.1412     60.3968    204.6913   8.9075081717e+01   2.2617215203e+01     1.630365     0.565455  25.36   0.00568086    2.613    0.617
        83 -11.9346    145.5895    216.2125   6.7947827667e+01   8.7594424510e+00    0.3535479    0.2978433 -46.66  0.002051586    1.310    0.237
        84 -13.2146    141.5308    210.9535   6.8060378021e+01   1.0385955706e+01    0.4947024    0.3115739 -63.17 0.0006759582    2.134    0.531
        85 -10.7559    225.5577    216.4922   5.2046445706e+01  -4.7203809556e-01    0.1182762   0.08677028 -23.90 4.823043e-05    1.031    0.030
        86 -11.5438    155.2677    213.0623   6.5204287454e+01   8.1441342028e+00    0.3446298    0.2681975 -77.70  0.001794238    2.082    0.520
        87 -12.6369    125.0650    213.0251   7.2446051030e+01   1.2159445827e+01    0.3070806    0.2229548 -44.53 0.0003663129    1.393    0.282
        88 -12.2612    248.4535    212.4283   4.7857604145e+01  -1.9525839445e+00    0.2799217    0.1615772 -12.40  0.001720482    1.857    0.462
        89 -13.3804    107.9894    207.2165   7.5988442168e+01   1.5800364151e+01    0.7375163    0.2578001  35.38  0.002607793    2.627    0.619
        90 -12.5125     97.2705    211.2935   7.9502397354e+01   1.6302174207e+01    0.5934814    0.3667221 -85.03  0.002392467    2.729    0.634
        91 -12.7134     99.5252    208.4971   7.8475015262e+01   1.6656724379e+01    0.6474119    0.3585777  -4.30  0.002409711    2.708    0.631
        92 -10.9889    188.0377    211.9551   5.8088927815e+01   4.3112080006e+00    0.1684551    0.1591237 -89.17 0.0003890673    1.624    0.384
        93 -10.8474    209.8509    211.6226   5.3962083881e+01   1.9289255052e+00    0.1498742    0.1072513  34.05 0.0006428723    1.729    0.422
        94 -13.8183     69.1405    207.3521   8.6870812649e+01   2.0890804460e+01    0.6711721    0.4136967  -5.71  0.001448214    2.069    0.517
        95 -11.8007    229.6054    208.8363   5.0190736870e+01   3.6170714412e-01    0.3276438     0.183653 -32.57  0.002003871    1.412    0.292
        96 -11.5715     26.1765    208.4832   9.9393946409e+01   2.5275488009e+01    0.2685961    0.2050816 -84.06 0.0006090061    1.359    0.264
        97 -10.6532     37.7949    209.2886   9.6143399100e+01   2.3943710712e+01    0.1958238    0.1243139  12.87 0.0007066079    1.630    0.387
        98 -11.0537    181.5409    208.1889   5.8762706759e+01   5.7815625721e+00    0.2625333    0.1470446 -12.99 0.0008452496    2.303    0.566
        99 -11.0549    160.2242    206.3429   6.2977732077e+01   8.8462026267e+00    0.2349185    0.1840923 -79.33  0.001214485    2.086    0.521
       100 -12.4599    123.7204    205.5702   7.1598469593e+01   1.3992805951e+01    0.3056077    0.2110761 -32.05  0.000476703    1.467    0.318
       101 -12.6984     42.6356    205.9215   9.4405331105e+01   2.4298012748e+01    0.2770006    0.2603443 -86.00 0.0006786493    1.113    0.101
       102 -11.1012     37.8381    203.4783   9.5557763038e+01   2.5421300929e+01    0.4093271    0.1726146  43.92 0.0007052532    2.333    0.571
       103 -12.6623     31.6391    203.9001   9.7411096231e+01   2.5928675990e+01    0.5755073    0.2919942  76.41   0.00155098    2.660    0.624
       104 -11.4919    205.0379    206.0755   5.3923137799e+01   3.4099464749e+00    0.1809519    0.1432258 -22.58            0    1.009    0.009
       105 -12.4068    145.6953    202.8659   6.5726533104e+01   1.1523178690e+01      0.44761    0.2264266 -51.98  0.001953385    2.050    0.512
       106 -10.2531     83.3541    219.2547   8.4411348762e+01   1.6232647776e+01    0.1488121    0.1049485 -11.29  0.000249061    1.605    0.377
       107 -10.4914    180.6186    201.2093   5.7777738440e+01   7.2115500434e+00    0.1907375    0.1040527 -36.11 0.0005757622    1.657    0.396
       108 -11.5212    212.0714    199.6306   5.1625652067e+01   3.7379948802e+00    0.2236873    0.1548399 -52.49   0.00128759    1.645    0.392
       109 -11.9455    121.3877    200.2167   7.1323713874e+01   1.5529361184e+01     0.218756    0.1917429 -39.78  0.001194168    1.165    0.141
       110 -13.6415    123.0108    196.1778   7.0225579238e+01   1.6216119408e+01    0.4908084    0.2950134  34.73  0.002206967    1.630    0.386
       111 -12.6683    110.6925    196.3042   7.3518220914e+01   1.7970914563e+01    0.3395008    0.1872711  33.40   0.00098268    1.723    0.420
       112 -11.7551    225.1562    198.4981   4.9260036884e+01   2.5027521632e+00     0.228762     0.136683 -52.43  0.001316972    1.879    0.468
       113 -13.5704    140.0205    197.2454   6.6129215456e+01   1.3523870169e+01    0.4680067    0.3486416  30.47  0.002451647    1.341    0.254
       114 -14.0903     76.9989    202.6123   8.3969680061e+01   2.1077915394e+01    0.6286892    0.4386931 -30.28   0.00295503    1.591    0.372
       115 -11.6148    246.0091    195.7975   4.5660481589e+01   8.2436252409e-01     0.156224     0.103796 -50.49  0.000908318    1.607    0.378
       116 -12.5369    168.0036    195.5496   5.9433086288e+01   9.9673299266e+00    0.2487057    0.2161627  -0.08 0.0003339028    1.091    0.083
       117 -11.3448    152.7335    195.9340   6.2893788692e+01   1.1999474893e+01    0.1995542     0.172641 -26.18 0.0006345374    1.067    0.063
       118 -12.6302    189.4380    193.4909   5.4719074774e+01   7.5463331546e+00    0.3424585    0.3319531   8.49  0.001359393    1.289    0.224
       119 -13.2266     26.4758    192.8914   9.7901795165e+01   2.9279867683e+01    0.5188314    0.2587925 -71.47  0.001159163    2.005    0.501
       120 -11.3092    217.3522    193.6669   4.9749564796e+01   4.1673601551e+00    0.1859143    0.1587831 -40.32 0.0005617758    1.251    0.201
       121 -10.5286     35.4202    198.8116   9.5800758457e+01   2.6871907377e+01    0.1849413    0.1312684 -56.47 0.0006074487    1.438    0.305
       122 -11.2091    212.5286    193.0307   5.0456320416e+01   4.8268341716e+00    0.1856536    0.1011248 -43.55 0.0005118521    1.556    0.357
       123 -11.8603    162.3280    193.0011   6.0220685675e+01   1.1261465781e+01    0.3096593    0.1790351  21.12  0.001052558    1.875    0.467
       124 -11.1757     32.9005    177.1641   9.4235800183e+01   3.2870475204e+01    0.3673681     0.188242 -31.57   0.00110713    2.481    0.597
       125 -11.1593     36.0448    191.5388   9.4852236627e+01   2.8715184093e+01    0.3299128    0.2408566  15.54  0.001639031    1.379    0.275
       126 -12.1609     36.6804    185.4161   9.3979063438e+01   3.0276491403e+01    0.6449048    0.2631148 -67.52  0.002061543    2.412    0.585
       127 -12.4008     25.1567    182.9075   9.7326193905e+01   3.2051789657e+01    0.6376289    0.3472529  48.22  0.002748204    1.908    0.476
       128 -12.3838     28.9177    181.8750   9.6033429158e+01   3.1983387158e+01    0.4347214     0.291186   5.30  0.001002724    1.630    0.387
       129 -12.2822     31.7233    188.4230   9.5850040744e+01   2.9967237343e+01    0.3028972    0.2074463   6.42 0.0004947778    1.578    0.366
       130 -11.7300     30.6965    185.3070   9.5839905472e+01   3.0895955365e+01     0.300211    0.2498129 -89.19 0.0006524638    1.247    0.198
       131 -13.3101    135.3891    186.4515   6.5373685896e+01   1.6581467923e+01     0.683608    0.2480144 -41.01  0.002346024    2.931    0.659
       132 -12.8120    131.8508    184.8274   6.5971255632e+01   1.7482256368e+01     0.298613    0.2293262 -23.45  0.001510187    1.326    0.246
       133 -12.9949    111.1629    188.5908   7.2094004099e+01   1.9730160532e+01    0.4059173    0.2552124 -43.86   0.00182923    1.592    0.372
       134 -11.2646    234.0742    190.5147   4.6583580203e+01   2.8701417319e+00    0.1478088    0.1101659  21.86  0.001028722    1.578    0.366
       135 -13.4912    121.3199    186.9936   6.9083254925e+01   1.8582566978e+01    0.5149247    0.3541756  10.03  0.001953109    1.588    0.370
       136 -13.5367    118.0240    179.5094   6.8625178269e+01   2.0841894430e+01     0.447133    0.3895133  42.11  0.002358007    1.229    0.186
       137 -12.0723    193.8476    193.3811   5.3861540384e+01   7.0108547221e+00    0.2522343    0.1539818 -28.91 0.0009047982    1.532    0.347
       138 -11.6699    120.7300    182.3460   6.8412696118e+01   1.9756302289e+01    0.2452205    0.2246723  33.49 0.0003236636    1.145    0.127
       139 -12.0396    248.4840    185.7333   4.3740194536e+01   2.1511204315e+00    0.2007679    0.1648483 -19.73 0.0004549753    1.177    0.151
       140 -12.0313    151.2821    183.0329   6.0931746054e+01   1.4938665648e+01    0.2896706    0.2108122 -10.48 0.0008237391    1.525    0.344
       141 -12.0479    166.8152    181.9301   5.7269711964e+01   1.2879224823e+01    0.2299604    0.1988135 -21.63 0.0003693552    1.037    0.036
       142 -10.6942    142.3141    181.3183   6.2741379440e+01   1.6667477822e+01    0.1521182     0.106076 -15.97 0.0002428951    1.649    0.394
       143 -10.9002    221.4697    180.5142   4.6896720119e+01   5.9391572668e+00    0.1212138   0.09520014 -31.58 9.960913e-05    1.015    0.014
       144 -11.7180    198.8424    179.9524   5.0621773022e+01   8.8428363928e+00    0.1888066    0.1672224 -14.73 0.0002961982    1.101    0.092
       145 -12.0510    192.4047    178.6150   5.1562565384e+01   9.9439270382e+00    0.3258578    0.2150553 -62.77   0.00132964    2.077    0.519
       146 -10.3848    177.4887    179.5122   5.4612650966e+01   1.1833296735e+01    0.1346699    0.1181979 -26.17 7.134661e-05    1.018    0.017
       147 -10.5456     17.4583    179.4347   9.9410299656e+01   3.3642663820e+01    0.2344148    0.1352379 -71.05 0.0006261974    1.680    0.405
       148 -11.6164     19.3372    176.0750   9.8488095926e+01   3.4392497371e+01     0.372644    0.2419891 -24.92  0.001282526    1.783    0.439
       149 -10.3392    158.3139    178.3000   5.8463964263e+01   1.4884167593e+01     0.144633    0.1021238 -14.76 0.0003929506    1.610    0.379
       150 -11.7689    250.6015    176.3625   4.1980541628e+01   3.3992573355e+00    0.1999381   0.08130126 -43.00 0.0002321919    1.840    0.457
       151 -10.6655    162.4635    177.4309   5.7387562209e+01   1.4442413660e+01    0.1386942    0.1250437 -20.54 0.0001123448    1.010    0.010
       152 -12.2814    136.5528    175.5774   6.3090612933e+01   1.8838448666e+01    0.3343435    0.2301661  69.42  0.001405116    2.495    0.599
       153 -12.9854    106.7169    175.7441   7.1068130102e+01   2.3507331189e+01    0.3144584    0.2939481   9.37 0.0009410795    1.022    0.022
       154 -10.5255      3.8239    168.3981   1.0278418545e+02   3.7606069877e+01     0.229966    0.1404587 -50.93 0.0001441779    1.599    0.374
       155 -12.7586    126.9555    173.9678   6.5232409260e+01   2.0729335609e+01     0.418929     0.229496 -50.18  0.001598609    1.807    0.447
       156 -13.4596    131.5660    169.5997   6.3214459274e+01   2.0990184110e+01    0.5535383    0.3055106  40.59  0.002358372    1.876    0.467
       157 -13.2553    124.8628    167.6062   6.4570541861e+01   2.2543352675e+01    0.5436451    0.3172185  29.15  0.002342338    1.742    0.426
       158 -10.7167     40.0803    175.0657   9.1650775583e+01   3.2705740437e+01    0.3256321    0.1731296 -19.86  0.001184422    2.685    0.628
       159 -10.6318     12.4301    175.0183   1.0059753711e+02   3.5223721562e+01    0.3011995    0.1348398 -53.81   0.00122108    2.130    0.530
       160 -11.6092      3.6596    174.0359   1.0329483206e+02   3.6104075879e+01    0.6307689    0.2975239  61.14  0.002528109    2.462    0.594
       161 -12.2321     33.1069    172.0510   9.3563512133e+01   3.4235239544e+01    0.5482095    0.2740135  16.57  0.002198363    2.072    0.517
       162 -13.5209     61.2740    168.8130   8.3820470506e+01   3.1893593146e+01    0.8776835    0.4936298 -44.57  0.003599212    1.839    0.456
       163 -13.6558     59.2242    158.2271   8.2787779955e+01   3.4994146118e+01    0.9957426    0.3132511  40.79  0.003012079    3.289    0.696
       164 -11.8943     63.0262    156.9642   8.1286628399e+01   3.4825694638e+01    0.2512654    0.2202672  77.81 0.0003079931    1.301    0.231
       165 -13.5977     66.0676    154.1306   7.9761345890e+01   3.5160440707e+01    0.5673267    0.3864807  28.84 0.0004779887    1.419    0.295
       166 -10.8906    235.5007    171.5068   4.3287410363e+01   5.8190885707e+00    0.2157246   0.09919697  18.23 0.0008103932    5.746    0.826
       167 -11.3455    196.9812    170.5234   4.9289524984e+01   1.0830417066e+01    0.1690904    0.1061556   2.91 0.0005536436    2.421    0.587
       168 -13.4116    152.4349    167.3159   5.7725052501e+01   1.8123370613e+01    0.5853384    0.2531396 -51.40  0.001621479    2.322    0.569
       169 -11.0841     49.9305    169.6822   8.7684975131e+01   3.3061341682e+01    0.3768962    0.1379424  22.76  0.001258014    2.688    0.628
       170 -12.2337     40.5270    166.9932   9.0445538720e+01   3.4847720482e+01    0.4209729    0.2589799 -89.96  0.001756101    2.027    0.507
       171 -13.9916     48.5216    152.3117   8.5512265822e+01   3.7930346483e+01    0.8360333     0.375786  23.46  0.003026372    2.186    0.542
       172 -15.2125     35.4159    146.9049   8.9359295707e+01   4.0862124940e+01     1.126184    0.9060606  32.74  0.002995089    1.254    0.202
       173 -13.9811     15.2051    108.1812   9.1157263844e+01   5.2979158954e+01     1.525798    0.8187447  63.95   0.00584854    3.006    0.667
       174 -14.1323     21.0103    160.5689   9.6277220041e+01   3.8468239437e+01     1.256984    0.7809656  50.60  0.005705294    1.747    0.428
       175 -15.0017     12.2536    130.4875   9.5762262213e+01   4.7319698165e+01     1.963093     1.418215 -27.58  0.006481201    1.387    0.279
       176 -12.7438      3.3776    144.1248   1.0069725733e+02   4.4199156609e+01    0.7538832    0.2190081 -60.13  0.002666372    2.720    0.632
       177 -13.4426      3.8540    119.9092   9.7724454090e+01   5.0658860920e+01    0.5221713    0.4034847 -64.17  0.001271653    1.215    0.177
       178 -13.4118      9.6757    116.5744   9.4857929780e+01   5.1187500695e+01     0.523158    0.3309396  14.16  0.001688238    1.605    0.377
       179 -14.1549     32.4688    139.3683   8.9290023140e+01   4.3207317972e+01     1.134894    0.4597408   2.70  0.003402738    3.899    0.744
       180 -14.1658     35.5430    130.9065   8.6720965379e+01   4.5164834899e+01    0.7686518    0.6026955  53.86  0.001582644    1.449    0.310
       181 -12.7678     22.9135    116.8268   8.9361666612e+01   5.0112051760e+01    0.5650955    0.3729553 -29.73  0.001843015    1.528    0.346
       182 -12.5289     18.8175    113.8535   9.0574168872e+01   5.1232380844e+01     0.372088      0.30442  -9.38  0.001008712    1.192    0.161
       183 -12.1881     14.2856    156.5018   9.8142590301e+01   4.0110236842e+01    0.3074173    0.2330496 -59.79 0.0005720374    1.250    0.200
       184 -14.5383     23.0519    151.9355   9.4520414614e+01   4.0656181690e+01     1.083784    0.8046184 -25.35  0.005371283    1.422    0.297
       185 -12.4283     16.5168    149.7931   9.6594180840e+01   4.1772779614e+01    0.3690223    0.2665552 -20.48 0.0009840494    1.481    0.325
       186 -14.1787     78.8379    212.4971   8.4780745634e+01   1.8415393702e+01     1.543966    0.5036794  21.99  0.004950951    3.162    0.684
       187 -10.4247     54.3287    167.2882   8.5873729781e+01   3.3178732078e+01    0.1610334    0.1129088 -24.85 0.0004942732    1.616    0.381
       188 -11.7856     10.2953    166.8160   1.0053323303e+02   3.7595284477e+01    0.3989364    0.2514944  -3.51  0.001167444    1.806    0.446
       189 -12.4881    110.9093    164.3334   6.7745938744e+01   2.5611054735e+01    0.3089397    0.2904465 -35.39 0.0003696016    1.068    0.064
       190 -11.9849     88.3610    164.7196   7.4481862608e+01   2.9111909918e+01    0.2952643    0.1798211  39.41  0.001070917    1.632    0.387
       191 -13.0515     92.1642    161.2876   7.2674448234e+01   2.9391882194e+01    0.4018059    0.3886923  24.82  0.001488843    1.054    0.052
       192 -11.1980    205.9775    164.3225   4.6631345199e+01   1.0736488907e+01    0.1676167     0.150176 -19.07 0.0005388142    1.119    0.106
       193 -12.2970     56.5097    163.0762   8.4493018694e+01   3.4040863580e+01    0.4035168    0.2815318 -48.22 0.0009238868    1.430    0.301
       194 -12.3629     47.3432    163.3353   8.7626084901e+01   3.5081092935e+01    0.4683733    0.3531132 -20.01  0.001671599    1.456    0.313
       195 -13.2544     42.7783    160.0369   8.8702167314e+01   3.6495318733e+01    0.7111703    0.2608538  25.89  0.002283863    2.538    0.606
       196 -11.6506      4.0075    162.8401   1.0224941967e+02   3.9093173363e+01    0.3481511    0.2172019  41.63  0.001676165    1.641    0.390
       197 -10.8523      7.0334    160.0361   1.0098278412e+02   3.9657356598e+01    0.2550196    0.1737795 -73.84 0.0008671269    1.399    0.285
       198 -10.5626    242.5435    162.4620   4.0833114769e+01   6.4796524716e+00    0.1136946   0.08691697 -40.38 0.0001096816    1.036    0.035
       199 -11.1098     32.9861    162.2916   9.2379600325e+01   3.6906411144e+01    0.2069273    0.1864035  21.12 0.0003654568    1.110    0.099
       200 -12.9415    170.0825    159.7134   5.2434137941e+01   1.6894119960e+01    0.3679216    0.2362463 -44.30   0.00187031    1.424    0.298
       201 -12.4405    105.1745    168.9077   7.0249598380e+01   2.5423837474e+01    0.2363661     0.215155  60.36 0.0007675699    1.246    0.197
       202 -12.1713    158.7681    160.0318   5.4895837644e+01   1.8643288796e+01    0.2482374     0.204032  43.85 0.0006759404    1.338    0.253
       203 -13.3059     76.0094    156.9578   7.6972689540e+01   3.2984196401e+01    0.5460761    0.3167709 -83.60  0.001541673    2.871    0.652
       204 -12.0507     34.9762    158.6651   9.1208471401e+01   3.7698223982e+01    0.2301633     0.205608 -63.61 0.0004018977    1.115    0.103
       205 -12.6481     34.1977    154.4465   9.0896161862e+01   3.8929475457e+01    0.4852198    0.2460154  33.77  0.000911497    1.915    0.478
       206 -11.2575    105.0402    158.0854   6.8206975869e+01   2.8100668507e+01     0.238049    0.2287383  25.01 0.0004877323    1.055    0.052
       207 -12.2106    121.9039    155.9809   6.3062108569e+01   2.5751070641e+01    0.2237344    0.2169049 -16.83 0.0002927638    1.029    0.029
       208 -11.8617    112.2836    156.4088   6.5796605872e+01   2.7291094867e+01    0.2198128    0.1399621  42.43 0.0009490221    1.612    0.380
       209 -12.1226     81.9023    156.0654   7.4900372793e+01   3.2326414772e+01    0.3375525    0.2226461  21.21 0.0008264235    1.550    0.355
       210 -11.8228    141.2725    154.6047   5.7844350211e+01   2.2734250047e+01    0.2718196    0.1781834 -59.67  0.001122911    1.728    0.421
       211 -11.7648    244.0958    171.9919   4.2163578223e+01   4.7806987406e+00    0.1667045    0.1396425 -29.54            0    1.127    0.112
       212 -11.5429      2.3205    153.1612   1.0194886927e+02   4.1814266807e+01    0.3611861    0.2171454  63.31  0.001652224    1.880    0.468
       213 -12.1650     88.3585    152.6147   7.2182140604e+01   3.2195653379e+01    0.3120302    0.1956573 -53.31  0.001131119    1.610    0.379
       214 -11.1995    232.2055    151.8590   4.0481262362e+01   9.4503023442e+00    0.1659213    0.1287788 -47.94 0.0003759999    1.129    0.114
       215 -12.2562    147.7080    149.8798   5.5363320263e+01   2.2652746422e+01    0.3083651    0.2435499 -62.26 0.0004151995    1.401    0.286
       216 -12.5310    130.5057    150.6820   5.9720548442e+01   2.5477352312e+01    0.3422272    0.2491895  18.47   0.00100356    1.553    0.356
       217 -13.3576     84.6493    147.9355   7.2434659713e+01   3.3978923329e+01    0.6287385    0.3019837 -58.93  0.001768632    2.223    0.550
       218 -13.1851     26.1014    134.1567   9.0907508543e+01   4.5223055995e+01     0.516808    0.3275901 -49.56 0.0007076806    1.486    0.327
       219 -12.2776    170.4463    150.1289   5.0499695835e+01   1.8760819583e+01    0.2666868    0.1804482  58.42 0.0009308054    1.947    0.486
       220 -12.6831    108.6815    148.7596   6.5260722148e+01   2.9745295384e+01    0.4070501    0.3097593 -55.45  0.001002282    1.367    0.268
       221 -12.8332     97.7290    149.0234   6.8559030441e+01   3.1554266948e+01    0.4055405    0.3454795 -81.26  0.001999091    1.399    0.285
       222 -11.1550    224.1175    148.2169   4.0994483901e+01   1.1106312977e+01    0.2277127    0.1343623 -61.20  0.001060127    2.111    0.526
       223 -11.4472    180.8427    148.1616   4.8094953853e+01   1.7463999388e+01    0.1839338    0.1506637 -18.84 0.0005398383    1.316    0.240
       224 -11.3639    206.5099    146.7398   4.3388554760e+01   1.3811049153e+01    0.1889741    0.1707015  27.94 0.0006627059    1.301    0.232
       225 -11.7918     79.7623    147.4022   7.3919012242e+01   3.4888644386e+01    0.2177168    0.1494354  15.80  0.000406525    1.567    0.362
       226 -12.7876    101.4817    142.2491   6.6008962345e+01   3.2568803255e+01    0.5874879    0.3756307  65.81  0.001770553    2.455    0.593
       227 -12.5610     59.6065    144.8222   8.0301562993e+01   3.8520651835e+01    0.3018074    0.2294618  68.42 0.0006992181    1.638    0.389
       228 -12.1305     69.6864    142.1229   7.6267444537e+01   3.7792543160e+01    0.2919307    0.2068174  38.99  0.001233343    1.410    0.291
       229 -11.3457    139.9842    140.7850   5.5294523128e+01   2.5981313650e+01    0.1980662    0.1906598 -38.47 0.0005370274    1.018    0.018
       230 -13.5630      9.1624    148.5822   9.9088207093e+01   4.2629686567e+01    0.6428764    0.5873559  32.48  0.003117129    1.146    0.127
       231 -13.0812    230.2070    139.2271   3.8604523686e+01   1.1790781121e+01    0.2381691    0.1952991 -46.37 0.0005705996    1.042    0.040
       232 -11.5987    223.0517    139.8558   3.9691336151e+01   1.2658258199e+01    0.1981485    0.1387421 -45.50 0.0002889133    1.158    0.136
       233 -10.8525    189.7220    140.3578   4.4989756472e+01   1.7525746643e+01    0.1295164   0.09640542 -70.58 0.0007010467    1.659    0.397
       234 -11.6674     94.8739    139.9246   6.7531998202e+01   3.4280950611e+01    0.2539709    0.2044723 -21.46  0.001210461    1.367    0.268
       235 -11.8515    170.7647    135.6015   4.7540957487e+01   2.1580171695e+01    0.2508127    0.2004063 -19.54 0.0009561153    1.446    0.309
       236 -12.9141    103.7906    133.3502   6.3377960843e+01   3.4286700486e+01    0.6114089     0.296203 -37.86  0.002204095    2.475    0.596
       237 -12.7237     46.3577    135.0890   8.3336318537e+01   4.2817679148e+01    0.4088759    0.2353693  23.94 0.0005817886    1.702    0.412
       238 -11.6874    179.9153    135.0347   4.5701721544e+01   2.0129865081e+01    0.1952412     0.176172 -47.09 0.0002775051    1.008    0.008
       239 -11.9873    117.9855    134.9519   5.9677375913e+01   3.1313489794e+01    0.2320898    0.2254343  26.93 0.0006067051    1.025    0.024
       240 -13.9006     63.1454    134.1312   7.6971927518e+01   4.0828189065e+01     0.668291    0.3318704  28.80  0.002583263    1.941    0.485
       241 -11.5058    211.3438    133.2811   4.0201128067e+01   1.5456631253e+01    0.2292003    0.1706633  38.69 0.0008447934    1.647    0.393
       242 -12.2872    126.7080    131.8728   5.6671806890e+01   3.0379155845e+01    0.3175403    0.2676769  74.39  0.000860616    1.413    0.292
       243 -11.7521    201.7035    130.8289   4.1209635570e+01   1.7357854088e+01    0.1975992    0.1803362  67.72  0.000393567    1.268    0.211
       244 -12.1879    206.6980    129.2281   4.0148364287e+01   1.6861311132e+01    0.2191018    0.1853321 -56.33 0.0003084505    1.095    0.087
       245 -13.1860     82.6956    128.8362   6.9036379385e+01   3.9086386228e+01    0.4718314    0.3363691   4.99  0.002068009    1.707    0.414
       246 -12.9843     49.0714    129.7047   8.1298206296e+01   4.3901835820e+01    0.5799509    0.1596881  31.72     0.001779    3.172    0.685
       247 -10.8215    192.4668    128.9846   4.2339016187e+01   1.9166820850e+01    0.1943066    0.1123878 -44.97 0.0003155943    1.519    0.342
       248 -11.0440    130.2274    128.2595   5.4968146098e+01   3.0504089657e+01    0.2097967    0.1976502  -5.62 0.0006189884    1.112    0.101
       249 -11.0260    121.9876    128.0379   5.7050774454e+01   3.2116999545e+01    0.1809732    0.1779926 -31.79  0.001001784    1.018    0.018
       250 -11.9862     65.0435    128.0205   7.5015914853e+01   4.2117244965e+01    0.2533646    0.1900675  66.66  0.001135408    1.727    0.421
       251 -10.8089    162.2752    127.6590   4.7588051001e+01   2.4641215093e+01    0.1378143    0.1057743 -77.32 0.0003572441    1.617    0.381
       252 -13.1018     60.3253    125.4712   7.6203720013e+01   4.3463057290e+01     0.454547    0.2549111 -50.29  0.001420272    1.761    0.432
       253 -13.1045    103.9677    121.1372   6.0524208813e+01   3.7084498390e+01    0.5081638    0.4098634  16.23  0.002271977    1.366    0.268
       254 -12.2131     99.2319    118.3465   6.1290720199e+01   3.8611154799e+01    0.2917985      0.25632  70.86 0.0003436826    1.297    0.229
       255 -12.7431     50.8832    123.2390   7.9310752354e+01   4.5346502961e+01    0.4652806    0.1900829  26.69  0.001321103    2.355    0.575
       256 -12.2219     58.5017    117.5407   7.5159482561e+01   4.5729563838e+01    0.3208999    0.1477777  27.23 0.0009162221    2.126    0.530
       257 -11.8378     51.7259    116.3877   7.7527448401e+01   4.6977504050e+01    0.7544873    0.2669654  40.62  0.002005497    2.992    0.666
       258 -12.1769     35.8137    119.6044   8.4555362107e+01   4.8114098811e+01    0.3853954     0.293159  37.58  0.001023821    1.373    0.272
       259 -11.1498    189.0004    121.5469   4.1461097789e+01   2.1083282731e+01    0.1962686    0.1552853 -48.01 0.0002979898    1.121    0.108
       260 -10.7639    165.4911    121.9971   4.5760860147e+01   2.5154543360e+01     0.193215    0.1127392 -66.42 0.0008092049    2.438    0.590
       261 -12.6290     67.8356    121.7844   7.2636965394e+01   4.3257068382e+01    0.3099281    0.2305472 -70.63  0.001426958    1.599    0.375
       262 -11.3517    199.8390    121.1517   3.9669223923e+01   1.9350517645e+01    0.1717554     0.143589 -26.05  0.001089387    1.349    0.259
       263 -11.1424    230.5904    119.5013   3.5158797362e+01   1.4931021686e+01    0.2113621    0.1590941   2.04  0.001302933    2.287    0.563
       264 -12.7835     73.1763    120.1602   7.0348797335e+01   4.2800323633e+01    0.2951919    0.2021916  37.36  0.001334678    1.418    0.295
       265 -11.4926     94.0146    116.8919   6.2566174808e+01   3.9917661138e+01    0.3062164    0.2146327 -49.89 0.0007850458    1.475    0.322
       266 -11.4780    124.3547    114.4756   5.3294442503e+01   3.4581481474e+01    0.2386265    0.2168878 -59.90  0.001303376    1.128    0.113
       267 -12.3194    106.9813    113.5243   5.7814997640e+01   3.8204532058e+01     0.539819    0.3064403  20.52  0.001961495    2.762    0.638
       268 -12.0535     82.0898    112.4610   6.5408717393e+01   4.3110398664e+01    0.4167425    0.2096095 -64.94  0.001290147    2.945    0.660
       269 -12.5904     63.7599    113.6052   7.2264944406e+01   4.5906037949e+01    0.3357999    0.2809008  12.90 0.0009232686    1.177    0.151
       270 -12.4031     61.5111    110.4977   7.2383513633e+01   4.7008095961e+01    0.4014975    0.2705866 -40.22  0.001116526    1.530    0.346
       271 -11.8453     57.5049    113.4894   7.4624403455e+01   4.6880534774e+01    0.2765901    0.2292589  32.25 0.0008586932    1.184    0.155
       272 -12.5910     53.3003    110.7752   7.5647276420e+01   4.8155503380e+01    0.4480679    0.3666968  58.82   0.00199893    1.459    0.315
       273 -11.8726    219.4555    110.9437   3.5043117580e+01   1.7949255180e+01    0.3126532     0.212995 -25.19  0.001841158    1.962    0.490
       274 -13.6786     44.4582    120.3424   8.1231629258e+01   4.6915324671e+01    0.6780183    0.4201361 -14.10  0.002814261    2.000    0.500
       275 -11.8611    170.3006    107.0065   4.1694515941e+01   2.7050695374e+01    0.1902494    0.1617824 -53.04 0.0004119895    1.093    0.085
       276 -10.4925    140.3444    107.6760   4.7851908841e+01   3.2766855500e+01       0.1476    0.1105055 -89.48 0.0007050443    1.736    0.424
       277 -11.1725    120.9505    107.0362   5.2390214533e+01   3.6804014960e+01    0.2126295    0.2035113  69.82  0.000290544    1.043    0.042
       278 -12.4935      2.2797    106.5638   9.6558183923e+01   5.4215746382e+01    0.2599051    0.2595469 -17.09 0.0008430102    1.138    0.122
       279 -10.7206    153.6111    106.3447   4.4720535570e+01   3.0386680994e+01    0.2060196    0.1551993 -83.48 6.165452e-05    1.628    0.386
       280 -10.1462    116.3331    104.2910   5.2933720558e+01   3.8299961637e+01    0.1468318    0.1169743   6.31 0.0006051995    1.632    0.387
       281 -10.8980     64.5182    104.0129   6.9649208961e+01   4.8073751917e+01     0.214298    0.1497766 -50.83 0.0003230083    1.488    0.328
       282 -10.4887    230.0315    103.0289   3.2369718823e+01   1.7588508745e+01      0.13501    0.1059876 -54.37  0.000309799    1.007    0.007
       283 -12.1587     78.9410    101.1429   6.3636247841e+01   4.6248242677e+01    0.3368106    0.2503091  59.34 0.0008177598    1.617    0.381
       284 -11.7323    105.5167     99.4407   5.4714019336e+01   4.1483948222e+01    0.2375029    0.2348242 -54.00 0.0001748626    1.059    0.056
       285 -11.6748     31.9136     98.8129   8.1910969981e+01   5.3788427350e+01    0.4429686    0.2233312 -30.20    0.0017371    2.325    0.570
       286 -12.0308    161.7292     99.1896   4.1560699895e+01   3.0100050088e+01    0.2232329    0.1610419 -64.00  0.001195737    1.449    0.310
       287 -12.1622     23.8369     97.5579   8.5271007074e+01   5.4919218553e+01    0.5944887    0.2013722  35.25   0.00209571    2.984    0.665
       288 -11.3725    188.7958     97.8181   3.6772924433e+01   2.5227948211e+01    0.1729323    0.1325896 -71.29 0.0004515786    1.304    0.233
       289 -11.3759    178.8374     98.1017   3.8374520420e+01   2.7009854683e+01     0.197509    0.1588295 -68.62 0.0004184809    1.200    0.167
       290 -11.9505     89.3127     97.4446   5.9159622083e+01   4.5107648396e+01    0.3210542    0.2229985  87.59  0.001089069    2.492    0.599
       291 -12.1360     75.1727     97.5215   6.4019911589e+01   4.7727326567e+01    0.2551765    0.2330935 -17.65 0.0005016028    1.125    0.111
       292 -11.1237     68.0417     95.2346   6.6035755297e+01   4.9482562370e+01    0.2074025    0.1193994  32.90 0.0006194527    1.640    0.390
       293 -10.7144     98.6603     92.7882   5.4989678661e+01   4.4221362376e+01    0.1982931     0.137883 -57.67 0.0004103468    1.652    0.395
       294 -12.5923     59.1638     96.7371   6.9871767100e+01   5.0609358470e+01    0.4938699    0.3246511 -46.65  0.001703809    1.563    0.360
       295 -11.0846    208.1022     99.7988   3.4462006540e+01   2.1555902005e+01    0.1769836    0.1384994 -67.94 0.0003179502    1.197    0.165
       296 -12.3219     25.2930     90.0276   8.2938734641e+01   5.6597009197e+01    0.5276895    0.2466041  27.97 0.0007683088    2.028    0.507
       297 -12.2566    230.8270     89.4080   2.9920852686e+01   1.9515612488e+01      0.22864    0.1959854  60.56  0.001129582    1.470    0.320
       298 -11.6360      3.9902     88.2902   9.2792535797e+01   5.8687459929e+01    0.3787105    0.1641465 -46.75  0.001643352    1.962    0.490
       299 -11.5362    138.5362     88.2958   4.3648951256e+01   3.6759628510e+01    0.2248906    0.2098689 -83.64 0.0002005118    1.033    0.032
       300 -12.1113     54.0049     85.8798   6.9049214067e+01   5.3839548359e+01    0.4948827    0.3922541   2.09  0.002572235    1.295    0.228
       301 -12.3726     60.1736     85.9467   6.6546161634e+01   5.2831812139e+01    0.3952491    0.1990972 -43.08  0.001636134    2.103    0.524
       302 -12.3316     63.5317     82.1385   6.4127327565e+01   5.3064072329e+01    0.3277403    0.2278095  26.59  0.001032555    1.376    0.273
       303 -11.6764    178.6287     86.9195   3.6071543030e+01   2.8911478224e+01    0.2131929    0.1722307  77.87 0.0003201842    1.245    0.197
       304 -12.3051    149.4625     86.6156   4.1026020488e+01   3.4779538317e+01    0.3384157    0.1726877 -33.23  0.001434218    2.513    0.602
       305 -10.4311    202.3504     86.2781   3.2638614565e+01   2.4666325411e+01    0.1054732   0.09510899  10.94 0.0005209925    1.643    0.391
       306 -11.6779     11.3272     86.9824   8.8965172410e+01   5.8528657676e+01    0.3082092    0.2485294  49.26  0.001041751    1.516    0.340
       307 -10.7450    238.5729     84.9036   2.8370490113e+01   1.8995248571e+01     0.186748    0.1098726 -83.93  0.001017214    2.222    0.550
       308 -11.8830    171.0361     83.7089   3.6574039591e+01   3.0905978569e+01    0.1752664      0.15671 -87.35 0.0004800834    1.049    0.046
       309 -10.6568    110.0621     83.5211   4.9252868207e+01   4.3647988220e+01    0.2150356    0.1339498  48.94 0.0003846303    1.503    0.335
       310 -11.3365     77.6034     81.6058   5.8734469100e+01   5.0606800527e+01    0.3159288    0.2130675  53.89  0.001481916    1.627    0.385
       311 -11.3858    206.5051     80.9305   3.1109869907e+01   2.4755427261e+01    0.1720562    0.1003323 -45.66 0.0003492262    1.503    0.334
       312 -11.9016    182.9748     77.2551   3.3421936800e+01   2.9609126682e+01    0.2164066    0.1820093 -42.87 0.0007492437    1.285    0.222
       313 -11.8521     23.2138     79.9254   8.1513336322e+01   5.9152542886e+01    0.3269277    0.2180966 -36.86 0.0009413246    1.420    0.296
       314 -11.8401    153.2675     79.9438   3.8756852669e+01   3.5115829801e+01    0.2163111    0.1828226  67.60  0.000439006    1.140    0.123
       315 -11.5594     50.8055     78.5439   6.8316199307e+01   5.5903720574e+01    0.4738273    0.2840769  60.15  0.001856598    2.927    0.658
       316 -12.3916     29.2796     79.6864   7.8494224298e+01   5.8558523001e+01    0.4033557    0.2029865  24.18  0.001360394    1.850    0.460
       317 -13.5856    215.1220     75.8269   2.9182979147e+01   2.4030917458e+01    0.3417035    0.2288897 -47.50   0.00112869    1.301    0.231
       318 -11.4780     88.3251     79.0446   5.4387555537e+01   4.8993506050e+01    0.2876508    0.2020045  50.92 0.0009594059    1.382    0.276
       319 -11.3735    188.8266     77.1616   3.2602974609e+01   2.8516253726e+01     0.153716    0.1489709 -14.21 0.0006837633    1.388    0.279
       320 -11.8315    161.3917     76.3243   3.6515336944e+01   3.4028591759e+01    0.2527708    0.2056223 -80.01 0.0008042377    1.187    0.158
       321 -11.2868    112.1086     76.2628   4.6751312338e+01   4.4514754662e+01    0.2603005    0.2478168  38.10 0.0007730515    1.107    0.097
       322 -11.4002    116.9462     74.8329   4.5149965416e+01   4.3719590725e+01    0.3345793    0.2352566  69.87  0.001676765    1.565    0.361
       323 -12.2724     75.0883     75.2919   5.7767025115e+01   5.2313979049e+01    0.3606431    0.2288792 -35.33  0.001071922    1.791    0.442
       324 -11.5506     86.5026     71.9609   5.2897456699e+01   5.0669119926e+01    0.2872587    0.1439336 -42.97 0.0003679352    2.203    0.546
       325 -11.9044     31.6961     74.9351   7.6037863371e+01   5.9320880724e+01    0.1940041    0.1751509 -21.95  0.000515114    1.103    0.093
       326 -11.8332     50.9302     72.9161   6.6587379934e+01   5.7040512868e+01    0.2449726    0.1983076 -52.29 0.0008004407    1.422    0.297
       327 -11.2668    168.9913     73.9897   3.4779704303e+01   3.2854910690e+01    0.1771741    0.1581771  15.41 0.0005025661    1.595    0.373
       328 -11.8877      2.1349     69.2298   8.9907423809e+01   6.3248175686e+01    0.3215278    0.2188793 -81.80  0.001241977    1.939    0.484
       329 -11.4649    187.3688     69.8977   3.1321680560e+01   2.9878893817e+01    0.2080793    0.1617823  66.00 0.0004999767    1.334    0.250
       330 -11.0276    180.9086     70.3280   3.2267981831e+01   3.1056343674e+01    0.1931494     0.137841 -89.47 0.0008277309    1.427    0.299
       331 -10.5787     60.2961     67.3300   6.0927450416e+01   5.6550408187e+01    0.1438617    0.1055656  -0.44 0.0002825447    1.636    0.389
       332 -11.3849     47.4973     67.5024   6.6424222801e+01   5.8656542779e+01    0.2543471     0.115259  41.78  0.001030732    2.216    0.549
       333 -10.2181    235.0085     65.7491   2.5474224236e+01   2.2197232101e+01    0.1156628   0.08351327  80.34 0.0001970399    1.456    0.313
       334 -11.2223    199.4357     65.4892   2.8982653038e+01   2.8267013463e+01    0.1175973   0.09526972 -69.04 8.334449e-05    1.010    0.010
       335 -11.8980    178.5599     64.1485   3.1289186586e+01   3.2422452780e+01    0.2141102    0.1806822 -83.61 0.0003625526    1.039    0.038
       336 -11.3275    110.0391     64.0055   4.3878596117e+01   4.7011231405e+01     0.204995    0.1850033  64.53 0.0003204557    1.022    0.021
       337 -13.6733    107.6115     59.4107   4.3177342638e+01   4.8263429583e+01     0.383681    0.3195782  76.46 0.0009589839    1.225    0.184
       338 -10.8117     55.5749     63.7720   6.1727518051e+01   5.8037398405e+01    0.1780054    0.1389059 -58.60 0.0007965914    1.638    0.389
       339 -11.9364      8.4558     60.8514   8.4350999367e+01   6.4650626078e+01    0.4974195    0.2902129  49.12  0.002236913    2.559    0.609
       340 -11.0302    226.0772     61.6332   2.5565296850e+01   2.4181632336e+01    0.1426828    0.1150151 -76.92 0.0003895772    1.120    0.107
       341 -12.8162     43.4805     61.3860   6.6290441328e+01   6.0455184450e+01    0.5615191    0.2516502  46.16  0.002199983    2.725    0.633
       342 -10.8956     43.4649     57.4656   6.4993992521e+01   6.1187182230e+01    0.2072558    0.1529386  -4.05 0.0006340876    1.458    0.314
       343 -11.4576     14.2020     61.1619   8.1224588042e+01   6.4103594605e+01     0.215271    0.1557176 -18.60 0.0007364199    1.249    0.200
       344 -10.4608    233.6164     59.1556   2.4482170769e+01   2.3292049852e+01    0.1346483   0.08721365 -40.04 0.0003377329    1.583    0.368
       345 -11.4298    208.3823     59.2530   2.6835811105e+01   2.7521244191e+01    0.1603585   0.08459646 -52.37 0.0004617445    1.597    0.374
       346 -11.4031    193.1753     57.1911   2.8069901740e+01   3.0581798865e+01    0.1691245     0.116402 -72.50 0.0009556208    1.327    0.246
       347 -11.4382    160.1706     57.3956   3.2410715818e+01   3.7125385415e+01    0.1741256    0.1087217  77.23 0.0005304769    1.614    0.381
       348 -11.4973     52.2704     56.6702   6.0772454829e+01   5.9886045355e+01    0.2551583    0.1989026  41.28 0.0003454903    1.248    0.199
       349 -11.4403     50.0270     52.0959   6.0168116210e+01   6.1061180814e+01    0.2110631    0.1991068 -37.83  0.001317203    1.280    0.219
       350 -12.4178     28.5908     55.4787   7.1690703029e+01   6.3671174648e+01    0.4041864    0.2413056  45.49  0.001943824    2.100    0.524
       351 -10.8989    176.3899     56.1817   2.9888529956e+01   3.3978421417e+01    0.1683612   0.09658177 -53.95 0.0003852141    1.627    0.385
       352 -10.8327    100.5035     56.4943   4.4157117493e+01   5.0266375638e+01    0.1382218    0.1218218  53.10 0.0008105299    1.025    0.024
       353 -10.6065    186.0000     54.9969   2.8457345726e+01   3.2250815474e+01    0.1864252   0.06137995 -39.71 0.0006735464    2.933    0.659
       354 -11.3079    126.8465     54.1163   3.7386465073e+01   4.4796721036e+01     0.209624    0.1654774 -85.42  0.001213507    1.319    0.242
       355 -10.9838    115.5847     53.7495   3.9677088513e+01   4.7347487523e+01    0.1723015    0.1234112 -55.12 0.0005435582    1.552    0.356
       356 -12.9368     37.3294     51.9887   6.6052946279e+01   6.3111341900e+01    0.2935254    0.2599071 -19.76 0.0003855186    1.187    0.158
       357 -11.2040    233.5157     52.7809   2.3418127554e+01   2.4132643611e+01    0.1642157    0.1237619 -85.85 0.0004065429    1.236    0.191
       358 -11.6052     43.6166     52.0699   6.3063939951e+01   6.2127585128e+01    0.2359099    0.1692398  25.40 0.0002558114    1.220    0.180
       359 -13.4134     30.4009     49.4474   6.8683165252e+01   6.4552165834e+01    0.3941713    0.3462522  70.02  0.002322714    1.706    0.414
       360 -10.2659    155.5028     47.4179   3.0799726110e+01   3.9474898857e+01    0.1239662    0.1054248  86.05 9.566877e-05    1.032    0.031
       361 -10.6129    190.4880     43.4733   2.5643359133e+01   3.2896196470e+01    0.1162179   0.09202485 -76.09 0.0003422073    1.011    0.011
       362 -12.2439      2.2588     42.1113   8.2623393357e+01   6.8901383106e+01    0.3175311    0.1776531 -29.96 0.0008451825    1.617    0.382
       363 -12.5436     35.9752     39.8814   6.2282801804e+01   6.5369722027e+01    0.3728905     0.232296  23.90 0.0009045897    1.440    0.306
       364 -12.5567    135.5837     38.8904   3.1804914503e+01   4.4893756598e+01    0.2310878    0.2026751  75.04 0.0003795078    1.086    0.079
       365 -11.8063    103.6988     39.7235   3.8318130673e+01   5.1911180632e+01    0.3027704    0.1594103  53.73  0.001489508    1.612    0.380
       366 -11.4358     18.7103     48.9661   7.4916861217e+01   6.6079883926e+01     0.231723    0.1659477  14.46 0.0006236761    1.210    0.174
       367 -13.3789    230.3759     34.7124   2.0631517586e+01   2.6860276279e+01    0.2391909    0.1733976 -68.13 0.0006295992    1.006    0.006
       368 -11.9847     43.9437     32.9481   5.5718491176e+01   6.5102560837e+01    0.3015342    0.2338362   4.77  0.001292387    1.340    0.254
       369 -13.3868     46.8815     26.7996   5.1911860698e+01   6.5411718685e+01    0.3713848    0.2890074  61.26  0.002104277    1.614    0.380
       370 -10.3841    221.3092    249.6851   5.7768755986e+01  -5.2329454725e+00   0.09206032   0.08600984 -13.50 0.0003460837    1.631    0.387
       371 -12.7981     78.4646     30.9942   4.2125157648e+01   5.8543380411e+01    0.3055221    0.2483156  61.79  0.001886699    1.159    0.137
       372 -10.4245     65.6886     32.3435   4.6737535335e+01   6.1049165928e+01    0.1247034    0.1002207  83.99 0.0007045926    1.702    0.413
       373 -10.8366      8.7175     32.0035   7.4912034094e+01   7.0182096216e+01    0.1694121    0.1356746  -5.32 0.0002943868    1.048    0.046
       374 -11.5689    159.2708     31.0476   2.6526584658e+01   4.0708663298e+01    0.1970827    0.1440706  78.86 0.0003754641    1.166    0.142
       375 -10.9722    135.0884     29.6995   2.9525214715e+01   4.6099227357e+01    0.2391323    0.1331358 -37.81  0.001301293    2.005    0.501
       376 -11.2767     22.2008     31.1715   6.6265450235e+01   6.8742328622e+01    0.1635325    0.1360334  31.37 0.0004106817    1.313    0.238
       377 -11.3234    208.0481     29.4645   2.1385813380e+01   3.1321552410e+01    0.1553033   0.09054498  78.07  0.001028634    1.585    0.369
       378 -10.6438     95.3358     26.6783   3.6218537387e+01   5.5343634496e+01    0.1289417   0.09210511 -85.40 0.0006701272    1.709    0.415
       379 -12.6302     68.3245     25.6241   4.3342794526e+01   6.1328127768e+01    0.2596244     0.201318  84.56  0.001098449    1.719    0.418
       380 -11.4538    139.5880    248.1866   7.4121934651e+01   3.2003232717e+00    0.2625839    0.2157953 -22.74  0.000590289    1.173    0.147
       381 -11.3221     63.4024     24.7824   4.4680175948e+01   6.2443282165e+01    0.1514295    0.1202763  -1.99 0.0002764535    1.515    0.340
       382 -11.5509    237.9813     22.6780   1.8177868142e+01   2.6999006649e+01    0.1367325    0.0961947 -75.34 0.0003404959    1.103    0.093
       383 -11.0945    250.3612     21.9467   1.7365629926e+01   2.5149331393e+01    0.1345282   0.08869784 -58.28 0.0004743597    1.126    0.112
       384 -10.8335    100.5426     21.5040   3.3426058074e+01   5.4736146128e+01    0.1272445    0.1038754  65.48 1.770564e-05    1.004    0.004
       385 -12.5858    106.5770     32.0679   3.5370240560e+01   5.2207988536e+01    0.2806979    0.2337742 -78.97 0.0009280841    1.289    0.224
       386 -11.1931    189.6154     20.0780   2.1127490697e+01   3.5809957339e+01    0.1713243    0.1169762 -83.32 0.0004308395    1.184    0.155
       387 -11.0022     67.3160     17.6466   4.0649350554e+01   6.2419688501e+01    0.1209061   0.09380546 -88.57 0.0007046224    1.739    0.425
       388 -11.9367    224.4322     14.9950   1.7735426186e+01   3.0062490461e+01    0.1777525    0.1168984 -86.08 0.0003484949    1.255    0.203
       389 -10.1029     30.9918     16.0000   5.4738461182e+01   6.9550086568e+01    0.1976016     0.057686  41.90  0.000450888    2.788    0.641
       390 -12.0593    135.5798    246.0000   7.4751012644e+01   4.0748004614e+00     0.362411    0.1714204  20.08  0.001286294    1.936    0.483
       391 -10.4817    125.0000    249.0301   7.7664274673e+01   4.7202078013e+00    0.1988268   0.07544953 -54.31 0.0008019189    2.939    0.660
       392 -11.8054    162.8328    246.5981   6.8696822525e+01   9.0160302322e-01    0.2568637    0.1734821 -15.90 0.0007231194    1.336    0.251
       393 -10.5453     99.3819    246.2910   8.3599662392e+01   8.2827247286e+00    0.1458285   0.09459881 -11.01  0.000701688    1.748    0.428
       394 -10.1917    205.6710    244.6780   5.9829401183e+01  -3.0889198680e+00    0.1263884   0.06997812 -16.24 0.0005880418    1.693    0.409
       395 -10.9092    180.3945    244.2847   6.4672431333e+01  -5.5323112105e-01    0.2200146    0.1382372  20.56  0.001059205    1.493    0.330
       396 -11.7383     59.7797    242.4678   9.3340362269e+01   1.3669021146e+01      0.34793     0.221853   4.43  0.001708969    1.724    0.420
       397 -11.2192    134.1623    241.7902   7.4496945263e+01   5.0526480281e+00    0.1932282    0.1381401  -9.30  0.001060198    1.335    0.251
       398 -10.5575    197.4432    241.5625   6.0907077234e+01  -1.8081033052e+00    0.1215715   0.09225024 -13.77 0.0001701332    1.001    0.001
       399 -10.4937    158.7693    240.9882   6.8761516635e+01   2.3592908615e+00    0.1598641   0.09981904 -42.78 0.0004618045    1.593    0.372
       400 -12.5198     90.3022    238.6432   8.4988077480e+01   1.0987742307e+01    0.5110403    0.2532643 -44.96  0.001862589    2.178    0.541
       401 -11.0885    239.9590    239.4905   5.3185411637e+01  -5.2589695373e+00    0.1570458     0.108648 -23.87  0.000341354    1.037    0.036
       402 -10.2322     72.5067    240.4732   8.9824528608e+01   1.2680363436e+01    0.1394799    0.1222056  16.43 0.0008098163    1.033    0.032
