#   1 NUMBER                 Running object number                                     
#   2 MAG_AUTO               Kron-like elliptical aperture magnitude                    [mag]
#   3 X_IMAGE                Object position along x                                    [pixel]
#   4 Y_IMAGE                Object position along y                                    [pixel]
#   5 X_WORLD                Barycenter position along world x axis                     [deg]
#   6 Y_WORLD                Barycenter position along world y axis                     [deg]
#   7 A_WORLD                Profile RMS along major axis (world units)                 [deg]
#   8 B_WORLD                Profile RMS along minor axis (world units)                 [deg]
#   9 THETA_WORLD            Position angle (CCW/world-x)                               [deg]
#  10 FWHM_WORLD             FWHM assuming a gaussian core                              [deg]
#  11 ELONGATION             A_IMAGE/B_IMAGE                                           
#  12 ELLIPTICITY            1 - B_IMAGE/A_IMAGE                                       
         1 -13.2351    247.5262     46.1147   5.8771946968e+01   1.7211155048e+01     1.432269    0.4813168 -25.55  0.005330669    2.641    0.621
         2 -14.8152    204.3662     43.5207   6.3633746165e+01   2.8149000832e+01     2.394834    0.9554374 -31.81  0.008932138    2.342    0.573
         3 -15.5221    177.9408     76.3927   7.8041206827e+01   3.0341587049e+01     5.549277     2.082119 -46.27   0.01719748    3.607    0.723
         4 -15.3387    166.1192     56.2731   7.4232876047e+01   3.6283861643e+01     4.445745      2.51342 -76.92  0.003435062    5.517    0.819
         5 -16.2072    194.4684      7.3799   5.3753854548e+01   3.4528280693e+01      13.8482          nan  59.73   0.02763892    8.395    0.881
         6 -15.0872    219.3038     39.7716   6.0458965897e+01   2.4769382259e+01     3.392287     1.195579 -45.89  0.004344114    3.597    0.722
         7 -16.4838    242.7679     94.6766   7.1941359870e+01   1.2614554538e+01      10.8735     3.880459 -21.84   0.03911906    2.953    0.661
         8 -13.8867    237.8475     14.2528   5.1239625744e+01   2.2749423491e+01     0.555258    0.5170983  87.30  0.001357494    1.103    0.093
         9 -15.8936    242.8598      5.1008   4.8361285291e+01   2.2351299998e+01     1.907432    0.9901621  70.85  0.009034817    1.943    0.485
        10 -11.6125    105.3118      2.2802   6.7025388570e+01   5.7849649680e+01    0.3098328     0.250087  -3.42  0.001765002    1.160    0.138
        11 -12.3098    133.5844      7.0371   6.2901696333e+01   5.0622810493e+01    0.5846084    0.4603668 -18.63  0.002049461    1.282    0.220
        12 -11.9998     67.0144      3.8660   7.9213135634e+01   6.5388441183e+01    0.4792965    0.1687668  37.60  0.001905505    3.155    0.683
        13 -11.5857     58.0736      2.1161   8.1611956524e+01   6.7109850324e+01    0.2997291    0.1561116  32.96  0.001529298    2.032    0.508
        14 -11.4557    160.8594    128.1936   9.4917289300e+01   2.5668163763e+01    0.4020899     0.335935 -40.49  0.002263915    1.284    0.221
        15 -12.1085    192.3401    126.2911   8.8199410613e+01   1.9331387319e+01     0.261299    0.2084763  16.80  0.001413504    1.267    0.211
        16 -14.8731     56.6312    175.4366   1.2422532857e+02   3.3826013361e+01     1.182977     1.032846  -0.50   0.00245624    1.876    0.467
        17 -10.3774    135.2189    120.7719   9.8866022770e+01   3.2133026763e+01    0.3177375    0.1128781 -43.57  0.001159065    2.953    0.661
        18 -12.0124    167.2578    113.4137   9.0151669986e+01   2.6810338402e+01    0.4064588    0.3774975  13.60  0.001275397    1.056    0.053
        19 -11.6229    134.9736    107.8623   9.5944054603e+01   3.4586736140e+01     1.004601     0.275934 -41.75  0.003151937    3.810    0.738
        20 -11.8802    214.5328    105.6454   7.9195712213e+01   1.7435753155e+01    0.3263074    0.2481119   3.51  0.001228661    1.359    0.264
        21 -11.8470    215.8652    100.3365   7.7630422003e+01   1.7865840481e+01    0.3800646    0.2401773 -37.12  0.001299739    1.656    0.396
        22 -11.1142    213.1214     95.1883   7.6775218247e+01   1.9201745894e+01    0.3773932    0.2016104 -12.42  0.001495895    2.349    0.574
        23 -11.6220    156.3853    101.6213   8.9525248644e+01   3.1204293113e+01    0.3101315    0.2379341 -37.83  0.001425859    1.339    0.253
        24 -10.6198    164.2314    102.6132   8.8086924699e+01   2.9297904940e+01    0.2103952     0.130492  40.29 0.0005465738    1.591    0.372
        25 -10.7514    141.3046    102.1086   9.3047815011e+01   3.4353075983e+01    0.2535492    0.1933394  32.68  0.000852851    1.371    0.271
        26 -10.2509    124.2487    100.5754   9.6722308545e+01   3.8091112056e+01    0.2040515    0.1314646  34.09 0.0009540749    1.719    0.418
        27 -11.3250    146.8312     96.9041   9.0430747217e+01   3.4119870374e+01    0.3487303    0.2821102  10.11 0.0007680384    1.436    0.304
        28  -9.4744     11.5001    142.0374   1.3051334147e+02   4.4523516863e+01    0.1466906   0.08181132 -80.89 0.0009836456    1.447    0.309
        29 -10.7318    133.4328     94.2427   9.2865978904e+01   3.7443102515e+01    0.2705475    0.2290217  80.82 0.0006141125    1.424    0.298
        30 -12.7048    155.8691     89.0535   8.6272130916e+01   3.3493378344e+01    0.7086976    0.4480951  23.04  0.002639019    2.118    0.528
        31 -12.6286    164.3778     85.4279   8.3412167528e+01   3.2143942102e+01    0.7524155    0.5072757 -54.33  0.003368612    1.847    0.459
        32 -11.6692    140.1388     85.8599   8.8974898184e+01   3.7553852717e+01    0.3231754    0.2983932 -53.00 0.0007710816    1.153    0.133
        33 -11.1780    221.6358     79.2552   7.1168941033e+01   1.9355437906e+01    0.6225104    0.3727891  68.49  0.002151703    2.112    0.527
        34 -10.8517    192.9280    194.8571   1.0129430152e+02   9.7670534659e+00    0.7407166    0.4062586 -63.63   0.00220681    9.522    0.895
        35 -12.0638    210.2420     82.2779   7.3832770050e+01   2.1656811663e+01    0.7114888    0.3598949  39.20  0.002746188    2.070    0.517
        36 -12.8958    153.9303     77.4198   8.3365435655e+01   3.5913274317e+01    0.4081114    0.3232563 -28.88 0.0007917057    1.268    0.211
        37 -10.5690    208.1640     58.8475   6.7583400090e+01   2.5285252527e+01    0.4023869    0.3913205   4.71  0.001891131    1.049    0.047
        38 -12.3713    216.0637     68.8353   6.9189960937e+01   2.2046096349e+01        0.652    0.5385088 -66.30  0.002184366    1.506    0.336
        39 -11.8117    210.9985     64.9742   6.8896685509e+01   2.3789168515e+01    0.5629542    0.3908985  82.32  0.001711993    1.944    0.486
        40  -9.6298    132.6501    139.1542   1.0322020427e+02   2.9240177609e+01    0.2581536    0.1223944 -56.38  0.001085675    2.601    0.615
        41  -9.8241    224.7640     68.4077   6.7754559562e+01   1.9999320704e+01    0.2081801    0.1254074  45.20 0.0009423743    1.641    0.391
        42 -10.4583    147.0954     68.0744   8.2063871680e+01   3.9063903113e+01    0.2344017     0.186643 -76.16 0.0008346286    1.695    0.410
        43 -10.3068    130.7040     66.2424   8.5393042138e+01   4.3094684499e+01    0.2508559    0.2172517  39.57  0.001038866    1.156    0.135
        44  -9.8111    190.3121     52.6940   6.8648391545e+01   3.0618888876e+01     0.604006    0.1951212 -26.21 0.0009258593    3.086    0.676
        45 -12.6559    186.4917     62.0945   7.2181077747e+01   3.0315500465e+01    0.4464875    0.3361572  24.50 0.0008791495    1.412    0.292
        46 -12.6060    191.5795     58.2883   7.0135561449e+01   2.9550057467e+01    0.4576997    0.2881764  27.48  0.001796189    1.846    0.458
        47 -12.5137     15.2164    193.9646   1.3299507561e+02   3.4824550766e+01    0.2027699    0.1666482 -83.83  0.001147876    1.372    0.271
        48 -10.0411    178.2151     47.6941   6.9185189209e+01   3.4394258452e+01    0.3007657    0.2085973  -7.82  0.001027369    1.586    0.370
        49  -9.9164    189.7368     36.3276   6.3625517266e+01   3.2809939131e+01    0.3492472    0.2227448  51.58 0.0009431379    1.500    0.333
        50 -11.1399    192.4624     45.5190   6.6078215307e+01   3.0983620629e+01    0.3160313    0.2597264 -20.44 0.0008395178    1.209    0.173
        51 -11.9009    190.1535     42.2186   6.5419859141e+01   3.1992605979e+01    0.5790312    0.3581938 -55.58  0.002322575    2.069    0.517
        52  -9.1718    186.2512     44.6779   6.6834267800e+01   3.2702010258e+01    0.1494946    0.1123964 -53.36 0.0002263841    1.537    0.349
        53 -12.2627      5.3128    189.0018   1.3441902006e+02   3.6509821046e+01    0.2648389    0.1318601  50.70  0.001973601    1.607    0.378
        54  -9.6695    202.2397    248.2413   1.0721473356e+02   2.6109462589e+00    0.1312097   0.09595313  45.43 0.0003439456    1.285    0.221
        55 -11.0757    246.9863    173.9606   8.8669840167e+01   2.6540373880e+00    0.1964812    0.1496039  20.99 0.0005667392    1.026    0.026
        56 -10.2181    170.4405     29.2861   6.4450175522e+01   3.8716274419e+01    0.3313214    0.1976051 -50.24  0.001382403    2.031    0.508
        57  -9.6734    177.0897     22.1346   6.0942598932e+01   3.7747880984e+01    0.1875073     0.161761 -40.55 0.0002941408    1.226    0.185
        58 -10.6075    219.0436     19.6294   5.4655038214e+01   2.6951464389e+01    0.2356995    0.1951484 -13.49 0.0004889167    1.216    0.178
        59 -14.7430     47.9251    183.8832   1.2658690626e+02   3.3308357626e+01    0.8782219    0.7902583  80.66  0.001577274    1.278    0.217
        60 -11.7094    246.5990    163.7285   8.6763745446e+01   3.7931833792e+00    0.4371641    0.2056732  18.91  0.001854238    2.892    0.654
        61 -10.4078     92.4655    236.5163   1.2318122281e+02   1.9684560697e+01    0.1014164    0.0729087  56.81 7.413587e-05    1.007    0.007
        62  -9.3562    166.3829    134.4914   9.5146157912e+01   2.3484717028e+01    0.1364778     0.125823  24.27 0.0007983412    1.047    0.045
        63  -8.9548    205.2706    223.6882   1.0354111648e+02   4.5077090957e+00   0.09718255   0.07932728  56.57 0.0002975125    1.549    0.354
        64 -12.4078     67.9677    144.4294   1.1846174897e+02   3.8307594830e+01    0.5803307    0.3084182  63.44  0.002795223    2.147    0.534
        65 -14.9543     17.0045    209.6391   1.3346136105e+02   3.2114760447e+01     1.371644     1.165384 -43.93  0.003936562    2.092    0.522
