#   1 NUMBER                 Running object number                                     
#   2 MAG_AUTO               Kron-like elliptical aperture magnitude                    [mag]
#   3 X_IMAGE                Object position along x                                    [pixel]
#   4 Y_IMAGE                Object position along y                                    [pixel]
#   5 X_WORLD                Barycenter position along world x axis                     [deg]
#   6 Y_WORLD                Barycenter position along world y axis                     [deg]
#   7 A_WORLD                Profile RMS along major axis (world units)                 [deg]
#   8 B_WORLD                Profile RMS along minor axis (world units)                 [deg]
#   9 THETA_WORLD            Position angle (CCW/world-x)                               [deg]
#  10 FWHM_WORLD             FWHM assuming a gaussian core                              [deg]
#  11 ELONGATION             A_IMAGE/B_IMAGE                                           
#  12 ELLIPTICITY            1 - B_IMAGE/A_IMAGE                                       
         1 -14.5722     43.2149     74.6748   6.6694714840e+01   5.7718562974e+01      1.71874       1.4243  73.41  0.006075627    1.433    0.302
         2 -14.3542      9.9621     69.4558   7.9986710999e+01   6.1842371756e+01     2.339593     1.620142 -26.48   0.01372469    1.565    0.361
         3 -14.0910    116.8445     63.0110   3.6542353318e+01   4.6855006145e+01     1.165512    0.9628432  51.02  0.002450966    1.194    0.163
         4 -14.0473     95.4094     71.3831   4.5889334752e+01   4.9941861016e+01     2.448267      1.96976  89.20   0.01182684    1.652    0.395
         5 -13.3385     63.7342     34.4674   4.3640885687e+01   6.3164600918e+01     2.158429     1.626771  35.66   0.01185036    1.311    0.237
         6 -13.0025     50.6132     21.2562   4.3293766636e+01   6.7644421372e+01     1.925836    0.9380695  38.77  0.006999917    2.031    0.508
         7 -12.8831     59.0200     60.8739   5.5938419527e+01   5.8750873138e+01     2.792583     1.749531  81.69  0.008969539    4.325    0.769
         8 -14.1451     12.1365     38.3195   7.1615147489e+01   6.8878227140e+01     1.924035     1.163358 -63.33  0.006268403    1.533    0.348
         9 -13.5316     72.6232     24.5020   3.5452050307e+01   6.3050120970e+01     1.360651    0.8161849 -47.03 0.0009145637    2.022    0.505
        10 -12.1530     79.8892     23.2028   3.2196538613e+01   6.1712384169e+01    0.5578868    0.4158575  16.26  0.001615756    1.450    0.310
        11 -11.3450    202.8079     18.8272   7.5206556845e+00   3.1583658907e+01     0.681551    0.5123805 -10.26  0.003807715    1.651    0.394
        12 -13.5443    185.8706     56.5763   1.9988175562e+01   3.0871479004e+01     2.133722     1.180001 -64.44  0.008451096    2.507    0.601
        13 -12.7016    200.3972     46.4578   1.5167423388e+01   2.8789522090e+01     1.258934    0.7519121  16.13  0.004875119    3.337    0.700
        14 -13.5972    192.2410     37.9281   1.3870895642e+01   3.1874108635e+01     2.046839     1.038979 -30.56  0.009112095    1.933    0.483
        15 -11.2852    220.8204     29.8189   8.6412688929e+00   2.6151716809e+01     1.748733    0.6546189  80.32  0.006613575    3.460    0.711
        16 -13.8906    217.6365     57.8974   1.5988072039e+01   2.3268904387e+01     1.990102     1.373011  -0.30  0.009730693    2.102    0.524
        17 -12.6652    221.4532      8.1938   3.3041414378e+00   2.8384292955e+01    0.9756823    0.3842672 -64.13  0.001692123    2.888    0.654
        18 -13.0985    225.7501     22.8367   6.5056873490e+00   2.5857360650e+01    0.7042072    0.5089556   7.46   0.00385752    2.069    0.517
        19 -13.9058    243.4881      7.8453   1.7940633291e+00   2.3671514291e+01     1.442887    0.6399024 -80.20  0.006889325    2.562    0.610
        20 -12.6785    235.1038     47.5145   1.1542789878e+01   2.0870354481e+01     1.108663    0.3666531 -53.14  0.002224059    3.864    0.741
        21 -11.5311     31.3123     22.4489   5.4150165849e+01   7.0262800217e+01    0.9144145    0.8121921 -61.93  0.002943185    1.480    0.324
        22  99.0000    243.9899     17.9428   4.0035045231e+00   2.2503587683e+01    0.3881935    0.1993009 -45.27  0.001170518    1.576    0.365
        23 -11.3875    176.4332     23.6597   1.1759022666e+01   3.7556458856e+01    0.4006087    0.2963894  13.41  0.000919298    1.830    0.453
        24 -11.7159    211.0446     21.1567   7.3623028748e+00   2.9383642613e+01    0.4557619    0.3714924  39.71  0.002713522    1.532    0.347
        25 -12.7754     24.6330     39.7609   6.5105808003e+01   6.7561124644e+01      1.84527    0.6102174 -57.29  0.002230256    2.736    0.635
        26 -11.1576     93.9832     16.0984   2.4493836304e+01   5.9426962476e+01     0.350972    0.1930797  46.36  0.001621751    1.665    0.399
        27 -10.2740     93.9179     11.7821   2.2539359663e+01   5.9926341537e+01    0.2046662    0.1641614  37.60 0.0003048385    1.162    0.139
        28 -10.2845    154.3116     15.1821   1.2044394289e+01   4.4192520984e+01    0.4275972    0.2386754   3.19  0.001718927    2.893    0.654
        29 -10.3926    150.1578     13.2195   1.1979921054e+01   4.5478291179e+01    0.2412763    0.1943896 -50.98 0.0007220175    1.270    0.213
        30 -12.9122    172.9341      7.4048   7.3025741879e+00   4.0161592212e+01    0.4754159    0.3147536  -9.44  0.001231342    1.899    0.473
        31 -11.4528    115.7743     10.5813   1.6886162947e+01   5.4655301851e+01    0.4692074    0.3182162   6.56  0.001409276    1.823    0.452
        32  -9.7873    212.6322     11.7991   4.8545651829e+00   3.0024092284e+01    0.2657746    0.1296696 -67.60  0.001207856    2.207    0.547
        33  -9.3290    192.0558     11.9309   6.6807709819e+00   3.4921445090e+01    0.1569642    0.1433331  64.09 0.0002834841    1.196    0.164
        34 -11.5045    193.4855      7.5126   5.3404499465e+00   3.5016144934e+01    0.2542107    0.2351181 -88.09 0.0006849652    1.103    0.093
        35 -10.9248    131.7398      9.8456   1.3644214932e+01   5.0618152585e+01      0.45696    0.3395691 -54.96  0.001825522    1.463    0.316
        36 -10.6903    109.4411     10.7070   1.8279078190e+01   5.6240872009e+01    0.3316166    0.2805413 -28.70  0.001859061    1.280    0.219
        37 -10.4421     88.0539     11.5774   2.4084441727e+01   6.1327120032e+01    0.2523202    0.2236413  53.83  0.001498997    1.109    0.099
        38 -11.6659     65.4090      7.7745   2.9686585996e+01   6.6726658419e+01    0.3986583    0.3049867  89.05  0.002113582    2.095    0.523
        39 -11.0017     78.5524      9.2312   2.5840522291e+01   6.3745803867e+01     0.251891    0.2217284   5.37  0.001527888    1.119    0.106
        40 -11.7010     72.4107      5.7341   2.6065106097e+01   6.5473104091e+01    0.7218883    0.5691806 -50.44  0.004140627    1.611    0.379
        41 -13.3917     56.9086      4.0029   3.0964724988e+01   6.8865410962e+01    0.6308842    0.3011113  45.84 0.0009799447    1.899    0.473
        42 -11.0461     47.9967      1.6184   3.3501453682e+01   7.0826566920e+01    0.4745048    0.1623565  44.11  0.001988054    2.643    0.622
        43  -8.9446    124.8826      9.2010   1.4592209957e+01   5.2456537562e+01    0.2376505    0.2006764 -33.30  0.001348424    1.280    0.219
        44  -9.9519     45.5594      9.7946   3.9578602990e+01   7.0206521721e+01    0.2692285     0.165281  33.95  0.001155282    1.552    0.356
        45 -11.0961     26.5971      9.8088   5.0358406393e+01   7.3024072201e+01    0.2475735    0.1757419  -8.50  0.001021029    1.355    0.262
        46 -11.0198    146.4267      6.0603   1.0063138241e+01   4.7144331429e+01    0.3310106    0.2376394  -6.82  0.001731592    1.684    0.406
        47  -9.2584    156.3249      7.6538   9.3014897495e+00   4.4417295104e+01    0.1506528   0.09303787 -62.18  0.000705007    1.744    0.427
        48 -11.2125      2.7096      5.8793   6.5253038066e+01   7.6049916216e+01    0.2180653    0.1844142 -23.77 0.0007246988    1.104    0.094
        49  -9.4670    210.7585      5.9885   3.5382196867e+00   3.1048437939e+01    0.1503752    0.1007765 -32.16 0.0004198489    1.466    0.318
        50 -10.7052    120.9016      4.9285   1.3631345713e+01   5.3877870248e+01    0.3024479    0.2025015 -33.69 0.0009648052    1.603    0.376
        51  -9.2466     91.2810      6.6442   2.0847524122e+01   6.1083161249e+01    0.1340215    0.1022187 -59.91 0.0006357455    1.661    0.398
        52 -10.6141    111.7078      4.2528   1.5086672453e+01   5.6282610315e+01    0.3021706    0.1920356  53.81   0.00112574    1.391    0.281
        53  -9.3776    101.6909      4.1542   1.7158745276e+01   5.8795268222e+01    0.2682799    0.1064333 -30.25  0.001094142    2.583    0.613
        54  -9.9638     97.6006      4.9653   1.8473883718e+01   5.9723559628e+01    0.1729313    0.1666886  -2.09 0.0005186924    1.124    0.111
        55  -8.7513    183.3749      3.8428   5.2306133371e+00   3.7865443321e+01    0.3174324    0.1888343 -60.68  0.001138301    1.648    0.393
        56 -10.5339    187.0713      1.4091   4.2193134322e+00   3.7173038263e+01    0.2446755    0.1172576  77.11 0.0004746813    1.936    0.483
        57 -11.3912    217.2316      2.4483   2.2037127138e+00   2.9907850081e+01    0.3254056    0.2067834  78.83  0.001330816    1.515    0.340
        58 -10.0990    207.5115      2.2925   2.8438351857e+00   3.2165580299e+01    0.2306991    0.1557576  -4.21  0.001236432    2.045    0.511
        59  -9.6381     19.2260      3.6705   5.1609965901e+01   7.4903629274e+01    0.1022245   0.09043448 -48.31 0.0004734525    1.516    0.341
        60  -9.9878    143.1090      2.5552   9.2981774662e+00   4.8321635520e+01    0.2145321    0.1243113  74.40  0.001019199    1.577    0.366
        61 -12.2827     86.2046      1.3969   1.9663314653e+01   6.2775123754e+01    0.4692086    0.1214701  60.59  0.001195759    3.281    0.695
        62  -9.9846    250.0872      1.4391   3.9166752661e-02   2.2971200413e+01    0.1520239    0.1017833 -86.53 0.0003743466    1.438    0.305
        63 -13.2462     61.6346     90.9935   6.3575390663e+01   5.1404481400e+01    0.8643059    0.4288559 -66.84   0.00342101    2.321    0.569
        64 -10.4208     17.4441     95.7234   8.1114677587e+01   5.4940673610e+01    0.2746409    0.1897601  79.21  0.001092956    1.508    0.337
        65 -11.4207     11.9882     97.3096   8.3338149921e+01   5.4916689560e+01    0.2881889    0.2565441 -61.56  0.001137333    1.104    0.094
        66 -11.0251     13.5238     93.5567   8.2277554457e+01   5.5744951225e+01    0.2212064    0.1944463  60.09 8.351895e-05    1.219    0.180
        67 -13.6135    194.0685     86.5470   2.6774227254e+01   2.4261082814e+01     2.373255    0.8949839 -41.34  0.008704685    2.494    0.599
        68 -13.4771    177.9313     76.4681   2.6902967287e+01   2.9682198227e+01     2.179563    0.9610653 -35.44  0.006229815    2.196    0.545
        69 -12.2382    249.9454     73.4013   1.5942960854e+01   1.4504206130e+01    0.8326135    0.2096806 -32.32  0.001027227    3.325    0.699
        70 -11.9712    234.6910     36.8027   9.0598806786e+00   2.2286643417e+01    0.9136924    0.4670778 -83.38  0.004159193    2.609    0.617
        71  -9.2335     73.0226    119.0027   6.5884182626e+01   4.2867690640e+01    0.1692141    0.1624532  72.53            0    1.033    0.032
        72 -13.3055    243.9058     61.4731   1.3889972564e+01   1.7262988812e+01     1.453634    0.8333975  50.61  0.001969219    2.062    0.515
        73 -11.8800    202.9189     32.8179   1.1220260834e+01   2.9935713655e+01      0.62537    0.4686072  79.27  0.001804223    1.332    0.249
        74 -13.2884    202.5820     59.9354   1.8466479152e+01   2.6402662466e+01    0.8923675     0.585471 -46.10  0.004469559    1.435    0.303
        75 -10.3947    203.6633    116.0709   3.2421780788e+01   1.7290616362e+01    0.3861719    0.2071235  64.01  0.001533715    2.830    0.647
        76 -11.1846     89.5324    115.1462   5.9860948862e+01   4.1116635105e+01    0.4001167    0.2258473  53.33   0.00163494    2.036    0.509
        77 -11.8182    210.7083     47.5408   1.4187320871e+01   2.6234745417e+01    0.5290568    0.3557374 -80.77  0.001389548    1.705    0.414
        78 -11.4109    138.5271    112.7601   4.5427863753e+01   3.1935335763e+01    0.3033276     0.244576  11.85 0.0008123771    1.499    0.333
        79  -8.9972    174.3235    111.2949   3.6852433672e+01   2.4359602636e+01    0.1512828    0.1159407  10.57 0.0002005274    1.619    0.382
        80 -10.9888     62.9505    110.5039   6.7469957304e+01   4.6431534254e+01    0.2140289     0.142101  32.38 0.0006861504    1.580    0.367
        81 -10.6093     38.2731    109.9966   7.5820537838e+01   4.9554492952e+01    0.2015218     0.164378 -74.21 0.0006020617    1.114    0.102
        82 -11.7719    215.3604     42.0120   1.2244719501e+01   2.5889995554e+01     0.306114    0.2528968 -74.16  0.000751161    1.177    0.150
        83 -12.9008    221.3480     38.4289   1.0720016014e+01   2.4991847509e+01     0.835356    0.4943152 -71.68 0.0006916318    1.933    0.483
        84 -11.0760    196.5166    108.1785   3.1799761782e+01   2.0105913194e+01    0.4282947    0.3347445 -72.51  0.002159042    1.691    0.409
        85 -11.4120    191.4401    102.6254   3.1345365593e+01   2.2148155672e+01     0.510686    0.1945271 -45.52  0.001786848    2.796    0.642
        86 -12.1735     48.4673     95.1683   6.9408729695e+01   5.2117615091e+01     0.454002    0.2490436  35.53  0.002097682    1.897    0.473
        87 -10.3603    249.8782     94.2894   2.0582024892e+01   1.1656231306e+01    0.2545953    0.1839837 -42.56 0.0009935482    1.250    0.200
        88 -12.1325    209.2666     58.4323   1.7177687666e+01   2.5077212673e+01    0.3748474    0.2801057 -81.62  0.001994994    1.504    0.335
        89 -11.8435    185.5074     92.7030   2.9893091153e+01   2.5172742648e+01     0.328595    0.2428092  72.43  0.001185146    1.631    0.387
        90 -11.6821     57.7600     89.3738   6.4618591671e+01   5.2340054905e+01    0.2728092    0.2300019 -23.83 0.0008631545    1.305    0.234
        91 -10.2688    172.7411     91.5348   3.2029949572e+01   2.8312829443e+01    0.2844588    0.2331348 -83.99  0.001408724    1.484    0.326
        92 -10.5837    167.7966     89.9126   3.2590039542e+01   2.9757494956e+01    0.3550521    0.2234976  57.02 0.0008061933    1.664    0.399
        93 -11.5596     96.9190     90.9766   5.1381222038e+01   4.5389871062e+01    0.5686436    0.3851111  47.67   0.00165814    1.516    0.340
        94 -10.1874     79.6729     90.9109   5.7103409091e+01   4.8578805082e+01    0.2068671    0.1769708 -52.45 0.0004227067    1.137    0.121
        95  -8.7999     86.3099     90.3121   5.4674556214e+01   4.7544221102e+01    0.1518745    0.1180431 -14.05 0.0007027778    1.627    0.385
        96 -11.7842    237.5288     86.2982   2.0324328132e+01   1.5104689042e+01    0.5564388    0.3159004  73.71  0.001766124    2.580    0.612
        97 -11.1511    231.2770     83.6503   2.0513122006e+01   1.6723223894e+01    0.2530068    0.1877778 -57.30 0.0005188815    1.436    0.304
        98 -12.1135    222.1145     88.3392   2.2870060064e+01   1.7898601917e+01     0.425852    0.2220894  55.74  0.001975334    2.107    0.525
        99 -10.5256    225.9726     85.2846   2.1605258567e+01   1.7560769523e+01    0.2122357    0.1845969 -32.93 0.0004954484    1.039    0.037
       100 -11.6472    161.7200     84.4434   3.2331063124e+01   3.2179866985e+01    0.7524055    0.4158441  43.24  0.003074298    1.920    0.479
       101 -12.2343    168.3110     79.2984   2.9525812320e+01   3.1509894519e+01    0.6128665     0.424557 -46.61   0.00145584    1.452    0.311
       102 -11.4825    142.9088     57.2055   2.8112482205e+01   4.1510082184e+01     1.206718    0.8282606  21.97  0.005202077    2.007    0.502
       103  -9.5243    217.7841    108.5356   2.8299662271e+01   1.5664070884e+01    0.1701155    0.1368304  69.82 0.0002975303    1.548    0.354
       104 -12.3437     83.3644     83.9599   5.3877526353e+01   4.9531541900e+01    0.2808378    0.2526053  41.89 0.0009830825    1.138    0.121
       105 -12.6984    215.9314     83.6360   2.2613575694e+01   1.9906234448e+01    0.4569168    0.3472299 -50.86  0.002495786    1.303    0.232
       106 -12.7377    218.4886     74.8827   2.0102288366e+01   2.0664071163e+01    0.5525624    0.3157659  33.62   0.00240648    2.545    0.607
       107 -12.7748    221.0620     69.3667   1.8405561800e+01   2.0909221580e+01    0.4798252    0.3934308  49.33  0.001141821    1.363    0.266
       108 -12.1507    114.2733     80.8056   4.3055577933e+01   4.3962943758e+01    0.5809452    0.4554154 -52.16  0.002810408    1.327    0.247
       109 -10.7963    250.5059     81.7784   1.7744745785e+01   1.3265731561e+01    0.2327472    0.1392863 -20.83 0.0008314089    1.760    0.432
       110 -11.8617    221.7349     79.4752   2.0785482897e+01   1.9297861991e+01     0.327293    0.2449611 -84.27  0.001747994    1.683    0.406
       111 -12.0111    203.6915     78.9898   2.3267951085e+01   2.3296566808e+01    0.3116936    0.2689013 -72.46  0.001595985    1.251    0.201
       112 -10.8294    199.4693     76.3751   2.3244282130e+01   2.4657329747e+01    0.3049211    0.1944416  56.90  0.001463229    1.645    0.392
       113 -10.1798    231.4645     78.4881   1.9275030042e+01   1.7427851509e+01    0.1336301    0.1170554 -39.82 -4.437464e-05    1.010    0.010
       114 -10.2259    161.6633     77.3186   3.0300570418e+01   3.3458382080e+01    0.2390252       0.1732 -68.65  0.001069646    1.728    0.421
       115 -10.3238    155.5287     76.5792   3.1376248349e+01   3.5077152567e+01    0.2929842    0.2611632 -89.27  0.000909355    1.215    0.177
       116 -11.3633    229.4840     71.0384   1.7754212498e+01   1.8891264774e+01    0.2303059    0.1875852  26.03 0.0008822497    1.516    0.340
       117  -9.7200    232.3108     73.6853   1.8036879480e+01   1.7936554178e+01    0.1875677    0.1393589  68.34 0.0005116476    1.537    0.349
       118 -10.6569    234.5440     71.0155   1.7139960224e+01   1.7854398869e+01    0.2816021    0.1892555 -13.45  0.000814095    1.794    0.442
       119  -9.6874    151.0970     72.6862   3.1175684145e+01   3.6846200292e+01    0.1996906    0.1974699  28.76 0.0004833761    1.036    0.034
       120 -11.8390    165.8793     66.1658   2.6193764684e+01   3.4309481945e+01    0.8309191    0.5557903  48.53  0.003853936    1.525    0.344
       121 -12.8249      5.1558     55.8448   7.9672384324e+01   6.5314379293e+01    0.7247444     0.438068 -34.63  0.002653439    1.616    0.381
       122 -11.0066      3.3530     48.5056   7.9060974173e+01   6.7092710990e+01    0.3642946    0.2423642  60.71  0.001289558    1.963    0.491
       123 -12.3266    127.9871     58.2744   3.1977856453e+01   4.5030611888e+01    0.5134755    0.3003193  38.26   0.00211063    1.922    0.480
       124  -9.9703    162.0409     47.6925   2.1285699677e+01   3.8121854955e+01    0.4071923    0.3307249  53.33  0.002121196    1.232    0.188
       125 -11.3674    161.3989     57.8858   2.4552585259e+01   3.6749027788e+01    0.4687801    0.3605301  32.40 0.0008146134    1.509    0.337
       126 -11.0585    159.6200     53.9557   2.3675768763e+01   3.7805071421e+01    0.4916914    0.3466729  51.88  0.001427319    1.411    0.291
       127 -10.1473    101.7755     58.0201   3.9240269555e+01   5.1215136518e+01    0.2171921    0.2066841  69.64 0.0005511317    1.124    0.111
       128 -11.5486    100.1338     54.1452   3.8343665338e+01   5.2291026015e+01    0.9911645    0.4574828  54.96  0.003702989    2.407    0.585
       129  -9.1779    107.0262     53.4704   3.5994820828e+01   5.0853006976e+01    0.3765518    0.2789668 -80.48 0.0006621524    1.970    0.492
       130 -10.7493    248.1620     55.5331   1.2116526290e+01   1.7193772558e+01    0.3587953    0.2062662  56.41  0.001946027    2.001    0.500
       131  -9.8958    174.6406     55.6428   2.1522316195e+01   3.3776353606e+01      0.30179     0.209412 -52.18 0.0009058786    1.477    0.323
       132 -10.1883    170.5418     56.0571   2.2343378656e+01   3.4736723925e+01    0.2656387    0.2032489  85.94 0.0006816459    1.448    0.309
       133  -9.7762     69.5106     55.0423   4.9585987480e+01   5.8254034976e+01    0.2552778    0.2501056  57.89  0.001505627    1.148    0.129
       134 -10.5182    136.0070     52.9026   2.8232455133e+01   4.3937624113e+01    0.4961393    0.2165759  56.98  0.001837644    2.233    0.552
       135 -12.4263    229.6151     52.7746   1.3360025830e+01   2.1351612634e+01     1.207399    0.5168558 -50.30   0.00210679    2.350    0.575
       136 -11.4790     90.4287     51.1060   4.0372032439e+01   5.4949187680e+01     0.243793    0.2234147  35.53 0.0003953099    1.073    0.068
       137 -11.1668    246.6337     49.4921   1.0897280929e+01   1.8262108582e+01    0.4772116    0.3056177  49.29   0.00139853    1.920    0.479
       138 -11.5285    247.1593     42.3832   9.2456215437e+00   1.9036950337e+01    0.4573771    0.2518298 -63.58   0.00234886    1.983    0.496
       139 -12.4532    172.5931     45.2952   1.8786575712e+01   3.5783664309e+01    0.7371051     0.499085  25.09  0.002539519    2.063    0.515
       140 -11.3451    177.9397     37.8557   1.5768531938e+01   3.5436003765e+01    0.4017019    0.2812292  -1.46  0.001091254    1.964    0.491
       141 -11.0967     99.3645     47.7930   3.6194182038e+01   5.3584729947e+01    0.3397404     0.271305   0.06  0.001703244    1.459    0.315
       142  -9.7850    240.5560     47.4938   1.1010192072e+01   1.9742069974e+01    0.1293917    0.1067876 -49.87 0.0001622406    1.034    0.033
       143 -11.0296    144.1966     45.3285   2.3907641730e+01   4.3029295482e+01    0.8975442    0.4404628  61.42  0.002299661    2.001    0.500
       144 -12.2822    148.7910     40.5688   2.1415069601e+01   4.2532752397e+01    0.6736763    0.3888157 -38.85  0.002981673    1.738    0.425
       145 -10.3168     32.9710     42.1778   6.1529870353e+01   6.6194475051e+01    0.3686467    0.1875897   7.89  0.001554967    2.876    0.652
       146 -10.6589     41.1498     44.8590   5.8384965744e+01   6.4659892898e+01    0.3367774    0.2807468  28.84  0.002014864    1.286    0.223
       147 -10.7954     39.6690     39.4012   5.7029026088e+01   6.5966079638e+01    0.4440772     0.310472  -6.78   0.00238066    1.632    0.387
       148 -11.9162    161.7754    106.7053   3.8362415614e+01   2.8010477079e+01    0.3728117    0.2430823 -50.94  0.001647532    1.657    0.396
       149  -9.7602    125.4551     43.5261   2.7427051202e+01   4.8044827452e+01    0.2613539    0.1496106 -17.04 0.0007495767    2.334    0.571
       150 -10.5871     93.6468     42.6821   3.6007588038e+01   5.5725333000e+01    0.3885406    0.2477089 -20.93  0.001741334    1.854    0.461
       151  -9.8430    105.1792     43.2048   3.2671505575e+01   5.3013073044e+01    0.1941833    0.1717304  83.16 0.0006717896    1.297    0.229
       152 -10.6172    100.3778     41.4615   3.3412639708e+01   5.4406785267e+01    0.3327996    0.2748498  -5.97  0.001737415    1.332    0.249
       153 -10.1853    156.0229     41.3406   2.0340461612e+01   4.0563372213e+01    0.2837376    0.1904494 -56.52 0.0008591722    1.636    0.389
       154 -10.2019    168.4817     36.7408   1.6830717115e+01   3.7983273244e+01    0.3099466    0.2220651 -14.35  0.001001216    1.667    0.400
       155 -10.8956    168.8723     32.7611   1.5548015139e+01   3.8393212063e+01    0.4318087    0.2508456  74.67  0.001942417    1.767    0.434
       156 -10.2929    164.8472     38.8414   1.8052467496e+01   3.8636498388e+01    0.3780608    0.2613557 -86.19  0.001072366    1.662    0.398
       157 -10.5442    161.2059     40.5929   1.9202955953e+01   3.9334121575e+01    0.2826403    0.1977402  43.77 0.0005733892    1.542    0.351
       158 -11.6783    160.8268     36.5491   1.7985164691e+01   3.9973851108e+01    0.4019574    0.3436426  15.30  0.002157795    1.392    0.281
       159 -10.8104    133.0190     39.8428   2.4372922846e+01   4.6680177160e+01    0.4408757     0.230367  59.86  0.001286844    1.835    0.455
       160  -9.1959    167.6359     42.7737   1.8817004116e+01   3.7390409179e+01    0.2735043    0.1912705 -51.45  0.001328329    1.456    0.313
       161 -10.0847    210.8747     37.2749   1.1519973838e+01   2.7517148607e+01    0.2423186    0.1558772 -43.99 0.0005271625    1.398    0.285
       162 -11.0542    132.1816     34.0770   2.2487386073e+01   4.7695916922e+01    0.5653843    0.3033396 -66.46  0.001966936    3.285    0.696
       163 -11.8755    122.6283     33.4669   2.4378695909e+01   5.0206485639e+01    0.4617218    0.2290634 -39.77  0.001185962    2.092    0.522
       164 -10.3250    123.4974     27.2201   2.1813373640e+01   5.0808535298e+01    0.4563117    0.2510074 -39.90  0.002003399    1.907    0.476
       165  -9.2556    105.1071     28.8283   2.6936711510e+01   5.5164871601e+01    0.4651536    0.2733136 -45.49  0.002079623    1.933    0.483
       166 -11.6841    114.5802     27.9930   2.4171563962e+01   5.2954007225e+01    0.2587753    0.2117255  44.46 0.0002665705    1.166    0.142
       167 -10.0327    109.9944     36.0272   2.8519831156e+01   5.2968824724e+01    0.2556612    0.2027336  50.04 0.0005183943    1.196    0.164
       168 -10.9156    113.0003     32.5567   2.6367971863e+01   5.2730192088e+01    0.3466628     0.272311 -10.74 0.0003504902    1.429    0.300
       169  -9.9484    109.1747     32.3915   2.7295620657e+01   5.3688576926e+01    0.2624703    0.2235615 -42.56 0.0007094283    1.254    0.202
       170 -10.7541     74.7982     33.9318   3.8947402188e+01   6.1146963168e+01    0.2928788    0.2628905  12.28 0.0008862879    1.051    0.048
       171 -11.1486     92.4461     33.5733   3.2640526323e+01   5.7441568012e+01     0.337349    0.2768591  31.94  0.001202645    1.190    0.160
       172  -9.3857    152.2199     33.6229   1.8488258269e+01   4.2580804940e+01    0.1491324     0.100947 -55.09 0.0003710114    1.597    0.374
       173 -10.2741    180.1742     32.1575   1.3785703954e+01   3.5596437475e+01    0.2041214    0.1889269  49.75 0.0003611466    1.181    0.154
       174  -9.2046    182.3376     29.6771   1.2781698595e+01   3.5356103848e+01    0.1982759    0.1630069 -61.41 0.0007086397    1.163    0.140
       175 -10.4625    238.8458     30.8595   7.3199262832e+00   2.2117324179e+01    0.3429513    0.2559184  58.33   0.00210843    1.555    0.357
       176 -10.0000    162.7151     29.0510   1.5307905627e+01   4.0437423941e+01    0.2184859    0.1746282 -64.19 0.0006122304    1.270    0.213
       177 -11.3815     85.9972     28.5943   3.2577703217e+01   5.9616004982e+01    0.4297428    0.2429246  44.48  0.001176563    1.676    0.403
       178  -9.2722     90.4831     26.6194   3.0252904861e+01   5.8894265535e+01    0.1648925    0.1353314 -41.75 0.0001396962    1.334    0.250
       179 -10.1071    168.3292     26.6739   1.3748655707e+01   3.9276459725e+01    0.2788276    0.1997214 -69.92  0.001404558    1.475    0.322
       180 -10.8967    234.2308     24.5185   6.2200313170e+00   2.3823240030e+01     0.382921    0.2695846  68.30   0.00154774    1.526    0.345
       181 -11.0942    153.0453    108.2979   4.0756062630e+01   2.9653060455e+01    0.2359666      0.22876 -45.08 0.0003747187    1.046    0.044
       182 -11.1449    246.6486     22.7016   4.8792419248e+00   2.1436706173e+01    0.2433165    0.1899809  57.49  0.001231348    1.551    0.355
       183 -11.7421    242.2087     22.6190   5.1789511223e+00   2.2357157772e+01    0.3480151    0.2094932  60.35  0.001403491    1.884    0.469
       184 -11.0283    239.2690     20.6406   4.9437375785e+00   2.3189483308e+01    0.2361447    0.1523863 -47.33 0.0005600353    1.286    0.223
       185 -10.2153    210.1931    105.6731   2.8846259944e+01   1.7656839120e+01    0.2362412    0.2240067 -73.54 0.0009427231    1.191    0.160
       186  -9.5509    144.6960     26.3687   1.7347088356e+01   4.5443322004e+01    0.2449232     0.137794  76.41  0.001038303    1.920    0.479
       187 -10.1516    148.6424     24.0300   1.5876826891e+01   4.4692918401e+01    0.3521061    0.2528384 -26.77  0.001276511    1.489    0.329
       188 -10.5342    135.1505     24.8514   1.8551467453e+01   4.8105629378e+01    0.3391416    0.2801822  74.68   0.00140724    1.176    0.149
       189  -9.0933    153.2678     25.2986   1.5554420281e+01   4.3339014788e+01    0.1397125    0.1060752  33.44 0.0002042462    1.520    0.342
       190  -9.5016    111.4227     23.7379   2.3229020069e+01   5.4280120927e+01    0.1962727    0.1394719  -7.05 0.0009518866    1.665    0.399
       191 -10.9322    144.5788    103.2122   4.1432162225e+01   3.2567081705e+01    0.3634883    0.3124242  18.93  0.001277722    1.288    0.224
       192  99.0000    103.4364     19.4757   2.3446250638e+01   5.6761632157e+01     0.383762    0.2241148  81.21  0.001573535    2.497    0.599
       193  -9.4180    102.6175     22.8164   2.5086967999e+01   5.6551384878e+01    0.2863885    0.1916177 -37.63  0.001006629    1.593    0.372
       194 -10.6274     98.2900     22.3015   2.6045761487e+01   5.7652872992e+01    0.3708011    0.2211404  41.62  0.001658977    1.630    0.386
       195 -10.3698    119.5244     22.2075   2.0745465524e+01   5.2432401112e+01    0.2907815     0.185411  64.84 0.0004889074    1.504    0.335
       196  -9.6995    163.2872     20.9338   1.2653307570e+01   4.1238492968e+01    0.1777105    0.1688476 -71.70 0.0003423482    1.057    0.054
       197 -10.1475    150.9787     20.6660   1.4367039799e+01   4.4468500840e+01    0.2039131    0.1757837  79.76  0.001135655    1.090    0.082
       198  -9.7773    124.0149     20.7469   1.9222897195e+01   5.1458823158e+01    0.1958957    0.1713191  67.28  0.001087925    1.083    0.077
       199 -10.1701    170.4781     19.0296   1.1111713334e+01   3.9596015255e+01    0.2367284    0.1965203  16.91 0.0008139095    1.491    0.329
       200 -10.5206    129.8114     19.2841   1.7518569981e+01   5.0133236994e+01    0.2622494    0.1954435  56.42 0.0006010646    1.238    0.192
       201 -12.1282     75.6104    103.3749   6.1636457513e+01   4.6281650708e+01    0.3807019    0.2539873 -82.76 0.0007062659    1.999    0.500
       202 -10.3439    193.4002     17.1069   7.9733273286e+00   3.4046578414e+01    0.2876079    0.1730497 -66.51  0.001412728    1.709    0.415
       203  -9.7836    138.8368     18.0651   1.5442455471e+01   4.7923946496e+01    0.1871267    0.1556927  14.63 0.0003597746    1.397    0.284
       204  -9.8156    121.5239     17.0974   1.8316828248e+01   5.2507310645e+01    0.1927372    0.1405071 -27.45 0.0003252311    1.467    0.319
       205 -11.9108     69.4150    103.1723   6.3693587803e+01   4.7296306641e+01    0.3516323    0.1761929 -55.65   0.00146181    1.885    0.470
       206 -11.2917     96.1498    102.2283   5.4666944678e+01   4.2965045417e+01     0.400714    0.2132256 -45.34  0.001618406    1.900    0.474
       207 -10.5908    165.0490    101.9527   3.6406551372e+01   2.8173875219e+01     0.235226    0.2276198 -35.60 0.0007188512    1.026    0.025
       208 -14.7857    133.6779     86.3656   3.9430703103e+01   3.8438994637e+01     2.359758     1.908035  41.45  0.005486857    1.246    0.198
       209 -13.4277     66.7713     83.0721   5.9607541390e+01   5.2527678826e+01     1.137621    0.9511985  64.48  0.003077916    1.375    0.273
       210  -9.3865    160.0732     13.8666   1.0831757099e+01   4.2830259180e+01    0.1818149    0.1445175  53.76            0    1.268    0.212
       211 -10.3322    187.1470     13.0003   7.4587043522e+00   3.6023517347e+01    0.2657171    0.1422644 -69.04 0.0009969481    2.069    0.517
       212 -10.7965     36.4336    248.2739   8.8588747879e+01   1.9542420813e+01     0.176906   0.09415839 -74.52  0.001146017    2.107    0.525
       213 -11.2725    113.5846    246.2947   7.3535964303e+01   1.0360777397e+01    0.2461091    0.2054684 -12.96  0.001127576    1.600    0.375
       214 -13.0434    144.6319     67.2218   3.0932931950e+01   3.9391384640e+01     2.692736     0.952825  43.07  0.008243557    3.394    0.705
       215 -10.2912    180.7783    243.5874   6.0340398495e+01   1.4311525804e+00    0.1654185   0.08692545  39.80  0.000950307    1.678    0.404
       216  -9.6004    218.3605    239.6877   5.3121198875e+01  -3.0695936222e+00   0.09887278   0.08147758  41.36 0.0007041995    1.748    0.428
       217 -13.2546     80.9729     41.9529   4.0068297857e+01   5.8546086047e+01     1.198252    0.6330771  50.98  0.005146926    2.004    0.501
       218 -10.7921     88.1849    238.8418   7.7890298946e+01   1.4968442765e+01    0.1497795    0.1271383  24.95 0.0004689058    1.312    0.238
       219  -9.7340    101.1165    176.1095   6.7805701528e+01   2.5130961234e+01    0.1767315    0.1433857  61.27            0    1.217    0.178
       220 -13.0694     53.2830     69.6890   6.1113160754e+01   5.7609658449e+01     1.302533    0.7496634 -85.11  0.004511555    3.942    0.746
       221  -9.4338    236.6277    146.1447   3.3550360772e+01   6.5281110420e+00    0.1742049      0.10554 -21.75  0.000347482    1.568    0.362
       222  -9.9656    152.8645    124.1092   4.4744277446e+01   2.6526539494e+01    0.2127771    0.2006594  89.69            0    1.178    0.151
       223 -10.2108    219.0494    121.4284   3.1052483851e+01   1.3386977188e+01    0.3475497    0.1325507  49.34  0.001375347    2.835    0.647
       224 -11.0036    181.8647    118.0701   3.6987983542e+01   2.1491344919e+01    0.3348499    0.2087805 -55.82  0.001443779    2.023    0.506
       225 -13.2702     36.9149     54.6642   6.3804304721e+01   6.3051608557e+01    0.8356768    0.7472508  43.43  0.002130221    1.293    0.226
       226 -12.7846     46.1577     55.1853   5.9658785205e+01   6.1813556320e+01     1.206529    0.5178043 -34.95  0.004445668    2.982    0.665
       227 -13.1172     79.8792     59.0578   4.7067142543e+01   5.5542929237e+01    0.8875958     0.562176  30.81  0.003517722    1.725    0.420
       228 -13.1300     79.2593     50.5923   4.4145984180e+01   5.7318087102e+01    0.8400695     0.535451  30.14  0.003881259    1.722    0.419
       229  -9.2537    242.7608    101.0208   2.2974059137e+01   1.2004054181e+01    0.1681838   0.09525584 -33.18 0.0004033161    1.514    0.339
       230 -11.0276    158.9435     99.0393   3.6965443528e+01   3.0119707784e+01    0.3428911    0.2858318   1.98 0.0003298172    1.416    0.294
       231 -12.3301    154.1732     95.8622   3.7175478457e+01   3.1826718181e+01    0.7925162     0.647862 -15.66  0.002258487    1.392    0.281
       232 -10.0817    157.3307     95.6730   3.6411840402e+01   3.1132027313e+01    0.2789274    0.2196059  60.32 0.0007868251    1.345    0.256
       233 -11.6973     33.7984    100.5386   7.5840864199e+01   5.2369015987e+01    0.2847417    0.2385809  37.09  3.13431e-05    1.293    0.227
       234 -11.5247    102.0224     96.0214   5.1185548896e+01   4.3247862802e+01     0.367233    0.2825043 -89.09 0.0007609728    1.729    0.422
       235 -12.4851    116.5543     93.6831   4.6206691922e+01   4.0753540246e+01    0.3598265    0.3511131 -88.74 0.0009696069    1.050    0.048
       236 -12.4361    106.8686     96.4773   4.9833976225e+01   4.2170376037e+01    0.5645948    0.3435245 -26.03  0.001839044    2.372    0.578
       237 -12.1674    107.8417     92.5276   4.8435290869e+01   4.2843789770e+01    0.5194469    0.2642802  38.65  0.002006432    2.054    0.513
       238 -12.8098     85.8082     98.8801   5.7128616357e+01   4.5636912849e+01    0.7529652    0.3663761  31.96  0.002884813    2.317    0.568
       239 -10.1041     89.2910     93.9114   5.4669189922e+01   4.6168607597e+01     0.209632    0.1848089 -44.27 0.0002509094    1.125    0.111
       240 -10.6878    170.4696     97.8618   3.4183927126e+01   2.7695129546e+01     0.326288    0.2832034 -43.69   0.00170785    1.142    0.124
       241 -11.6739    225.9611     97.6301   2.4517487612e+01   1.5718135074e+01    0.3309262    0.2927699 -81.50  0.001996327    1.347    0.258
       242 -12.8180     56.2582     94.6819   6.6424879605e+01   5.1249342741e+01    0.4928273    0.3912514  72.64 0.0008540039    1.449    0.310
