#   1 NUMBER                 Running object number                                     
#   2 MAG_AUTO               Kron-like elliptical aperture magnitude                    [mag]
#   3 X_IMAGE                Object position along x                                    [pixel]
#   4 Y_IMAGE                Object position along y                                    [pixel]
#   5 X_WORLD                Barycenter position along world x axis                     [deg]
#   6 Y_WORLD                Barycenter position along world y axis                     [deg]
#   7 A_WORLD                Profile RMS along major axis (world units)                 [deg]
#   8 B_WORLD                Profile RMS along minor axis (world units)                 [deg]
#   9 THETA_WORLD            Position angle (CCW/world-x)                               [deg]
#  10 FWHM_WORLD             FWHM assuming a gaussian core                              [deg]
#  11 ELONGATION             A_IMAGE/B_IMAGE                                           
#  12 ELLIPTICITY            1 - B_IMAGE/A_IMAGE                                       
         1 -19.0639    230.3187     56.3289   2.8947148432e+02   5.7771413196e+00    0.6433687    0.4120074 -72.82   0.06596948    1.773    0.436
         2 -14.3094    205.9303     45.3793   2.8968844712e+02   6.0323633536e+00   0.05951819   0.04902765 -81.99  0.007021627    1.366    0.268
         3 -15.2133    181.6163     83.1528   2.9018955271e+02   5.7392976590e+00    0.3098024    0.0887872 -69.65   0.01674582    6.302    0.841
         4  -9.9222    155.4193     11.7532   2.9007437564e+02   6.6836537258e+00  0.009281252  0.005653786 -48.92 0.0007821911    1.597    0.374
         5 -11.0562    150.8536      8.6571   2.9010896898e+02   6.7431312529e+00    0.0261224   0.01157895 -70.01  0.002131809    2.746    0.636
         6 -10.3146    107.1686      7.7877   2.9060845765e+02   6.9888686128e+00   0.00970984  0.008680156  50.80 0.0006042547    1.198    0.165
         7 -10.5673     38.5034      2.5119   2.9137154425e+02   7.4178631672e+00  0.006511686  0.006139645 -21.41 4.917463e-05    1.031    0.030
         8 -11.4882    152.2562    120.1308   2.9074388386e+02   5.4818758986e+00   0.01830469  0.005027984 -49.33  0.001281545    3.383    0.704
         9 -13.9819    166.8001    114.6694   2.9054434359e+02   5.4648030844e+00   0.03609917   0.02360838 -39.98  0.002965181    1.569    0.363
        10 -14.0374     58.0523    174.8871   2.9214900957e+02   5.3724822999e+00   0.04123401   0.02606265 -12.75 0.0009717295    2.023    0.506
        11 -15.5039     33.3450    195.2653   2.9255215684e+02   5.2754674412e+00   0.07153326   0.05432715   5.75  0.008115681    1.399    0.285
        12 -12.4326    167.4434    105.3825   2.9048274252e+02   5.5658308610e+00    0.0145504   0.01201519  79.53  0.001426235    1.429    0.300
        13 -10.9627    139.0362    103.7012   2.9080054917e+02   5.7381427382e+00  0.009176322  0.008293563  11.62 0.0003978649    1.098    0.089
        14 -12.4582    120.5483    102.5041   2.9100687550e+02   5.8513437328e+00   0.01973777  0.009584551 -51.97  0.001823722    1.955    0.488
        15 -11.0233    111.9873    104.2412   2.9111579396e+02   5.8779407426e+00  0.009293108  0.008662962  14.46 0.0007868009    1.063    0.059
        16 -11.7494    143.9096     99.3924   2.9071920014e+02   5.7603316004e+00   0.01572662   0.01196866 -33.51 0.0006447004    1.354    0.261
        17 -11.2938    131.4244     96.0661   2.9084383799e+02   5.8651422110e+00   0.01267162   0.01130478  57.34 0.0004172673    1.224    0.183
        18 -13.1147    152.6828     92.3828   2.9057710280e+02   5.7918365975e+00   0.03037423   0.01990351 -15.04  0.003055091    1.881    0.468
        19  -9.9055    113.4838     95.0279   2.9104481993e+02   5.9735794161e+00  0.009463056  0.006284574 -59.61 0.0003838202    1.491    0.329
        20 -14.9987     64.6056    169.3424   2.9204122777e+02   5.3997487074e+00   0.07664668   0.05414023   1.65  0.003144058    1.590    0.371
        21 -12.1714    203.0860     89.2318   2.8997760121e+02   5.5547725109e+00   0.03063034   0.01505408  33.63   0.00285356    1.969    0.492
        22 -14.1661     69.4782    162.8454   2.9194728560e+02   5.4467575670e+00   0.03879512    0.0309932  29.65  0.001482713    1.245    0.197
        23 -11.8307    136.8446     88.7227   2.9073846108e+02   5.9185309220e+00   0.01431497   0.01248063  41.34 0.0006868715    1.190    0.160
        24 -12.8982    148.8329     82.1095   2.9056155289e+02   5.9282137680e+00   0.01493494   0.01213081 -62.05  0.001178756    1.248    0.199
        25 -10.9663    207.9016     77.8804   2.8985577698e+02   5.6563486418e+00   0.02378582  0.007674868 -49.26  0.001801141    2.928    0.658
        26  -9.6543    142.7399     79.6460   2.9061747100e+02   5.9888317304e+00  0.006864617  0.004584648 -33.48 0.0005174391    1.615    0.381
        27  -9.4452    113.0000     71.9500   2.9091581140e+02   6.2358937815e+00   0.01001819  0.003657681 -62.41            0    2.741    0.635
        28 -11.5486    230.1727    166.8905   2.9011898211e+02   4.5346343401e+00   0.01321536  0.009376633 -82.94  0.001197058    1.711    0.416
        29 -12.6207    142.8966     50.0849   2.9044303433e+02   6.3204842216e+00   0.02196597   0.01169675  24.74  0.002103627    1.867    0.464
        30 -11.9316    145.9235     54.9694   2.9043663643e+02   6.2492048380e+00   0.01460637   0.01368482 -31.44 0.0003515743    1.040    0.039
        31 -13.2504    143.9264     67.8365   2.9053483493e+02   6.1152751596e+00   0.03743566   0.01677666  46.66  0.003098113    2.690    0.628
        32 -13.4057    142.5266     60.0404   2.9050546038e+02   6.2105224978e+00   0.03207962   0.02149274 -88.41   0.00323392    1.979    0.495
        33 -12.5752    131.6607     65.6278   2.9066349751e+02   6.2063461857e+00   0.03385235   0.01230949 -60.45  0.002721323    2.641    0.621
        34 -13.8581    161.5175     67.0201   2.9032710592e+02   6.0294123608e+00   0.03013809    0.0220304  32.80  0.001487888    1.361    0.265
        35 -13.7045    191.7714     57.6107   2.8992320687e+02   5.9715621889e+00   0.04316292   0.03251099 -42.01  0.003622845    1.319    0.242
        36 -11.5274    185.0183     59.6894   2.9001322274e+02   5.9847429411e+00   0.01591073   0.01159725  78.31  0.001067605    1.779    0.438
        37 -11.1618    133.7062    145.8784   2.9110780933e+02   5.2920954720e+00   0.04085362  0.009974876 -68.80  0.001798345    9.309    0.893
        38 -11.2953     70.9993     60.0000   2.9133120937e+02   6.5965925107e+00   0.01082302  0.003650407  24.85 0.0007466023    2.957    0.662
        39 -11.4308    135.8864    129.3418   2.9098634584e+02   5.4665209042e+00   0.02816937  0.008327051 -66.97   0.00180831    4.305    0.768
        40 -11.3725    125.9031     56.1821   2.9067481197e+02   6.3436689888e+00   0.01007961  0.008741863  58.67 0.0006978149    1.277    0.217
        41 -11.3200    168.2296    148.2473   2.9072364477e+02   5.0791599603e+00   0.01439368  0.006371818  45.33  0.001184874    2.627    0.619
        42 -14.5799     10.1215    207.0723   2.9288833355e+02   5.2668774704e+00   0.07005546   0.05023903  43.46  0.007762126    1.469    0.319
        43 -11.0854    205.3024     64.8176   2.8980936816e+02   5.8172827040e+00   0.01291101   0.01046661  42.69 0.0008359762    1.287    0.223
        44 -11.1086    164.9989     45.4714   2.9016101687e+02   6.2528907164e+00  0.009491318    0.0084879 -54.88 -1.88845e-05    1.116    0.104
        45 -15.0761     19.6401    200.5648   2.9274090162e+02   5.2892188252e+00    0.1115419   0.06954903  60.06   0.01079769    2.129    0.530
        46 -11.3412    175.8204     38.4456   2.8999509290e+02   6.2733245909e+00   0.01083796  0.009824746  35.57 0.0002374401    1.127    0.113
        47 -10.5904    189.9784     36.2027   2.8981867864e+02   6.2218894891e+00   0.01338918   0.00895335 -88.42  0.001335616    1.988    0.497
        48 -12.5712    174.9155    138.5907   2.9059031045e+02   5.1517500050e+00    0.0170399   0.01127178  40.38  0.001494825    1.557    0.358
        49 -11.2915    191.0205    191.6595   2.9071399679e+02   4.4674284796e+00    0.0318456   0.01570562  84.09  0.001748609    7.022    0.858
        50 -11.0343     89.5111     34.4987   2.9096853450e+02   6.7837827099e+00    0.0064379  0.006222188 -16.52 0.0008105879    1.004    0.004
        51 -11.8099    195.7370     29.1805   2.8971118626e+02   6.2696055070e+00   0.01087633  0.009436309 -59.43 0.0005889472    1.162    0.139
        52 -11.9189     95.8975     24.8127   2.9083817873e+02   6.8582793638e+00   0.01458868  0.009306936 -69.32  0.001467964    1.702    0.413
        53 -10.4880     61.4825     24.4970   2.9123410982e+02   7.0471542469e+00  0.006384303  0.006268114  -4.80 9.835481e-05    1.031    0.030
        54 -11.8792    101.5897     22.5764   2.9075934300e+02   6.8527322417e+00   0.01255332  0.009983425 -48.06  0.001403359    1.229    0.187
        55 -12.0837    152.8779     19.5835   2.9014951843e+02   6.6094133889e+00   0.01128428   0.01015536 -55.35  0.000279012    1.112    0.100
        56 -11.9359    135.0000    119.0957   2.9093685987e+02   5.5866453103e+00   0.03230176  0.009176338 -65.00     0.002143    3.979    0.749
        57 -12.5517    134.7299    107.6388   2.9087318765e+02   5.7170611022e+00   0.05424662   0.01287198 -64.48    0.0032738    4.812    0.792
        58  -9.9556    101.0216    137.0186   2.9143321316e+02   5.5679701587e+00  0.007694511  0.007405946 -24.98 0.0003832257    1.009    0.009
        59 -12.6973    160.6887    128.4263   2.9069502753e+02   5.3429829230e+00    0.0182914    0.0161166 -81.64  0.001514894    1.243    0.196
        60 -13.1315     68.2172    144.7343   2.9185660016e+02   5.6575516555e+00    0.1532755   0.06796741  58.81  0.009622713    5.153    0.806
