#   1 NUMBER                 Running object number                                     
#   2 MAG_AUTO               Kron-like elliptical aperture magnitude                    [mag]
#   3 X_IMAGE                Object position along x                                    [pixel]
#   4 Y_IMAGE                Object position along y                                    [pixel]
#   5 X_WORLD                Barycenter position along world x axis                     [deg]
#   6 Y_WORLD                Barycenter position along world y axis                     [deg]
#   7 A_WORLD                Profile RMS along major axis (world units)                 [deg]
#   8 B_WORLD                Profile RMS along minor axis (world units)                 [deg]
#   9 THETA_WORLD            Position angle (CCW/world-x)                               [deg]
#  10 FWHM_WORLD             FWHM assuming a gaussian core                              [deg]
#  11 ELONGATION             A_IMAGE/B_IMAGE                                           
#  12 ELLIPTICITY            1 - B_IMAGE/A_IMAGE                                       
         1 -10.2540    200.9736     28.3311   6.3507752675e+01   3.0772734948e+01    0.7883427    0.4351499  -3.52  0.003106372    2.999    0.667
         2  -9.9127    231.8753      2.8937   5.4588752863e+01   2.6289557857e+01    0.4022297    0.1767192 -75.54  0.001524271    2.412    0.585
         3 -10.9347    220.8318     15.1465   5.8285684277e+01   2.7522703867e+01    0.5236281    0.4723234  81.48   0.00342158    1.214    0.176
         4 -10.5984    227.2999     33.1351   6.2307465901e+01   2.4065898490e+01    0.8101593    0.4269513 -50.25  0.004020794    1.705    0.413
         5 -10.7961    246.2814     13.4530   5.6262392922e+01   2.2196551992e+01    0.5598108    0.2221094  65.61  0.002708016    2.737    0.635
         6 -10.8401    248.9483      5.6443   5.4362122828e+01   2.2440205300e+01    0.6271892    0.2992255 -26.43  0.003311902    1.937    0.484
         7 -11.2477    225.6301     23.4124   6.0012607191e+01   2.5545661082e+01    0.6410419    0.3724706 -63.93  0.003321994    1.696    0.410
         8 -10.5703    250.0706     18.8558   5.7267072665e+01   2.0868367825e+01    0.5716592     0.165157 -27.09  0.002307778    3.051    0.672
         9 -10.3233    228.4099     16.7545   5.8157511111e+01   2.5649630072e+01    0.5378683    0.3089324  52.73  0.002793276    2.131    0.531
        10 -11.5624    248.6456     31.9805   6.0347273291e+01   1.9719723876e+01     0.945491     0.361284 -36.27  0.004488258    1.978    0.494
        11 -10.1257    233.1135     10.7141   5.6388653451e+01   2.5246619853e+01    0.2730358    0.2297876   8.39  0.000784918    1.594    0.373
        12 -10.1616    238.2068      8.4382   5.5556451840e+01   2.4384460771e+01    0.4965789    0.1964892 -58.38  0.001989537    2.368    0.578
        13 -10.5374    244.2718     22.0655   5.8363010606e+01   2.1699870391e+01    0.4082737    0.3090395   8.75  0.001699504    1.881    0.468
        14 -11.4286    238.3997     18.1954   5.7839520494e+01   2.3337153678e+01    0.6461083    0.5060148  70.43  0.004154609    1.442    0.307
        15  -8.7670    206.0966      6.4458   5.7056471832e+01   3.1873829251e+01    0.3689738    0.2438201 -62.19  0.002017563    1.354    0.261
        16  -9.8661    200.2430     14.6510   5.9755775882e+01   3.2475433643e+01    0.4065983    0.3177429   4.00  0.001781786    1.672    0.402
        17  -9.5644    198.0841     10.6400   5.8813690963e+01   3.3424424760e+01    0.6041345    0.3305961  10.35  0.002358332    3.508    0.715
        18  -9.4985     68.2520     12.1906   8.4835412731e+01   6.7708318689e+01    0.3785712     0.196164 -20.90  0.001608044    2.201    0.546
        19  -9.1767    168.5413     11.3554   6.1828209648e+01   4.1044694333e+01     0.320352    0.1715679 -46.86   0.00142148    1.805    0.446
        20 -10.4893    212.8947      8.9546   5.7248308886e+01   3.0001650744e+01    0.4900609    0.2772611 -37.23  0.002551803    1.540    0.351
        21  -9.4433    192.6415     11.1216   5.9405933995e+01   3.4743631311e+01    0.2451088    0.1814962  85.02 0.0005971286    1.281    0.219
        22  -9.4580    186.9335      9.3613   5.9390117256e+01   3.6380107151e+01     0.500194     0.219172 -60.43  0.001993599    2.450    0.592
        23  -9.9728    155.1392      9.5113   6.2771498509e+01   4.4892098981e+01    0.3196956    0.2179537 -29.78  0.001577213    1.529    0.346
        24  -9.3907    116.6007      6.8132   6.7668575826e+01   5.5892558348e+01    0.3370486    0.1828054 -39.83  0.001454834    1.971    0.493
        25  -8.9077    112.5028     10.9993   7.0406290038e+01   5.6610875102e+01      0.21645    0.1487814 -22.89  0.001031705    1.588    0.370
        26  -9.6952    223.1805      6.2299   5.5890633345e+01   2.7895488855e+01    0.3548504    0.2390035  60.57  0.001580258    1.693    0.409
        27  -8.7948    220.4765      2.9979   5.5243573552e+01   2.8824006507e+01    0.1825953    0.1135676 -30.39 0.0004247274    1.510    0.338
        28  -9.1768    171.2869      5.6300   5.9692138507e+01   4.0859458548e+01    0.2557117     0.149107 -39.09 0.0007394975    1.638    0.389
        29  -8.6387     60.4903      5.4263   8.4058232266e+01   7.0286818989e+01    0.2116649     0.178902 -21.21 0.0006683792    1.236    0.191
        30  -9.8205     63.6749      2.2353   8.0483559562e+01   6.9948701225e+01    0.2818943    0.2101768  26.61 0.0008503911    1.270    0.213
        31  -8.6017    175.6907      4.6698   5.8973646773e+01   3.9773782187e+01     0.140795    0.1004869  41.74 0.0007041009    1.666    0.400
        32  -8.8893    165.1269      3.3517   5.9557316952e+01   4.2729946679e+01    0.3880469   0.05857367 -25.51  0.001088677    4.916    0.797
        33  -9.7608    239.9811      2.3931   5.4060852918e+01   2.4602981568e+01    0.3094608    0.1575898 -73.59   0.00108385    1.925    0.481
        34  -8.5397    190.3188      2.0938   5.6988797232e+01   3.6205827883e+01    0.2912771    0.1952949  52.31  0.001172472    1.685    0.407
        35  -8.3198    214.4973      1.5226   5.5219917935e+01   3.0346795403e+01    0.1281845    0.1105411 -63.42 -2.948779e-05    1.050    0.047
        36  -9.3021    211.0209    187.4794   9.9802434884e+01   5.0955531907e+00     0.186082    0.0898831  17.81 0.0008103031    2.589    0.614
        37  -8.9531    250.3245    185.9319   9.2879543742e+01  -1.8053545754e-01    0.1649977    0.1167162  -7.58 0.0006830117    1.094    0.086
        38  -8.8088    224.7870    185.0462   9.6912131466e+01   3.4054972246e+00    0.1531305     0.132077  37.09  0.001025775    1.577    0.366
        39  -9.0088    105.9707    184.4665   1.2248456685e+02   2.2573931997e+01     0.210394   0.09071601  50.41  0.000499921    2.526    0.604
        40  -9.1216    243.1485    182.6539   9.3424494508e+01   1.1528919295e+00    0.1988392    0.1875741   1.42  0.001450486    1.601    0.375
        41  -9.4194    241.8582    178.4965   9.2877077751e+01   1.8365438024e+00    0.2486491    0.1307873 -13.89  0.001287321    1.928    0.481
        42  -9.3715    227.2521    179.8311   9.5540579188e+01   3.7294039950e+00    0.2003294    0.1508717  32.04 0.0008571838    1.406    0.289
        43  -9.9946    157.8590    179.0895   1.0915867175e+02   1.5000740868e+01    0.2965909    0.1824413 -32.80  0.001463587    1.847    0.459
        44  -8.6995     63.3772    179.4607   1.3295189206e+02   2.9727393073e+01    0.3268761          nan  41.78  0.000807429    5.982    0.833
        45  -8.8527    152.6938    178.5314   1.1023550981e+02   1.5984958750e+01    0.1920013    0.1185098  43.85 0.0009328329    1.557    0.358
        46  -9.4160    234.2734    175.5277   9.3564787601e+01   3.2749797860e+00    0.2168159    0.1886405  12.67   0.00123151    1.294    0.227
        47  -8.5472     84.4230    175.2051   1.2686976025e+02   2.7806647424e+01    0.1846959    0.1297133  89.51 0.0009439962    1.670    0.401
        48  -9.0393    225.7096    173.4219   9.4614712200e+01   4.8058581883e+00    0.1735903    0.1017846  24.47 0.0009502711    1.616    0.381
        49  -8.7901      9.7570    172.2213   1.4654170035e+02   3.6859615431e+01    0.1744066   0.09823614   7.04 0.0008945082    2.454    0.592
        50  -9.3559    242.5670    169.9361   9.1177573536e+01   2.8066752225e+00    0.1792345    0.1387693  13.02 0.0004968159    1.160    0.138
        51  -8.8871    237.9410    170.4676   9.2018025249e+01   3.3988479845e+00    0.1410238    0.1095323  61.01 0.0008083465    2.475    0.596
        52  -8.9428    212.4516    170.2297   9.6354266277e+01   7.2939639994e+00    0.1618345    0.1161994 -37.52 0.0007997791    1.564    0.360
        53  -9.6616    192.9817    167.0110   9.9439769888e+01   1.0988722073e+01    0.2131681    0.1796684   8.78 0.0006813542    1.007    0.007
        54  -9.2898    234.8406    165.2153   9.1521998683e+01   4.5372487633e+00    0.1783937    0.1562874  -2.79  0.001062753    1.224    0.183
        55 -10.2546    147.2894    168.1676   1.0965483636e+02   1.8854459407e+01    0.2518865    0.2348049  49.21 0.0004680918    1.194    0.163
        56  -8.8128     51.7746    159.7726   1.3420509999e+02   3.5720972853e+01    0.2004096    0.1371722  61.18  0.001056377    1.356    0.263
        57 -10.0832    247.3543    158.8525   8.8319236409e+01   3.5295757855e+00    0.3703301    0.1826697  38.73  0.001991857    2.134    0.531
        58  -8.6968    243.2280    154.4465   8.8090242549e+01   4.7042750728e+00    0.1458626    0.1166126  41.72 0.0006628282    1.580    0.367
        59  -9.0486    230.3145    148.7949   8.9004459776e+01   7.4751726606e+00    0.2958099    0.2168804  75.65  0.001434349    3.182    0.686
        60  -8.9528    232.7095    153.3658   8.9540102478e+01   6.4601479924e+00    0.2195276    0.1561999 -31.22  0.001316957    1.358    0.264
        61  -8.8662    229.3373    152.7012   8.9958787931e+01   7.0859493125e+00    0.2091589    0.1738041  36.15  0.001331601    1.391    0.281
        62 -10.1114    221.7052    153.0241   9.1310547546e+01   8.2765842676e+00     0.239976    0.2108321  86.89  0.001391043    1.978    0.495
        63  -9.1431    118.5787    153.7481   1.1429011463e+02   2.7003141869e+01    0.1978786    0.1472331 -70.75 0.0009494976    1.650    0.394
        64 -10.2670    249.9874    151.7128   8.6530175507e+01   4.0595441101e+00    0.3227152    0.2470513 -20.70  0.001421224    1.145    0.127
        65 -10.6926    244.2416    149.2569   8.6904321191e+01   5.2338415159e+00    0.2845076    0.2296609  48.81  0.001404637    1.699    0.411
        66 -10.3765    224.1751    146.6110   8.9572104557e+01   8.7930446922e+00    0.3108767    0.2558765 -24.88  0.001937218    1.186    0.157
        67  -8.4625    174.4849    148.5176   9.9527585789e+01   1.7455568993e+01     0.145409    0.1299606  11.40 -3.346767e-05    1.008    0.008
        68  -8.6055    111.8068    147.6317   1.1501768853e+02   2.9590367498e+01    0.2184028    0.1276934  44.96 0.0009342444    1.609    0.379
        69  -9.5581    235.4519    148.0433   8.8024013816e+01   6.7583764902e+00    0.2387463    0.1817285  29.95  0.001223913    1.350    0.259
        70 -10.5396    230.7920    141.9717   8.7517567594e+01   8.3577467090e+00    0.2998955      0.24766 -39.22  0.001132291    1.405    0.288
        71 -10.1303    249.2470    135.8221   8.3440492977e+01   6.2400343942e+00    0.3183741    0.2243367 -37.54  0.001058965    1.450    0.311
        72  -9.9616    248.9637    130.9217   8.2467321335e+01   6.9340529923e+00    0.2564475    0.2378358  73.23   0.00113863    1.606    0.377
        73 -10.3650    216.7836    136.7771   8.8743725677e+01   1.1523284237e+01    0.5606796    0.3764475 -76.35  0.002019879    4.957    0.798
        74  -9.7165    209.8751    138.3714   9.0304815031e+01   1.2521460024e+01    0.2303727    0.1790348 -36.52 0.0009782143    1.323    0.244
        75 -11.2857    241.9073    134.6044   8.4257717263e+01   7.5654887691e+00    0.4472792    0.3535419 -19.76  0.002702975    1.072    0.067
        76  -9.7488    250.1757    140.7910   8.4321095458e+01   5.4447492172e+00    0.2395674    0.1842218  32.99  0.001424414    1.432    0.301
        77  -8.8914    164.9627    136.5105   9.9021572226e+01   2.1554930000e+01    0.2300969    0.1411286  41.76  0.000909606    1.568    0.362
        78  -9.8524    169.8555    134.6933   9.7504440534e+01   2.0904495118e+01    0.2466121    0.2303311 -14.48 0.0004855104    1.072    0.067
        79 -10.4529     86.9902    130.4887   1.1919796295e+02   3.8008535015e+01     0.412007    0.2405058  73.84   0.00150201    2.753    0.637
        80  -9.4476    221.7738    129.9496   8.6410881736e+01   1.1658665380e+01    0.2722184    0.1908805  66.98  0.001365785    2.311    0.567
        81  -8.8510     61.9255    129.5311   1.2724593781e+02   4.2017176576e+01    0.2111039    0.1410166  30.29 0.0003887983    1.504    0.335
        82  -9.6420    193.0332    127.9677   9.1116636402e+01   1.7424694221e+01     0.227923    0.2072674   1.62 0.0007628578    1.013    0.013
        83 -10.7153    241.3480    124.7851   8.2259342473e+01   9.0052828724e+00    0.3838591    0.3599772 -27.20  0.001946291    1.258    0.205
        84  -9.0839    244.1642    120.0379   8.0836986075e+01   9.1857348989e+00    0.2762366    0.1713796 -53.68  0.001387118    2.334    0.572
        85  -9.9624    228.9588    126.1429   8.4419638638e+01   1.0942291147e+01    0.3462533    0.2191796  27.69  0.001817643    1.753    0.430
        86 -10.2008    206.4877    127.0405   8.8389075411e+01   1.4944994484e+01    0.4242639    0.2148119  38.36   0.00136509    2.072    0.517
        87  -9.7047    212.9358    123.8209   8.6524638549e+01   1.4223606010e+01    0.4045265     0.273072   7.94   0.00168314    1.811    0.448
        88  -9.0158    113.8071    126.7930   1.1017089897e+02   3.4030501990e+01    0.2154842    0.1813962  69.02 0.0004739232    1.317    0.241
        89  -9.2349    189.1103    123.7407   9.0897257669e+01   1.8941715771e+01    0.3811807     0.212758 -34.08   0.00168566    1.753    0.429
        90  -9.2329    161.3074    124.6046   9.7087861555e+01   2.4616351462e+01    0.2392289    0.2257628 -89.20 0.0006309119    1.247    0.198
        91  -8.4885    149.3039    125.3451   1.0016029241e+02   2.7027153686e+01    0.1598209    0.1205563   0.32 0.0007040644    1.688    0.408
        92  -8.6150    233.8866    129.8439   8.4459627451e+01   9.5574309822e+00    0.1640394    0.1474867 -38.11  0.000712134    1.310    0.236
        93  -9.6603    196.4873    122.0220   8.9065602610e+01   1.7735423575e+01    0.3977959    0.1644335  32.21  0.001295501    3.672    0.728
        94  -9.2649    221.4649    121.2083   8.4512554935e+01   1.3025424633e+01    0.2313018    0.1917744  40.03 0.0008923032    1.316    0.240
        95 -11.3235    236.9229     99.6776   7.7309053065e+01   1.3293969536e+01    0.8731968    0.5690851 -61.10  0.004380312    2.217    0.549
        96 -11.0019    224.2047     87.4267   7.6159663580e+01   1.7514026323e+01     1.225401    0.4268925  45.11  0.004537481    3.419    0.708
        97 -10.6766    242.9569     93.1765   7.5040405892e+01   1.3082921687e+01    0.4616335    0.3427509  52.75  0.002771276    1.584    0.369
        98 -10.8933    247.4191     98.5944   7.5700167848e+01   1.1544913970e+01    0.5264319    0.4005557  33.82  0.002550635    1.508    0.337
        99  -9.9732    237.1730     90.0121   7.5046320061e+01   1.4598040822e+01     0.433127     0.262148  66.91  0.002041977    2.205    0.547
       100 -10.2621    231.9379     83.5283   7.4190968220e+01   1.6518417477e+01     0.556528     0.318475 -50.50  0.002703447    1.892    0.471
       101 -11.1387    236.0086     73.2703   7.1246267810e+01   1.7120774511e+01    0.9569968    0.4718557 -31.74   0.00445319    1.730    0.422
       102  -9.6192    238.4845     64.7535   6.8940482196e+01   1.7758570646e+01     0.391287    0.2599321  52.12  0.001966763    1.745    0.427
       103 -10.0065    237.3468     83.8427   7.3584429978e+01   1.5417414191e+01    0.4025744    0.2400976 -57.53  0.001961654    2.129    0.530
       104 -10.0776    248.1726     87.1714   7.3047803390e+01   1.2941338596e+01    0.4231465    0.2028921 -46.11  0.002007033    2.101    0.524
       105 -11.8415    244.5902     80.0149   7.1832571933e+01   1.4555688201e+01     1.152072    0.5218822 -39.40  0.005481429    1.858    0.462
       106 -11.7885    247.2187    111.9220   7.8660977602e+01   9.7757533396e+00    0.8675105    0.6136517 -54.69  0.004351979    1.841    0.457
       107 -11.0567    248.5518    105.3411   7.7047988953e+01   1.0437477801e+01    0.5946289    0.2725371 -36.94  0.002792554    1.850    0.459
       108  -9.9109    235.5596    117.2146   8.1451598228e+01   1.1060325533e+01    0.4019358    0.1447605 -37.16  0.001661866    2.432    0.589
       109 -10.1668    230.4858    116.2925   8.1998454705e+01   1.2099439770e+01    0.4355923    0.2835256  48.21  0.002363863    1.736    0.424
       110  -9.3425    182.6768    116.2491   9.0379807614e+01   2.1603137787e+01    0.3296413    0.2258561  36.36  0.001059855    1.494    0.330
       111  -9.7444    218.7738    115.5572   8.3656667885e+01   1.4386409491e+01    0.3476121    0.2244738  50.45  0.001638878    1.739    0.425
       112  -8.6519    203.6488    116.1815   8.6369048674e+01   1.7255602285e+01    0.1950229    0.1242301 -23.90 0.0005296138    1.576    0.365
       113  -9.3639     51.9918    113.5346   1.2818109584e+02   4.7462332988e+01    0.2356842    0.1836613 -74.05 0.0007827216    1.234    0.189
       114 -10.2486    104.7063    111.2626   1.0931848940e+02   3.9511882293e+01    0.4817276    0.2790324 -47.73  0.001342486    1.782    0.439
       115  -9.2423     15.0533    112.0159   1.4159431650e+02   5.1236447115e+01    0.2029174    0.1731694  82.18 0.0004491904    1.031    0.030
       116  -9.7391    213.5805    115.6814   8.4538356670e+01   1.5368066344e+01     0.375587    0.2086842  28.76  0.001096163    2.294    0.564
       117  -9.2073    235.8829    107.8731   7.9316050201e+01   1.2327801519e+01    0.2098026    0.1819101  49.63 0.0008013209    1.365    0.268
       118 -10.0193    215.6878    107.6837   8.2309548001e+01   1.6192335605e+01    0.2668234    0.2364089 -43.58  0.001578192    1.198    0.165
       119  -8.3482    197.6794    108.3078   8.5533641899e+01   1.9780788800e+01    0.1413811    0.1135122 -68.15  0.000420623    1.640    0.390
       120  -8.7017     73.4816    108.4709   1.1933923232e+02   4.5801811965e+01    0.1529838    0.1447788  73.20 0.0001034686    1.032    0.031
       121  -8.6391    196.7134    103.6044   8.4536155356e+01   2.0767832468e+01    0.1883732    0.1419949  62.69 0.0009379049    1.566    0.361
       122 -10.0637    220.0416    100.6739   7.9958369560e+01   1.6393534731e+01    0.4846793    0.2422916  59.39   0.00211097    2.514    0.602
       123  -8.9073    210.7936    101.3552   8.1573472171e+01   1.8163328306e+01    0.1960585    0.1246094  40.33 0.0009466626    1.708    0.415
       124  -8.7824    167.9530    101.0000   8.9555421583e+01   2.7668367505e+01    0.2571509   0.08725452  50.04 0.0008055079    2.964    0.663
       125  -9.7308    130.0234     98.2074   9.8198215882e+01   3.7066962941e+01    0.2672623    0.2350317 -37.07 0.0005018854    1.173    0.147
       126  -8.9200    196.9892     98.5080   8.3196198624e+01   2.1550975325e+01    0.1986605      0.13244  85.26 0.0008103362    2.606    0.616
       127 -10.3942    230.8333     94.2791   7.6884323933e+01   1.5212275953e+01    0.3697779      0.25034 -26.46  0.001196314    1.321    0.243
       128  -9.3951    236.0085     60.2206   6.8119721153e+01   1.8850207512e+01    0.4093633    0.2342608  71.67  0.001998078    2.109    0.526
       129  -8.4630    207.6902     95.3226   8.0582868023e+01   1.9757241382e+01    0.1428687    0.1066016 -61.28 0.0007036899    1.649    0.394
       130  -9.4113    171.8778     91.8164   8.6212720842e+01   2.8435035371e+01    0.3226616    0.1628716  34.57  0.001135907    2.657    0.624
       131  -8.9830     66.6642     92.6839   1.1831826744e+02   5.0943724317e+01    0.1583425    0.1162645 -24.35 0.0007047774    1.695    0.410
       132  -8.5977    108.6897     91.6408   1.0274427273e+02   4.3320778724e+01    0.1670112    0.1290599  -6.20 0.0007041995    1.739    0.425
       133  -8.6312    179.7507     85.6023   8.2922065253e+01   2.7657533955e+01    0.2067809    0.1471859  69.56 0.0009385344    1.657    0.396
       134 -10.1808    117.1059     84.7933   9.8016123121e+01   4.2970234348e+01    0.3109835    0.2759925 -71.05  0.001169891    1.240    0.193
       135  -8.7116    205.7984     83.8054   7.7950413033e+01   2.1959741984e+01    0.2011225    0.1582812 -57.28 0.0007396098    1.381    0.276
       136  -8.4848    193.9822     84.0000   7.9921332006e+01   2.4593543790e+01    0.2267399   0.08432639  56.11  0.000787875    2.842    0.648
       137 -10.3748    214.6935     77.0477   7.4902582254e+01   2.1026731280e+01    0.5162252    0.3494662 -31.95  0.002659049    1.339    0.253
       138  -9.6573    195.9250     78.6210   7.8150887273e+01   2.5002575844e+01    0.5033507    0.2275537 -54.06  0.001711454    3.199    0.687
       139 -10.2696    119.2694     79.1331   9.5564085028e+01   4.3681231722e+01    0.2972424    0.2198336  37.20  0.001281672    1.392    0.281
       140  -9.4115     43.0000     78.9957   1.2521237620e+02   5.7631420324e+01    0.2461586    0.0778389 -65.13 0.0008050669    2.961    0.662
       141  -8.7722    131.3264     79.3109   9.2151767377e+01   4.0729025431e+01     0.165684    0.1282105  13.32 0.0007040366    1.660    0.398
       142  -9.8990    175.6377     77.3780   8.1376823274e+01   3.0051442715e+01    0.3334833    0.2383721 -65.28  0.001098815    1.721    0.419
       143  -8.5952    148.4544     78.4630   8.7501077652e+01   3.6634024648e+01    0.1573833    0.1547728  86.51 0.0001936812    1.025    0.024
       144  -9.0587    230.4631     72.0646   7.1613122086e+01   1.8404540038e+01    0.2368651    0.1767299 -16.95 0.0005339832    1.377    0.274
       145  -9.0884    224.6922     76.3162   7.3374587326e+01   1.9005373661e+01    0.3181955    0.1548687 -49.94  0.001187684    2.258    0.557
       146  -9.8617    227.1275     74.0003   7.2495239189e+01   1.8824291515e+01    0.3521713    0.2732024 -57.90  0.001604046    1.361    0.265
       147 -10.3818    126.3873     76.8710   9.2745685364e+01   4.2434748595e+01    0.2683734      0.22593  63.32 0.0006606916    1.236    0.191
       148  -9.7171    218.8174     68.6742   7.2218184273e+01   2.1333491197e+01    0.3258356    0.2060958 -75.86   0.00119775    2.253    0.556
       149  -9.9375     97.5040     74.4949   1.0117509817e+02   4.9659536071e+01    0.2987723    0.1472253  53.40   0.00103883    2.360    0.576
       150  -9.7930    201.4734     72.1676   7.5543379205e+01   2.4713920131e+01    0.4431528    0.2329338  72.43  0.001777865    2.558    0.609
       151  -9.2797    250.1548     70.6143   6.9073782644e+01   1.4741961004e+01    0.2012122    0.1668534 -24.54 0.0007027418    1.116    0.104
       152 -10.4718    250.0625     65.8867   6.8005311795e+01   1.5362414225e+01    0.4630078    0.2113865 -37.95  0.001913509    1.752    0.429
       153 -10.4813    213.8635     57.6738   7.0002656025e+01   2.3960465967e+01    0.5673842    0.3972863  71.44  0.002987923    1.575    0.365
       154 -10.1445    221.1718     61.2005   7.0027499305e+01   2.1854549082e+01    0.4302477    0.2261696 -44.57  0.001306912    1.735    0.424
       155 -10.3839    226.6380     67.7844   7.1023485955e+01   1.9784744056e+01    0.3605107    0.2613575 -30.49  0.001251977    1.235    0.190
       156 -10.6941    223.4967     66.5112   7.1086768319e+01   2.0625716834e+01    0.3770409     0.268764 -37.90  0.001876659    1.228    0.186
       157  -9.5729    210.2950     65.9599   7.2636824724e+01   2.3608991689e+01    0.4745072    0.1937246 -51.15  0.001697411    2.994    0.666
       158  -9.1761    154.5106     66.9655   8.2504849289e+01   3.7173126097e+01     0.305458    0.2237756  78.93  0.001202416    1.611    0.379
       159  -8.9510    197.8114     64.3191   7.3951911786e+01   2.6744678421e+01    0.2097076    0.1708171 -45.71  0.000690519    1.155    0.134
       160 -10.1234    206.9572     59.7738   7.1439160165e+01   2.5252106201e+01    0.4321958    0.1412245 -44.75  0.001483222    2.995    0.666
       161  -8.6451    136.4579     63.0074   8.5402222766e+01   4.2561463849e+01    0.2403453    0.1578494 -37.23 0.0009123932    1.553    0.356
       162  -8.9159    158.4576     62.0161   8.0092787442e+01   3.6988252429e+01    0.2364646    0.1528958 -33.97 0.0007365014    1.557    0.358
       163 -10.1849    171.4147     58.9650   7.6663770342e+01   3.4115853913e+01    0.3552428     0.314945  55.07  0.001353533    1.148    0.129
       164  -9.3025    148.8610     60.1396   8.1514212759e+01   3.9818234565e+01    0.2534751    0.2177863 -71.59  0.001240115    1.254    0.203
       165  -9.3012     47.8081     60.6049   1.1794018969e+02   6.1740156696e+01    0.2069362    0.1296315  39.49 0.0009523185    1.700    0.412
       166  -9.1914    207.2405     54.0217   6.9855865973e+01   2.5984537590e+01    0.2628267    0.1902414  48.56 0.0009546601    1.546    0.353
       167 -10.4888    190.1080     42.7438   6.8899043989e+01   3.1676351361e+01     0.533147    0.3765639   3.11  0.002492747    1.962    0.490
       168 -10.9978    185.6955     37.1340   6.7818415619e+01   3.3533546645e+01    0.7437645    0.3526185 -44.99  0.002918206    2.007    0.502
       169 -10.7753    198.5754     46.0207   6.8745936245e+01   2.9138632588e+01    0.6345343    0.3265726 -53.48  0.002678311    2.065    0.516
       170 -10.4072    196.7418     58.4467   7.2476390233e+01   2.7857976925e+01    0.5277703    0.2789542  76.55  0.002134856    2.427    0.588
       171 -11.1168    199.5512     53.2089   7.0629072441e+01   2.7922096232e+01    0.5826288    0.4204343 -60.18  0.002963147    1.429    0.300
       172  -9.7430    250.2978     54.8254   6.5453118089e+01   1.6699145327e+01    0.3221304    0.1510983 -32.74  0.001305855    1.722    0.419
       173  -9.6366    233.0213     44.4077   6.4579064847e+01   2.1473595698e+01    0.4189996    0.3184077  -6.12    0.0023992    1.602    0.376
       174 -10.7178    228.9430     52.1869   6.6897559058e+01   2.1365530464e+01    0.5725285    0.4829852 -62.27  0.002359944    1.158    0.137
       175 -10.9502    244.1760     42.2859   6.3083847031e+01   1.9422322704e+01    0.4272475    0.2969345 -27.15  0.001714661    1.336    0.251
       176 -10.1521    236.6577     53.6928   6.6481620105e+01   1.9554402343e+01     0.311779     0.248731 -77.02  0.001202135    1.365    0.267
       177 -11.2322    244.1976     51.8720   6.5327259630e+01   1.8255806605e+01    0.4446086    0.4168696 -77.71  0.002049959    1.184    0.156
       178 -10.4398    249.7810     46.7752   6.3653137125e+01   1.7775210860e+01    0.6156868    0.1862393 -32.09  0.002547894    2.546    0.607
       179 -10.4100    131.9413     55.3090   8.3835834921e+01   4.5106209359e+01    0.3555205    0.2099727 -43.89  0.001281908    1.755    0.430
       180 -10.0376     98.8556     56.6934   9.4272218856e+01   5.3144051063e+01    0.3339913    0.1331051  42.09  0.001093851    2.583    0.613
       181  -9.8405    163.3618     53.2611   7.6327889084e+01   3.7101123357e+01    0.3338366    0.2477054 -46.93  0.001100305    1.346    0.257
       182  -9.4861    221.2947     53.2830   6.7997019103e+01   2.2886337958e+01    0.3267303    0.1653095  58.58  0.001471572    2.126    0.530
       183  -8.2337    191.2597     51.6106   7.1314451853e+01   3.0173628494e+01    0.1577587   0.09851816 -55.76 0.0005261017    1.692    0.409
       184 -10.6165    127.2827     58.8992   8.6342346596e+01   4.5683469728e+01    0.4137821    0.2144986  51.82  0.001574004    1.850    0.460
       185 -10.0849    145.2687     48.6466   7.8362710387e+01   4.2651273018e+01    0.3801193    0.2494076 -71.01    0.0015399    2.024    0.506
       186  -9.3171    113.0212     46.5858   8.5689844718e+01   5.1544280342e+01    0.2327187    0.1863658 -32.01 0.0004535926    1.307    0.235
       187  -9.6742     76.6361     44.8189   9.8033779336e+01   6.0420618087e+01    0.4327784    0.1390894 -46.76  0.001333194    3.395    0.705
       188 -10.2386    215.6700     42.6044   6.5844713822e+01   2.5530914673e+01    0.5236657    0.2945104 -13.30  0.002304099    2.335    0.572
       189  -9.2576    238.3753     45.1647   6.4270498974e+01   2.0259884485e+01    0.1881953     0.172594  65.93 0.0007945295    1.273    0.214
       190  -9.0577    168.6586     45.6694   7.2965014087e+01   3.6826759911e+01    0.1585501    0.1141666  29.72 0.0007051398    1.746    0.427
       191  -9.0367    123.4767     45.5302   8.2364539003e+01   4.8991915787e+01    0.1577503     0.150738  54.96 6.981065e-05    1.010    0.010
       192  -9.3688    221.9976     42.9170   6.5274310523e+01   2.4058761367e+01     0.474561    0.1836284 -54.26   0.00176945    3.042    0.671
       193  -8.9555    183.5766     43.3298   6.9962316554e+01   3.3258839907e+01    0.2784011    0.1298318 -34.26    0.0011186    1.996    0.499
       194 -10.7091    176.1620     41.2849   7.0407220973e+01   3.5459686368e+01    0.7042698    0.4067199 -85.07   0.00282143    2.290    0.563
       195  -9.0490    134.1674     42.8803   7.8728326508e+01   4.6545961283e+01    0.2481303    0.2122636 -76.86  0.001158209    1.261    0.207
       196  -9.3344    115.7924     42.6120   8.3292297384e+01   5.1492652551e+01    0.2272283    0.1486886  67.64 0.0009509354    1.666    0.400
       197  -9.5081    205.4903     39.9402   6.6236643087e+01   2.8256478908e+01    0.3455495   0.09697013 -35.58  0.001213517    2.840    0.648
       198  -9.0687    199.5072     20.9244   6.1576268285e+01   3.1980801562e+01    0.2876354    0.1687318 -22.93 0.0009858781    1.800    0.444
       199 -10.3667    201.3931     37.1448   6.5924027943e+01   2.9599533851e+01    0.8602602    0.3836908 -15.32  0.003054362    3.350    0.702
       200  -9.1620    206.5494     24.3579   6.1870647978e+01   2.9873374387e+01    0.6576657    0.3239126  69.37  0.003018843    2.035    0.509
       201  -9.9273    235.8737    248.3002   1.0507636465e+02  -5.0790246652e+00     0.292842    0.1061125  27.51  0.001655636    2.138    0.532
       202  -8.8976    197.4899     28.5216   6.3922807621e+01   3.1611900674e+01    0.2302876    0.1282123 -31.17 0.0005689898    1.696    0.410
       203  -8.5390    154.3121     41.3029   7.4017895606e+01   4.1301801121e+01    0.1564742    0.1158316  31.69 0.0005242386    1.612    0.380
       204  -8.9568    142.7922     41.4372   7.6313800502e+01   4.4418862544e+01    0.2337552    0.1330283  50.19 0.0009478178    1.723    0.420
       205 -10.1436    238.5160     38.5175   6.2667324404e+01   2.1028963116e+01    0.2822868    0.2387387 -72.61  0.001053855    1.187    0.157
       206  -9.0805    209.0693     40.0136   6.5862207291e+01   2.7395328123e+01    0.2241127    0.1416596 -59.35  0.000575933    1.601    0.375
       207 -10.0911    165.5047     40.0077   7.1650906112e+01   3.8460914420e+01    0.2967446    0.2257864  69.92  0.000733948    1.285    0.222
       208  -9.6856    161.9888     38.2516   7.1646720824e+01   3.9647211852e+01    0.7247888    0.3580697  -7.12  0.002239123    4.040    0.752
       209  -9.1803    183.1725    245.4024   1.1389205901e+02   1.5257180866e+00    0.1650436   0.08124673  36.62 0.0004419948    1.696    0.411
       210 -10.2480    236.6702     31.1661   6.1054950669e+01   2.2271637523e+01    0.4035196     0.386142  19.77   0.00247778    1.306    0.234
       211  -8.9033    227.4916    243.5119   1.0578729303e+02  -3.6726784718e+00    0.1104725   0.07398525  10.94  0.000172862    1.020    0.019
       212  -8.4960    221.3262    241.6639   1.0656761798e+02  -2.7681314710e+00   0.09427825   0.07746395  30.72 0.0007051581    1.721    0.419
       213 -10.2143    242.2841     34.0938   6.1313645736e+01   2.0766152685e+01    0.5747368    0.1775237 -38.58  0.002439602    2.373    0.579
       214  -8.6174     48.3087    240.6411   1.4076728014e+02   1.9445078023e+01     0.124347    0.0574255  54.24 0.0007041481    1.734    0.423
       215 -10.1762    244.3559    237.2752   1.0213410178e+02  -4.9537110438e+00     0.190686    0.1876713 -88.74  0.001469775    2.784    0.641
       216  -9.6250    171.7031    235.0101   1.1472871579e+02   4.3294791175e+00    0.2274273    0.1215733  39.40  0.001299322    1.679    0.404
       217  -9.0961    152.9942    233.2566   1.1822625284e+02   7.1389365098e+00    0.2425635    0.1256554 -46.26  0.001353873    2.495    0.599
       218  -9.1240    239.3620    232.5717   1.0224344282e+02  -3.9298076978e+00     0.193195   0.08304783  34.11  0.001127111    2.105    0.525
       219  -9.4609    164.4036    228.7245   1.1534136233e+02   6.1792757857e+00    0.2407291    0.1325583  32.60  0.001032974    1.399    0.285
       220  -9.0422    210.8790    228.6226   1.0650794418e+02  -6.4294632293e-02    0.1563012   0.08612653  36.27 0.0007005472    1.733    0.423
       221  -9.2564     99.2835    226.3656   1.2885880285e+02   1.5670406516e+01    0.2175446    0.1163974  41.06 0.0005819895    1.430    0.301
       222  -9.4566    241.0203    223.1822   1.0054863050e+02  -3.1581025198e+00     0.152782    0.1132736  36.87  0.001077786    1.919    0.479
       223  -8.9941    212.1936    219.8037   1.0494441078e+02   7.9770026585e-01    0.1677617    0.1046927  11.80 0.0005346942    1.345    0.256
       224  -8.8646     61.4440     38.0166   1.0207584440e+02   6.4736256917e+01    0.2251941    0.1392186 -41.75   0.00102771    1.599    0.375
       225  -8.7502    140.5091     37.5240   7.5354112895e+01   4.5609845199e+01    0.1556484    0.1463571  86.79 0.0001601066    1.035    0.034
       226  -9.2172    162.4298     46.2954   7.4232139637e+01   3.8393457658e+01    0.2611751    0.1834989 -82.12 0.0009269182    1.682    0.406
       227 -10.0022    190.9607     34.0011   6.6235997962e+01   3.2587093578e+01    0.2227923    0.1711089  28.12  0.001130808    1.664    0.399
       228  -9.2330    169.4822     33.4869   6.8916149366e+01   3.8259962204e+01    0.2109481    0.1972965 -81.25 0.0007494659    1.007    0.007
       229 -10.1460    170.5072     30.0105   6.7646759530e+01   3.8423216615e+01    0.3438357    0.2026251 -42.02 0.0009964324    1.633    0.388
       230  -9.1673    117.1325     32.8757   7.8915325736e+01   5.2637976378e+01    0.2449937    0.2120496 -77.38   0.00123239    1.276    0.216
       231  -9.4471    208.9962     31.5060   6.3574501975e+01   2.8455301262e+01    0.3221681    0.2172248  89.04  0.001033735    1.559    0.359
       232  -9.5804    221.2356     31.3541   6.2388194529e+01   2.5629307439e+01    0.5120642    0.3207315 -38.51  0.002736745    1.376    0.273
       233 -10.0444    213.0263     31.3030   6.3129568544e+01   2.7527266887e+01    0.4150182     0.211578 -48.61  0.001628122    1.781    0.439
       234  -9.9186    216.3049     30.3565   6.2574572574e+01   2.6875070000e+01    0.3044387     0.242184  18.75  0.001710465    1.678    0.404
       235  -9.6026    109.9139     31.6376   8.0327430019e+01   5.4737566684e+01    0.3036806    0.2305894 -39.66    0.0014577    1.391    0.281
       236 -10.0033    144.7194     30.4640   7.1931546098e+01   4.5411415990e+01    0.2531174    0.2353908 -65.77  0.001358315    1.078    0.072
       237  -8.4984    105.2992     34.6607   8.2994447874e+01   5.5484730139e+01    0.1571454    0.1200647 -70.10 0.0007034922    1.664    0.399
       238  -8.1431    153.6805     30.3137   7.0310225272e+01   4.2959643638e+01     0.161053    0.1086117 -65.36 0.0006392493    1.651    0.394
       239  -9.3954    175.5877     20.4756   6.3951785520e+01   3.8187027606e+01    0.3719322    0.2059395 -61.51  0.001258739    1.944    0.486
       240  -9.5825    171.5103     20.9501   6.4593078363e+01   3.9223753284e+01    0.2846482    0.1629646  39.63  0.001200054    2.211    0.548
       241  -9.0682    174.4751     28.9632   6.6773922770e+01   3.7492496713e+01    0.3205384   0.07866625 -40.01 0.0009845665    3.448    0.710
       242  -9.2829    173.1630     24.8168   6.5625837287e+01   3.8337473072e+01    0.2492973     0.200353  -9.82   0.00112448    1.465    0.317
       243  -9.8761    145.5457     25.3323   6.9896285029e+01   4.5828228259e+01    0.3134065    0.2430032  69.89   0.00143818    1.210    0.173
       244  -9.0248    110.4351     26.4925   7.7918090736e+01   5.5324379954e+01    0.3440717    0.1441245  60.67  0.001234007    2.247    0.555
       245  -9.6855     25.5285     26.0000   1.1861091594e+02   7.2320788086e+01    0.2080316    0.1187476 -54.03  0.001035739    1.605    0.377
       246  -9.1101    132.3980     23.7551   7.1716317384e+01   4.9673421107e+01     0.427967    0.1246463 -30.91  0.001359192    3.251    0.692
       247 -10.4047    117.8755     24.0584   7.4982332056e+01   5.3636765693e+01    0.4678595    0.2695839 -54.25  0.001888589    2.145    0.534
       248  -9.0114    217.4290     22.6455   6.0469919027e+01   2.7494656290e+01    0.2105461    0.1263766 -58.70 0.0009337987    1.561    0.360
       249  -9.2814    165.2970     19.9616   6.5054399838e+01   4.1013568454e+01    0.2037702    0.1890017 -56.14  0.000585554    1.082    0.076
       250  -9.1807    150.5413     18.4739   6.6592364631e+01   4.5236807491e+01    0.4402897    0.1470035 -49.30  0.001350854    3.639    0.725
       251  -8.8290     67.9889     17.9908   8.8381115367e+01   6.6950863784e+01    0.1737709    0.1580793  15.24 0.0005299738    1.018    0.018
       252  -8.6098    187.1220     16.8735   6.1601581122e+01   3.5556656294e+01    0.2147909    0.1625913 -64.07 0.0004689907    1.229    0.186
       253  -8.7662    141.3571     17.2840   6.7587392148e+01   4.7925217483e+01     0.206269    0.1294901 -38.70 0.0008290849    1.625    0.385
       254  -8.6528    249.6443    219.7121   9.8628388705e+01  -3.7973766445e+00    0.1152375   0.06185256   6.19 0.0007024499    1.676    0.403
       255  -9.2896    194.7394    221.5623   1.0841797890e+02   2.9191705877e+00    0.1679758   0.09271953  38.26 0.0009513007    1.722    0.419
       256  -8.7907     48.6680    219.6555   1.3957096200e+02   2.3181983869e+01    0.1066277   0.09000995 -17.28 0.0007050347    1.758    0.431
       257  -8.9880    162.3757     15.2620   6.3850939554e+01   4.2319856303e+01    0.2049061    0.1232181 -39.43 0.0009370918    1.624    0.384
       258  -8.5740    105.0032     15.0064   7.4048808539e+01   5.8211309523e+01    0.1769711    0.1710921  30.40 0.0005012269    1.073    0.068
       259  -8.8022    207.2677     14.0373   5.9012760121e+01   3.0824089535e+01    0.1638782     0.109635 -29.63 0.0006032494    1.455    0.313
       260  -8.9635    160.2223    218.6529   1.1482408066e+02   8.2153658064e+00    0.1849579   0.09426264  26.64 0.0009389633    1.686    0.407
       261  -9.2537    247.2628    216.0701   9.8429337637e+01  -3.1440141921e+00    0.2362799    0.1167909  30.58  0.001462969    1.791    0.442
       262  -8.4466     58.5103     12.4468   8.9604246560e+01   6.9767141809e+01    0.1396517    0.1254601  17.54 0.0001866654    1.026    0.026
       263  -9.9450    214.8728    215.6897   1.0382611685e+02   9.3684080456e-01    0.2013421    0.1342338  -9.97 0.0008473582    1.374    0.272
       264  -9.4377     63.5037    216.6721   1.3604770682e+02   2.2025905142e+01     0.229069   0.09198582  32.12  0.001090158    2.002    0.500
       265  -9.2893    132.3504    214.0107   1.2016697427e+02   1.3062241703e+01    0.1726776    0.1500641  30.10 0.0006342354    1.104    0.094
       266  -8.4466    235.3237    210.6972   9.9505730481e+01  -1.1144395108e+00    0.0953874   0.08533532  18.04 0.0007030314    1.637    0.389
       267  -8.4764     86.6456    209.3188   1.3007932443e+02   2.0461340303e+01    0.1396978   0.07753701  54.53 0.0007046367    1.749    0.428
       268  -8.8565     67.6814    207.2875   1.3435954580e+02   2.3329257096e+01    0.1340216   0.07421751  53.80 0.0002085945    1.594    0.373
       269  -8.3717    166.3447    205.7021   1.1166247816e+02   9.2471488281e+00    0.1228711   0.09253974  51.09 0.0007034971    1.673    0.402
       270  -8.4807    160.2534    202.9562   1.1253184587e+02   1.0612305088e+01    0.1405914    0.1119746 -36.75 0.0006611421    1.478    0.324
       271  -9.3244     65.0342    203.2982   1.3466296253e+02   2.4454808427e+01    0.1859385     0.140361  45.51  0.001154227    1.055    0.052
       272  -9.5336     16.1636    201.8370   1.4604912968e+02   2.9967632029e+01    0.1874965    0.1197255  55.10 0.0006258498    1.186    0.156
       273 -10.1131    238.3493    192.5149   9.5947501616e+01   6.0670463708e-01    0.2857723     0.224151  -4.77  0.001486145    1.139    0.122
       274  -8.9063     21.7972    190.3830   1.4428454792e+02   3.1848934266e+01     0.152242    0.1083377  20.27 0.0003129138    1.592    0.372
       275  -8.2180    245.2970    189.6625   9.4326875535e+01   3.3817271881e-02   0.09817547   0.08814677 -24.20 0.0003543245    1.655    0.396
       276  -9.5252    111.0119    188.9822   1.2184250388e+02   2.0879395846e+01    0.2171566    0.1631277  -5.44   0.00113924    1.781    0.439
       277  -9.2778    194.5072    188.5367   1.0311764151e+02   7.4634607277e+00    0.2290439    0.1080664  44.91   0.00103423    2.413    0.586
