#   1 NUMBER                 Running object number                                     
#   2 MAG_AUTO               Kron-like elliptical aperture magnitude                    [mag]
#   3 X_IMAGE                Object position along x                                    [pixel]
#   4 Y_IMAGE                Object position along y                                    [pixel]
#   5 X_WORLD                Barycenter position along world x axis                     [deg]
#   6 Y_WORLD                Barycenter position along world y axis                     [deg]
#   7 A_WORLD                Profile RMS along major axis (world units)                 [deg]
#   8 B_WORLD                Profile RMS along minor axis (world units)                 [deg]
#   9 THETA_WORLD            Position angle (CCW/world-x)                               [deg]
#  10 FWHM_WORLD             FWHM assuming a gaussian core                              [deg]
#  11 ELONGATION             A_IMAGE/B_IMAGE                                           
#  12 ELLIPTICITY            1 - B_IMAGE/A_IMAGE                                       
         1 -12.3276     60.3651     45.2520   9.7257216259e+01   6.0477959419e+01     1.006562    0.4739385 -47.69  0.004481651    1.786    0.440
         2 -11.6028    120.3040     57.6268   8.2963827655e+01   4.7167149671e+01     2.223184     1.205946 -67.04  0.006333306    4.950    0.798
         3 -11.8394    124.9772     27.4546   7.0174932532e+01   5.1042367453e+01    0.7287255     0.583565 -19.87  0.001943135    1.192    0.161
         4 -12.9645    120.5465     39.3031   7.6050510214e+01   5.0301419661e+01    0.8572792    0.6022794 -52.48  0.001851824    1.634    0.388
         5 -12.1355    104.7102     12.8066   6.8732679044e+01   5.7663401597e+01      0.64413    0.4058632 -32.66  0.002020652    1.534    0.348
         6 -12.0086    105.5261     33.1102   7.7549925935e+01   5.4629576609e+01    0.9477638    0.5319127   0.60    0.0026985    3.459    0.711
         7 -12.4125    106.0856     20.1196   7.1733511508e+01   5.6419309109e+01    0.3708808    0.2644158 -24.09 0.0004015804    1.307    0.235
         8 -11.1685      5.2720      8.7927   1.0749293910e+02   7.3289803497e+01    0.7342016    0.2855943 -57.91  0.003586794    2.155    0.536
         9 -11.2546      3.2570      1.7234   1.0536574073e+02   7.4734594635e+01    0.4009324    0.1920139  11.22  0.002289047    2.768    0.639
        10 -11.4230     26.3377     27.4794   1.0451354576e+02   6.8000064553e+01    0.4897818    0.2901845 -53.39   0.00198245    1.367    0.269
        11 -12.4033     18.8230     22.6603   1.0617618512e+02   6.9608782969e+01    0.8567015    0.5888226  14.86  0.005599638    1.814    0.449
        12 -11.2138    250.4478     24.9683   5.0786514981e+01   1.9229105819e+01    0.5398385    0.1292688 -32.43  0.001853928    2.977    0.664
        13 -12.2835    244.3414      6.1086   4.6251266057e+01   2.2649795414e+01    0.9889353    0.5660584 -70.79  0.004128023    1.940    0.485
        14 -12.6798    237.4679     15.4859   4.9361894842e+01   2.3348159416e+01    0.6233854    0.5535163  39.54  0.002238193    1.272    0.214
        15 -11.8425    244.2158     14.2900   4.8458809133e+01   2.1848608710e+01    0.4494805    0.2081271 -31.84  0.001702716    1.825    0.452
        16 -11.3515    178.8725     21.0238   5.7711187704e+01   3.7930320328e+01    0.6964896    0.3442069  37.43  0.002604073    2.468    0.595
        17 -11.2730     90.8747     20.3168   7.6155622132e+01   5.9629221266e+01    0.6188713    0.5701718  -6.70   0.00373055    1.070    0.066
        18 -11.1331     85.9331     13.5804   7.4426255367e+01   6.1559487982e+01    0.4414981    0.3064475  -9.42  0.001584198    1.415    0.293
        19  -9.8164     31.9782     11.9698   9.4963990116e+01   7.0336034465e+01    0.2084751    0.1806543 -87.00 0.0004838276    1.916    0.478
        20 -10.6926     47.2542     18.8581   9.1398282910e+01   6.7259508461e+01    0.3582521    0.2643854 -22.37  0.001344853    1.212    0.175
        21 -11.8813     35.9378     18.1551   9.6106597971e+01   6.8791140663e+01    0.7148036    0.2878476 -36.65  0.002837395    2.216    0.549
        22 -11.9999     48.8103     12.9095   8.7743650283e+01   6.8038995796e+01    0.7211452    0.3861268  35.84  0.003268823    2.139    0.532
        23 -12.6893     15.8788     13.2689   1.0373059892e+02   7.1663481231e+01    0.7431222    0.4200463 -42.87  0.002848598    1.318    0.242
        24 -10.9974    165.1050     17.4740   5.8513021202e+01   4.2013022429e+01    0.4829012    0.2837754  33.44  0.001247109    1.963    0.491
        25  -9.6133    141.2421     12.5245   6.0639587926e+01   4.8826513034e+01    0.2852081    0.1839868   5.87  0.001118126    1.790    0.441
        26 -11.6430    133.3561     15.2530   6.3275433450e+01   5.0530836582e+01     1.056933     0.368903  64.59  0.003567778    3.097    0.677
        27 -10.3357    126.5673     11.5113   6.3078659529e+01   5.2643200478e+01    0.4694464    0.2357082  67.62  0.001800943    2.249    0.555
        28 -11.3941    211.6936      9.8433   5.0134321601e+01   3.0424309042e+01    0.5532374    0.3359932   5.30  0.001523086    2.132    0.531
        29  99.0000     87.8095      7.6557   7.0879194946e+01   6.1927945839e+01    0.6390654    0.3689814  51.51  0.003149485    1.810    0.448
        30 -11.1800    192.4206      7.7241   5.1501012293e+01   3.5710288773e+01    0.5554361    0.3253793  10.07  0.001839915    2.250    0.556
        31  -9.9178    168.9166      9.9793   5.5226127810e+01   4.1787246738e+01    0.3091106    0.1807425  48.00  0.001356939    1.703    0.413
        32 -10.2458     66.1932      9.9931   7.9257209801e+01   6.5737561126e+01    0.3323216    0.2287351  49.88  0.001855431    1.750    0.429
        33 -10.3303     62.9064      6.3675   7.8515983850e+01   6.6801327489e+01    0.2954319    0.2183489  10.93  0.001254365    1.352    0.260
        34  -9.3248    151.7561      7.8533   5.6988276476e+01   4.6565791035e+01    0.4055147   0.09925208  51.76 0.0009084965    3.461    0.711
        35 -10.0910      1.3029      7.2385   1.0907310300e+02   7.3832167176e+01    0.1872398   0.07370134 -54.14 0.0002741593    1.801    0.445
        36 -10.7251     77.3642      5.3650   7.2911396517e+01   6.4292730930e+01    0.5294887    0.2436769 -29.73  0.002416925    1.943    0.485
        37 -10.8713     41.5771      4.3809   8.6292926495e+01   7.0370526287e+01    0.4881009    0.2391931 -17.16  0.002149277    2.755    0.637
        38 -10.4402    175.1284      4.9998   5.2628873548e+01   4.0602253337e+01    0.6493204    0.2675906  87.54  0.002060885    3.685    0.729
        39  -9.4381    162.8118      5.9186   5.4597933647e+01   4.3816798725e+01    0.2185648    0.1880384  26.43   0.00055269    1.185    0.156
        40  -9.9004    109.8290      2.1386   6.2457090076e+01   5.7648793456e+01    0.3573465     0.227416  42.28  0.001239365    1.499    0.333
        41 -10.5656    105.1129      1.6746   6.3318807746e+01   5.8790339534e+01     0.749837    0.3867447  85.42  0.002597995    4.153    0.759
        42 -11.9440     68.3508     17.9447   8.2545154622e+01   6.4192641336e+01    0.5761492    0.5534168   6.76  0.003775529    1.234    0.190
        43 -11.0745    219.1021      2.9616   4.7397937209e+01   2.9187709604e+01    0.4519399    0.3369682 -86.53  0.001145976    1.381    0.276
        44 -11.5192    223.8055      1.6381   4.6620151188e+01   2.8119341696e+01    0.8952346    0.3638661 -78.67  0.003016007    3.718    0.731
        45  -9.6076     70.3309      5.3193   7.5249230124e+01   6.5623376371e+01    0.2494875    0.1702077  46.60  0.001390832    1.611    0.379
        46  -9.7354     72.4913      2.5093   7.2963316751e+01   6.5565713396e+01    0.2122781    0.1417375  10.97 0.0008372929    1.554    0.357
        47 -11.3544    205.2240      2.2874   4.8449045471e+01   3.2839836884e+01    0.4350211     0.252073 -82.34 0.0009509243    1.977    0.494
        48 -10.2527    142.0945      3.4347   5.6796220727e+01   4.9513996551e+01    0.3300703    0.2613015  65.79  0.001733485    1.273    0.214
        49 -11.7716    133.7385      2.5697   5.7869063872e+01   5.1741811958e+01    0.4031813     0.266348  54.61 0.0007867194    1.439    0.305
        50  -9.8017     55.0716      3.9320   8.0203796375e+01   6.8428617498e+01    0.1894989    0.1545422 -14.26 0.0004120789    1.029    0.028
        51 -11.9936     22.6653     11.3053   9.9289140939e+01   7.1422847018e+01    0.4857935    0.3681191  -9.10  0.003018052    1.381    0.276
        52  -9.0618    157.5088      2.4971   5.4064379184e+01   4.5545115091e+01    0.1427785    0.1394377  36.01 0.0008106116    1.008    0.008
        53 -10.1029     13.0147      1.9524   9.9731839490e+01   7.3949792884e+01     0.247748    0.1543244   5.37  0.001105063    1.936    0.484
        54 -10.1447    115.4840      2.1251   6.1215951142e+01   5.6306755923e+01    0.4546874    0.3030829  87.64  0.002130328    2.076    0.518
        55  -9.0754     82.0068      1.1808   6.9214538054e+01   6.3853787901e+01     0.166403    0.0987296  52.49 0.0005529133    1.774    0.436
        56  -9.5371    123.0703      1.0000   5.9165933550e+01   5.4562087716e+01    0.3732667   0.07892881  65.45   0.00103196    4.760    0.790
        57 -12.1269     29.8585    133.1157   1.2471068351e+02   4.4124527440e+01    0.6582768    0.3702602 -76.75  0.003118322    1.430    0.301
        58 -11.0221     20.9783    134.6820   1.2690900613e+02   4.4594490955e+01    0.2598622     0.235963  76.12 0.0008650077    1.300    0.231
        59 -10.3509     82.0300    135.1406   1.1264473988e+02   3.7409461163e+01    0.2877113    0.1916846  27.33   0.00113688    2.042    0.510
        60  -9.0668     41.3107    138.6776   1.2265726713e+02   4.1755527681e+01    0.1263267   0.07411551  73.42            0    1.651    0.394
        61 -10.5338     47.1182    134.5963   1.2083245119e+02   4.2017276707e+01    0.3358846    0.2293247 -75.27  0.001890998    1.227    0.185
        62 -10.9260     71.4766    134.0298   1.1497675600e+02   3.9137215586e+01     0.453908    0.3295584  21.03  0.002541385    2.024    0.506
        63  -9.6814     62.4890    132.5076   1.1690113453e+02   4.0651036416e+01    0.2688569    0.1087105 -65.31  0.001214609    2.180    0.541
        64 -10.9966     92.7092    129.8365   1.0919670242e+02   3.6950119591e+01     0.420959    0.2722566 -60.56  0.002113438    1.451    0.311
        65 -10.7175     10.7774    127.1423   1.2860098844e+02   4.7070810617e+01    0.3733994    0.1384087 -61.82  0.001536177    2.328    0.570
        66 -10.9490     55.1208    123.3401   1.1737792885e+02   4.3606328264e+01    0.5540742    0.3125567  34.62  0.002338156    2.074    0.518
        67  -9.2467     41.5381    126.4623   1.2116504061e+02   4.4427604644e+01     0.123748   0.09721428 -88.29 0.0001076829    1.023    0.023
        68 -11.0574     23.9907    137.0095   1.2643723397e+02   4.3822629470e+01    0.3169229    0.2385326 -75.75  0.001269183    1.200    0.167
        69 -10.1658     18.7185    124.5121   1.2648269950e+02   4.7009924736e+01    0.2539872    0.1224067 -68.54  0.000678559    1.656    0.396
        70  -9.6070      2.0234    125.7547   1.3052232945e+02   4.8012388728e+01    0.2247926    0.1054292  86.05   0.00128405    1.760    0.432
        71  -9.6757    108.1754    146.1607   1.0846981166e+02   3.0970983748e+01    0.1873696    0.1794238  64.00  0.000702958    1.154    0.134
        72  -9.8849     80.5670    125.1450   1.1132541181e+02   3.9828786342e+01    0.3200287    0.1846123  44.53   0.00162466    1.797    0.444
        73  -9.5217     84.3385    123.3185   1.1006531808e+02   3.9677127769e+01    0.2002502    0.1402541  36.13 0.0008523727    1.651    0.394
        74 -11.6392    104.7827    121.6211   1.0469341472e+02   3.6755730325e+01    0.4725484    0.4055382 -77.15  0.001740435    1.105    0.095
        75  -9.0613     40.5937    122.1634   1.2085097794e+02   4.5490530098e+01    0.1575684   0.09503014 -64.86  0.000386707    1.421    0.296
        76  -9.6905      4.2556    121.2753   1.2965129026e+02   4.8827047484e+01    0.2145477    0.1368034  77.94  0.001447321    1.297    0.229
        77 -10.0967     45.7525    120.4907   1.1932930049e+02   4.5318576239e+01    0.2428382    0.1768333  73.86  0.001466716    1.311    0.238
        78  -9.6060    221.4577    120.5012   7.9982083798e+01   1.2903139298e+01    0.1421386    0.1291829  -3.12 0.0002785846    1.019    0.019
        79  -9.2615     72.8995    119.7090   1.1230003590e+02   4.2139220803e+01    0.1776022    0.1659432   5.03 0.0005727819    1.438    0.305
        80 -10.7704     34.0699    119.6292   1.2216608539e+02   4.6716512526e+01    0.2205494    0.1882372 -77.84 0.0009039084    1.159    0.137
        81  -9.4434    148.4637    119.5358   9.4011575093e+01   2.8821756302e+01    0.1423224     0.141599   4.91 4.178654e-05    1.037    0.036
        82  -9.6825    113.8392    115.9609   1.0127127445e+02   3.6374750590e+01    0.2061126    0.1890993 -33.72 0.0003545894    1.228    0.186
        83 -10.4680     67.1255    112.1231   1.1245049620e+02   4.4645614533e+01    0.4674801    0.2467627 -69.63  0.002243534    1.793    0.442
        84 -10.4995     25.8613     87.1715   1.1981975415e+02   5.4874665637e+01     0.712137    0.4659825  73.21  0.004226678    1.682    0.406
        85 -10.8942     35.7039     93.0727   1.1786537896e+02   5.2633206679e+01     1.447621    0.7826423 -84.44  0.006600543    1.931    0.482
        86 -11.6931     19.0099    105.6862   1.2437247011e+02   5.1197265569e+01    0.5024934     0.200154 -54.63  0.001097066    2.349    0.574
        87 -11.0192     37.6227     85.9858   1.1602239999e+02   5.4084608905e+01    0.3224996    0.2462865  69.84  0.001242031    1.439    0.305
        88 -12.4631      8.8832     95.6950   1.2596274273e+02   5.4198439697e+01     0.841366    0.3979537  79.50 0.0007666554    2.300    0.565
        89 -11.7504      8.0625     88.9625   1.2538405845e+02   5.5775648214e+01    0.4639367    0.2590783 -67.02  0.001366838    1.354    0.262
        90 -11.3571     22.1367    114.2202   1.2455154487e+02   4.9015443820e+01    0.3537228    0.2595493  -1.34  0.001735998    2.255    0.557
        91 -11.3237     28.5154    113.0201   1.2276419129e+02   4.8729514751e+01    0.4674117    0.3271909  -8.57  0.002736012    2.528    0.604
        92 -12.6857     25.2505    107.7144   1.2295512921e+02   5.0221160402e+01    0.9984604    0.6434064 -36.71   0.00583224    2.190    0.543
        93 -12.2350     21.2897     95.3392   1.2240080483e+02   5.3372518200e+01    0.5505656    0.5288968  84.43  0.003318472    1.300    0.231
        94 -12.2697     18.1520     90.5312   1.2263397211e+02   5.4715182220e+01    0.3548562    0.3408696 -52.14  0.001163869    1.343    0.255
        95  -9.6691      7.0238    114.7018   1.2841354768e+02   5.0074714063e+01    0.1784341    0.1218132  78.32  0.001010405    1.246    0.198
        96 -11.3510      2.4061    112.0292   1.2932679400e+02   5.0978117049e+01    0.3367682    0.1839982 -79.09 0.0007992691    1.348    0.258
        97 -11.8807      4.0137    105.2047   1.2829115922e+02   5.2384937287e+01    0.3783208    0.2944566  88.22  0.001271926    1.100    0.091
        98  -9.6632     87.2413    114.1320   1.0757536915e+02   4.1289392683e+01    0.3181663    0.1669331  58.18  0.001377262    2.355    0.575
        99 -11.3066     79.4459    108.7439   1.0853037384e+02   4.3688848154e+01    0.6522431    0.3905107  50.54  0.003269609    1.804    0.446
       100 -10.4310     91.4395    104.2655   1.0437561374e+02   4.2838567031e+01    0.4408597    0.3328642  29.39  0.002343933    1.640    0.390
       101  -8.8367    126.7001    113.6643   9.7635371468e+01   3.4425561310e+01    0.1431887    0.1162448 -10.57 0.0007034222    1.657    0.396
       102 -10.3581    107.8321    112.3795   1.0196019565e+02   3.8237438486e+01    0.3300513     0.230828  76.00  0.001579618    1.816    0.449
       103 -10.6520    170.3370    110.2496   8.7021431264e+01   2.5860731864e+01    0.4084594     0.368391 -10.23  0.001401442    1.155    0.134
       104 -10.0945    175.3563    107.3485   8.5242493207e+01   2.5260345685e+01    0.3032558    0.2431166 -17.91 0.0009454124    1.340    0.254
       105  -9.7052     48.9000    112.1488   1.1728641248e+02   4.6869112268e+01    0.1995624    0.1498446  82.70  0.001221817    1.262    0.208
       106 -11.0876    101.6756    109.2129   1.0281119310e+02   4.0015326397e+01     0.479903    0.4061552  47.29  0.002713874    1.262    0.208
       107  -9.7593    120.0178    109.5106   9.8270046694e+01   3.6600009945e+01    0.2325387    0.1870474 -51.53 0.0008371848    1.193    0.162
       108 -11.4748     43.6407     85.6156   1.1410143134e+02   5.3559982713e+01    0.5203395    0.3263536  15.38  0.002768644    2.394    0.582
       109 -10.0965    157.7549    106.1369   8.8639643907e+01   2.9433458535e+01    0.2988792    0.2404252  15.62  0.001004093    1.501    0.334
       110 -10.2813    143.3655    106.0442   9.1844113896e+01   3.2580652961e+01    0.3513566    0.2900665 -41.85 0.0008508413    1.192    0.161
       111 -10.7737    145.6059    100.1224   8.9776074875e+01   3.3280837915e+01    0.4628591    0.3479223 -25.34  0.001506101    1.498    0.333
       112 -11.3755     47.6742    103.5791   1.1622721076e+02   4.8974441622e+01    0.3826949    0.2554972 -33.71  0.001306934    2.113    0.527
       113 -10.0820     52.3894     96.5943   1.1363919273e+02   5.0054106499e+01    0.5327946    0.1473833 -57.95  0.002029197    2.795    0.642
       114  -9.1907     82.1943    102.7985   1.0654144726e+02   4.4627407816e+01    0.1822695      0.15068 -43.63 0.0005096724    1.296    0.229
       115 -10.2220     57.5003    102.0165   1.1321057925e+02   4.8193565052e+01    0.2724945    0.1410052 -63.64 0.0007433264    1.636    0.389
       116 -10.2784     57.5020     97.9699   1.1243726692e+02   4.9127095902e+01    0.1900075    0.1717232  89.88 0.0008027206    1.122    0.108
       117  -9.5372    120.4965    101.5005   9.6177085786e+01   3.8214496180e+01    0.1459965    0.1386581 -56.56 -0.0002475381    1.031    0.030
       118  -9.1707     78.3847    100.7631   1.0714273507e+02   4.5662383183e+01    0.2747409    0.1136396 -53.10   0.00053631    2.132    0.531
       119 -10.3890     77.9611     96.9714   1.0642068872e+02   4.6589275039e+01    0.2036572    0.1772332 -67.71 0.0003115869    1.003    0.003
       120 -11.1986     81.0556     92.6071   1.0453086092e+02   4.7114369351e+01    0.6377348    0.4118046  53.67  0.002615542    1.768    0.434
       121 -11.2819     89.3848     89.9802   1.0151744394e+02   4.6380087274e+01    0.4489908    0.2836995 -44.51  0.001288209    1.528    0.345
       122  -9.5703     92.7681     85.5990   9.9409729320e+01   4.6785581360e+01    0.2216639     0.210733  62.72  0.000583481    1.148    0.129
       123 -10.7991     66.7950     81.8530   1.0612350910e+02   5.1627886554e+01    0.4021169    0.3400988  26.47  0.002409256    1.451    0.311
       124 -11.2142     79.3668     82.7981   1.0256502687e+02   4.9586860184e+01    0.6390262    0.4859561 -82.15  0.002784877    1.510    0.338
       125 -11.4609     73.3829     77.8858   1.0307425785e+02   5.1589109312e+01     0.588519    0.4162533 -32.28  0.003062243    1.641    0.390
       126 -11.3339     67.8946     96.8233   1.0923741375e+02   4.8051831721e+01    0.5612178    0.3292364 -50.74  0.002026115    1.574    0.365
       127 -10.6254     85.9118    104.1668   1.0583425019e+02   4.3743621911e+01      0.42002    0.2939509 -26.26  0.001891375    2.121    0.529
       128  -9.2443    140.4747     96.4907   8.9989404122e+01   3.5122312001e+01    0.1499008    0.1447994 -31.95 4.313387e-05    1.043    0.042
       129  -9.7439    137.6726     93.7301   8.9894972419e+01   3.6284650356e+01    0.3749305    0.2504169  19.13 0.0009632247    2.318    0.569
       130 -10.5106    117.4221     93.0147   9.4732318830e+01   4.0625207672e+01    0.8630835    0.5532022   6.40   0.00302318    3.686    0.729
       131 -10.3109    126.1934     93.0465   9.2513182465e+01   3.8849205177e+01    0.6099405    0.3910248 -64.47  0.002616605    1.949    0.487
       132 -10.3742    122.4777     93.5267   9.3579273497e+01   3.9507352137e+01    0.2991194    0.2313923 -38.29  0.000860079    1.291    0.225
       133 -11.5060    102.3032     90.2743   9.8006865245e+01   4.4078951198e+01    0.4906871    0.4408158 -22.65 0.0007129091    1.263    0.208
       134  -9.1670    160.9938     93.4976   8.4517996688e+01   3.1102844842e+01    0.2087805     0.138933  81.53 0.0008090193    2.422    0.587
       135  -9.8991    152.3655     91.9707   8.5991877365e+01   3.3370929056e+01    0.2619919    0.2207155  70.34  0.001257516    1.333    0.250
       136  -9.9164     50.5243     91.4836   1.1319178727e+02   5.1449941410e+01    0.4121182    0.2183231  45.31  0.002087951    2.146    0.534
       137 -10.7109    113.4159     83.2658   9.3053424289e+01   4.3481168181e+01    0.3891153    0.2931886 -43.96  0.001226847    1.242    0.195
       138 -10.9871    109.3361     80.5417   9.3358357054e+01   4.4854831886e+01    0.3517889    0.3026724 -27.54 0.0006164201    1.230    0.187
       139  -9.4777     67.4987     87.9909   1.0738626539e+02   5.0131574530e+01    0.2143504    0.1150375 -55.26  0.001020771    1.589    0.371
       140  -9.1137    212.1731     87.6028   7.3087713933e+01   1.9998841601e+01    0.2074919    0.1342008  41.51 0.0007122261    1.630    0.386
       141  -9.5662    183.6425     87.3184   7.8125986634e+01   2.6858987850e+01    0.2476171    0.1844205 -65.76  0.001113745    1.721    0.419
       142 -10.4938    119.9894     85.2753   9.1904929942e+01   4.1740480884e+01     0.391092     0.236365  43.62  0.001732877    1.778    0.438
       143 -11.1956    143.2056     84.1166   8.5823494566e+01   3.6970736477e+01    0.3422798     0.310746 -31.04 0.0007232859    1.081    0.075
       144 -10.2512    165.5405     83.3560   8.0623951283e+01   3.1905076413e+01    0.3377607    0.2956367 -63.52  0.001710578    1.255    0.203
       145 -10.1663    127.5911     83.4321   8.9422448327e+01   4.0536393257e+01    0.2829282    0.2636724  -2.61 0.0009312594    1.170    0.145
       146  -9.8840     60.0266     83.6037   1.0862224306e+02   5.2121357781e+01    0.2540966    0.2122921 -36.24  0.001534582    1.340    0.254
       147 -11.4867     52.7990     76.4061   1.0919031546e+02   5.4654343157e+01    0.5603054    0.2970142 -62.49  0.002741132    1.625    0.385
       148 -10.7640     52.7076     72.9658   1.0837538733e+02   5.5447824657e+01     0.241721    0.2115151 -59.10 0.0005562301    1.063    0.060
       149 -10.6157     58.7904     78.3737   1.0775725753e+02   5.3472979756e+01    0.2644109    0.2442263  59.41  0.001029303    1.247    0.198
       150 -11.3532     14.3818     66.6763   1.1997056671e+02   6.0424945015e+01    0.3111324    0.1995995 -76.31 0.0005371327    1.288    0.224
       151 -11.6687     13.7898     74.7685   1.2157803201e+02   5.8626609495e+01    0.5576602    0.4093639   9.13  0.003728694    1.925    0.481
       152  -9.9817     20.5862     71.7704   1.1881013324e+02   5.8824198492e+01     0.244654    0.1805745  37.11 0.0008401876    1.688    0.408
       153 -11.6350      1.9041     71.3721   1.2493605023e+02   6.0115393705e+01    0.5457124    0.1440059 -71.64  0.002345127    2.674    0.626
       154 -12.0855      6.1097     62.6174   1.2212629557e+02   6.1853861551e+01    0.6411771    0.3020407 -49.38  0.003405776    1.866    0.464
       155 -10.6795     11.8561     62.4388   1.2006121298e+02   6.1547704323e+01    0.2731762     0.188083 -11.01  0.001737781    2.050    0.512
       156 -10.6299    246.1289     78.1621   6.5470506489e+01   1.3587147031e+01     0.198508    0.1582797 -46.22 0.0004165327    1.313    0.239
       157 -10.2740    104.6772     76.8272   9.3539922755e+01   4.6534592886e+01       0.3558    0.2945557 -30.28  0.001673044    1.253    0.202
       158 -10.8822     93.5346     76.3872   9.6595597980e+01   4.8666741396e+01    0.4455469    0.3499961  23.96  0.001603195    1.570    0.363
       159 -11.7453     85.3900     73.7935   9.8253668741e+01   5.0618594953e+01    0.7107388     0.609012  75.18  0.004015203    1.366    0.268
       160 -11.1694     78.6217     67.2175   9.8373984400e+01   5.3140950549e+01    0.5524837    0.4438165 -77.11  0.002275912    1.445    0.308
       161 -12.2976     74.4719     50.8801   9.4316888121e+01   5.7226610437e+01     1.281434    0.7321529 -52.94  0.006047966    1.703    0.413
       162  -9.3257      5.2090     78.4270   1.2486679007e+02   5.8337222625e+01     0.134123    0.1012171  54.75 0.0004790376    1.540    0.351
       163  -9.5840      1.4015     78.1613   1.2601927831e+02   5.8613115580e+01    0.1760964   0.08404535 -74.40 0.0005367078    1.529    0.346
       164  -9.8859    126.9453     76.9229   8.7618998341e+01   4.1987447319e+01    0.2242763    0.2117794 -44.04  0.000296484    1.010    0.009
       165  -9.8175     46.5751     72.6174   1.1031147576e+02   5.6228446528e+01    0.2965309    0.1139743 -68.08  0.001120924    2.943    0.660
       166  -9.7076     32.9801     77.2927   1.1579938657e+02   5.6525842182e+01    0.1640989    0.1419672 -68.72 0.0003431185    1.101    0.092
       167 -11.7040    186.6776     70.8760   7.2714122652e+01   2.8858274955e+01    0.7628767     0.560755 -21.71  0.002905894    1.369    0.269
       168  -9.8546    123.2818     72.9652   8.7320104582e+01   4.3563711246e+01    0.2717914    0.2238806 -57.88  0.000329332    1.263    0.208
       169 -11.6673    122.5463     68.4312   8.6049629326e+01   4.4616345493e+01    0.6168654    0.3901896  46.88   0.00252565    1.683    0.406
       170 -11.7879     40.8840     70.2080   1.1164079737e+02   5.7381262284e+01    0.5201361     0.239381 -60.87  0.001481471    1.740    0.425
       171 -11.3907     33.3438     71.8125   1.1454176840e+02   5.7747860663e+01    0.4675537    0.2671157  33.00   0.00250502    2.137    0.532
       172  -9.8580    161.5776     70.3562   7.7484251227e+01   3.5183579422e+01    0.2988396     0.251169  76.01 0.0008750509    1.368    0.269
       173 -10.0947    172.0376     67.6051   7.4481339214e+01   3.3062498737e+01    0.4169979    0.2208368 -33.22   0.00164558    1.798    0.444
       174  -9.5142    208.5527     68.1272   6.8168646194e+01   2.3834493873e+01     0.247329    0.2015879  26.52 0.0007000057    1.330    0.248
       175 -11.2941    219.6594     66.3756   6.5965214531e+01   2.1368669653e+01    0.5780037    0.3406458  63.91   0.00236668    1.910    0.476
       176  -9.7577     66.4825     74.3942   1.0429575547e+02   5.3356360954e+01    0.2714979    0.1764227 -72.96 0.0009608871    1.750    0.429
       177  -9.6910     21.4551     65.4110   1.1726498620e+02   6.0204296770e+01    0.2561179    0.1748402  71.57  0.001277495    1.785    0.440
       178  -9.1189     25.5728     65.4332   1.1582823410e+02   5.9874199189e+01    0.1848362    0.1192047 -44.98 0.0006533438    1.488    0.328
       179 -10.1079     98.1987     63.0597   9.1032893575e+01   5.0620137689e+01    0.3988244    0.2683364  -1.58  0.001662557    2.529    0.605
       180 -11.4201     91.4441     62.4953   9.2872650570e+01   5.1976279055e+01    0.6888349    0.4595835  40.09  0.003148563    1.685    0.406
       181 -10.5400     91.0544     57.7905   9.1393734142e+01   5.3006557843e+01    0.3395721    0.2838137   0.81  0.001225586    1.406    0.289
       182 -10.8822     87.6147     56.9527   9.2173463675e+01   5.3790028377e+01    0.7476751     0.262169 -37.84  0.002475823    3.031    0.670
       183 -10.0592     26.0208     48.1364   1.1141625947e+02   6.3692866977e+01    0.2307349     0.160793 -40.34 0.0003986449    1.346    0.257
       184 -10.7662     21.0422     47.0298   1.1309425658e+02   6.4334731548e+01    0.3609073    0.2294236 -54.05  0.001847786    1.197    0.165
       185 -11.0224     58.2322     61.4228   1.0335657670e+02   5.7340468046e+01    0.4502421    0.3288865 -59.15  0.001727575    1.219    0.180
       186 -11.4761     25.5234     55.8087   1.1362070625e+02   6.2041827673e+01    0.7623157    0.7043686  -4.01  0.004450927    1.365    0.267
       187 -12.4935     49.6582     60.2849   1.0601639498e+02   5.8648155383e+01    0.6803853    0.5245908  81.98  0.001833515    1.679    0.405
       188 -10.4524     33.6258     58.1535   1.1121180550e+02   6.0807796858e+01    0.3113939    0.1634367 -39.52 0.0006152403    1.987    0.497
       189 -11.4590     40.1156     55.7060   1.0815815293e+02   6.0710598431e+01     0.462225    0.3920934  85.97  0.002731708    1.398    0.285
       190 -10.4009    143.1712    249.4097   1.1519759897e+02   8.5919974880e+00    0.2001356    0.1006158  48.06  0.001303776    1.479    0.324
       191 -11.0116     60.7226     36.2371   9.3657073391e+01   6.2207640612e+01     0.345517    0.2033734 -40.10 0.0009593753    1.435    0.303
       192 -11.4403     46.2750     48.9904   1.0381316073e+02   6.1493337292e+01    0.4198366    0.3602359  -0.58  0.001592331    1.389    0.280
       193 -11.3592     42.5134     45.0480   1.0396541317e+02   6.2754265311e+01    0.4256333    0.2983792  -2.23 0.0009640452    1.936    0.483
       194 -10.4468    159.5379     61.6327   7.5095303430e+01   3.7189629177e+01    0.4425262    0.2616187  41.72  0.001816841    1.840    0.456
       195  -9.8923    113.3044     60.9395   8.6003865404e+01   4.8037697193e+01    0.4222001    0.2196068 -39.73  0.001739261    1.779    0.438
       196  -9.6415    175.9838    247.1494   1.0987529724e+02   4.1043641081e+00    0.1777294    0.1019196  58.68  0.001102783    2.109    0.526
       197  -9.7792    199.2153    244.4237   1.0597547445e+02   9.8835651503e-01    0.1527066   0.07849447  47.81 0.0009516847    1.700    0.412
       198 -10.6457    117.0055     31.8090   7.3930245734e+01   5.2281090343e+01    0.3870094    0.2478406 -33.65 0.0004350891    1.467    0.319
       199 -11.0374    113.3758     49.7554   8.1967678055e+01   5.0112819089e+01    0.6846865    0.3961192  26.37    0.0024266    2.552    0.608
       200 -11.1698    127.4514    242.5568   1.1700140605e+02   1.1688153241e+01    0.2592303    0.1721779 -80.82  0.001845715    2.023    0.506
       201 -10.6809    136.7618     56.3306   7.8378053611e+01   4.3647248475e+01    0.6746597    0.4393281  16.43   0.00256981    2.289    0.563
       202 -11.1021    146.0126     46.5104   7.2765332551e+01   4.3043404452e+01    0.6360677    0.3411907 -23.38  0.001820991    1.989    0.497
       203 -10.9779    157.3336     55.0443   7.3347269677e+01   3.8836089674e+01    0.5901455    0.4203367 -49.18  0.002546049    1.484    0.326
       204 -10.7873    155.0739     49.7854   7.2002949989e+01   4.0252072318e+01    0.4044917    0.2671636 -20.15  0.000450807    1.594    0.373
       205 -12.4884    115.7531     42.1892   7.8433554955e+01   5.0909312093e+01    0.8952236     0.619296 -75.99  0.003786917    2.401    0.583
       206  -9.1683      1.8202     56.3318   1.2256398373e+02   6.3490611671e+01    0.1303167    0.1012545 -23.68 0.0006630345    1.626    0.385
       207  -8.4919    187.6565     55.3042   6.7710337772e+01   3.1038064123e+01    0.1624198    0.1166294 -63.06 0.0007040747    1.685    0.407
       208 -10.1036     67.0456     54.6886   9.8179999266e+01   5.7573539107e+01    0.2542383    0.1751174 -61.46 0.0007517358    1.519    0.342
       209 -11.4097     34.6466     42.3767   1.0621597938e+02   6.4143359787e+01    0.6733262    0.5065113 -25.61  0.003305314    1.428    0.300
       210 -10.7630    248.8014     53.1061   5.8491747908e+01   1.6263437437e+01    0.2916196    0.2606496 -68.82  0.001661995    1.240    0.193
       211 -11.2071    240.2018     50.2748   5.8721747937e+01   1.8615349234e+01    0.3190333    0.2790984  -7.26 0.0008416948    1.148    0.129
       212 -10.0520    145.5121     52.1687   7.4895991727e+01   4.2248250976e+01    0.3782989    0.3240678  31.30  0.001454352    1.228    0.185
       213 -10.5093    174.0735     48.2579   6.7800388064e+01   3.5607240128e+01    0.4413178    0.3375969  87.31  0.002047924    1.592    0.372
       214  -9.1657    146.7987     60.6296   7.7529963891e+01   4.0492248431e+01    0.2111598     0.151461  67.01 0.0007215015    1.627    0.386
       215 -10.0317     13.0043     47.2779   1.1637423502e+02   6.4850569867e+01    0.5013008    0.1243518 -41.20  0.001657593    5.321    0.812
       216 -10.1437     18.1363     41.6237   1.1279372877e+02   6.5725964109e+01     0.330836    0.1846424 -29.36  0.001424845    2.119    0.528
       217 -10.0746      2.2880     48.7576   1.2094837663e+02   6.5144798811e+01    0.2270023    0.1796066 -73.22  0.001034195    1.125    0.111
       218  -9.9886      4.3715     43.9603   1.1908784368e+02   6.6088714851e+01    0.3857926    0.1931882 -43.04  0.001847829    1.829    0.453
       219 -11.2100      4.2685     35.9121   1.1718317413e+02   6.7835081546e+01    0.3052697    0.2406954 -15.26  0.000312095    1.551    0.355
       220  -8.6208      6.7842     30.8128   1.1464623277e+02   6.8776281173e+01    0.4165443    0.2569347  -3.30  0.002090998    2.172    0.540
       221 -10.3664    201.8725     46.9707   6.2829958102e+01   2.8562281279e+01    0.4487668    0.2473883 -33.48  0.001879976    1.668    0.400
       222  -9.9956     51.8572     47.8194   1.0132045239e+02   6.1071495914e+01    0.2462056    0.1697669 -30.36  0.001112048    1.506    0.336
       223 -10.4949    233.4698     45.2910   5.8132034226e+01   2.0855001010e+01    0.3383177    0.2098601  64.82  0.001582977    1.760    0.432
       224  -9.9965    139.4154     43.9877   7.3307160720e+01   4.5071664282e+01    0.3590959    0.2110167  36.61  0.001468722    1.961    0.490
       225  -9.4627    236.2388     59.4591   6.1741335969e+01   1.8353385042e+01    0.1925354    0.1437163  88.31 0.0009475499    1.692    0.409
       226 -10.1825    101.2233     43.7285   8.3106666870e+01   5.3735275639e+01    0.3497041    0.2427284 -63.17  0.001598805    1.986    0.496
       227 -11.0050     94.0532     41.3506   8.4321308297e+01   5.5584207692e+01     0.562661    0.3031979  43.38  0.002070067    2.029    0.507
       228  -9.3276    162.9419     43.7253   6.8317086877e+01   3.9167351317e+01     0.215636    0.2051643  45.66  0.001041765    1.079    0.073
       229 -11.4064    156.1535     41.7604   6.8943329803e+01   4.1207736902e+01    0.4006614    0.3547681  -8.80 0.0009632918    1.131    0.115
       230 -10.4924    153.2115     36.1190   6.7477255232e+01   4.2780973835e+01    0.3353978    0.2488646 -52.32 0.0003757717    1.484    0.326
       231  -9.8422     26.4561     43.5018   1.0990344914e+02   6.4659780017e+01    0.1260929   0.09579796 -51.72 3.072985e-05    1.027    0.026
       232  -9.9738    189.0060     41.9780   6.3208584854e+01   3.2596407589e+01    0.2573942    0.2077044 -27.54 0.0004285668    1.186    0.157
       233 -10.8335     80.7500     39.8930   8.8007462695e+01   5.8308390187e+01    0.5320744    0.3982271  41.55  0.002900965    1.506    0.336
       234  -9.4328     77.7402     34.4354   8.6768342934e+01   5.9823998949e+01     0.912227    0.3470367  35.93  0.003331678    3.471    0.712
       235 -10.3411     82.0976     31.4431   8.4008900307e+01   5.9568780636e+01    0.4567065    0.4087359 -76.18  0.002665726    1.477    0.323
       236 -10.5393    231.5720     39.5232   5.6721986127e+01   2.2037239427e+01    0.2901301     0.225691 -48.56 0.0006136895    1.251    0.201
       237 -10.9234    176.7459     37.3040   6.3634545086e+01   3.6461718457e+01    0.5063747    0.2779123 -29.77  0.002085622    1.723    0.419
       238 -10.1971    172.7234     33.1378   6.2870206623e+01   3.8080711553e+01    0.3846641    0.2388144  64.10  0.001245029    1.664    0.399
       239 -10.2172    176.0867     30.2263   6.1313403729e+01   3.7563738833e+01    0.3907424    0.2406684  45.70  0.001696158    1.683    0.406
       240 -10.9102     23.0728     37.0865   1.0933493587e+02   6.6309238258e+01    0.3599068    0.2531859  57.98  0.001590155    2.078    0.519
       241  -9.7441    133.6865     37.5445   7.2176667404e+01   4.7469541121e+01    0.3606999    0.2472647 -77.89  0.001504323    2.264    0.558
       242  -9.4584    206.7040     37.0482   5.9076913906e+01   2.8623489281e+01    0.2176823    0.1863536 -30.30 0.0008620107    1.102    0.092
       243 -10.8173    137.8955     32.6505   6.9335789400e+01   4.7153859128e+01    0.5938782    0.4890984 -59.57  0.002995701    1.396    0.283
       244  -9.7352    131.2242    240.5919   1.1621557806e+02   1.1408287359e+01    0.1505886   0.08055528  38.57 0.0009490412    1.646    0.393
       245 -10.5875    150.7252    237.4984   1.1278076922e+02   8.9604208765e+00    0.1885387    0.1554599  -0.31  0.001430212    1.741    0.426
       246 -10.5757    143.8009    235.8139   1.1371390766e+02   1.0200058816e+01    0.1547702    0.1046619  58.72  0.001086203    1.372    0.271
       247 -12.0698    115.1939     24.8904   7.1475549957e+01   5.3700768933e+01    0.5273669     0.272148  46.21 0.0004000302    1.961    0.490
       248 -11.1554    110.2330     23.3969   7.2098568652e+01   5.5040727051e+01    0.3235362    0.2823448  33.41 0.0008718508    1.155    0.134
       249 -10.6150     68.9150     32.6389   8.9116858591e+01   6.1624134002e+01    0.4239481    0.2783401  34.27  0.002246565    1.736    0.424
       250 -11.2623    240.8907     30.9019   5.3301767409e+01   2.0811929918e+01    0.4957704    0.3109695 -10.60  0.002283563    1.747    0.428
       251 -11.2265    159.9103     30.1554   6.4026730392e+01   4.1851551289e+01    0.4779242    0.3000252 -37.70 0.0004441427    1.558    0.358
       252 -11.1671    164.0025     27.5113   6.2346297346e+01   4.1113358562e+01    0.2756177    0.2634575  58.02 0.0004053695    1.071    0.066
       253  -9.1667    182.4843     32.4495   6.1070649517e+01   3.5580403416e+01    0.1511185    0.1459023   7.38 0.0002971323    1.046    0.044
       254 -10.1022    147.4870     31.7855   6.6997788362e+01   4.4854156753e+01    0.2443582    0.2067625  55.78 0.0003552832    1.212    0.175
       255 -11.9950     55.8012     30.9934   9.3379518819e+01   6.3901719445e+01    0.4238908    0.2759281  35.74            0    1.800    0.445
       256 -11.4112     47.1177     30.5984   9.6718215644e+01   6.5130632508e+01    0.5322086    0.3137918  14.52  0.002069518    2.455    0.593
       257 -11.4628    199.1277     27.9997   5.7241520048e+01   3.1721719677e+01    0.5514756    0.4019346   3.52    0.0010075    1.589    0.371
       258  -9.3731     15.1568    233.8853   1.3375904531e+02   2.6588034655e+01    0.1155432   0.09072076  80.57  0.001070203    1.349    0.259
       259  -9.5453    247.3179    231.3114   9.6928348872e+01  -4.7435184549e+00    0.1108802   0.06164883  18.78 0.0005649606    1.642    0.391
       260 -11.1298     31.1420     29.9910   1.0331772143e+02   6.7040720568e+01    0.3842622    0.3479287 -42.89 0.0009565526    1.179    0.152
       261  -9.2997     23.4889    231.5239   1.3243208471e+02   2.6137096964e+01   0.09796962   0.06321163  67.09 0.0008099808    1.024    0.024
       262  -8.8377      9.5228    227.4993   1.3435705658e+02   2.8127195711e+01   0.09558834   0.06206862  68.95 0.0008102315    1.010    0.010
       263 -10.2035    189.3017     27.7949   5.8511891847e+01   3.4348072023e+01     0.416135    0.2606401   4.08  0.001726457    2.057    0.514
       264 -10.1600     98.5299     28.7387   7.7682717290e+01   5.6795631565e+01    0.4890295    0.2668542 -50.64  0.001788426    2.364    0.577
       265  -9.3062    221.4892     29.4857   5.4969626973e+01   2.5759129947e+01    0.1470298    0.1342321 -42.26 -3.164639e-05    1.028    0.027
       266  -9.2033    158.4870     20.4633   6.0692672593e+01   4.3428611205e+01    0.2512551    0.1461351  63.04  0.000662875    1.723    0.420
       267  -9.6330    155.3126     20.6762   6.1317345916e+01   4.4240316815e+01    0.2827851    0.2028937   7.39 0.0005808073    1.578    0.366
       268 -10.0638    152.6429     26.7788   6.4104814878e+01   4.4187882688e+01     0.446489    0.2634104  29.36  0.001324855    2.079    0.519
       269 -10.3107    156.9304     24.9890   6.2652589256e+01   4.3292761821e+01     0.613143    0.3096737  80.76  0.001808148    2.936    0.659
       270  -9.8386    234.5122    222.5311   9.7541358172e+01  -2.0916004415e+00    0.1115082   0.08251671  24.32 -3.707119e-06    1.007    0.007
       271 -11.7333    245.0847     21.2113   5.0255273911e+01   2.0902662984e+01    0.6402075    0.2487704  56.52  0.002571783    2.692    0.628
       272  -9.5141      9.7721    217.9756   1.3396771068e+02   2.9647570790e+01    0.1196476   0.06058445 -87.33 0.0008008839    1.641    0.391
       273  -9.3697    165.6288    212.3317   1.0726093657e+02   9.9343425878e+00    0.1179134   0.08163921  67.30 0.0007028819    1.834    0.455
       274  -9.4576    152.5144    207.5290   1.0889116311e+02   1.2729855938e+01    0.1177381   0.09634401  47.06 0.0001502515    1.004    0.004
       275  -9.9454    230.6686     26.9008   5.3224001880e+01   2.3762164480e+01    0.2108415    0.1731502 -35.85 0.0009655232    1.107    0.097
       276  -8.8957     41.6679     27.2119   9.7594825632e+01   6.6442672149e+01    0.1042092    0.0960312  87.92 0.0003971724    1.507    0.336
       277 -11.2214    183.1732     25.1294   5.8494746812e+01   3.6301034730e+01    0.4560567    0.3145384  48.88  0.001150959    1.478    0.323
       278  -9.1974    187.6754     22.6762   5.7037931411e+01   3.5386845960e+01    0.2277827    0.1549434 -14.36 0.0005087102    1.533    0.348
       279 -10.1528    144.4882     25.2460   6.5080644759e+01   4.6489966950e+01    0.4846803    0.2528528  77.75  0.001763677    2.777    0.640
       280 -10.5654    214.7425     23.5276   5.3954532984e+01   2.8170705930e+01    0.4578431    0.2983605  -3.96  0.002082682    1.794    0.442
       281  -9.7147    133.3125     23.6601   6.6746641853e+01   4.9515994343e+01    0.3597237    0.2591684 -61.63   0.00167249    1.763    0.433
       282 -10.2290    138.2008     21.6144   6.4899526916e+01   4.8548983520e+01    0.3890243    0.1873583  48.34  0.001228576    2.038    0.509
       283  -9.5744    141.9968     19.5229   6.3310650980e+01   4.7837077994e+01    0.3365522    0.2248993  57.51  0.001070908    1.490    0.329
       284  -9.8670     59.9399     24.5018   8.8874837866e+01   6.4468868396e+01    0.2148909    0.1439333 -36.68 0.0005174924    1.264    0.209
       285  -9.7886    238.5945    204.6481   9.4085733740e+01  -9.4081436489e-01    0.2003199    0.1030749 -21.63  0.001138994    2.133    0.531
       286 -10.1577      4.2883    204.9105   1.3432627858e+02   3.2352561848e+01    0.1695458    0.1027593 -76.02  0.001322654    1.639    0.390
       287 -10.5689     82.3454     18.8665   7.8153045589e+01   6.1520695282e+01    0.5588229    0.1816752  46.08  0.001990179    3.206    0.688
       288 -10.4683    245.3385    200.6648   9.2374326892e+01  -1.5835728940e+00    0.1459641    0.1389053  56.67 0.0006806708    1.663    0.399
       289 -10.0906    233.8418    197.0863   9.3562668320e+01   6.1201710283e-01    0.1681298    0.1517416  24.56  0.001229671    1.284    0.221
       290  -9.5966     16.8100    192.1488   1.3167171148e+02   3.3471956552e+01    0.1255742    0.1011002  88.97  0.000363917    1.303    0.233
       291  -9.9926     38.7659     21.9582   9.6571601539e+01   6.7769246710e+01    0.3143508    0.1464814 -41.30  0.001301257    1.720    0.419
       292  -9.6988    169.8778    191.2020   1.0345920351e+02   1.2209673255e+01    0.3420914    0.1392899  34.94  0.001272461    2.756    0.637
       293 -12.2313      4.6672    184.5778   1.3341129551e+02   3.5958464665e+01    0.5924804    0.2943774  67.32  0.004081303    1.512    0.338
       294  -9.5094    239.9998    184.7658   9.0415754567e+01   9.6685259910e-01      0.15688   0.08720697  40.56 0.0007759799    1.603    0.376
       295  -9.1915    221.2161     18.9871   5.1905842655e+01   2.7018982215e+01    0.1963541    0.1707691 -30.79            0    1.085    0.078
       296 -10.0624    250.0000    179.4843   8.7876113015e+01  -9.4173551015e-02    0.2480342   0.06310713 -29.38 0.0009386821    3.967    0.748
       297  -9.4940    146.7507     17.1726   6.1489224225e+01   4.6885484397e+01    0.4867285    0.2618027 -71.80  0.001647916    3.451    0.710
       298  -9.3488    149.4993     14.9894   6.0145286595e+01   4.6414411073e+01    0.2798065    0.1331116  30.52 0.0009719722    2.851    0.649
       299  -9.7409    191.5832     16.6992   5.4546371417e+01   3.5011771542e+01    0.3383783    0.2157224  22.33  0.001466584    1.963    0.491
       300  -9.5085     28.3080    176.3336   1.2865688992e+02   3.5328711715e+01   0.09680609   0.07555112 -60.39 0.0004484242    1.671    0.401
       301  -9.8112    248.4073    173.4127   8.6972912045e+01   8.4450530605e-01    0.2519814    0.0795687  35.08 0.0009631259    3.380    0.704
       302  -9.6661     51.4416    173.2491   1.2395219079e+02   3.3427920182e+01    0.1594887   0.09027518 -89.62 0.0008622096    1.622    0.383
       303  -9.6202    211.3129     18.9467   5.2945574511e+01   2.9567869536e+01    0.2012018    0.1756413 -28.11 0.0003154621    1.101    0.091
       304 -10.3598     74.1901     19.4532   8.1193207271e+01   6.2941125922e+01     0.267298    0.2242264  -9.56   0.00100193    1.074    0.068
       305 -10.2230    186.4818     15.0894   5.4655979830e+01   3.6547370299e+01    0.2787275     0.216198  65.91 0.0005560516    1.294    0.227
       306  -9.1411    220.6754     12.3151   4.9997490964e+01   2.7863574357e+01    0.1548588   0.09523613 -55.42 0.0004609566    1.666    0.400
       307  -9.9717     39.5933    173.2747   1.2627171923e+02   3.4753039088e+01     0.147456    0.0874247 -70.47 0.0009452049    1.578    0.366
       308 -10.4088     36.0242    170.4221   1.2674214171e+02   3.5696822617e+01    0.2522936    0.1325343 -78.12   0.00133027    1.629    0.386
       309 -11.8825      9.8320    166.2801   1.3153159855e+02   3.9014200849e+01    0.4564432     0.288152 -80.85  0.002778066    1.318    0.241
       310  -9.5763    198.1390    167.8183   9.4320014522e+01   1.0540428958e+01    0.1853722    0.1711408  38.20 0.0006559927    1.134    0.118
       311 -10.1112     18.8210    165.0515   1.2971882039e+02   3.8460121197e+01    0.2243043    0.1734652  48.86  0.001567712    1.427    0.299
       312 -10.0459    205.1545    163.2830   9.2195439870e+01   9.8768739271e+00    0.2232428    0.2058849   0.92 0.0006477082    1.098    0.090
       313  -9.6173    188.7847    163.9507   9.5284458337e+01   1.2879292405e+01     0.203979    0.1666451  10.40 0.0008295606    1.297    0.229
       314 -10.0541     28.2677    162.6724   1.2767871931e+02   3.8040192175e+01    0.2672327    0.1202562 -64.69  0.001522178    2.081    0.520
       315 -11.0926    105.2889    153.5681   1.1031141326e+02   2.9931928347e+01    0.5304161    0.4299643 -76.10  0.003244306    1.197    0.164
       316 -11.2725     14.0055    158.2541   1.3022188654e+02   4.0258199374e+01     0.385766    0.1476772 -78.99  0.002110058    2.091    0.522
       317 -10.5993     31.4775    154.5166   1.2636049246e+02   3.9395353370e+01    0.3476454    0.2040952  71.30  0.001898171    1.482    0.325
       318 -10.4679     30.7583    149.5328   1.2607858415e+02   4.0509353475e+01    0.2379861    0.1446046  80.72  0.000769342    1.394    0.282
       319 -10.4601     72.4345    152.1800   1.1729181849e+02   3.5097231203e+01    0.4167684    0.2178358  63.45  0.002077899    2.080    0.519
       320 -10.9549     45.8361    150.8807   1.2295357850e+02   3.8642704121e+01    0.5534127    0.2317138  57.92  0.002699616    2.445    0.591
       321 -10.9423     47.1601    146.6557   1.2221440875e+02   3.9393236689e+01     0.378972     0.236952 -80.26  0.002312101    1.357    0.263
       322 -11.6147     12.4259    138.9321   1.2917874542e+02   4.4405195583e+01    0.5743065      0.23862  70.72  0.002942655    2.424    0.587
       323 -10.1877     14.4681    133.5766   1.2829319684e+02   4.5384702983e+01    0.2419585    0.1277643  67.52  0.001440423    1.744    0.427
       324 -11.9874     22.7585    149.3116   1.2776649814e+02   4.1317752274e+01    0.4549209    0.2991264 -35.26  0.002650513    2.792    0.642
       325 -11.8007     15.7130    147.6499   1.2912972233e+02   4.2292605706e+01    0.3828986    0.2303776  75.40  0.001707328    1.354    0.262
       326 -11.8100      3.8642    147.4280   1.3159187754e+02   4.3304976385e+01    0.5488669    0.3045844 -80.87  0.003357861    1.383    0.277
       327 -11.6953      3.6095    141.9046   1.3129456476e+02   4.4470232100e+01    0.3817604    0.2808448  56.81  0.002173396    1.355    0.262
       328 -11.5371      3.9342    136.6809   1.3087509347e+02   4.5543194620e+01    0.2136395    0.1524486 -86.64  0.000269024    1.082    0.076
       329 -11.2930     62.4628    149.9529   1.1920738124e+02   3.6867016868e+01    0.4292831     0.342436  66.44  0.002863411    1.144    0.126
       330  -9.4903    239.8373    146.8074   8.2928595785e+01   5.5860128490e+00    0.1645561     0.156868 -26.71 0.0008203135    1.315    0.239
       331 -11.0534    249.6469    143.6189   8.0700356952e+01   4.1788206430e+00    0.6034092    0.1324556 -29.95  0.001954434    4.239    0.764
       332  -9.4952     85.4837    150.0107   1.1411693655e+02   3.3720215151e+01      0.19213    0.1155393 -65.64  0.001030411    1.584    0.369
       333 -10.6574     33.0886    144.2766   1.2508628835e+02   4.1393840449e+01    0.2371436    0.1799281  83.54 0.0008187088    1.035    0.034
       334  -9.9785    133.5368    140.3772   1.0180885225e+02   2.7646123102e+01     0.269284    0.2357814 -18.14   0.00153469    1.416    0.294
