#   1 NUMBER                 Running object number                                     
#   2 MAG_AUTO               Kron-like elliptical aperture magnitude                    [mag]
#   3 X_IMAGE                Object position along x                                    [pixel]
#   4 Y_IMAGE                Object position along y                                    [pixel]
#   5 X_WORLD                Barycenter position along world x axis                     [deg]
#   6 Y_WORLD                Barycenter position along world y axis                     [deg]
#   7 A_WORLD                Profile RMS along major axis (world units)                 [deg]
#   8 B_WORLD                Profile RMS along minor axis (world units)                 [deg]
#   9 THETA_WORLD            Position angle (CCW/world-x)                               [deg]
#  10 FWHM_WORLD             FWHM assuming a gaussian core                              [deg]
#  11 ELONGATION             A_IMAGE/B_IMAGE                                           
#  12 ELLIPTICITY            1 - B_IMAGE/A_IMAGE                                       
         1 -15.0135    201.9064    128.5504   8.8363018096e+01   1.4910570991e+01     2.945293     2.230761 -21.91   0.01395461    1.571    0.364
         2 -16.0690    150.4088    121.3824   9.7730552621e+01   2.8129066812e+01     2.943401     2.554802 -32.66   0.01466069    1.219    0.180
         3 -15.0181     11.0502     20.8021   1.1200521622e+02   6.9252906057e+01      1.64105    0.8383476 -14.57  0.009718131    2.030    0.507
         4 -12.8659     30.4466      6.3373   9.7114438822e+01   6.9139781862e+01    0.5929244    0.3382688  10.22  0.003738128    1.699    0.412
         5 -11.8106    103.9526      2.7130   7.2488763638e+01   5.6992680483e+01    0.5343779    0.2318256 -31.09  0.002666875    2.599    0.615
         6 -12.8403     73.3754      2.6503   8.0175335782e+01   6.2965251830e+01    0.4222283    0.2674835 -16.69    0.0026639    1.656    0.396
         7 -12.0538     75.4684     13.5304   8.3917793435e+01   6.1610583354e+01    0.2843119    0.2458543  20.27 0.0009429913    1.093    0.085
         8 -13.4344     85.0911      3.1253   7.7139591031e+01   6.0747692370e+01     1.153696    0.4936259  51.79  0.005914332    1.929    0.482
         9 -12.6623     95.7103      3.4062   7.4608242436e+01   5.8632563560e+01    0.5651888    0.2844784  37.03  0.002472906    1.811    0.448
        10 -12.2522     82.0241     13.9906   8.2171409309e+01   6.0369210995e+01    0.3355617    0.2507613  49.09 0.0006744618    1.310    0.237
        11 -12.8646     86.7003     11.4003   7.9877572633e+01   5.9729215929e+01    0.6058847    0.3776428  68.51  0.002177403    2.211    0.548
        12 -11.7822    123.4707     10.4929   7.1094703233e+01   5.2132286812e+01     0.292459    0.1853915  44.57 0.0008257857    1.402    0.287
        13 -11.1875    115.1320      9.5535   7.2459906783e+01   5.4050198205e+01    0.2124202    0.1581864  27.10  0.001299793    1.361    0.265
        14 -11.2796     22.3759      2.7066   9.8980833438e+01   7.0473522722e+01    0.2419992    0.1588169 -31.52  0.001731555    1.620    0.383
        15 -12.9473    203.8711    170.6109   9.7425963838e+01   6.0433563304e+00    0.9358475    0.3891452  51.60  0.003340954    2.859    0.650
        16 -13.2313    211.6941    165.8529   9.4862536759e+01   5.4182569321e+00    0.7598981    0.5262747   7.60  0.003382941    2.093    0.522
        17 -11.6264      3.0796    171.2270   1.4420842483e+02   3.8687318639e+01     0.208071    0.1413908  44.62  0.001365376    1.635    0.388
        18 -14.0783    218.2692    138.1218   8.7498831624e+01   9.4871718424e+00     1.687065     1.203037 -11.02  0.007664533    1.965    0.491
        19 -13.1284    201.6554    151.2772   9.3643786217e+01   1.0369889421e+01    0.7487413     0.523428   4.65  0.003153973    2.250    0.555
        20 -14.1537    194.1006    148.9304   9.4643930095e+01   1.2459768471e+01      1.69328    0.8032299 -30.64  0.005775772    2.884    0.653
        21 -11.6009    194.0325    248.7685   1.1390805556e+02  -6.0433096873e+00    0.2334717    0.1693905 -77.87  0.001201335    2.694    0.629
        22 -11.9459    222.0298    155.4777   9.0655122553e+01   5.3706309474e+00    0.3707036     0.331856 -53.64  0.001580553    1.150    0.131
        23 -11.3465    233.4905    154.4892   8.8373339924e+01   3.3291179224e+00    0.3178624    0.2192754 -76.30  0.001401556    2.436    0.590
        24 -11.8462    248.2837    146.6402   8.4197538879e+01   1.9894443883e+00    0.5686313    0.3900526 -77.36  0.002622559    2.438    0.590
        25 -14.3054     50.1945    142.9175   1.2926395613e+02   4.0777145994e+01    0.9390964    0.6821437  52.63  0.001822533    1.510    0.338
        26 -11.9456    184.4373    246.7174   1.1544223033e+02  -4.1489125064e+00    0.2180791    0.1269453 -49.14  0.001138011    2.085    0.520
        27 -13.3703    171.3959    158.0962   1.0157469816e+02   1.5399335253e+01    0.7280076    0.3933451  50.55  0.002898411    1.932    0.483
        28 -14.9657    177.1506    117.7768   9.0765837739e+01   2.2753326550e+01     2.081746     1.404008  20.44  0.008253765    2.351    0.575
        29 -11.8542    219.3214    157.6650   9.1635135801e+01   5.4879234985e+00    0.3016761    0.2445965  74.59   0.00155197    1.584    0.369
        30 -13.2294    111.9129    107.9591   1.0418765487e+02   3.9299144340e+01    0.5302074     0.310175 -42.33  0.002264986    1.691    0.408
        31 -12.3320    132.0612    103.4250   9.7575694994e+01   3.6071903153e+01    0.3384289    0.2771723 -16.94 0.0008902631    1.442    0.306
        32 -13.3277    141.3441     97.6460   9.3660588456e+01   3.5194129879e+01     1.256294    0.6058926  53.72  0.004710736    2.198    0.545
        33 -13.2501     34.9623    135.7212   1.3221370995e+02   4.4171927152e+01    0.4709319    0.2237829  20.16  0.002130113    2.939    0.660
        34 -11.9184     44.6026     98.0161   1.2213266256e+02   5.1910209621e+01    0.3798548    0.2713522 -16.88  0.002119204    1.651    0.394
        35 -11.8004    112.0282     96.3015   1.0097539935e+02   4.1771989543e+01    0.2161884    0.2016035  39.30   0.00115765    1.093    0.085
        36 -11.0674     55.1297     95.1457   1.1803681712e+02   5.1320361307e+01    0.2410156    0.2018303 -37.07  0.001289113    1.081    0.075
        37 -12.4457    188.8840     94.7100   8.2574390492e+01   2.4537932825e+01    0.4312201    0.2869201  62.93  0.001162507    1.564    0.360
        38 -12.9224     58.3196    145.1618   1.2746537408e+02   3.9227358650e+01    0.6640006    0.4929926  78.40  0.003114172    1.486    0.327
        39 -12.9475      4.5573     84.6217   1.3249263438e+02   5.8079330759e+01    0.4654089    0.2771038 -39.15  0.002892616    1.492    0.330
        40 -12.0130    107.2316    101.5702   1.0378181190e+02   4.1603615534e+01    0.4312274    0.2427908 -65.31  0.001582868    2.759    0.638
        41 -12.8755     30.6608     82.1006   1.2303736557e+02   5.6710332152e+01    0.3195332    0.2003366  34.31  0.001837927    1.897    0.473
        42 -11.6289    121.8338    127.2926   1.0641920980e+02   3.2941876012e+01    0.4066607    0.2847854  37.53  0.001774647    1.520    0.342
        43 -10.7932     66.3259     76.4319   1.0923089445e+02   5.3712150630e+01    0.1686398    0.1270612  41.61 0.0009365377    1.509    0.337
        44 -10.5557    250.2321     74.2647   6.8430787939e+01   1.4191083469e+01    0.1803859    0.1280273 -63.25 0.0004759961    1.275    0.216
        45 -11.2984    144.6376     73.8458   8.6127872144e+01   3.8920788207e+01    0.2413339    0.1950191  43.52 0.0004250113    1.233    0.189
        46 -12.1660    120.3997     73.5830   9.2027968843e+01   4.4429557795e+01    0.2801563    0.2463191  14.13 0.0007751501    1.202    0.168
        47 -12.7052     96.7792     71.8454   9.8133901912e+01   4.9514889918e+01    0.5688801    0.3174624  33.51  0.001545437    1.935    0.483
        48 -12.8277     59.3598     70.8984   1.0994517661e+02   5.5749720215e+01    0.2984615    0.2739185 -53.17  0.001321698    1.268    0.212
        49 -13.0028     55.1144     67.0834   1.1026568909e+02   5.7030104985e+01    0.3105406    0.2233327  33.72 0.0008017512    1.525    0.344
        50 -14.0841     38.1430     70.1703   1.1726217439e+02   5.8403617339e+01    0.9937812    0.4643809  26.46  0.004953173    2.382    0.580
        51 -12.1981    133.6628     71.2302   8.7951724112e+01   4.1906840917e+01    0.3506933      0.16102  45.42  0.001050866    2.144    0.534
        52 -10.8331     76.5046     71.4840   1.0435796626e+02   5.3114288857e+01      0.13663    0.1216067 -13.92 0.0002935938    1.027    0.026
        53 -11.7862     82.2153     69.0056   1.0173608835e+02   5.2631481465e+01    0.3497311    0.2209656  20.50  0.001678813    1.892    0.472
        54 -11.1572     83.6969     65.6935   1.0020529124e+02   5.2971846060e+01      0.21018    0.1628677  14.63 0.0002687945    1.348    0.258
        55 -12.3821     70.4730     68.3378   1.0536727670e+02   5.4638259300e+01    0.3273088    0.2175961  48.22  0.001701477    1.843    0.457
        56 -11.6073     18.9783     72.4158   1.2481283885e+02   5.9653809905e+01    0.2033487    0.1530477 -67.26 0.0005971592    1.446    0.308
        57 -12.0335    125.4814     57.4529   8.5738649255e+01   4.6001966290e+01    0.2988335     0.241501  46.77 0.0002745648    1.170    0.145
        58 -10.0815    174.9532     56.4656   7.5109811145e+01   3.4428949088e+01    0.2188583    0.1340001  63.09  0.001015158    1.549    0.354
        59 -10.9613    137.1663     55.8226   8.2475118251e+01   4.3594815818e+01    0.2091631    0.1912922  86.75 0.0004408815    1.176    0.150
        60 -10.9160    133.1526     53.7005   8.2742251743e+01   4.4837108346e+01    0.2406018    0.2108596  53.39 0.0008005268    1.079    0.073
        61 -11.7032    210.9790     54.1677   6.8954861405e+01   2.6077495063e+01    0.2087344    0.1834723 -61.24 0.0004069914    1.106    0.096
        62 -12.3885     67.3663     53.6662   1.0160476295e+02   5.7670156108e+01    0.3813894    0.3287417  85.01  0.002264619    1.885    0.469
        63 -11.8071    145.5439     50.7973   7.9139152486e+01   4.2371443695e+01    0.2642309    0.2402817  62.90 0.0006355771    1.036    0.035
        64 -11.9021     79.8764     48.2532   9.5555650769e+01   5.6493977706e+01    0.3754378    0.1896143 -30.56 0.0009937958    2.032    0.508
        65 -12.7459     42.2174     47.6920   1.0872433068e+02   6.2033957479e+01    0.3219817    0.2672782   8.19 0.0009052767    1.185    0.156
        66 -12.6004     41.8231     42.6319   1.0710723987e+02   6.2902181055e+01    0.5283436    0.2856242  10.77  0.002544952    2.320    0.569
        67 -10.6749     92.8719     52.8477   9.3107920289e+01   5.3446433201e+01    0.2027747    0.1651821  14.17 0.0004940343    1.209    0.173
        68 -12.3890      2.7055     46.2460   1.2421972389e+02   6.5688161189e+01    0.4381427    0.2673247 -53.79  0.001940931    1.436    0.304
        69 -12.1341    187.7728    232.9988   1.1257536211e+02  -2.4816038127e+00    0.3423441    0.1462961  48.03  0.001419438    2.474    0.596
        70 -11.4759    194.5939    229.3265   1.1060257653e+02  -3.0399384500e+00    0.2434185    0.1281634 -47.93  0.001146872    2.210    0.548
        71 -11.4966    156.9163     44.0411   7.4921119930e+01   4.0590935490e+01    0.2225184    0.2048716  45.05 0.0005393154    1.125    0.111
        72 -11.3108     28.0218    126.0018   1.3258388318e+02   4.7128326585e+01    0.2044024    0.1417028  77.68  0.001142606    1.694    0.410
        73 -12.6833     70.1345     35.1752   9.4013867575e+01   6.0003657420e+01    0.4043587    0.2887597  22.03  0.001780262    1.304    0.233
        74 -11.6032     82.4955     33.9013   8.9561288049e+01   5.8041543923e+01    0.3350021    0.2681138 -12.42 0.0008871674    1.216    0.178
        75 -11.4947     79.6237     30.1559   8.9057288486e+01   5.9028040405e+01    0.2808495     0.170965 -21.99  0.001137356    1.694    0.410
        76 -10.5839    148.0204     33.9742   7.3655522186e+01   4.4010614075e+01    0.2012124    0.1792488  59.51            0    1.018    0.018
        77 -10.4828    176.4637     33.4692   6.8731999762e+01   3.7217775184e+01    0.1363069    0.1200678  79.26 1.359023e-05    1.008    0.008
        78 -11.0545    140.9915     31.4466   7.4240405371e+01   4.5970358599e+01    0.1788812    0.1747022  44.53 9.738043e-05    1.098    0.089
        79 -10.6546     41.6375     32.7260   1.0351995047e+02   6.4427997158e+01    0.1221117    0.0768467  -2.25 0.0004741521    1.661    0.398
        80 -12.3735     83.5398     22.8193   8.5106371749e+01   5.9172481465e+01    0.3428068    0.2837231  39.27  0.000759856    1.161    0.139
        81 -11.5438     63.5965     17.4351   8.9286347586e+01   6.3232138315e+01    0.4010448    0.2165604  48.04  0.002214608    1.945    0.486
        82 -11.4099    205.4900    229.4907   1.0849447283e+02  -4.9126605105e+00    0.1312579    0.1141081  16.01 0.0008105091    1.012    0.012
        83 -11.1340    192.3242    217.3256   1.0895355540e+02  -5.8111421024e-01    0.1405662    0.1022224   3.41 0.0007048634    1.690    0.408
        84 -11.9880    201.0827    211.7486   1.0617969745e+02  -1.1584930665e+00    0.4757608    0.2895353 -61.09  0.002095185    2.606    0.616
        85 -11.8459    211.5800    197.3394   1.0135393418e+02  -4.7648698713e-01    0.4762109    0.2398086  30.72  0.002001831    2.269    0.559
        86 -11.6513     71.5102    198.4861   1.3216310785e+02   2.4606932861e+01    0.1366525    0.1155952  82.51 0.0003622589    1.001    0.001
        87 -12.2535    187.4179    195.2433   1.0583591191e+02   4.4312595996e+00    0.4381434    0.3317135  63.91  0.001659535    1.640    0.390
        88  -9.7148    237.9715    189.0000   9.4725444946e+01  -3.6513085277e+00    0.2084649   0.07504234  42.35 0.0007995696    2.923    0.658
        89 -11.9574     33.5681    177.6172   1.3813005366e+02   3.4338891029e+01    0.2458735    0.2167719 -18.31   0.00159496    1.650    0.394
        90 -11.3079    240.7782    171.1190   9.0594574158e+01  -1.0269776320e+00     0.342498    0.2714068 -55.52  0.001905606    1.455    0.313
