#   1 NUMBER                 Running object number                                     
#   2 MAG_AUTO               Kron-like elliptical aperture magnitude                    [mag]
#   3 X_IMAGE                Object position along x                                    [pixel]
#   4 Y_IMAGE                Object position along y                                    [pixel]
#   5 X_WORLD                Barycenter position along world x axis                     [deg]
#   6 Y_WORLD                Barycenter position along world y axis                     [deg]
#   7 A_WORLD                Profile RMS along major axis (world units)                 [deg]
#   8 B_WORLD                Profile RMS along minor axis (world units)                 [deg]
#   9 THETA_WORLD            Position angle (CCW/world-x)                               [deg]
#  10 FWHM_WORLD             FWHM assuming a gaussian core                              [deg]
#  11 ELONGATION             A_IMAGE/B_IMAGE                                           
#  12 ELLIPTICITY            1 - B_IMAGE/A_IMAGE                                       
         1 -13.1895    119.5017     38.9334   3.4759125052e+01   5.0435981338e+01     1.927287    0.6430135 -31.04  0.005740651    3.174    0.685
         2 -12.5146    160.0639     29.8204   2.3000916972e+01   4.1726303602e+01    0.5207159    0.4532551  27.54 0.0004916791    1.270    0.213
         3 -12.0897    164.3501     27.6667   2.1605276472e+01   4.0898762496e+01    0.3143744    0.2965318  88.45 0.0004728056    1.055    0.052
         4 -12.3078    104.8994     13.0593   2.8771697129e+01   5.6852158079e+01    0.5545323    0.3971532 -15.45  0.001919958    1.490    0.329
         5 -12.2417    113.5714     24.9439   3.1151051597e+01   5.3604515906e+01    0.6670702    0.3002962  49.65  0.001920642    1.957    0.489
         6 -11.8110     26.4724     28.2204   6.4236309326e+01   6.7602462617e+01    0.5104195    0.2850401 -42.64  0.001705523    1.517    0.341
         7 -11.9828     20.1929     22.1899   6.4868820322e+01   6.9174997611e+01    0.5620849    0.2784379 -33.99    0.0019166    1.663    0.399
         8 -11.4692    122.4073      5.5435   2.1937318403e+01   5.3556371371e+01    0.5403099    0.3400358 -45.37  0.002796161    1.939    0.484
         9 -11.6483    135.1401     14.7456   2.2678578422e+01   4.9634471828e+01     0.701333    0.3798906  59.18     0.003337    1.608    0.378
        10 -11.1367    178.8943     20.7926   1.7351261228e+01   3.7998688185e+01    0.5690815    0.2681671  43.73  0.002318693    2.515    0.602
        11 -10.7900    105.4015      2.4482   2.4443690403e+01   5.7722863321e+01    0.4134802    0.2927947 -60.99  0.002236552    2.045    0.511
        12 -11.9037     47.8693     12.9301   4.7849765151e+01   6.7383075297e+01    0.6609665    0.2932552  38.02  0.003375336    2.225    0.551
        13 -11.8071     35.5619     17.8879   5.5641912958e+01   6.8290295176e+01    0.5811211    0.2248003 -33.49  0.002153614    2.363    0.577
        14 -10.1558     12.2877      8.2799   6.2970668110e+01   7.2028845462e+01    0.4324044    0.2601663 -56.52   0.00252169    2.579    0.612
        15 -12.1797     16.3348     13.9006   6.3341444568e+01   7.0833192592e+01    0.6810914    0.2946491 -25.57  0.003473176    2.397    0.583
        16 -11.7108     22.5340     11.2182   5.8940337057e+01   7.0671004648e+01    0.4198421    0.2509532  -6.01  0.002114159    1.655    0.396
        17 -11.6263    127.6078     16.0924   2.4669144312e+01   5.1315584341e+01    0.8136688    0.3871377  54.74  0.003667736    1.795    0.443
        18 -11.4737     68.3371     18.5237   4.2314456845e+01   6.3459355774e+01    0.4232901    0.3388853  -8.14  0.001917126    1.133    0.117
        19 -10.8394      5.9316     10.5011   6.7424043277e+01   7.2162231507e+01    0.4426962     0.309377  -1.55   0.00326291    1.337    0.252
        20 -11.6013     86.2327     14.1169   3.4407557991e+01   6.0658328057e+01    0.5050529    0.4133835 -19.01  0.001896018    1.272    0.214
        21 -10.4226     87.4763      7.4334   3.1175557660e+01   6.1096317913e+01    0.5304317    0.2828195  54.05  0.002137852    1.775    0.436
        22 -10.8078    225.6685     14.3065   1.0327014499e+01   2.7229430951e+01    0.3111399    0.1953062 -43.67 0.0008844848    1.497    0.332
        23 -10.2798    148.1036     16.2254   2.0787240631e+01   4.6282171948e+01    0.4466299    0.2072443  42.48  0.001707838    2.286    0.562
        24 -12.0293    135.7045     22.6483   2.5283124542e+01   4.8651329593e+01    0.9514136    0.3598758  50.63  0.003739907    2.289    0.563
        25 -11.7034    192.2866      8.8156   1.2380341037e+01   3.5918066344e+01    0.6867592    0.4174582  16.87   0.00307841    2.882    0.653
        26 -10.9141    218.5412      3.8773   8.5441978602e+00   3.0044573474e+01    0.3693648    0.2065082  72.24 0.0009441237    1.601    0.376
        27 -11.3674    224.0493      2.6082   7.7824658805e+00   2.8884196028e+01    0.4830684    0.2521878 -88.91 0.0003799266    1.864    0.464
        28 -10.7274    211.2521     11.1628   1.0965145720e+01   3.1012204985e+01    0.3467323    0.2472769  53.55  0.001257197    1.533    0.348
        29 -11.0879    213.4042      5.8021   9.4621523015e+00   3.1066196503e+01    0.3048384    0.2615222  27.37  0.001898202    1.577    0.366
        30 -12.1989    105.8121     20.7874   3.1566646063e+01   5.5818439162e+01    0.3659639      0.34935 -56.18 0.0006417663    1.273    0.215
        31 -11.2495    169.7796      9.3345   1.5312786665e+01   4.1518898511e+01    0.4641032    0.1981296  56.35  0.002007706    2.036    0.509
        32 -11.1375    163.5239      6.5433   1.5351554503e+01   4.3363050224e+01    0.5475752    0.3146965  -9.11  0.002585816    2.366    0.577
        33 -11.4578    228.7772     15.8217   1.0389477390e+01   2.6330140381e+01    0.4041957    0.2541033  70.46  0.001094401    1.502    0.334
        34 -10.4429    145.2497      9.7408   1.9165166369e+01   4.7636194713e+01    0.2415822    0.1958398  42.61 0.0003008336    1.203    0.169
        35  -9.6531     66.5611     10.2713   3.9232535674e+01   6.4747652269e+01    0.2664915    0.1181965  35.81  0.001269085    2.120    0.528
        36 -10.2360      1.0000      8.2428   6.9202069847e+01   7.2838100909e+01    0.3446932   0.08549663 -49.82   0.00157463    3.140    0.682
        37 -10.9079      2.5740      1.9467   6.5482028720e+01   7.3704033865e+01    0.3199759    0.1739715  -5.31   0.00206587    1.804    0.446
        38 -10.9000    246.6406      7.3166   7.0366982852e+00   2.3265827972e+01    0.2833138    0.1914734 -15.26  0.001589454    2.170    0.539
        39 -10.3087    232.8061      7.3301   8.1214407798e+00   2.6359036311e+01    0.2830677    0.1780311 -82.15  0.001258831    1.460    0.315
        40 -11.5817    234.1143      3.1213   7.0892275902e+00   2.6516248939e+01    0.5607485    0.2561222 -69.83  0.002063452    2.347    0.574
        41 -11.0437    185.4955      7.4487   1.2796055353e+01   3.7751067785e+01    0.2553879    0.2099703 -88.00 0.0007764501    1.096    0.088
        42 -10.7806    183.6609      4.6657   1.2255373431e+01   3.8482056021e+01    0.4787663     0.252471  40.84  0.002172612    2.388    0.581
        43 -10.4748    147.6604      5.1692   1.7286597207e+01   4.7457418340e+01    0.4146307    0.2030464 -87.93  0.001552391    3.258    0.693
        44  -9.9733    157.1847      3.4231   1.5303390772e+01   4.5237421562e+01    0.2170569    0.1859088 -64.39 0.0009010137    1.248    0.199
        45 -10.3303    152.5282      1.4419   1.5363498926e+01   4.6571088045e+01    0.3270073    0.1167645  68.85 0.0007915686    2.458    0.593
        46 -10.1815    156.7782      8.0129   1.6775751841e+01   4.4920625050e+01    0.2584358    0.1880685  26.97   0.00139431    1.628    0.386
        47 -10.2319    152.5137      7.4992   1.7266957068e+01   4.6036775591e+01    0.3860439    0.1276363  53.89  0.001495608    2.491    0.599
        48 -10.1495     62.1185      7.7607   3.9689342206e+01   6.5785485385e+01     0.224673    0.1549375  -9.71 0.0006917326    1.359    0.264
        49  -8.8201     77.8291      7.5758   3.4174384208e+01   6.2980583566e+01     0.286534    0.2026423  77.31  0.001339069    2.480    0.597
        50  -9.8871     76.8187      3.3855   3.2603876197e+01   6.3581309969e+01    0.2866589    0.1809454  30.45  0.001039174    1.402    0.287
        51 -10.4486     73.0019      3.2585   3.3770748281e+01   6.4313938593e+01    0.3365615    0.1964019  22.62  0.001828053    1.700    0.412
        52 -10.7885    176.5187      5.8849   1.3448448007e+01   4.0155481404e+01    0.4215911     0.195158  73.12  0.001094686    1.956    0.489
        53 -11.2396    205.8994      2.8843   9.4606261311e+00   3.3172918716e+01    0.4512078    0.2883322  76.22  0.002497273    1.373    0.272
        54 -11.7124    133.9545      2.6656   1.8742608515e+01   5.1038792232e+01    0.4343069    0.3006105  64.86  0.002412865    1.272    0.214
        55  -9.4695    128.6768      1.3029   1.9213829656e+01   5.2423322366e+01      0.18334    0.1267995  83.90 0.0005593573    1.614    0.380
        56 -11.3594    113.7768      2.4222   2.2566749126e+01   5.5830823585e+01    0.4911053     0.280461  69.92  0.001679112    1.838    0.456
        57 -10.2223     41.7672      4.0214   4.6168907370e+01   6.9338941122e+01    0.2731604    0.1587681  -4.14  0.000857833    1.792    0.442
        58 -10.4871    141.4179      3.3749   1.7710797071e+01   4.9156294681e+01    0.3543387    0.2291527  71.68  0.001738575    1.429    0.300
        59  -9.4983     25.7727      3.6961   5.3636841642e+01   7.1375886030e+01    0.1488091    0.1149715  -0.85  0.001083008    1.092    0.084
        60 -10.7290     22.1212      2.9775   5.5152675884e+01   7.1863650091e+01     0.192425    0.1360179  -0.47 0.0004671493    1.163    0.140
        61 -10.5405    243.4478      2.5835   6.2740662741e+00   2.4486827917e+01    0.3321578    0.1785062  56.21  0.001760065    2.154    0.536
        62  -9.8677     13.2506      2.0495   5.9457230558e+01   7.2848257469e+01    0.2002362    0.1197635  -7.25  0.001010072    1.524    0.344
        63 -12.9421    164.3100     18.5020   1.8831875477e+01   4.1956938091e+01    0.5592464     0.301311  40.64  0.001519315    2.123    0.529
        64 -10.9535    121.3674     11.8398   2.4457170337e+01   5.3220350229e+01    0.7099279    0.3140927  58.55  0.003128513    1.963    0.491
        65 -11.4975     22.7674    136.6296   8.9571388860e+01   4.4416999112e+01    0.5007884    0.3319502  56.79  0.002986029    1.593    0.372
        66 -11.0012     29.9626    133.1018   8.7228619739e+01   4.4617612856e+01    0.3572096    0.2577339 -34.08 0.0007632198    1.747    0.427
        67  -9.5849     47.4446    135.0490   8.2757677672e+01   4.2379202605e+01    0.2059119     0.114564 -67.21   0.00101645    1.560    0.359
        68 -10.0828    103.9292    131.2583   6.6371805535e+01   3.5047997499e+01    0.2388767    0.2057552 -59.57 0.0006375375    1.122    0.108
        69  -9.3053     62.7605    131.2385   7.7877996177e+01   4.1452698227e+01    0.2330963   0.08614586 -52.46 0.0008912615    2.455    0.593
        70  -9.5285     92.9879    129.6833   6.9062821714e+01   3.7328089066e+01    0.2109866    0.1947182  62.12  0.001168049    1.106    0.096
        71  -9.9683     73.1768    133.3027   7.5329362160e+01   3.9531829916e+01    0.3512696    0.1944233 -41.87  0.001527682    2.100    0.524
        72 -11.2478     10.4703    127.6960   9.1781328632e+01   4.7453553948e+01    0.5412076    0.2600997 -59.05  0.001931772    1.725    0.420
        73 -10.2856     26.9940    126.3551   8.7140217273e+01   4.6481970866e+01    0.3397239    0.1216221 -60.34 0.0008512927    2.173    0.540
        74  -9.3412     22.7378    127.0040   8.8396661475e+01   4.6686936649e+01    0.1741774    0.1313027 -76.03 0.0004095187    1.082    0.075
        75  -9.9299      2.3210    125.9451   9.3739392463e+01   4.8390388631e+01    0.2616444    0.1473125  76.37   0.00143699    1.825    0.452
        76  -9.7372     33.1242    125.9192   8.5371458241e+01   4.6034855738e+01    0.2239152     0.129095  79.39  0.001082864    2.119    0.528
        77 -12.0887    103.8373    122.3743   6.4400154588e+01   3.7167295151e+01    0.3565745    0.3311489  65.31  0.001938541    1.104    0.095
        78  -9.0978     78.4608    123.4507   7.1894938648e+01   4.1138605762e+01    0.1430726    0.1316407 -70.54 0.0001144706    1.011    0.011
        79 -10.1221     49.7907    123.1502   8.0175461290e+01   4.4982648958e+01    0.2417581    0.1957306  -0.74  0.001392128    1.616    0.381
        80  -9.2813     56.5042    122.4700   7.8101643104e+01   4.4359297881e+01    0.1371087    0.1204925 -75.40 0.0006632284    1.042    0.040
        81 -10.0359     48.8503    112.3842   7.8520010010e+01   4.7668745123e+01     0.455359    0.2303156 -44.64  0.002091574    1.999    0.500
        82 -10.3757     44.8370    119.8455   8.1055288136e+01   4.6319964010e+01    0.2905222    0.2109137  85.08 0.0007057982    1.496    0.332
        83 -10.3188     43.5407    116.4869   8.0861748444e+01   4.7260447133e+01    0.2311526    0.2193617  75.95 0.0007331545    1.155    0.134
        84 -12.4390      2.6090    111.6664   9.2114900901e+01   5.1645878778e+01    0.5644125    0.3245161  78.71 0.0007419069    1.877    0.467
        85 -11.3340      5.0279    105.1266   9.0615397655e+01   5.3004920653e+01    0.3484235    0.2981979  17.28  0.002522697    1.504    0.335
        86  -9.6669     37.6654    115.6884   8.2474278390e+01   4.8041856169e+01    0.2133845    0.1285479 -42.15  0.001103232    1.760    0.432
        87  -9.8686     79.0187    114.6412   6.9840952336e+01   4.3164353842e+01     0.280226    0.1965668 -49.14 0.0008759214    1.338    0.253
        88  -9.3790     58.1713    114.9917   7.6192465843e+01   4.5952876031e+01    0.2326044    0.1500862  88.16  0.001080658    2.049    0.512
        89 -10.6360     15.3242    108.8502   8.8067586134e+01   5.1499159652e+01    0.3466646    0.2733307  -8.93 0.0006881231    1.642    0.391
        90 -10.9774     29.9193     97.4711   8.1688118029e+01   5.3027256167e+01    0.5667905    0.2934335 -50.36   0.00292809    1.638    0.390
        91 -11.9060     27.4990     85.0393   8.0075722070e+01   5.6068724386e+01    0.6528897    0.5008695   7.39  0.004126252    1.566    0.361
        92 -12.8713     17.6908    100.2849   8.6068080167e+01   5.3318125038e+01    0.3292233    0.3215435  24.04 0.0006363863    1.268    0.211
        93 -11.9561      9.7881     97.4224   8.8102812365e+01   5.4487182877e+01    0.4672823    0.4305432 -36.41  0.000679281    1.254    0.203
        94 -10.6038     35.2825     92.5997   7.8976548602e+01   5.3679634449e+01    0.3822463    0.2176105 -67.77  0.001530843    1.630    0.386
        95 -12.1039     42.8323     85.1426   7.4771412265e+01   5.4646021178e+01     0.807182    0.3781127  16.19  0.003033777    2.971    0.663
        96 -11.6687     25.7359    106.9099   8.4635672240e+01   5.1173490384e+01      1.32697    0.6902395  -6.76  0.005879537    3.469    0.712
        97 -11.3718     23.1375     94.5772   8.3368757867e+01   5.4237053513e+01    0.3226039    0.2823876  18.36  0.001085338    1.390    0.281
        98 -10.9080     17.7489     90.5646   8.4431218625e+01   5.5540365826e+01    0.4485659    0.2776205 -81.05  0.001791853    1.654    0.395
        99 -11.2292     21.6052    114.4578   8.7016200534e+01   4.9730174980e+01    0.4351973    0.2590709   1.36  0.002129207    2.517    0.603
       100 -11.1632     28.1265    113.2247   8.4913166391e+01   4.9491637931e+01    0.3111322    0.2540531 -22.79 0.0007521396    1.491    0.329
       101  -8.8932    104.2916    112.6806   6.1946668022e+01   3.9350259212e+01    0.1513532    0.1189136  87.50 0.0002377564    1.604    0.377
       102  -8.9771     93.7064    112.3662   6.4949772661e+01   4.1319252530e+01    0.1528016    0.1155658  88.00 0.0005610231    1.715    0.417
       103  -9.8693     67.3490    110.0231   7.2364924241e+01   4.5946450491e+01    0.3007702    0.1967987 -43.15  0.001490064    1.515    0.340
       104 -11.1013     79.8693    108.2798   6.8129030834e+01   4.4539596875e+01    0.4462632    0.3401855  22.95 0.0009841174    1.521    0.342
       105  -8.9838    120.7859    108.9657   5.6350255595e+01   3.6964110437e+01    0.2825833    0.1762315   6.30 0.0009011861    3.672    0.728
       106  -9.6764    101.9476    109.4821   6.1825348043e+01   4.0522725431e+01    0.2250721    0.1501157  38.28 0.0006337411    1.572    0.364
       107  -9.2589    143.5112    106.0223   4.9559124637e+01   3.2676613235e+01    0.2241937    0.1365339 -66.03 0.0008092346    2.447    0.591
       108  -8.9562    118.4072    105.4831   5.6088222842e+01   3.8230437816e+01     0.152806    0.1472639 -54.58 0.0001154311    1.025    0.025
       109  -9.4766    182.8374    104.4861   4.0094224398e+01   2.3744560657e+01    0.2234133    0.1543491  52.70 0.0004412366    1.468    0.319
       110  -9.9152     86.0105    103.8266   6.5169931067e+01   4.4602454404e+01     0.240223    0.2038856  28.03 0.0007311631    1.281    0.219
       111  -9.1112     57.3133    104.3333   7.4266715580e+01   4.8591626015e+01    0.1429207   0.09558815 -33.54 0.0007045383    1.682    0.406
       112  -9.3419     64.7191    101.6881   7.1324014650e+01   4.8265192348e+01    0.2507715    0.1514257 -52.57 0.0001970978    1.469    0.319
       113 -12.0371     68.6090     95.7819   6.8662663945e+01   4.9101950710e+01    0.3618578    0.3033715   3.52  0.000457793    1.375    0.273
       114 -10.6673     51.8775     99.2718   7.4915160193e+01   5.0423279355e+01    0.6642715    0.1880253 -49.22  0.002360345    3.020    0.669
       115  -8.7355    120.2873    101.3488   5.4446876783e+01   3.8755976783e+01    0.1575162    0.1223943  -9.93 0.0003237695    1.659    0.397
       116 -10.3933     81.0229     98.2422   6.5309593588e+01   4.6689653399e+01    0.2590114    0.2249817  64.89 0.0005260161    1.323    0.244
       117 -10.2519     82.8185     93.3809   6.3470039172e+01   4.7505268403e+01    0.3147906    0.1762252  33.19 0.0008040671    1.959    0.489
       118 -10.7659     78.4874     93.1400   6.4792158988e+01   4.8245652151e+01    0.4959673    0.3850568 -43.83  0.002642744    1.196    0.164
       119  -8.5451    210.0068     98.0000   3.3208232214e+01   1.8529493889e+01    0.2367044    0.0860282  54.54  0.000656242    2.869    0.651
       120 -10.6755     42.9077     94.6500   7.6864442183e+01   5.2469477118e+01    0.3610607    0.2686522 -51.42     0.002116    1.152    0.132
       121 -12.1465    125.8131     94.7416   5.1077385931e+01   3.9006102120e+01    0.3031105    0.2877535  26.74 0.0002885687    1.073    0.068
       122 -10.4555    121.7783     93.9571   5.1965300151e+01   4.0038104332e+01    0.5836689    0.2451702 -53.32   0.00191287    2.927    0.658
       123 -10.4814     98.4881     91.0675   5.7939339158e+01   4.5301858850e+01    0.2644541    0.2374182  43.77 0.0004594501    1.171    0.146
       124 -11.4515     89.9422     88.5866   5.9891603831e+01   4.7374484397e+01    0.6729532    0.3335382 -41.22  0.001841211    1.996    0.499
       125 -10.3996     49.1829     91.4428   7.4057525007e+01   5.2537241166e+01    0.2870081    0.2702515  15.51  0.001316519    1.206    0.171
       126 -11.7403      6.9719     88.8357   8.7693003816e+01   5.6593171334e+01    0.4809766    0.3544059   7.54  0.002342919    1.724    0.420
       127 -10.0249     66.4475     88.6387   6.7563519692e+01   5.1023798579e+01     0.335582    0.2170165 -12.79  0.001211601    2.263    0.558
       128  -9.8056    104.2807     87.3129   5.5103195091e+01   4.5013357986e+01    0.2615424    0.2252768  -9.90 0.0007604306    1.266    0.210
       129 -11.0091    143.1871     84.6267   4.3593357373e+01   3.7133167392e+01    0.2672309    0.2540662 -38.52 0.0002786693    1.059    0.055
       130  -9.2051    133.4321     84.9078   4.6170411854e+01   3.9335600218e+01    0.2033955    0.1326573 -65.41 0.0005608675    2.177    0.541
       131  -9.9646    120.7497     83.5749   4.9208511933e+01   4.2414110973e+01    0.5711827    0.2185625 -51.08  0.001795103    3.246    0.692
       132 -10.5545     80.1389     84.1046   6.1778646863e+01   4.9985954458e+01    0.3972388    0.3531429  -5.85  0.002261072    1.174    0.148
       133 -11.0560     76.2991     80.0167   6.1879712650e+01   5.1472826105e+01    0.6559377    0.2966417 -52.73   0.00152653    2.193    0.544
       134 -10.3776     72.7833     77.8341   6.2435020946e+01   5.2476352524e+01    0.3419121    0.2422487 -54.50   0.00177018    1.412    0.292
       135 -10.3330    112.9516     82.5159   5.1111531848e+01   4.4275690418e+01    0.2748829    0.2589314  -2.38 0.0003648214    1.068    0.063
       136  -9.9619     67.0801     81.7751   6.5507389936e+01   5.2455899812e+01    0.3442595    0.2614277   2.25  0.001840354    1.565    0.361
       137 -11.4099     58.7468     77.8107   6.7308879813e+01   5.4437107067e+01    0.4802473    0.3908414 -35.82  0.002201305    1.114    0.102
       138 -11.4252     53.3961     76.0839   6.8739940385e+01   5.5474728977e+01    0.6081283    0.5089414  28.35  0.003701292    1.337    0.252
       139  -9.9058      1.3606     80.5214   8.8244190837e+01   5.8728345403e+01    0.2153456   0.07775061 -63.38 0.0005074748    1.955    0.489
       140  -9.5792     92.1445     72.1103   5.4243740681e+01   5.0433482944e+01    0.2695946    0.2339408 -84.20  0.001442184    1.503    0.335
       141 -10.3721     93.2792     76.7834   5.5343288747e+01   4.9281811993e+01    0.6893325    0.4000194  25.08  0.002601839    2.203    0.546
       142 -10.0334     87.9947     77.4591   5.7249835838e+01   5.0084403349e+01    0.3092321    0.2168815  29.30  0.001393015    1.533    0.347
       143 -10.0151    233.3441     77.8761   2.4554574140e+01   1.6595988976e+01     0.237957    0.1937255  88.01 0.0007679803    1.323    0.244
       144 -11.6329     13.1066     73.8153   8.2899787353e+01   5.9571970867e+01    0.5584868    0.3718371 -67.85  0.003229639    1.322    0.243
       145 -10.0920     14.4315     67.4877   8.1078909381e+01   6.0858836292e+01    0.3883103    0.1694878  14.00  0.001951123    2.859    0.650
       146  -8.9138     19.3419     76.2645   8.1141425246e+01   5.8631641267e+01    0.1248098   0.07509435 -36.39 0.0006977278    1.598    0.374
       147  -8.9327    112.4806     75.4966   4.9085045640e+01   4.5779239960e+01    0.1478596    0.1445296 -12.54 0.0001520598    1.031    0.030
       148  -9.7921    103.5224     74.7381   5.1514069711e+01   4.7748871313e+01    0.3120187    0.2439249  64.23  0.001539537    1.593    0.372
       149  -9.8160     24.5996     74.2888   7.8797438506e+01   5.8682840678e+01     0.261856    0.1348818 -51.82  0.001204066    1.524    0.344
       150 -11.2565     35.1189     71.8192   7.4311368767e+01   5.8334028407e+01    0.4489718     0.247184  32.57  0.002258547    2.096    0.523
       151  -9.9963     41.0110     73.0200   7.2433330853e+01   5.7505627393e+01    0.2609576    0.2113398 -51.90 0.0007006348    1.103    0.094
       152 -11.3352     40.5877     69.1394   7.1560824176e+01   5.8379369106e+01    0.2873429    0.2330373  23.16 0.0009278043    1.399    0.285
       153 -10.9981      2.0356     71.7514   8.6518662121e+01   6.0611222450e+01     0.358068    0.1445481 -60.48  0.001539725    1.763    0.433
       154 -10.8440    187.0815     71.5503   3.0356748901e+01   2.8710102719e+01    0.5019574    0.3405968 -41.47  0.001814349    1.455    0.313
       155  -9.5154    153.5162     72.5261   3.7515205947e+01   3.6911744567e+01     0.278255    0.1337905  43.35 0.0008558154    2.198    0.545
       156 -11.3680    123.1069     68.8454   4.3969853424e+01   4.4746353019e+01    0.5209253    0.2938617  45.36  0.002209643    1.747    0.428
       157 -10.7638     78.9853     67.8502   5.7249683222e+01   5.3560813463e+01     1.248482    0.5592859 -60.10  0.003890942    4.506    0.778
       158 -11.0724     82.9667     47.2426   4.8759072127e+01   5.6671495034e+01    0.6485582    0.3930042   4.03 0.0006999737    2.566    0.610
       159 -12.4507     74.1234     51.4071   5.3370608837e+01   5.7461943528e+01    0.7096224     0.374996 -53.55   0.00184634    2.522    0.604
       160 -11.1342     72.5287     47.5026   5.2525379533e+01   5.8407286335e+01    0.2333027    0.1973033  15.16 0.0002335137    1.140    0.123
       161 -10.4544    219.8530     66.8754   2.3785567372e+01   2.1458257367e+01    0.4547955      0.21186  66.87  0.001809918    2.393    0.582
       162  -9.3106     52.1581     65.8371   6.6268018132e+01   5.7788285338e+01    0.1809254    0.1384679 -19.60 0.0005879839    1.312    0.238
       163  -9.4873     25.9499     65.6985   7.6247371077e+01   6.0427551725e+01    0.1554689    0.1413316 -26.74 0.0004124894    1.154    0.133
       164 -12.7669      6.6692     61.6864   8.2798158427e+01   6.2532627376e+01    0.6510978    0.4324643 -29.73  0.004258599    1.465    0.318
       165  -9.1388     66.2775     74.6339   6.3750982299e+01   5.4103585923e+01    0.1325663    0.1078612 -84.03 0.0006763774    1.677    0.404
       166 -11.0435     92.7370     62.9031   5.1041312799e+01   5.2104849363e+01    0.6808858    0.3589439  56.74  0.002656717    2.803    0.643
       167 -10.0410     92.1455     57.4182   4.9356543005e+01   5.3220788761e+01    0.3002249    0.2251227  66.73  0.000942178    1.904    0.475
       168 -10.4402     88.0742     56.1259   5.0238984157e+01   5.4207182232e+01    0.5247892     0.187342 -37.50   0.00152487    2.819    0.645
       169  -8.7344     21.2594     65.5963   7.8032113337e+01   6.0803796439e+01    0.1163402    0.0882032 -89.59 0.0006960611    1.724    0.420
       170 -10.1210    158.0735     55.3098   3.1276073998e+01   3.8666690670e+01     0.437415    0.4052821 -76.22  0.002386033    1.124    0.110
       171 -10.1766    157.5115     63.4841   3.3893464601e+01   3.7485328262e+01    0.4619204    0.2105859  42.68  0.001604747    2.434    0.589
       172  -9.8717    154.9815     60.9421   3.3664018302e+01   3.8536615204e+01    0.2199896    0.2119798  80.15  0.001199345    1.042    0.040
       173 -10.1985     58.6905     63.1585   6.3005528345e+01   5.7506786039e+01    0.3338441    0.2770469  86.42  0.001432732    1.803    0.445
       174  -9.6712     64.4301     61.5434   6.0367587837e+01   5.7038807402e+01    0.4370851    0.2598267  27.26  0.002179523    1.835    0.455
       175  -8.7542     51.1245     56.6402   6.3798803019e+01   5.9761989329e+01    0.4748464    0.3399701  64.36  0.002432381    2.461    0.594
       176 -10.8012     51.8901     48.2223   6.0651636866e+01   6.1266503089e+01    0.7331244    0.2733192  27.85  0.002984859    3.153    0.683
       177 -10.9463     40.5267     56.9555   6.8072663085e+01   6.0899532741e+01    0.7803072    0.4454858 -13.64  0.002933769    2.337    0.572
       178 -10.2357     50.8056     61.5648   6.5481528389e+01   5.8822050417e+01    0.3180293    0.2243617  37.22  0.001542205    1.640    0.390
       179 -11.6991     44.0371     43.9764   6.2343665237e+01   6.2997467526e+01    0.5410707    0.2781369 -49.22  0.002751401    1.874    0.466
       180 -11.4258     39.9716     44.0327   6.4064254887e+01   6.3442902659e+01    0.5572407    0.3021035  11.06  0.002246941    2.314    0.568
       181 -11.1990     43.1503     62.3157   6.8654320647e+01   5.9537397969e+01    0.2919383    0.2024123 -39.11 0.0005068742    1.232    0.189
       182 -10.8893     45.9934     58.9934   6.6544743125e+01   5.9898508767e+01    0.2999194    0.2187526 -53.62 0.0009618844    1.356    0.263
       183  -9.8349    105.7212     63.4424   4.7177196784e+01   4.9462122906e+01    0.2773254    0.1419119  49.47  0.001136992    2.054    0.513
       184 -11.1755    234.6022     60.7986   2.0308810888e+01   1.8967339933e+01    0.3996295     0.301446  76.41  0.002189425    1.372    0.271
       185  -9.6520     84.8560     61.6300   5.3207371100e+01   5.3771251085e+01    0.2566963    0.2203832  73.90  0.001404473    1.593    0.372
       186 -10.5308    109.8439     40.7024   3.7990205723e+01   5.2340258516e+01    0.5623958    0.4617528  -1.03  0.002804666    1.269    0.212
       187 -10.7299    112.3916     50.7937   4.0886893810e+01   5.0231918039e+01    0.3185977    0.2796099 -16.30 0.0007298469    1.143    0.125
       188 -11.4449    115.9986     49.0351   3.9267028262e+01   4.9719492624e+01    0.3864217    0.3062819 -30.09 0.0003966273    1.289    0.224
       189 -10.5379    174.8222    247.0403   7.0349075979e+01  -9.6825606943e-01    0.3022719     0.240108  47.29  0.001994977    1.231    0.188
       190  -9.5305    113.5786     60.6898   4.3949784895e+01   4.8304707280e+01    0.2794313    0.1425211 -33.09  0.001130778    2.058    0.514
       191 -11.3475     32.4838     52.8862   7.0085402890e+01   6.2499862141e+01     1.349582    0.4254935  16.54  0.004458597    5.766    0.827
       192 -10.9678     25.1911     59.5893   7.4963568033e+01   6.1766098714e+01    0.6233268    0.2300206  31.00  0.002893017    3.064    0.674
       193 -10.4170     25.0409     56.0010   7.4045798509e+01   6.2513536894e+01    0.3186519    0.2220014 -22.56  0.001131141    1.410    0.291
       194 -10.1977    106.6601     58.9774   4.5386292228e+01   5.0069443019e+01    0.3253728    0.2379915 -74.83   0.00146279    2.220    0.550
       195 -12.2653    126.1931     28.6438   2.9451919170e+01   5.0232942001e+01    0.5414621    0.4051397  62.49  0.002878294    1.327    0.246
       196  -9.1855    135.7127     58.6252   3.7385800062e+01   4.3622180658e+01    0.1561121    0.1155448  12.51  0.000701865    1.721    0.419
       197  -9.5179    125.1878     56.7955   3.9457585231e+01   4.6387027156e+01    0.2080203    0.1719689  13.31 0.0008719534    1.326    0.246
       198  -9.8356    238.1090     55.8986   1.8721324463e+01   1.8899642915e+01     0.204811    0.1609328 -62.23 0.0002629543    1.169    0.144
       199  -9.3313     66.8348     54.9017   5.7253072690e+01   5.7961683069e+01    0.1735433    0.1556367 -53.50 0.0006748905    1.319    0.242
       200 -11.3848     60.8208     47.9698   5.7066502252e+01   6.0108650951e+01    0.7761177    0.2895499 -40.62  0.003213617    2.461    0.594
       201  -9.9403     57.1298     41.7155   5.6195145812e+01   6.1728599976e+01    0.2486406    0.1485268  39.10  0.001312529    1.858    0.462
       202  -9.8015    154.4389     50.8658   3.0654179127e+01   4.0263224118e+01    0.3280028    0.1537196 -20.27 0.0009655766    3.192    0.687
       203 -10.3989    240.2096     50.4885   1.7217111787e+01   1.9208272323e+01    0.2375611    0.2132006  11.56 0.0009187274    1.487    0.328
       204  -8.7797     55.5665     50.5592   6.0020560121e+01   6.0357306895e+01    0.1305061    0.1107884 -21.21 0.0001061867    1.005    0.005
       205  -9.7067      1.8836     49.1106   8.1882068039e+01   6.5355865188e+01     0.159225    0.1382474 -60.74 0.0007955248    1.226    0.184
       206  -9.4569    174.9834     49.0000   2.6133294435e+01   3.5334623130e+01     0.354055   0.08075053  60.61    0.0009657    4.189    0.761
       207  -9.9225    146.4201     47.3855   3.1256752008e+01   4.2782277375e+01    0.2591642    0.2262947 -14.69 0.0007094888    1.246    0.197
       208 -10.9136     20.7788     45.7421   7.2858231209e+01   6.4882498388e+01    0.4357564    0.1922314 -36.66 0.0009793894    2.003    0.501
       209 -10.3812     26.3141     42.9922   6.9580035477e+01   6.4963271412e+01     0.231802    0.1966279 -39.68 0.0009053102    1.155    0.134
       210 -10.2899     22.9582     37.8403   6.9355540164e+01   6.6206318247e+01    0.3434015    0.2599936  47.67  0.001631088    1.993    0.498
       211  -9.9497     13.3382     46.6092   7.6335614294e+01   6.5229597652e+01    0.2435027    0.1389891 -41.93   0.00116542    1.366    0.268
       212 -10.5815    137.4941     44.8130   3.2409792585e+01   4.5348013378e+01    0.7318917    0.2550501  43.18  0.002385515    3.173    0.685
       213 -10.1142     29.9024     45.6579   6.8895483244e+01   6.4140863539e+01    0.1950613    0.1360763 -13.59  0.001201643    1.432    0.302
       214 -10.4078    200.4801     45.0196   2.0942992238e+01   2.9453492669e+01    0.4127505    0.2037841  76.57   0.00162635    2.395    0.582
       215  -9.0172    101.4428     44.5043   4.1819339860e+01   5.3549539464e+01    0.1400795    0.1290979  10.45 0.0002039366    1.014    0.014
       216  -9.3790    160.7850     43.5468   2.7112749678e+01   3.9732077392e+01      0.34096      0.14622  70.51  0.001035815    3.058    0.673
       217 -10.4424    155.8052     42.2877   2.7687884569e+01   4.1168255725e+01    0.3144579    0.2573165  17.30  0.001122111    1.435    0.303
       218 -10.2647     92.2375     41.8616   4.3685467027e+01   5.5806402335e+01    0.3509595    0.2472777  49.59  0.001521645    1.508    0.337
       219  -9.5106     17.3005     41.7972   7.3177935046e+01   6.5897312706e+01    0.2552983   0.08426497 -40.70  0.001159225    2.465    0.594
       220 -11.5676     79.7965     34.6939   4.5030691502e+01   5.9226165559e+01    0.7509286    0.5430403 -14.95  0.004194982    1.373    0.272
       221 -10.3008     88.4489     29.1602   3.9946300945e+01   5.8386116890e+01    0.3445503    0.2178923  38.72  0.001800311    1.474    0.322
       222  -9.7806    231.5199     38.4298   1.5375781710e+01   2.2862755858e+01    0.2843112    0.1258303 -33.20  0.001227868    2.230    0.551
       223 -11.2665     61.0664     36.1781   5.2504155182e+01   6.2083839193e+01    0.4389883    0.2701531 -22.11  0.001524308    1.636    0.389
       224  -9.4399     70.8178     34.2088   4.8027193280e+01   6.0854184856e+01    0.1867774    0.1695126 -15.61 0.0006530951    1.164    0.141
       225 -10.1592     67.5677     31.9484   4.8313911585e+01   6.1730297418e+01    0.3469073    0.2269353  14.60  0.001181586    1.654    0.395
       226  -9.0388    194.3263     38.3481   2.0035031934e+01   3.1913882740e+01    0.1456372    0.1068542  32.14 0.0007049481    1.753    0.429
       227 -11.4254      4.9236     35.8627   7.7005233825e+01   6.7795327823e+01     0.354502    0.2747007 -17.05  0.001725139    1.253    0.202
       228 -10.0530     11.9886     30.2853   7.1886703685e+01   6.8401473032e+01    0.3751054    0.1451679 -44.09  0.001502126    1.915    0.478
       229 -10.2239      7.5201     30.4618   7.4093427521e+01   6.8652303518e+01    0.2698273    0.1549905 -12.26   0.00143949    1.805    0.446
       230  -8.8511    206.4499     37.4639   1.8142771352e+01   2.9006117381e+01    0.1399573    0.1259257 -81.17 0.0001930789    1.004    0.004
       231 -11.1617    188.9025     28.0214   1.7978892527e+01   3.4608890793e+01    0.3742186    0.3113724 -15.66  0.001241983    1.446    0.308
       232 -11.1398    176.2640     34.6143   2.1722861189e+01   3.6992946919e+01    0.8085148    0.5374441 -71.23   0.00354744    1.792    0.442
       233 -11.3118    183.6897     25.3564   1.7965397334e+01   3.6251413235e+01    0.7805952    0.3479522  39.77  0.002825048    3.309    0.698
       234  -9.6249    153.8444     37.1299   2.6443697148e+01   4.2365554525e+01    0.2021516    0.1637076  33.43 0.0004091449    1.320    0.242
       235  -9.6279    132.4772     36.9875   3.0916355111e+01   4.7657776356e+01    0.3651036    0.2059348  82.30  0.001302381    3.318    0.699
       236  -9.6746     94.1418     35.8606   4.0795652779e+01   5.6327124151e+01    0.1902631    0.1860356 -54.31 0.0005528682    1.264    0.209
       237  -8.9938    113.3307    249.3386   8.2285170072e+01   8.5009076151e+00    0.1109702    0.0919108  11.64 0.0007051888    1.739    0.425
       238 -10.9011     49.7301    249.2233   9.3763539731e+01   1.7433788993e+01    0.2932562   0.08881676  50.79  0.001431829    2.448    0.592
       239  -9.6775    213.5315    248.4725   6.3379692853e+01  -7.2225904980e+00    0.1207609   0.09299797  21.35 0.0008091449    1.016    0.016
       240 -11.6597    106.4973     32.5434   3.5892286272e+01   5.4210592650e+01    0.6497349    0.3703048   8.45  0.002502338    2.886    0.654
       241 -11.6341    126.3925    241.5972   7.8935611721e+01   7.7523015213e+00    0.3465484    0.2569888  79.20  0.001676154    1.570    0.363
       242 -11.1624     57.3864     30.5458   5.1678699660e+01   6.3514848882e+01    0.4418889    0.2651973 -18.36  0.001263265    1.748    0.428
       243 -11.6096     48.9214     30.5058   5.5137559960e+01   6.4697813381e+01    0.5741139      0.25329  28.89  0.001787114    2.420    0.587
       244 -10.0455     43.1083     28.1121   5.6643748658e+01   6.5819180110e+01    0.1820872    0.1443336 -12.34            0    1.035    0.034
       245  -9.7168    183.4607     32.4550   1.9993463278e+01   3.5435793127e+01    0.1417348    0.1293503  81.88 0.0001208474    1.010    0.010
       246 -11.1505     32.4241     30.8858   6.2523092856e+01   6.6567083007e+01    0.3048845     0.183479 -47.36 0.0003745625    1.626    0.385
       247 -10.5149    131.0373    240.7011   7.7928973903e+01   7.1554932931e+00    0.1853494    0.1377747  43.55 0.0008456651    1.112    0.101
       248 -10.9907     67.5057    240.8295   8.9993194231e+01   1.6657190832e+01    0.3797395    0.1690993  47.75  0.002070158    1.763    0.433
       249  -9.3653    230.0153     30.7195   1.3725576118e+01   2.4224107088e+01    0.1836792    0.1538598 -89.83 0.0003214572    1.102    0.092
       250 -10.3965    197.8930     28.7814   1.6981888201e+01   3.2253122879e+01    0.3751117    0.2821513  54.52  0.001260624    1.365    0.267
       251 -10.0787    239.9824     32.8320   1.3196694190e+01   2.1666272819e+01     0.309428    0.1847959  53.59  0.001475441    1.923    0.480
       252  -9.9471    150.1977     27.7962   2.4153529770e+01   4.4462866138e+01    0.2039364    0.1558627  38.31 0.0008411306    1.346    0.257
       253  -8.7547     97.3011     26.3251   3.6111374503e+01   5.6971715109e+01     0.141362   0.09459921  18.82 0.0004738302    1.636    0.389
       254 -10.7220    154.9642     24.2963   2.2168999627e+01   4.3675028254e+01    0.4324566    0.2581334  74.88  0.001400335    1.758    0.431
       255 -10.3850    156.4350     20.5196   2.0726814411e+01   4.3729772725e+01    0.3737166    0.1951133  57.67  0.001439885    1.675    0.403
       256 -11.5856    145.5701     23.9674   2.3780212435e+01   4.6068720318e+01     0.713855    0.3087714  48.64  0.002918173    2.133    0.531
       257 -10.1535     72.4463    237.8818   8.8835429204e+01   1.6529213368e+01    0.2757959    0.1962795  32.15  0.001624726    1.702    0.412
       258 -11.6309    147.1371    238.0186   7.4450317289e+01   4.9625509773e+00    0.4773772    0.2974919  50.34  0.002173879    1.433    0.302
       259 -10.4709     90.9084     22.5075   3.6483135798e+01   5.8753455668e+01    0.3435411    0.2531576 -11.17  0.001565889    1.376    0.273
       260  -9.9954     59.7827     23.6164   4.7792674063e+01   6.4175242118e+01    0.2101793    0.1509139 -24.99 0.0004276566    1.289    0.224
       261 -10.7496    197.0122    232.0222   6.3890124104e+01  -2.4098104489e+00    0.2016592    0.1655588  26.18 0.0009838034    1.013    0.013
       262  -9.0874     15.4022    233.7897   9.8705975295e+01   2.4175135483e+01    0.1398208   0.08150923 -73.98  0.000944949    1.674    0.402
       263  -9.4504     49.1667    238.5981   9.3136041290e+01   1.9441773859e+01    0.1422993   0.09833145  38.10 0.0008036293    1.601    0.375
       264 -10.6162     38.8355     22.2008   5.6040753690e+01   6.7257336925e+01    0.2107041    0.1436293 -27.14 0.0004128707    1.246    0.198
       265 -10.9879    167.1661    237.7757   7.0510818403e+01   1.6708243435e+00    0.2126816    0.1876731 -27.81  0.001423889    1.351    0.260
       266  -9.5471    223.4166     22.1974   1.2395915464e+01   2.6833415958e+01    0.2126079    0.1417317  84.15 0.0006828198    1.413    0.292
       267  -9.5835      5.8128     21.9470   7.2000902546e+01   7.0269805533e+01     0.289327    0.1478436 -10.67  0.001682171    2.136    0.532
       268  -9.7738    247.2462    231.0170   5.4559002429e+01  -1.0004992066e+01    0.1434077   0.09021915 -25.40 0.0008783577    1.569    0.363
       269 -10.1224    197.2254    227.6600   6.3149894984e+01  -1.8075943595e+00    0.2330384    0.1374755  43.24   0.00070545    1.559    0.359
       270  -9.2451     75.5047    224.5078   8.7033934695e+01   1.8654214025e+01    0.1250842   0.09817963  66.07 -5.928427e-06    1.017    0.017
       271  -9.5002    234.0047    223.4947   5.5602762002e+01  -7.1001818085e+00    0.1806145    0.1049731  34.67 0.0005578894    1.529    0.346
       272  -9.5196     65.6822    222.3446   8.8752310516e+01   2.0435415727e+01    0.1323541   0.07337544  67.51  0.000704889    1.721    0.419
       273  -9.8435     74.6771     19.5517   4.0510664594e+01   6.2216154605e+01     0.242109    0.1737211  17.29 0.0005899519    1.316    0.240
       274  -9.9804     47.0479     19.5822   5.1258165867e+01   6.6594199005e+01    0.2441379    0.1540575 -21.67  0.001440571    1.435    0.303
       275  -9.5936     49.6672    222.6553   9.1856140865e+01   2.2446671752e+01    0.1039517   0.09006333 -45.04 0.0007050133    1.761    0.432
       276  -9.6806    246.3088     19.3279   9.6263128473e+00   2.1944651078e+01    0.1148803   0.09700769  38.06 0.0004061167    1.659    0.397
       277  -9.1375    153.2999    219.3390   7.0579089010e+01   7.0889587337e+00    0.1295079    0.1007721   5.47 0.0004588845    1.665    0.399
       278  -9.8094    164.7492    211.9800   6.7072547972e+01   6.3577856077e+00    0.2374151    0.1743144  41.86 0.0006259152    1.195    0.164
       279 -10.1479    152.6197    207.1386   6.8826068243e+01   9.4185087358e+00    0.3133533     0.211054 -77.88  0.001482891    2.300    0.565
       280  -9.5642    191.2600     17.6614   1.4854959003e+01   3.5227633314e+01    0.1402784   0.09224623 -63.09 0.0002247102    1.583    0.368
       281  -9.1689     61.5063    206.5112   8.8101790177e+01   2.4230349246e+01    0.1262262    0.1012257  72.87 6.510708e-05    1.004    0.004
       282 -10.9904    239.1440     16.2128   9.5558303080e+00   2.3911837031e+01    0.2663525    0.1546728 -78.72  0.001391594    1.710    0.415
       283  -9.2084     78.4976    203.5575   8.4235779721e+01   2.2498315847e+01    0.1305154    0.1078719  69.56 0.0001814726    1.011    0.011
       284 -10.5454    186.7899     15.0363   1.4700832404e+01   3.6639004176e+01    0.2438911     0.178006  66.02 0.0003198859    1.242    0.195
       285  -9.9078     19.6225    202.8560   9.6144301351e+01   2.9863133108e+01    0.1608192   0.08406417  86.70 0.0002530453    1.637    0.389
       286  -8.9367    174.3033     15.7340   1.6545074482e+01   3.9719375478e+01    0.1369319   0.09674603 -73.61 0.0002968413    1.525    0.344
       287  -9.5781    216.4623     20.7010   1.2755363908e+01   2.8671084199e+01     0.159756    0.1318652 -19.15 0.0007396945    1.504    0.335
       288  -9.6439     74.4685     13.3412   3.7856275398e+01   6.2991875451e+01    0.1869924    0.1513942  63.80 0.0006680728    1.700    0.412
       289 -10.8618      6.0315    198.7752   9.8472313950e+01   3.1999048282e+01    0.2643936     0.106428 -63.77  0.001420287    2.407    0.584
       290  -9.9809    139.4819    198.5000   7.0260417948e+01   1.3463023570e+01    0.2334111     0.136305 -66.67  0.001033689    2.274    0.560
       291 -10.1230    233.8549    196.8694   5.0788434410e+01  -3.3251452233e+00    0.2295402    0.1669739 -33.21  0.001239719    1.407    0.289
       292 -11.6541      5.1291    185.6994   9.7858090585e+01   3.4825947049e+01    0.4186759    0.3156968 -78.95  0.002527985    1.234    0.189
       293 -10.9102      3.0074    181.6041   9.8022790905e+01   3.5879739126e+01    0.2845521    0.1897644 -65.21  0.001926037    1.522    0.343
       294  -9.0802     86.2408    185.5970   8.0300960759e+01   2.5255753674e+01    0.1809484    0.1282582  30.55  0.000949834    1.642    0.391
       295  -9.3882     28.3618    175.8120   9.2258322466e+01   3.4840276283e+01    0.1708231   0.09175472 -67.22 0.0004458744    1.642    0.391
       296  -8.8034    113.6253    175.6774   7.2394919522e+01   2.2958915213e+01    0.1434175    0.1153915  -8.35   0.00070292    1.817    0.450
       297  -9.6474     51.7959    173.8135   8.6768663759e+01   3.2690127397e+01    0.1856583    0.1299536  73.30 0.0007947776    1.332    0.249
       298  -9.1608     39.5048    173.5098   8.9551583961e+01   3.4185846098e+01    0.1272921    0.1023672  84.74 -9.89851e-08    1.016    0.016
       299 -12.1047      9.6446    165.7630   9.5517980189e+01   3.8806330352e+01    0.5652113    0.3118767 -61.34  0.002412746    1.718    0.418
       300 -10.4668     14.0621    159.1995   9.3987716780e+01   3.9919833161e+01    0.3334158    0.1740774 -84.26  0.001797282    1.604    0.376
       301  -8.4785    152.3199    166.6830   6.1618446140e+01   1.7563531897e+01    0.1521939    0.1174806  79.16 0.0006160153    1.660    0.397
       302 -10.1723     18.8497    165.0203   9.3412031612e+01   3.8183719347e+01    0.2390208    0.2027743 -17.09  0.001627814    1.771    0.435
       303  -9.9860    205.0328    163.3409   4.9517248270e+01   7.5003982492e+00    0.2629927     0.208805 -41.74 0.0006175165    1.301    0.231
       304 -10.4622     28.0464    161.9799   9.1018751002e+01   3.8020934647e+01      0.33118    0.2117295 -64.46  0.001965154    1.424    0.298
       305  -9.3091     38.4812    160.4939   8.8392286647e+01   3.7303400955e+01    0.1281786    0.1054451 -88.23 7.482538e-05    1.008    0.008
       306 -10.5909      9.3435    155.4611   9.4746857005e+01   4.1150570816e+01    0.2423737    0.1718133 -83.86  0.001481579    1.097    0.089
       307  -9.8514    104.3159    154.9177   7.1027749705e+01   2.9369619571e+01    0.2632098    0.2408551 -65.22  0.001467791    1.094    0.086
       308 -12.4924     22.4359    149.4375   9.1075114318e+01   4.1447326076e+01    0.6084108    0.3172066 -43.12  0.001716071    2.522    0.604
       309 -10.9301     16.5428    147.9506   9.2358531651e+01   4.2294162103e+01    0.2472805    0.1903222  89.56 0.0003724358    1.069    0.064
       310 -10.3696      4.2468    153.4951   9.5751663519e+01   4.1981357116e+01    0.2412246    0.1584397  58.39 0.0009507483    1.489    0.329
       311  -9.3189    142.5528    152.5414   6.1009522990e+01   2.2614964712e+01    0.1506786    0.1469875  57.02 0.0001168505    1.014    0.014
       312 -11.1718     47.3178    146.7900   8.4483566690e+01   3.9574249706e+01    0.5595163    0.3462873 -46.70  0.002914248    1.804    0.446
       313 -10.3023     30.4557    151.7860   8.9363653417e+01   4.0157594250e+01    0.2361478    0.2028224 -31.50  0.001547422    1.547    0.353
       314  -9.5184     66.8572    149.1353   7.9739051471e+01   3.6582383535e+01    0.2231947    0.1755773   0.40 0.0008347127    1.849    0.459
       315 -11.5818      5.9202    142.0732   9.4378184586e+01   4.4456832843e+01     0.535827    0.2367742  84.63 0.0003019338    2.367    0.577
       316 -11.1062      2.1350    140.6400   9.5167303388e+01   4.5043355049e+01    0.3735943    0.1614155 -74.99  0.001185909    1.773    0.436
       317 -10.3239      3.1369    147.6164   9.5525953902e+01   4.3390134261e+01    0.2247023    0.1339826 -72.00 0.0008244293    1.330    0.248
       318  -9.4190    239.5005    146.5409   3.9453814646e+01   3.7229151295e+00    0.1386228    0.1251077 -18.75 7.597756e-05    1.020    0.020
       319  -9.3745     74.1563    145.9232   7.7293615329e+01   3.6338114581e+01    0.1854609    0.1567735 -47.13  0.000484939    1.284    0.221
       320 -11.0754     33.2029    144.3361   8.7802134747e+01   4.1646193964e+01    0.2764311    0.2278263 -77.60 0.0008062844    1.043    0.041
       321 -11.2840     12.4689    136.3109   9.2187504959e+01   4.5310460737e+01    0.5058818     0.307015 -61.48  0.003035905    1.423    0.297
       322  -9.5729    217.6519    138.9589   4.1666829381e+01   9.3804099618e+00    0.2080746    0.1780296 -35.74 0.0005167897    1.123    0.110
       323 -10.1782     79.9798    138.2949   7.4373680742e+01   3.7323849823e+01    0.3044356    0.2240399  40.59  0.001107351    1.429    0.300
       324 -10.6637     40.0533    137.8037   8.5156742102e+01   4.2512915574e+01    0.3123475    0.2175377  89.76  0.000761998    1.385    0.278
       325  -9.7037     39.7028    133.4375   8.4635202004e+01   4.3594453433e+01    0.2130146    0.1326784  27.37 0.0005588235    1.920    0.479
       326 -10.0202     31.6955    137.5179   8.7339363472e+01   4.3407968798e+01     0.374229    0.1983232  31.91  0.001539369    2.138    0.532
