#   1 NUMBER                 Running object number                                     
#   2 MAG_AUTO               Kron-like elliptical aperture magnitude                    [mag]
#   3 X_IMAGE                Object position along x                                    [pixel]
#   4 Y_IMAGE                Object position along y                                    [pixel]
#   5 X_WORLD                Barycenter position along world x axis                     [deg]
#   6 Y_WORLD                Barycenter position along world y axis                     [deg]
#   7 A_WORLD                Profile RMS along major axis (world units)                 [deg]
#   8 B_WORLD                Profile RMS along minor axis (world units)                 [deg]
#   9 THETA_WORLD            Position angle (CCW/world-x)                               [deg]
#  10 FWHM_WORLD             FWHM assuming a gaussian core                              [deg]
#  11 ELONGATION             A_IMAGE/B_IMAGE                                           
#  12 ELLIPTICITY            1 - B_IMAGE/A_IMAGE                                       
         1  99.0000     30.6431     20.5948   4.7813382561e+01   7.1038290122e+01    0.8154469    0.4829542 -43.27  0.004405818    1.674    0.403
         2 -11.0353     42.0433     20.8502   4.1490202171e+01   6.9322193175e+01    0.8186047     0.479337  23.71  0.001787301    1.821    0.451
         3 -11.8271     85.0941      1.4762   1.4624563206e+01   6.2819420773e+01    0.7822997    0.1155019  60.46   0.00103495    4.403    0.773
         4 -14.0143     56.9804     67.0988   5.3396804799e+01   5.8047524535e+01     3.945891    0.6906684 -48.59   0.01047452    4.917    0.797
         5 -14.0725     11.0285     69.3494   7.5190248321e+01   6.2387412547e+01     1.429731     1.220475   7.05  0.009081956    1.307    0.235
         6 -14.4131     43.1540     54.6416   5.5487286761e+01   6.2755132459e+01     3.543346     1.815018  11.39   0.01384245    2.985    0.665
         7 -12.6830     47.2096     30.7598   4.3737187263e+01   6.6848358383e+01     1.450647     1.037919  44.20  0.007983082    1.543    0.352
         8 -12.7094     53.8596     21.7730   3.6103365476e+01   6.7157807746e+01    0.9704416    0.7908976 -89.09   0.00504088    2.065    0.516
         9 -12.2175     78.8949      9.8467   2.0439310957e+01   6.3470525400e+01    0.6623642     0.317547  65.36  0.001319308    2.293    0.564
        10 -11.2100     76.8896      5.0058   1.8640084868e+01   6.4410422239e+01     0.547721    0.2131501  58.31  0.000328277    2.252    0.556
        11 -12.5686     25.0833     41.1675   6.0116812901e+01   6.7738707232e+01     1.612165    0.5907936 -44.55   0.00676076    2.401    0.584
        12 -12.8183     63.2373     34.9291   3.8249489736e+01   6.3340712785e+01     2.012107    0.9165672 -41.70  0.008536289    2.271    0.560
        13 -12.8369     77.0567     23.2740   2.7496750247e+01   6.2281875440e+01     2.007406     1.558402  79.58  0.007663636    1.728    0.421
        14 -13.6950     11.8153     41.2895   6.7865229837e+01   6.8841278829e+01      1.66223    0.8759285 -48.70  0.008747425    1.569    0.362
        15 -12.5890    160.4473     37.9627   1.3538526262e+01   3.9889450744e+01    0.9662122     0.771058  47.77  0.003469342    1.342    0.255
        16 -12.8503    177.6057     72.2287   2.0615452196e+01   3.0589486435e+01     2.323618     0.775731 -39.20  0.008114416    2.743    0.635
        17 -13.3790    183.9776     57.5126   1.5574732451e+01   3.1367137916e+01     1.342283     1.204775 -79.84 0.0004897273    1.075    0.070
        18 -14.1764    194.0310     81.8566   2.0439178367e+01   2.5264419167e+01     2.985865     1.729009 -26.99    0.0133788    1.892    0.471
        19 -12.9591    220.9483     39.4853   6.5372992771e+00   2.5443081737e+01    0.9837356    0.6140522  76.01  0.001984841    1.683    0.406
        20 -13.7287    116.0880     62.3677   3.0982818664e+01   4.7152928052e+01     2.832693     1.750412   8.13  0.005061861    3.501    0.714
        21 -13.1738    174.7114     42.5079   1.2741498250e+01   3.5731465982e+01     2.815725     1.311267  33.76  0.008534103    5.055    0.802
        22 -12.9622    202.3334     33.8515   7.0119561445e+00   3.0273100952e+01     1.243161    0.5041795  63.56 0.0003315819    2.414    0.586
        23  99.0000    154.0117     62.0626   2.2031344465e+01   3.7948030497e+01     3.656575     1.170068 -51.43  0.009137807    5.601    0.821
        24 -13.7334    242.8311     60.3168   9.1638783744e+00   1.8296882688e+01     1.596412    0.9567434 -44.86  0.002303085    1.374    0.272
        25 -13.8782    218.4270     56.8877   1.0939596729e+01   2.3686378699e+01     1.993733     1.095482 -58.06  0.002401649    1.918    0.479
        26  99.0000    148.7997     40.6747   1.6343517567e+01   4.2470635712e+01     1.872147    0.8724472  82.77  0.006027094    3.733    0.732
        27 -13.7572    204.8960     46.7366   9.9934903108e+00   2.8032404953e+01     2.156958     1.252212  73.05   0.01077314    1.820    0.450
        28  99.0000    192.6209     19.1432   4.1850778697e+00   3.4258429962e+01     1.011254     0.904095   5.09  0.004121743    1.454    0.312
        29 -11.6944    211.3751     21.2911   3.0417527118e+00   2.9709188016e+01    0.4809295    0.4258768  47.19  0.003147666    1.424    0.298
        30 -12.2812    217.5723     28.4279   4.2243166747e+00   2.7520207467e+01    0.6045454    0.4052202 -88.08 0.0009761934    1.489    0.329
        31 -12.6816    225.9010     22.8741   2.2494721929e+00   2.6376269219e+01    0.4598506    0.3323172  71.83  0.001484846    1.462    0.316
        32 -12.9858      4.2909     32.6490   6.9801084907e+01   7.1179298337e+01     1.064347    0.4592151 -69.48  0.004869062    2.542    0.607
        33 -12.7751    176.2563     23.4736   7.1052806457e+00   3.7724500048e+01    0.3142756    0.2754115 -38.39 0.0004086223    1.205    0.170
        34 -10.9504    147.7209     25.1820   1.1504506175e+01   4.4717273891e+01    0.4261824    0.2933646  49.92  0.001372428    1.479    0.324
        35  99.0000     19.8885     20.3303   5.4482400716e+01   7.2379923682e+01    0.4302334    0.1966193 -49.36  0.001158982    2.099    0.524
        36 -12.0960    204.5088     17.5729   2.7096318267e+00   3.1670076850e+01     0.488061    0.2447611 -73.68  0.001260035    2.193    0.544
        37 -10.2903    122.2090     18.2715   1.3526984745e+01   5.2027772775e+01     0.423575    0.1756196 -53.15  0.001461237    3.546    0.718
        38 -11.2868     94.2963     15.9083   1.8872458009e+01   5.9216922591e+01     0.313682    0.1970293  48.88 0.0005869388    1.427    0.299
        39 -14.0970    244.4569      8.0338   3.5780224528e+02   2.4205033334e+01    0.9320226    0.3953259 -74.21   0.00300863    2.541    0.606
        40 -10.6149    229.3218     10.3525   3.5918936092e+02   2.7024856547e+01     0.647451    0.3524417 -62.11  0.002306944    1.616    0.381
        41 -12.7265    221.3240      8.1047   3.5919590787e+02   2.8950115994e+01    0.5385679    0.1938536 -53.33  0.001008762    2.428    0.588
        42 -11.7540    232.7590      4.0191   3.5759559721e+02   2.6964019651e+01    0.6049643    0.2090014 -44.84   0.00270394    2.163    0.538
        43 -10.8754    125.2441     10.5943   1.0114830039e+01   5.2037315326e+01    0.4978893    0.2562774 -18.18  0.001742481    2.317    0.568
        44 -10.0213    166.9928     13.4846   5.2785110026e+00   4.1108811656e+01    0.3007888    0.1755796 -18.36  0.001451435    2.080    0.519
        45 -10.7553    150.0119     13.0336   7.2258201162e+00   4.5450687995e+01    0.2648591    0.2035388 -67.36  0.001423698    1.293    0.227
        46  -9.4403    133.6401     13.1157   9.6426958387e+00   4.9639086318e+01    0.2855849    0.1013407 -35.06  0.001106417    2.748    0.636
        47 -11.7736    115.3802     10.8655   1.2001203452e+01   5.4521477132e+01    0.5670426    0.2991505  -9.40  0.002150434    2.546    0.607
        48 -10.6313     88.6170     11.5774   1.8447330578e+01   6.1032973337e+01    0.2765031    0.2256209  -4.91  0.001597512    1.338    0.253
        49  -9.8955    142.2672     11.8825   7.9159799850e+00   4.7547388239e+01    0.1791609    0.1475983  40.80 0.0007377627    1.335    0.251
        50 -10.0230    108.5087      8.9531   1.2596003588e+01   5.6434191995e+01    0.2541991     0.138179 -20.68 0.0006854846    2.086    0.521
        51 -10.9616    111.8139      4.8169   1.0274541702e+01   5.5977821945e+01    0.4055453    0.1864607  50.15  0.001792579    1.963    0.491
        52 -10.7822    100.8377      7.2525   1.3512077312e+01   5.8499537167e+01    0.3942165    0.2058563 -26.00  0.001440791    2.080    0.519
        53 -10.7707    104.6424      6.0845   1.2201788812e+01   5.7663032974e+01    0.2468915    0.1780048  63.13 0.0004338238    1.225    0.184
        54 -10.5683     26.8403      9.3621   4.3926663543e+01   7.3368343783e+01    0.2796806    0.1717459  11.17  0.001513053    1.782    0.439
        55 -11.5132    193.8772      7.6697   1.0874400897e+00   3.5166842985e+01    0.3092359    0.2374348  58.55  0.001285063    1.445    0.308
        56 -12.8603    173.2921      5.7908   2.3938739688e+00   4.0303897343e+01    0.4892193     0.299302 -13.53  0.002485989    2.104    0.525
        57 -10.1454    130.8500      8.5864   8.4726105090e+00   5.0791624914e+01    0.2599564    0.1673778  45.55 0.0009680378    1.592    0.372
        58 -10.1869     47.5117      8.5099   3.1846313161e+01   7.0136586615e+01    0.2554074    0.1708978  16.03  0.001175162    1.566    0.362
        59  -9.3625     47.3095      5.6713   3.0264434785e+01   7.0519344127e+01    0.1730951    0.1267414 -40.91 0.0005156616    1.665    0.400
        60  -9.6468    146.2808      6.4050   5.5575906563e+00   4.7039793747e+01    0.3164214    0.1316809 -13.10  0.001196463    3.468    0.712
        61 -12.0049     57.4766      4.2826   2.5005314264e+01   6.8688225679e+01    0.5211162    0.3533988  64.16  0.001966939    1.751    0.429
        62 -10.8650     47.6718      1.6098   2.7630016160e+01   7.0910840422e+01    0.3549819    0.1320868  44.04  0.001417177    2.334    0.572
        63 -11.0799      2.7488      6.0291   5.9827953889e+01   7.6520683457e+01    0.2491167    0.2012302  -0.46  0.001092499    1.177    0.151
        64  -9.8270     91.2568      6.6424   1.5490997300e+01   6.0889568648e+01    0.1385199    0.1208781  44.76 0.0002883674    1.039    0.037
        65  -8.9683     93.2468      4.2646   1.3925406253e+01   6.0624972044e+01    0.1944921    0.1394574  47.53  0.001070021    1.243    0.195
        66 -10.0913    183.8357      3.8054   9.0051429097e-01   3.7926696594e+01    0.2436788    0.1956456  88.04   0.00050312    1.114    0.102
        67 -10.3892    187.3171      1.3024   3.5995246823e+02   3.7328838376e+01    0.2334215     0.105451  69.84 0.0007345286    2.013    0.503
        68  -9.9997    217.8564      1.9883   3.5801278150e+02   3.0311649811e+01    0.2762261    0.1815585  72.74   0.00168788    1.535    0.349
        69 -10.1768    213.4504      2.0228   3.5829416622e+02   3.1270592257e+01    0.2212224    0.1468651  64.55 0.0007857849    1.624    0.384
        70  -9.9829    207.0832      3.0156   3.5894633291e+02   3.2590443976e+01    0.1436624    0.1357485 -37.92 0.0009976178    1.281    0.220
        71  -9.8975    250.4178      1.5415   3.5616915474e+02   2.3711703817e+01    0.1143389   0.08490992 -57.54 4.143913e-05    1.013    0.013
        72  -9.9301    157.5445    222.5399   5.6888378904e+01   6.9834014483e+00    0.1266026     0.105066  23.81 5.562869e-05    1.035    0.034
        73  -9.7615    236.7107    146.0009   2.8274100585e+01   6.8500823284e+00    0.1762824    0.1382227 -23.89  0.000325189    1.074    0.068
        74  -9.6326    228.9829    138.4371   2.7920722286e+01   9.2560786615e+00    0.1682521     0.127007  42.66 0.0003311948    1.503    0.335
        75  -9.3261    246.2527    125.6892   2.2755285573e+01   8.3503121129e+00    0.1187907   0.08576178 -50.27 0.0002589559    1.518    0.341
        76  -9.6337    152.7395    124.0206   3.9308042915e+01   2.6541680613e+01    0.2059324    0.1887211 -42.83 0.0002758165    1.092    0.084
        77 -10.7917    115.6348    121.0701   4.8172888224e+01   3.4873430598e+01    0.2871667     0.225765  32.30 0.0003510113    1.315    0.240
        78 -12.8013      4.3069     57.2506   7.6103284556e+01   6.5640641849e+01     0.929885    0.5254791 -38.29  0.005002602    1.625    0.385
        79 -10.6707    181.1809    118.8068   3.1926874285e+01   2.1584188715e+01    0.5031084    0.2584794  34.46  0.001681136    2.446    0.591
        80 -12.5693     81.0852     40.4525   3.3676779483e+01   5.8848132858e+01    0.5765152    0.3676235  41.51  0.001527042    1.506    0.336
        81 -11.7176     49.4130     95.1388   6.4158203374e+01   5.2397165119e+01    0.2804597    0.2072031  37.76 0.0006516866    1.419    0.295
        82 -12.0006    115.2080     93.7948   4.1102453093e+01   4.1080543469e+01    0.4781243    0.3077547  18.20  0.001823384    2.436    0.589
        83 -12.0812    185.1359     92.0910   2.4553802786e+01   2.5525927985e+01    0.3919467      0.29925 -49.39  0.001809094    1.280    0.219
        84 -11.9458     95.9682     90.5317   4.6068100344e+01   4.5820783381e+01    0.5669746    0.4696494  55.73  0.001749188    1.276    0.216
        85  -9.2597     89.4720     93.4593   4.9055136628e+01   4.6418100510e+01    0.1518756    0.1479569 -15.22 0.0008082663    1.040    0.039
        86 -11.6315    215.9661     90.8796   1.9339992668e+01   1.9172031157e+01     0.309885    0.1718123 -40.58  0.001493853    1.589    0.371
        87 -12.1761    173.6230     56.7389   1.6965149560e+01   3.3967963336e+01    0.4226276     0.298011  73.90 0.0005505758    1.479    0.324
        88 -10.3309    181.6680    115.6772   3.1079459842e+01   2.2059230257e+01    0.3884224    0.2324489  48.47  0.001762102    1.749    0.428
        89 -13.9571    203.3916     77.1878   1.7840222512e+01   2.3949283357e+01    0.9746541    0.7656009  80.97  0.005386913    1.430    0.301
        90 -10.1526     72.9849    119.0090   6.0893387014e+01   4.3041952652e+01    0.2157635    0.2069098  83.40            0    1.029    0.028
        91 -11.8592    167.5093     65.0844   2.0386329743e+01   3.4156727926e+01    0.8432148     0.651255  87.96  0.004251129    1.443    0.307
        92 -10.6272    106.1446    116.8228   4.9896265230e+01   3.7732804326e+01    0.2154461    0.1862628  -7.50 0.0004192531    1.352    0.260
        93 -10.1830    203.8934    116.0466   2.7111507467e+01   1.7469576248e+01    0.4546315    0.2109396  64.21  0.001559308    4.024    0.751
        94 -10.4324    127.0239    114.7351   4.3457951124e+01   3.3962900944e+01    0.2165529    0.1967431  43.55 0.0003079236    1.094    0.086
        95 -11.3315    234.4501     36.5682   4.6626684735e+00   2.2989652356e+01    0.4690086      0.30453 -82.42  0.002007405    1.615    0.381
        96 -10.4958    173.2546    112.5691   3.1999809247e+01   2.4422607417e+01    0.2952914     0.216071  16.13 0.0006758636    1.795    0.443
        97 -11.3459    137.7701    112.4727   4.0073691354e+01   3.2156243227e+01    0.5057966    0.2485034  37.44  0.001783846    2.254    0.556
        98 -10.3268     95.3332    111.9699   5.2015378731e+01   4.0945959629e+01    0.3976701    0.2438148 -78.65  0.001453538    2.692    0.629
        99 -12.1784    132.2615     71.1394   2.9649606042e+01   4.1699914136e+01     1.772197    0.6303341  59.46  0.005259128    3.621    0.724
       100 -11.9664    145.5091     66.7489   2.5219440837e+01   3.9258354709e+01     1.043668      0.81116 -35.04  0.004367501    1.319    0.242
       101 -10.3445    211.4971    111.9906   2.4921896182e+01   1.6660788685e+01    0.2226128    0.1904536  39.81  0.001304347    1.283    0.221
       102 -11.0933    121.0492    110.7981   4.4082529893e+01   3.6092908582e+01    0.2377923    0.2117812  77.61 0.0004478057    1.242    0.195
       103 -10.4323     38.2493    110.9798   7.1499577728e+01   4.9646015632e+01    0.1918946    0.1120677 -68.26 0.0008872194    1.586    0.370
       104 -12.6641    208.8443     58.1971   1.2387933223e+01   2.5575605620e+01    0.5968983    0.5757237  16.47  0.002351251    1.244    0.196
       105 -12.0522    143.9671     45.2249   1.8716929015e+01   4.3052576563e+01    0.6058107    0.3667429  43.26  0.001262943    1.812    0.448
       106 -10.0294    233.9608    108.9636   2.0904046824e+01   1.2945353980e+01    0.1914514    0.1728259 -15.90   0.00100272    1.116    0.104
       107 -12.4858    223.8324     87.6628   1.7507997221e+01   1.8097670786e+01    0.4554912    0.3383754  23.45  0.002483945    1.820    0.450
       108 -10.7646    212.3008     89.0081   1.9424546954e+01   2.0212582523e+01    0.2001113    0.1585502 -40.17 0.0004571662    1.129    0.114
       109 -11.7338     51.3655     87.2983   6.1515480453e+01   5.4090841510e+01    0.4273434    0.1870915 -44.57  0.001380762    2.319    0.569
       110 -12.1579     48.1646     85.3317   6.2323384012e+01   5.4987845331e+01    0.3689818    0.2849565 -71.67  0.001647179    1.356    0.263
       111 -11.7185      3.3409     87.5866   8.1489352196e+01   5.8298621355e+01    0.4397581    0.2637983  -8.48  0.002317532    2.032    0.508
       112 -12.2089    168.8998     79.5776   2.4210176356e+01   3.1408401677e+01    0.5962799    0.4800596 -40.55  0.001620767    1.207    0.172
       113 -12.7232    114.8852     80.7229   3.7293147155e+01   4.3898959813e+01    0.6984829    0.5957115 -27.18  0.003300182    1.252    0.201
       114 -14.0615     39.5700     70.0377   6.1988880751e+01   5.9713536902e+01     1.838215    0.9375252  43.46  0.008009811    2.292    0.564
       115 -11.1995    248.8070     82.6823   1.3386595116e+01   1.4130461858e+01    0.3655627    0.3021823  25.14  0.002367575    1.570    0.363
       116 -11.4310    237.8341     86.4838   1.5470992474e+01   1.5588854575e+01    0.3497421    0.2524539  71.67  0.001262495    1.698    0.411
       117 -12.4131    221.1939     69.5462   1.3621080762e+01   2.1317802194e+01    0.4731838    0.3910551 -13.32  0.002581824    1.417    0.294
       118 -12.2309    220.9148     79.4260   1.5978204948e+01   1.9922271350e+01    0.3886697    0.2829017 -14.95  0.001723154    1.646    0.392
       119 -13.1849    217.6904     75.6996   1.5517118343e+01   2.1139437628e+01    0.6277134    0.4259146 -26.03  0.003331256    1.524    0.344
       120 -12.5085     11.8407     24.4275   6.1759868682e+01   7.2356926475e+01    0.3218563      0.29178 -26.37 0.0004309489    1.146    0.127
       121 -10.5310    103.8937     75.6570   3.8973718089e+01   4.7368412154e+01     0.604981    0.3508433  41.15  0.002532036    1.742    0.426
       122 -10.9149    106.0613     71.2724   3.6876018947e+01   4.7773502754e+01    0.2760592    0.2183791 -48.75 0.0001769379    1.307    0.235
       123 -11.6844     96.6705     69.7034   3.9309532891e+01   5.0136779138e+01    0.7600005    0.4312866 -27.26    0.0021694    2.342    0.573
       124 -12.0627    100.0262     79.8687   4.1532669910e+01   4.7320395659e+01    0.6817189     0.395399 -57.58  0.002721541    2.089    0.521
       125 -10.7423     96.4912     75.9178   4.1417340885e+01   4.8896634777e+01    0.2529543    0.1730237 -36.19 0.0003355793    1.532    0.347
       126 -10.1020    238.0047     81.0034   1.4239533924e+01   1.6348156311e+01    0.1829627    0.1553703 -40.93  0.001173204    1.021    0.020
       127 -11.6923    231.5284     84.3020   1.5754048511e+01   1.7101000328e+01    0.3263507    0.2568078 -85.17  0.001369958    1.523    0.343
       128 -11.7896    162.0274     84.1235   2.6825368475e+01   3.2225014798e+01    0.8814129    0.4321045  45.24   0.00345056    2.178    0.541
       129 -10.6936     86.8123     74.6541   4.4285845023e+01   5.1135892929e+01    0.5756385    0.2860911 -51.00  0.002246402    2.124    0.529
       130 -11.4882     82.4423     78.2047   4.6969060441e+01   5.1208399727e+01    0.5473292    0.3431477 -56.91  0.001534892    1.754    0.430
       131 -10.4476     82.8131     72.6264   4.5044080413e+01   5.2351574284e+01    0.3066109    0.2141532  49.89 0.0008279718    1.521    0.342
       132 -10.1101    156.1383     77.0494   2.6032282323e+01   3.4885285582e+01    0.3515867    0.2062082  69.09   0.00142081    2.107    0.525
       133 -12.4800     72.9077     74.2807   4.9262148415e+01   5.3822640304e+01    0.6775987    0.5935416  48.94  0.001778168    1.213    0.175
       134 -11.0786    225.9425     74.3621   1.4169081225e+01   1.9653181569e+01    0.2547356    0.1761227 -29.66 0.0008476556    1.390    0.281
       135 -10.0108    137.0472     62.3207   2.5713549710e+01   4.2091365257e+01    0.3295245    0.2733288 -57.26 0.0007641015    1.262    0.208
       136 -11.0377    141.7338     61.5736   2.4428771494e+01   4.1062056585e+01    0.8543623    0.4129995  31.72  0.002561822    4.189    0.761
       137 -10.7904    127.6794     58.5721   2.6699755336e+01   4.5025036166e+01    0.5396445    0.2742885  39.33  0.001846256    2.341    0.573
       138  99.0000    108.9259     54.8821   3.0372972488e+01   5.0161890595e+01     1.603957    0.6746529  34.06  0.004616092    4.294    0.767
       139 -10.4214     99.1648     47.4196   3.0489468068e+01   5.3694966922e+01    0.3273265    0.2443687 -23.66  0.001012397    1.471    0.320
       140 -10.9927     98.3754     55.7979   3.3871219535e+01   5.2422494261e+01    0.3392569     0.293963 -49.87 0.0007440625    1.229    0.186
       141 -10.6758    101.7273     53.0085   3.1809163522e+01   5.2156874480e+01    0.6275986    0.4113752  55.44  0.002073385    1.541    0.351
       142 -10.8586    248.8595     55.5422   7.5660447211e+00   1.7785152034e+01    0.3331326    0.2162224  49.57  0.001426029    1.978    0.494
       143 -10.5867    135.6300     52.9133   2.2970682684e+01   4.3984740536e+01    0.5660965     0.221846  60.14  0.001988032    2.589    0.614
       144 -11.0040     90.4755     51.1132   3.4684947601e+01   5.5005375952e+01    0.2427788    0.2111436  44.14 0.0003113627    1.118    0.106
       145 -10.2083    245.1938     50.3013   6.7634648448e+00   1.9152681666e+01    0.1952808    0.1323558 -34.72 0.0005142256    1.315    0.240
       146  -9.7708    160.4802     50.5105   1.7342074491e+01   3.8129396834e+01    0.2438535    0.1659787  42.64  0.001151812    1.656    0.396
       147  -9.8918    161.9543     47.5044   1.6186113804e+01   3.8197879959e+01    0.3397704     0.244873  72.12  0.001660807    1.382    0.276
       148 -13.1798    232.6364     48.7098   7.5594729010e+00   2.1829926513e+01     1.043073    0.7134139  73.68   0.00475931    1.594    0.373
       149 -10.4080    165.6545    102.0119   3.0892867378e+01   2.8084523709e+01    0.2182811    0.1912651 -39.23  0.000627271    1.113    0.101
       150 -11.2687    196.7745    108.5347   2.6573299888e+01   2.0190354222e+01    0.5346141    0.3480068  75.42  0.002368867    2.366    0.577
       151 -12.0667     75.2474     41.8532   3.6418387968e+01   5.9822752589e+01    0.3604523    0.3254115  19.33 0.0007926613    1.051    0.049
       152 -10.6583    250.4618     44.4760   5.0719752021e+00   1.8886375533e+01    0.1763393    0.1654862 -46.66 0.0005912122    1.225    0.184
       153 -10.6943    246.9973     41.9764   4.8182214392e+00   1.9852165249e+01    0.3582668    0.2019034 -62.15  0.001587653    1.742    0.426
       154 -10.5344    122.9086     43.8071   2.2751230725e+01   4.8556456776e+01    0.4784728    0.2897649  38.33  0.001914607    1.863    0.463
       155 -10.0822    104.8245     44.1304   2.7565356285e+01   5.2906862057e+01    0.3450469    0.2594506  17.34  0.001671001    1.626    0.385
       156 -10.3795     99.8108     41.6051   2.8042890338e+01   5.4481158256e+01    0.3207948    0.2788782  16.39  0.001443503    1.223    0.183
       157 -10.1736     94.0252     41.5072   2.9767823996e+01   5.5830235704e+01    0.2598029    0.2045892  -5.82 0.0008579692    1.474    0.321
       158 -10.0139    240.9784     39.8979   4.8580970210e+00   2.1276491284e+01    0.1852703    0.1464118 -48.09 0.0006485482    1.058    0.054
       159  -9.2585    249.2564     36.1321   3.3990188888e+00   2.0130505262e+01    0.4058443   0.09524342 -42.82  0.001402609    2.912    0.657
       160  -6.7273    113.7745     38.1433   2.2901242675e+01   5.1645740845e+01     0.378631    0.2069507 -60.40  0.001413194    2.884    0.653
       161  -9.8197    104.6459     28.0079   2.1272529501e+01   5.5264343946e+01    0.2775157    0.2415493 -50.02  0.001556959    1.262    0.207
       162  -9.1382    110.0016     36.2570   2.3142735612e+01   5.2839502816e+01    0.1982531    0.1647756  32.53 0.0004206733    1.247    0.198
       163 -10.6760    112.7045     32.7770   2.1126089488e+01   5.2656682366e+01    0.3726022     0.257377  52.63  0.000390497    1.340    0.254
       164  -9.9717    122.3453     33.1653   1.9030899421e+01   5.0198226953e+01    0.5089934    0.2118153 -48.57  0.001811982    3.025    0.669
       165  -9.9520    124.0727     28.9901   1.7128275136e+01   5.0300645460e+01    0.2549179    0.1903791  62.19 0.0007341096    1.239    0.193
       166  -9.4977     96.4300     36.5373   2.7025761245e+01   5.6039853627e+01    0.1411044    0.1357826  51.51 0.0002268423    1.057    0.054
       167 -11.2728     91.8369     33.9839   2.7373143745e+01   5.7476860044e+01     0.525992    0.2910555  38.01  0.002290191    1.904    0.475
       168 -10.5581     74.5512     33.7296   3.3179866521e+01   6.1297445860e+01    0.3729632    0.2215877  39.81  0.001762969    1.619    0.382
       169  -9.3408    217.9736    107.9720   2.2994790866e+01   1.6064206106e+01    0.1608262    0.1421096 -33.01            0    1.004    0.004
       170  -9.9966    169.7876     32.5146   1.0537012812e+01   3.8247798027e+01    0.2574137    0.1330494  75.95 0.0007325844    2.011    0.503
       171 -13.1539     78.8320     49.9702   3.8357201573e+01   5.7657930125e+01     1.008662    0.6200774  28.30  0.001410084    1.887    0.470
       172  -9.6731    242.2302     30.0025   2.6094106197e+00   2.2217867542e+01    0.2914541    0.1580853 -62.30  0.001530101    1.745    0.427
       173  -9.3165    237.7928     30.6084   3.0738905582e+00   2.3029464707e+01    0.2873596    0.1898923  89.00  0.001742525    1.564    0.361
       174 -11.8128    161.7832    106.5726   3.2901061688e+01   2.8073451081e+01    0.3025217    0.2116449 -39.76  0.001414079    1.401    0.286
       175  -9.8085    209.4933    105.3993   2.3717946778e+01   1.8140234491e+01    0.2904276    0.1697962 -58.24  0.001275402    2.248    0.555
       176 -12.5532    156.0003    104.8384   3.3727721031e+01   2.9699108734e+01    0.7428023    0.4033427 -59.11  0.002715707    2.612    0.617
       177  -9.7248    152.4416     29.8807   1.2276918745e+01   4.2948865885e+01    0.2126807     0.171088  76.69 0.0004789817    1.168    0.144
       178 -11.4357    152.1221     95.9809   3.2233948264e+01   3.2309438666e+01     0.602183    0.4813981 -75.46   0.00177271    1.514    0.339
       179 -11.2463     86.1291     28.8684   2.6989335461e+01   5.9505665827e+01    0.4139315    0.2242982  54.24  0.001242054    1.762    0.432
       180  -9.8737    168.8441     26.7983   8.9826486335e+00   3.9176806825e+01    0.1912767    0.1441424 -63.23 0.0004687269    1.291    0.226
       181 -10.7453    234.2804     23.9917   1.8763100674e+00   2.4508192307e+01    0.2562145    0.1969026 -33.68  0.001665395    1.312    0.238
       182 -10.9109    159.3750     99.1856   3.1488830013e+01   3.0037206793e+01    0.2971559    0.2481719 -62.77   0.00039358    1.298    0.230
       183 -10.3067    157.5138     95.5844   3.0927259367e+01   3.1149646799e+01    0.3110466     0.220179  55.82 0.0009120055    1.465    0.317
       184  -9.5480    111.6607     26.2755   1.8853348007e+01   5.3756862998e+01    0.2031608    0.1107682 -53.30  0.000267559    2.372    0.578
       185 -10.5452    113.2238     23.2820   1.7321333930e+01   5.3729663327e+01    0.3269368    0.2336695  63.26  0.001684473    1.297    0.229
       186 -10.5148     21.5392     25.4936   5.5848686418e+01   7.1243641344e+01     0.430168    0.2089465  27.17   0.00214738    2.084    0.520
       187 -12.1885    145.5423    103.0241   3.5674397921e+01   3.2404652931e+01    0.6272366     0.516392  63.82  0.002230994    1.314    0.239
       188 -11.0985    126.6921     24.7603   1.5052648054e+01   5.0150226910e+01    0.3171669    0.2208025  81.77 0.0002871671    1.521    0.342
       189  -8.8987    102.5653     23.0860   1.9792847669e+01   5.6387204262e+01    0.2305269    0.1863033  77.56 0.0005673224    1.324    0.245
       190 -10.1275     98.0910     21.7346   2.0389143984e+01   5.7634053124e+01    0.3062251    0.2757966   1.02  0.001764555    1.186    0.157
       191 -10.4912    244.1091     18.7662   7.7324086110e-02   2.3125293774e+01     0.290057    0.1696571 -51.15 0.0006438415    1.358    0.263
       192 -10.8820    247.1273     22.8415   7.4343758717e-01   2.2083062178e+01    0.2102877    0.1762932 -66.05 0.0007807023    1.104    0.095
       193 -11.6519    242.1788     22.7284   1.0477857901e+00   2.3063899508e+01    0.3684203    0.2083288  88.40  0.001156635    1.859    0.462
       194 -11.4067    202.2137     21.0302   3.7766592342e+00   3.1812126846e+01    0.3426093    0.2109526 -55.30  0.001175091    1.465    0.317
       195 -12.0407    147.6462     83.1907   2.9652422371e+01   3.5793106935e+01    0.7791116    0.4519584 -45.50  0.003288142    1.733    0.423
       196  -9.1030    138.3685     22.2926   1.2059276517e+01   4.7446998597e+01    0.1493149   0.09748479  40.30 0.0007026754    1.718    0.418
       197 -10.5183    118.8593     21.5778   1.5446498718e+01   5.2509785299e+01    0.4428739    0.2463859 -78.97  0.001684356    2.981    0.665
       198 -10.4026    134.8093     25.3380   1.3732859192e+01   4.8007307302e+01    0.3106449    0.2534729  88.77  0.001415584    1.226    0.184
       199 -11.5145    130.3121     19.2111   1.2371774329e+01   4.9855782814e+01    0.2863318    0.2142026  71.40 0.0003325539    1.235    0.190
       200 -11.4560    140.8060     96.0476   3.4918593009e+01   3.4886143758e+01    0.4425249    0.3521774  68.09 0.0007840008    1.409    0.290
       201  -9.6720    153.4647     25.1362   1.0611919200e+01   4.3255742060e+01    0.1899839    0.1365087 -32.38 0.0003988514    1.462    0.316
       202  -9.7102    139.1381     17.6747   1.0351535248e+01   4.7756976719e+01    0.2439501   0.09056097 -28.01 0.0009015132    2.795    0.642
       203  -9.6975    153.4761     17.1031   8.0610912404e+00   4.4146604513e+01    0.1839653    0.1371796 -26.15 0.0005534422    1.482    0.325
       204 -10.6565    131.1058     86.8940   3.4739049844e+01   3.8951238469e+01    0.3209337    0.2583228 -63.35 0.0007715394    1.382    0.277
       205 -13.1783    122.9826     98.9693   4.0369850233e+01   3.8270998252e+01    0.8708535    0.5770856 -18.23  0.003456927    2.250    0.556
       206 -13.6707    131.4585     95.7089   3.7184787390e+01   3.7075576754e+01     1.178074    0.9337128 -76.25   0.00552185    1.559    0.359
       207 -11.1450    135.8875     87.2678   3.3635295707e+01   3.7770080526e+01    0.5448805    0.2900511  49.56  0.001999292    1.869    0.465
       208 -12.1079    136.2026     81.4167   3.1830530728e+01   3.8835189326e+01     1.029371    0.6729993  74.54  0.002548552    2.122    0.529
       209  -9.2881    223.4783     15.5451   7.5144839330e-01   2.7703834337e+01    0.1267782   0.09750403 -61.85 0.0002189986    1.068    0.063
       210 -12.1933    121.2041     87.1882   3.7473174842e+01   4.1150506821e+01     0.611588    0.4066302 -56.65  0.001321983    1.700    0.412
       211 -12.2612    125.2341     83.9733   3.5413712524e+01   4.0888382294e+01    0.6273782    0.4664819 -35.48  0.001861376    1.398    0.285
       212 -10.0012    160.1718     13.9138   6.2076556608e+00   4.2779612596e+01    0.1913915    0.1616071 -70.44 0.0003354456    1.111    0.100
       213  -9.9910    109.4781    104.4957   4.5753235654e+01   3.9916576742e+01    0.1535182    0.1525424   4.26 2.754484e-05    1.018    0.018
       214 -10.0674    227.7341    102.6507   2.0375547314e+01   1.5052398540e+01     0.239056    0.1684554 -25.28  0.001320688    1.377    0.274
       215 -11.6095    226.1063     97.8581   1.9525001265e+01   1.6098207704e+01    0.3543389    0.2696247 -24.30  0.002043376    1.289    0.224
       216 -10.0165    187.2195     12.9951   3.0657656870e+00   3.6202796599e+01     0.208575    0.1411205 -60.93 0.0006009325    1.359    0.264
       217 -10.5347    214.6568    103.0010   2.2359073401e+01   1.7507687320e+01    0.2775201    0.1648875  25.65  0.001190571    2.690    0.628
       218 -12.1059     73.3609     96.7994   5.5570444850e+01   4.8489542435e+01    0.4196228    0.3849144 -56.45   0.00227633    1.068    0.064
       219 -10.2437    225.9868     31.2059   4.1546069189e+00   2.5387635562e+01    0.5280315    0.1433598  67.66   0.00205991    3.622    0.724
       220 -10.9768     95.9655    101.1896   4.9043828598e+01   4.3375493344e+01    0.2971389    0.2270419  15.91   0.00136613    1.596    0.373
       221 -12.5876     87.3703     98.1958   5.1063933420e+01   4.5703366736e+01     0.706892    0.4426612  20.72  0.002216803    2.109    0.526
       222 -10.7636     81.5209     98.4955   5.3138357121e+01   4.6687257362e+01    0.2701189     0.230271  48.93 0.0007851454    1.209    0.173
       223 -12.0268    102.3116     96.2511   4.5679044361e+01   4.3250763228e+01    0.5434505    0.3824444 -60.64  0.001720928    1.582    0.368
       224 -12.8565    106.9285     95.9629   4.4175748120e+01   4.2365084490e+01    0.7328024    0.3910265 -38.82  0.001527693    2.037    0.509
       225 -11.8006     57.6914     99.7539   6.2050522972e+01   5.0142817727e+01    0.3216047    0.2194998  24.00  0.001535713    1.604    0.376
       226  -9.7957    244.5676     98.3851   1.7239095510e+01   1.2639481634e+01    0.2301483    0.1091255 -25.13   0.00102195    2.346    0.574
       227 -10.5806    170.4162     98.0193   2.8873720051e+01   2.7761482556e+01    0.3854107    0.2594465 -51.66   0.00175554    1.552    0.356
       228 -11.8124     11.9774     97.3977   7.9329515627e+01   5.5345994378e+01    0.3014214    0.2795529 -50.79  0.001113268    1.116    0.104
       229 -11.0122    199.8298     96.2306   2.3086071819e+01   2.1641505448e+01    0.3472847    0.2635608 -80.33  0.001139964    1.704    0.413
       230 -12.6381     87.2973     64.4413   4.0667695458e+01   5.3156209686e+01     1.187053    0.7111059  29.19  0.004981165    1.990    0.497
       231 -14.0564     63.0415     86.3505   5.6646839393e+01   5.2654435477e+01      1.50589     1.078519 -21.27  0.004283921    1.721    0.419
       232 -13.2023     78.9565     59.3419   4.1858442980e+01   5.5844553913e+01     1.214573    0.4864902  39.64  0.003882812    2.543    0.607
       233 -11.1881    113.2672    246.8178   6.9110843136e+01   9.2836777920e+00     0.347397    0.2358868 -25.71  0.001514188    2.125    0.530
       234 -11.1865     36.7758    248.5178   8.4860198384e+01   1.8356831978e+01    0.1952465    0.1462181  85.01  0.001420149    1.374    0.272
       235 -10.6227    180.8724    243.7500   5.5263864788e+01   6.2979157611e-01    0.1835292    0.1609142  80.74  0.001244572    2.095    0.523
       236  -9.8591    110.3143    241.3087   6.9147980083e+01   1.0590380390e+01    0.1162129   0.08786649   3.44 0.0007028643    1.629    0.386
       237  -9.8159    218.5114    239.5326   4.7831866682e+01  -3.5658769246e+00    0.1129825   0.08461082   7.84 0.0001456772    1.032    0.031
       238 -13.0706     38.1072     81.6007   6.5626043584e+01   5.7093229222e+01    0.8475749    0.4943171 -47.29  0.001947092    1.591    0.372
       239 -10.6238     88.4077    238.8038   7.3525156961e+01   1.3945646867e+01    0.1435973    0.1134142 -50.01 0.0004733713    1.599    0.375
       240 -10.0282     15.8316    238.4106   8.8542343368e+01   2.2330914187e+01    0.1373824   0.09662695  24.25 0.0004246998    1.617    0.381
