#   1 NUMBER                 Running object number                                     
#   2 MAG_AUTO               Kron-like elliptical aperture magnitude                    [mag]
#   3 X_IMAGE                Object position along x                                    [pixel]
#   4 Y_IMAGE                Object position along y                                    [pixel]
#   5 X_WORLD                Barycenter position along world x axis                     [deg]
#   6 Y_WORLD                Barycenter position along world y axis                     [deg]
#   7 A_WORLD                Profile RMS along major axis (world units)                 [deg]
#   8 B_WORLD                Profile RMS along minor axis (world units)                 [deg]
#   9 THETA_WORLD            Position angle (CCW/world-x)                               [deg]
#  10 FWHM_WORLD             FWHM assuming a gaussian core                              [deg]
#  11 ELONGATION             A_IMAGE/B_IMAGE                                           
#  12 ELLIPTICITY            1 - B_IMAGE/A_IMAGE                                       
         1 -14.1054      2.2180    125.3790   2.9249126031e+02   6.3057541555e+00    0.1995564   0.02691079 -63.29  0.009253517    7.685    0.870
         2 -14.1630      2.8509     84.9244   2.9224380854e+02   6.7698870569e+00    0.1648195   0.04652478 -69.67  0.008933072    5.912    0.831
         3 -14.5494      2.8985     22.0720   2.9186928948e+02   7.4957495919e+00    0.2429048    0.0575964 -58.83   0.01636627    3.579    0.721
         4 -13.9383    187.9969     22.5120   2.8975858141e+02   6.4217277327e+00    0.1057253   0.04259588 -52.90  0.007424562    2.315    0.568
         5 -14.3239    195.5269     17.3008   2.8964159349e+02   6.4381389329e+00   0.07913053    0.0688083  -5.86  0.007667005    1.252    0.201
         6 -14.0285    200.9044      9.4683   2.8953344331e+02   6.4972432360e+00   0.07585192   0.04824072  -1.82   0.00136362    2.156    0.536
         7 -10.3576    107.9458    240.4995   2.9196897334e+02   4.3656003924e+00    0.0191426  0.009771639 -67.14 0.0005003015    2.039    0.510
         8  -9.7002    234.5165    250.5317   2.9058925835e+02   3.5186652691e+00  0.006499311  0.006341271 -49.05 0.0001112605    1.013    0.013
         9 -10.3803    152.7443    243.9209   2.9147953471e+02   4.0675895071e+00   0.01335727  0.009598251 -74.83  0.001146143    1.484    0.326
        10 -10.4349    143.7465    249.4349   2.9161460449e+02   4.0557696691e+00   0.01376433    0.0114168  67.47 0.0008720855    1.327    0.247
        11 -11.5496    150.2283    247.9096   2.9153182453e+02   4.0359957153e+00   0.03134495   0.01005512  36.36  0.002375668    2.910    0.656
        12 -11.0333    134.1610    249.5010   2.9172404175e+02   4.1103133364e+00   0.02024166   0.01225013  38.55  0.001311562    1.658    0.397
        13 -11.3687    124.7778    249.3122   2.9182967661e+02   4.1666216805e+00   0.02213279   0.01432648  19.43  0.002270042    1.675    0.403
        14 -10.6382    121.8013    244.8293   2.9183696504e+02   4.2356315905e+00   0.01599435  0.008955081  38.13  0.001113779    1.782    0.439
        15 -12.1323    126.2290    240.9273   2.9176344130e+02   4.2552186181e+00   0.02361533   0.02057532 -66.19  0.001648666    1.134    0.118
        16 -12.0099    109.0796    248.1548   2.9200144285e+02   4.2705237063e+00   0.03343437   0.01722736  32.81  0.003139985    1.906    0.475
        17  -9.7989    100.9436    250.4405   2.9210757494e+02   4.2909802585e+00   0.01280945   0.00760561  42.87 0.0007778909    1.739    0.425
        18 -11.3038     97.8504    246.3343   2.9211845058e+02   4.3562992555e+00   0.02571022   0.01264603  45.57  0.002275953    2.217    0.549
        19 -11.0144     84.8186    241.6924   2.9223928572e+02   4.4850700220e+00   0.04962814    0.0240887 -20.70  0.003097613    5.133    0.805
        20 -11.7218     81.5914    246.7604   2.9230603454e+02   4.4450312123e+00   0.03984993   0.02089321 -74.31  0.003515424    2.277    0.561
        21 -10.5347     88.0028    250.6501   2.9225609257e+02   4.3631123142e+00   0.02068723  0.007779222  28.28  0.001366743    2.642    0.622
        22 -10.8212     87.7672    247.2567   2.9223867884e+02   4.4037220951e+00   0.01719099    0.0113205  -7.17  0.001514117    2.045    0.511
        23  -9.6861     83.2122    238.1709   2.9223671303e+02   4.5350589136e+00   0.01232457  0.009032166  33.35 0.0008901939    1.371    0.271
        24 -10.8098     86.4630    237.0255   2.9219291920e+02   4.5295828860e+00   0.02007279   0.01380459  -5.34  0.001361754    1.866    0.464
        25  -9.5251     74.8546    250.5745   2.9240529702e+02   4.4397007750e+00    0.0126679  0.006630973  21.62  0.001147377    2.093    0.522
        26 -15.4811     58.1430    216.7577   2.9239534289e+02   4.9271167595e+00    0.2277019    0.1648118  81.62   0.02409635    1.690    0.408
        27 -11.9069     96.4477    239.1754   2.9209199780e+02   4.4471873155e+00   0.02400872   0.01916054 -78.82  0.001666361    1.327    0.247
        28 -10.4536    101.6652    243.2791   2.9205693034e+02   4.3696526369e+00   0.01058491  0.006674978 -68.78 0.0004578325    1.638    0.390
        29 -10.6816    104.1546    238.1713   2.9199832250e+02   4.4143833125e+00   0.01136369   0.01090293 -34.24  0.000698247    1.051    0.048
        30  -9.2909    158.1270    241.8452   2.9140598710e+02   4.0605118221e+00  0.009229992  0.007447397 -34.92 0.0004437338    1.305    0.234
        31 -10.5470    173.4049    240.1346   2.9122206770e+02   3.9920532414e+00   0.01653164   0.01151382 -86.73 0.0008537188    1.719    0.418
        32 -10.4531    132.2502    224.6602   2.9159840089e+02   4.4085998703e+00   0.01257144  0.008681363  20.41 0.0007636846    1.540    0.351
        33  -9.5887    132.5141    231.0153   2.9163311517e+02   4.3335841897e+00   0.01379572  0.007298644  77.47 0.0009706975    3.902    0.744
        34 -11.0969    136.0232    228.0804   2.9157576250e+02   4.3472737266e+00   0.02241537   0.01041139 -55.72  0.001772957    2.013    0.503
        35 -11.1013    135.6832    240.9240   2.9165584694e+02   4.2007132900e+00   0.01422749   0.01092296 -31.57   0.00091096    1.423    0.297
        36 -11.8889    135.1566    236.3849   2.9163490723e+02   4.2562403466e+00   0.01860391   0.01530309 -66.50  0.001562835    1.206    0.171
        37 -10.5576    115.8041    240.1664   2.9187756277e+02   4.3241439114e+00   0.01213786   0.01058603  89.00 0.0007947536    1.221    0.181
        38  -9.3642    119.1708    237.3266   2.9182240821e+02   4.3375716861e+00   0.01909363   0.01006938  80.10  0.001346379    3.956    0.747
        39 -10.8231    117.5141    224.4296   2.9176476143e+02   4.4962880082e+00   0.01440143   0.01225544  16.69  0.001178549    1.231    0.187
        40 -12.2592    110.5249    230.0925   2.9187791174e+02   4.4710985030e+00   0.04212879   0.02731381  13.57   0.00426972    1.778    0.438
        41 -11.3884     98.5852    231.3731   2.9202142049e+02   4.5251171581e+00    0.0222824   0.01634727 -43.41 0.0008750112    1.386    0.279
        42 -11.8631    245.3904    232.6723   2.9035951402e+02   3.6620749498e+00    0.0172651   0.01043722  49.64  0.001203947    1.838    0.456
        43 -10.5843    156.4383    231.7720   2.9136539059e+02   4.1867288709e+00   0.01225962   0.01146401 -37.45 0.0008887899    1.077    0.071
        44 -11.2674    142.4026    229.0157   2.9150871941e+02   4.2996357780e+00   0.02099904    0.0117985 -63.93  0.001569667    1.763    0.433
        45 -13.4037     49.4656    228.3642   2.9256290067e+02   4.8427580635e+00   0.04779134   0.02999458   0.02   0.00199755    2.170    0.539
        46 -13.5470     45.7608    246.0967   2.9271000441e+02   4.6589031269e+00    0.0431507   0.03334854 -26.66  0.003587631    1.450    0.310
        47 -14.8249     10.8761    206.9798   2.9287597546e+02   5.3119785419e+00    0.1193521   0.09317124 -63.63   0.01069807    1.258    0.205
        48 -10.8137     79.5236    229.1471   2.9222524935e+02   4.6606911503e+00  0.009893808  0.008523948  67.60 0.0007060544    1.252    0.201
        49 -10.0352    180.9437    229.4718   2.9107298791e+02   4.0717570652e+00  0.009615251  0.006500985  26.16 0.0003626168    1.515    0.340
        50 -10.7972    128.5267    230.9873   2.9167832595e+02   4.3569162671e+00   0.02236377   0.01147882  89.12  0.001244085    3.844    0.740
        51 -10.5343    190.8320    228.0598   2.9095214777e+02   4.0309270989e+00   0.01029851  0.009273394  31.33 0.0002968835    1.128    0.114
        52  -9.5705    149.9896    229.5000   2.9142526717e+02   4.2502349391e+00  0.009494037  0.004808521  50.24 0.0005499661    2.352    0.575
        53 -10.6011    121.2163    232.7296   2.9177186153e+02   4.3789401039e+00   0.01701116   0.01224913  51.15  0.001272002    1.498    0.332
        54 -10.5352    164.8873    226.8531   2.9124005840e+02   4.1948002815e+00   0.01534778  0.009819098 -77.54  0.001104486    1.790    0.441
        55 -14.8210     27.1644    248.2408   2.9293440731e+02   4.7409861728e+00   0.06621344    0.0327064  22.83  0.005925077    2.192    0.544
        56 -10.3149     89.8125    218.9699   2.9204776954e+02   4.7191470968e+00   0.01763658   0.01110617  56.60  0.001162512    1.895    0.472
        57 -11.4045     98.3203    223.1471   2.9197566371e+02   4.6217954559e+00   0.01718162   0.01647013  31.51 0.0004248896    1.062    0.059
        58 -10.1932     93.8272    217.4786   2.9199320979e+02   4.7132612355e+00   0.01632397  0.009829669 -81.80  0.001522221    2.092    0.522
        59  -9.3036     38.8182    224.3336   2.9266031603e+02   4.9506237583e+00   0.01199448  0.005107246 -66.26 0.0007733106    2.461    0.594
        60  -9.9773    110.8042    222.4906   2.9182964088e+02   4.5574130269e+00   0.01368666   0.01276517 -23.23  0.001237929    1.109    0.098
        61 -10.5299    104.9780    222.9880   2.9189892050e+02   4.5852554009e+00   0.01373896  0.009809993  -9.53 0.0007382925    1.750    0.429
        62 -11.4164    105.0367    218.9793   2.9187447436e+02   4.6312839280e+00   0.01346549   0.01165476 -72.91            0    1.167    0.143
        63  -8.8323    220.0107    223.5150   2.9059340412e+02   3.9147165356e+00  0.009129745  0.006463213  28.26 0.0003398343    1.433    0.302
        64  -8.7978    155.6651    223.3315   2.9132405978e+02   4.2887845811e+00  0.007037362  0.004892324  63.62  0.000705219    1.731    0.422
        65 -10.7662    149.9575    222.3207   2.9138299981e+02   4.3334329942e+00   0.01255304  0.009121791 -56.60  0.000263515    1.329    0.248
        66  -9.2030    149.5423    218.5317   2.9136521951e+02   4.3796430726e+00  0.009827314  0.007734618  75.66 0.0005439567    1.463    0.317
        67 -11.4865    141.7840    213.1898   2.9142178504e+02   4.4862110874e+00   0.03362246   0.02967179 -39.15  0.004085504    1.148    0.129
        68 -11.6472    142.2068    221.9569   2.9146903865e+02   4.3823906698e+00   0.01320667   0.01144644 -77.42 0.0003289977    1.184    0.156
        69 -11.6942    142.3188    218.7045   2.9144845097e+02   4.4193548651e+00   0.01862701    0.0123102  55.60 0.0003053905    1.745    0.427
        70  -9.5929    164.2312    221.0517   2.9121305596e+02   4.2656638607e+00   0.01628408  0.006070265 -48.70  0.001271893    2.655    0.623
        71 -10.2199    177.2526    218.3907   2.9104911172e+02   4.2211861264e+00   0.01758773   0.01271132  81.14   0.00130538    1.700    0.412
        72 -10.6849    247.6868    218.3146   2.9024797346e+02   3.8146402930e+00   0.02380537  0.007092922  20.45  0.001381819    5.232    0.809
        73 -10.3581    233.3244    216.8862   2.9040265442e+02   3.9142737823e+00   0.01388629  0.009020979  65.18  0.001027764    1.978    0.494
        74  -9.4465    133.9390    217.9884   2.9153957235e+02   4.4760090703e+00     0.010652  0.007574617  62.83 0.0007097322    1.659    0.397
        75 -10.2119    183.2932    214.1986   2.9095547965e+02   4.2347298502e+00   0.01348418  0.009884793  55.38 0.0008394441    1.508    0.337
        76  -8.5409     85.7343    215.3398   2.9207268735e+02   4.7846383880e+00  0.008706866  0.007374199 -32.65 0.0003983513    1.238    0.192
        77 -10.0400     88.3669    213.2447   2.9203028211e+02   4.7937054658e+00   0.01250881   0.01028745  89.23 0.0003955818    1.336    0.252
        78 -10.9078    101.6425    212.3335   2.9187369573e+02   4.7277239394e+00   0.02282987   0.01523843  25.76  0.002395928    1.538    0.350
        79  -9.3901    152.1559    211.9457   2.9129635223e+02   4.4407015386e+00   0.01002752  0.008655567  70.15 0.0005556225    1.253    0.202
        80 -10.1447    131.3643    211.8231   2.9153227112e+02   4.5621674485e+00    0.0116191  0.009332736  59.74 0.0004630545    1.360    0.265
        81  -9.4943    134.6475    208.4533   2.9147488480e+02   4.5821856121e+00   0.01484042  0.008992356 -34.21  0.001080549    1.957    0.489
        82  -9.4897     81.3879    211.1373   2.9209727017e+02   4.8582952450e+00   0.01676743  0.008203874  57.47  0.001301113    3.072    0.674
        83  -9.0123    109.4884    210.4708   2.9177330255e+02   4.7040255681e+00  0.006482164  0.006365361 -62.15 0.0002846367    1.003    0.003
        84  -9.2137    197.7752    208.1891   2.9075502807e+02   4.2204517534e+00  0.008670707   0.00733809 -28.08   0.00027444    1.261    0.207
        85 -10.7297    174.6480    206.1262   2.9100582734e+02   4.3780215432e+00   0.01952735   0.01058297 -44.74  0.001190389    1.916    0.478
        86 -10.2662     97.0070    207.2260   2.9189618125e+02   4.8135274981e+00    0.0128804   0.01069948  80.01 0.0007746245    1.337    0.252
        87 -11.5023     91.8908    204.8602   2.9194041479e+02   4.8703845140e+00    0.0279273   0.01590704  21.99  0.001439248    1.888    0.470
        88 -11.8168    247.0034    205.8726   2.9018165307e+02   3.9623232455e+00   0.02617227   0.01724838  -4.40  0.002560156    2.028    0.507
        89  -8.5167    183.3045    206.3097   2.9090843926e+02   4.3258561533e+00  0.006837048  0.004869538 -29.64 0.0002523744    1.610    0.379
        90 -10.7593    166.1048    204.8385   2.9109537722e+02   4.4422866667e+00   0.01956061   0.01602668 -48.64  0.002287446    1.202    0.168
        91  -9.9156    125.8434    205.4191   2.9155709305e+02   4.6680936417e+00   0.01114563  0.009096121 -81.25  0.000608238    1.304    0.233
        92 -10.8552    108.7034    203.3176   2.9173978322e+02   4.7912892742e+00   0.01817032  0.009377515 -52.06 0.0004656675    1.854    0.461
        93  -9.5246    148.9249    205.2506   2.9129334158e+02   4.5367771419e+00   0.01124116  0.007331788 -19.49  0.001078596    2.033    0.508
        94 -10.9891    133.1617    202.8248   2.9145836476e+02   4.6558532513e+00   0.01170311   0.01014703 -57.56 0.0002630468    1.124    0.110
        95 -10.6453    134.0866    197.6009   2.9141679935e+02   4.7109234613e+00   0.01614424   0.01090668 -54.62 0.0003600029    1.426    0.299
        96 -10.1194    103.4605    203.2448   2.9179905922e+02   4.8223675300e+00   0.01323432  0.009765778 -23.30  0.001287312    1.588    0.370
        97  -9.7262    224.7830    202.3803   2.9041338135e+02   4.1313124246e+00    0.0101184  0.008714317 -80.64 0.0005009875    1.209    0.173
        98 -12.5193     19.0103    250.0286   2.9303780831e+02   4.7671398018e+00   0.01239144    0.0104706 -82.90  0.000606739    1.248    0.199
        99 -10.9480    197.3107    200.8695   2.9071676205e+02   4.3077383552e+00   0.01885372   0.01318316  38.55  0.002003908    1.442    0.307
       100  -9.5576    169.5416    200.2790   2.9102915919e+02   4.4751350353e+00   0.01030672  0.009350342 -87.74 0.0006287046    1.144    0.126
       101  -9.2923    122.9396    200.9591   2.9156366775e+02   4.7364319693e+00  0.007802274  0.007659138  15.70 0.0004205786    1.040    0.039
       102  -8.9681    115.4685    201.0037   2.9164900687e+02   4.7790262052e+00  0.009086186  0.005614489  81.31 0.0008056162    2.353    0.575
       103 -10.1247    141.5001    198.4893   2.9133767780e+02   4.6578419782e+00   0.01722828   0.01068934 -28.22  0.000976611    2.050    0.512
       104  -8.8668    158.5519    199.5030   2.9114960931e+02   4.5476184560e+00  0.006497394  0.006330229 -59.39  5.78157e-05    1.005    0.005
       105 -10.5449    100.6255    198.2787   2.9180187082e+02   4.8961576958e+00   0.01178035   0.01034174 -35.28 0.0002646657    1.170    0.145
       106  -9.5150     86.1421    199.0525   2.9197143926e+02   4.9706977093e+00  0.009877784  0.008124528 -35.17 0.0003743747    1.272    0.214
       107 -10.9400     57.3171    196.2638   2.9228330765e+02   5.1689736705e+00   0.03274063   0.01318526 -71.33  0.002428447    3.162    0.684
       108 -11.9535     77.4146    187.8282   2.9200427183e+02   5.1508282709e+00   0.01648564   0.01213939 -39.43 0.0007026559    1.421    0.296
       109  -9.4692     67.3350    196.7116   2.9217181605e+02   5.1061191641e+00   0.01307593  0.008653036  47.97 0.0006746689    1.617    0.381
       110 -11.9957     72.8084    194.6808   2.9209740964e+02   5.0980913919e+00   0.02392115   0.01239687 -46.21  0.001482992    1.969    0.492
       111 -10.2375     70.6878    190.0967   2.9209438002e+02   5.1633349737e+00   0.01078872  0.009334659  13.53 0.0002555523    1.217    0.178
       112 -10.1981     52.7560    198.1059   2.9234619986e+02   5.1739102068e+00   0.01159089  0.009740922   9.19 0.0006449251    1.280    0.219
       113  -9.3678     95.1954    196.9092   2.9185559320e+02   4.9433072723e+00   0.01023832  0.008938613  65.68 0.0008508317    1.224    0.183
       114  -9.5023    113.8111    196.0326   2.9163836158e+02   4.8460822754e+00   0.01260928  0.007406134  40.74  0.001237832    1.729    0.422
       115  -9.1669    107.6136    195.7976   2.9170754965e+02   4.8845529271e+00    0.0092756  0.006282287 -77.88 0.0006070628    1.654    0.395
       116 -16.0933      8.6388    245.6948   2.9313029936e+02   4.8768375092e+00    0.1518731   0.09520855 -43.56   0.01403744    1.651    0.394
       117  -9.8153    177.2129    194.4557   2.9090723474e+02   4.4981068290e+00   0.01539027  0.009272058 -29.80  0.001434022    2.114    0.527
       118 -10.3978    172.9921    192.9437   2.9094626737e+02   4.5399890452e+00   0.01873445  0.009945946 -56.60   0.00124148    1.783    0.439
       119 -10.5011    159.6550    194.2000   2.9110552344e+02   4.6025559269e+00   0.01534362    0.0102997  43.46  0.001154723    1.537    0.349
       120 -10.0263    120.4445    194.5682   2.9155412119e+02   4.8247431655e+00    0.0215777  0.008306356  39.81  0.001737404    2.590    0.614
       121 -10.4497     84.0492    193.9266   2.9196486678e+02   5.0420535537e+00    0.0253049   0.01485031  28.01  0.001550494    1.724    0.420
       122 -11.2220     73.5418    238.0482   2.9234608081e+02   4.5921657929e+00   0.02403693   0.01586434  78.92    0.0019609    2.032    0.508
       123 -10.2167     29.0568    177.6452   2.9249505122e+02   5.5469426629e+00   0.02034963   0.01120006  23.11  0.001926571    1.933    0.483
       124 -11.3422     32.4884    189.8740   2.9252839587e+02   5.3857283817e+00   0.01989999   0.01595233  35.94   0.00230561    1.260    0.206
       125 -12.2356     26.4687    184.4927   2.9256513163e+02   5.4825942490e+00   0.03096494   0.01821885  46.42  0.003030087    1.824    0.452
       126 -10.5512    191.4393    191.4436   2.9072745420e+02   4.4506478410e+00    0.0124633   0.01208557 -52.68 0.0005875454    1.013    0.013
       127  -9.8654    112.8790    192.1281   2.9162578823e+02   4.8966193830e+00   0.01105891  0.009584573  -3.54 0.0002542829    1.256    0.204
       128  -8.9120    101.9850    192.0159   2.9174920618e+02   4.9607563212e+00   0.00763012  0.007594321  13.92 0.0003392378    1.025    0.024
       129 -11.6812    249.7390    242.6318   2.9036937917e+02   3.5218698814e+00   0.01844382  0.008890051 -57.43  0.001670895    1.950    0.487
       130 -10.3184    135.4638    190.2813   2.9135762196e+02   4.7876151446e+00   0.01152955   0.01106669 -62.38 0.0003670322    1.022    0.021
       131  -8.8229    197.9459    189.9995   2.9064484371e+02   4.4296964858e+00  0.007574402  0.007469769  21.58 0.0009555632    1.035    0.033
       132 -11.5080    250.0489    187.6325   2.9003838735e+02   4.1553832860e+00   0.02103801   0.01083129 -60.31  0.001960312    1.862    0.463
       133  -9.7833     54.9722    188.9189   2.9226648283e+02   5.2674436314e+00  0.009662439   0.00940111  26.10 0.0003120606    1.049    0.046
       134 -10.4186     44.0163    188.7452   2.9239031721e+02   5.3324934146e+00   0.01775645   0.01161303   8.08  0.001773826    1.861    0.463
       135 -10.6031     92.6649    231.9199   2.9209206086e+02   4.5529109038e+00   0.01329064   0.00792751 -63.32   0.00131573    1.649    0.393
       136  -9.7885    175.8708    186.9992   2.9087814302e+02   4.5920636432e+00   0.00985858  0.009426506 -80.50 0.0004340684    1.051    0.049
       137 -10.7993     28.5110    181.5216   2.9252424529e+02   5.5052304773e+00   0.01970418   0.01027521  41.59  0.001535698    1.964    0.491
       138  -9.3713    123.9438    185.9591   2.9146311986e+02   4.9041084866e+00  0.009865294  0.007470619  64.05 0.0003053599    1.512    0.339
       139  -9.3468     67.8662    186.5371   2.9210541587e+02   5.2207644333e+00  0.009535702  0.006524882  24.36 0.0009558597    1.512    0.339
       140 -10.9610    141.7266    184.0835   2.9124946724e+02   4.8231122066e+00   0.02442843  0.009864721  48.76  0.001504461    3.174    0.685
       141  -9.7051     38.5082    184.0776   2.9242543254e+02   5.4181779196e+00   0.01137109  0.009767242 -58.11 0.0005879298    1.134    0.118
       142 -10.0115     37.1222    180.0916   2.9241760400e+02   5.4722649474e+00   0.01070495  0.009259164 -62.62 0.0004195388    1.133    0.117
       143  -9.2533    217.4558    183.4457   2.9038393155e+02   4.3925163849e+00  0.006469346  0.006327908  86.34 8.671754e-05    1.034    0.032
       144 -12.9346     42.9381    237.5008   2.9269130058e+02   4.7745873424e+00   0.02928468   0.02049713 -14.79 0.0004411374    1.807    0.447
       145  -8.5356    116.3103    181.6763   2.9152461341e+02   4.9976977471e+00  0.006872339  0.004936464  64.90 0.0006148787    1.653    0.395
       146 -10.2103    104.2548    180.9432   2.9165758996e+02   5.0757341113e+00   0.01014163  0.009113803  32.01 0.0003292195    1.130    0.115
       147  -9.6635    143.9927    180.4770   2.9120221985e+02   4.8517224119e+00  0.009799986  0.004709509  49.38 0.0006990556    2.485    0.598
       148 -10.2341     87.2800    183.5260   2.9186632725e+02   5.1437411036e+00   0.02209015   0.01066096  28.72  0.001992932    2.073    0.518
       149 -10.3650    129.1064    179.3588   2.9136509352e+02   4.9506304675e+00   0.01213209   0.01030221 -56.30 0.0008056634    1.146    0.128
       150  -9.8122     48.1997    179.8688   2.9229000860e+02   5.4111200216e+00  0.009443347  0.008492289  59.24 0.0004309554    1.162    0.139
       151 -11.3960     96.5871    159.0570   2.9161491538e+02   5.3730877946e+00    0.0233914   0.01171957 -50.20  0.001832413    1.937    0.484
       152 -11.0481     80.5647    163.6312   2.9182471591e+02   5.4125658217e+00   0.01915157   0.01531702  -0.80  0.002177844    1.419    0.295
       153 -10.9012     84.9974    165.9935   2.9178822377e+02   5.3596923223e+00   0.02010526   0.01108379 -64.48 0.0009694442    1.807    0.447
       154 -12.7565     91.6147    167.5043   2.9172178105e+02   5.3040666429e+00   0.05125438   0.02677518 -57.80  0.004320546    1.813    0.448
       155 -11.8150     85.5102    175.9799   2.9184169076e+02   5.2412284297e+00   0.01699243    0.0132711 -51.71  0.000524071    1.249    0.199
       156  -9.9062     12.5361    178.9527   2.9269115101e+02   5.6267451863e+00  0.009900827  0.008925839  22.51 0.0005050844    1.138    0.122
       157 -10.6848    182.0077    176.9274   2.9074836248e+02   4.6729947435e+00   0.01518328   0.01242365 -20.20   0.00155965    1.361    0.265
       158 -11.2567     89.0474    176.0462   2.9180177559e+02   5.2200701622e+00   0.01211866   0.01015043 -52.32 0.0003345901    1.166    0.142
       159 -11.6887     72.6183    174.4579   2.9197957753e+02   5.3331232708e+00   0.02347967   0.01560694 -35.08  0.001241805    1.689    0.408
       160  -9.8267     77.2454    175.6427   2.9193387549e+02   5.2927592000e+00  0.009209882  0.008011914 -51.79 0.0003726007    1.125    0.111
       161 -11.4713     19.1394    173.0287   2.9258076595e+02   5.6573508803e+00   0.02505554    0.0150503  73.52  0.002217732    2.493    0.599
       162  -9.2352    109.1618    176.1945   2.9157347343e+02   5.1023459243e+00  0.008984468  0.007533758  69.74 0.0003020464    1.310    0.237
       163  -9.2517     67.5227    174.9203   2.9204040012e+02   5.3571269318e+00  0.009607112   0.00639055 -64.28 0.0002858095    1.486    0.327
       164 -12.2358    248.2279    171.9345   2.8996551245e+02   4.3472588005e+00   0.02522891   0.01934293  18.29  0.002841844    1.384    0.278
       165 -10.0221    154.5168    172.9406   2.9103756095e+02   4.8780452541e+00   0.01569804   0.01040568 -23.21  0.001030248    1.916    0.478
       166  -9.2589     41.9865    174.0533   2.9232635101e+02   5.5141452001e+00   0.00923351  0.007634332  79.93 0.0006067946    1.347    0.257
       167 -10.4637     48.3915    169.7627   2.9222788018e+02   5.5269303172e+00   0.01471548   0.01043013 -49.75  0.001596301    1.383    0.277
       168 -10.8812     43.8213    169.5739   2.9227886534e+02   5.5554109616e+00   0.01983225   0.01425962 -20.18  0.001077124    1.686    0.407
       169 -11.5307     30.6674    170.4834   2.9243423527e+02   5.6205409765e+00   0.03208936    0.0178111 -47.41  0.002822832    1.802    0.445
       170 -10.6968     68.9408    168.5338   2.9198632768e+02   5.4228349467e+00   0.01913745  0.008550892 -57.58  0.001674775    2.088    0.521
       171 -10.4049    100.4019    170.5002   2.9163944556e+02   5.2187387208e+00   0.01309913   0.01074526  35.90  0.000858527    1.232    0.188
       172  -8.6968    122.3740    169.2443   2.9138164492e+02   5.1064650201e+00  0.006695204  0.004932129 -18.51  0.000693913    1.628    0.386
       173 -10.3835    107.6299    168.3593   2.9154436347e+02   5.2017999792e+00   0.01264962   0.01061763  12.23  0.000916553    1.270    0.213
       174  -9.4085     58.7540    167.7609   2.9209786543e+02   5.4904406421e+00  0.008812255  0.007441716  66.89 0.0003497696    1.290    0.225
       175  -9.8989    250.3775    165.7804   2.8990438824e+02   4.4058820613e+00  0.009786392  0.005622142 -51.89 0.0009468882    1.677    0.404
       176 -11.7922    249.1752    149.8774   2.8982320006e+02   4.5965251672e+00   0.03052261    0.0194167 -82.40  0.002493072    1.925    0.481
       177 -11.9972    240.0530    151.0673   2.8993399877e+02   4.6356686295e+00   0.02808022    0.0181288 -34.84   0.00262996    1.767    0.434
       178 -12.1246    245.0197    162.3719   2.8994495934e+02   4.4763059880e+00   0.02334347   0.01464337 -57.04  0.002401519    1.528    0.345
       179 -12.2135    245.4341    156.4051   2.8990466410e+02   4.5428221335e+00   0.03853233   0.01747699  43.10  0.003317499    2.322    0.569
       180  -9.5977    175.9376    166.3210   2.9075430011e+02   4.8307049497e+00  0.008946351  0.008289087  32.03 0.0002275752    1.097    0.089
       181  -8.8255    124.4676    165.4803   2.9133541296e+02   5.1379029168e+00  0.006486733  0.006356359 -80.67 -1.023783e-05    1.022    0.021
       182 -11.3278     24.2013    164.8133   2.9247434997e+02   5.7233093750e+00   0.01530053   0.01075486 -20.01  0.001580541    1.756    0.430
       183 -10.4015     47.2987    163.4781   2.9220305309e+02   5.6059212686e+00   0.01161467   0.01012252 -76.70 0.0006151675    1.173    0.147
       184 -13.0104     33.5092    139.7659   2.9221959068e+02   5.9595383488e+00   0.04050352   0.01864107 -57.78    0.0034152    2.034    0.508
       185 -10.9375     23.7963    149.2151   2.9238646521e+02   5.9060835599e+00   0.01378936   0.00888788 -51.89   0.00142758    1.501    0.334
       186 -10.5111     36.9004    162.5117   2.9231588769e+02   5.6769209592e+00   0.02192555  0.006948352  30.77  0.001538681    2.966    0.663
       187 -11.6275     35.6402    149.1486   2.9225097404e+02   5.8387523502e+00   0.01968063   0.01112871  41.17  0.001609347    1.803    0.445
       188 -11.9361     35.7961    158.4059   2.9230412468e+02   5.7307708115e+00   0.03156602   0.01673921  14.11  0.002780188    2.379    0.580
       189 -12.5852     24.0154    155.1933   2.9241942542e+02   5.8356679026e+00   0.03772461   0.01644828  33.86 0.0008964174    2.214    0.548
       190 -10.4267     12.1706    161.1138   2.9258962361e+02   5.8352353099e+00   0.01037571  0.008963807 -32.71  0.001231582    1.205    0.170
       191 -10.7393     59.0782    159.6211   2.9204585228e+02   5.5827317487e+00   0.01147025  0.009350068 -62.96 0.0002957641    1.203    0.169
       192  -8.9915    171.2535    159.4110   2.9076647483e+02   4.9376733047e+00  0.008729377  0.005974772  39.93 0.0003162291    1.479    0.324
       193  -9.8074    119.9288    159.0479   2.9134886777e+02   5.2384908476e+00  0.009530682  0.009285208  79.73 0.0003042913    1.042    0.041
       194  -9.3609     82.4713    159.4702   2.9177826483e+02   5.4497035639e+00  0.006477853   0.00635908 -77.49 4.590477e-05    1.017    0.017
       195 -10.4616     46.4778    158.4080   2.9218232613e+02   5.6692945955e+00   0.01591367  0.008349598 -50.80  0.001328152    1.842    0.457
       196  -9.6317     52.5820    158.1426   2.9211114547e+02   5.6372328619e+00  0.009554208  0.008790293  13.95 0.0005367954    1.126    0.112
       197  -9.0803    115.6735    157.7134   2.9138941788e+02   5.2784888543e+00   0.00678538  0.004914164 -26.22 0.0003120936    1.609    0.378
       198  -9.7389     89.0007    157.0154   2.9168925119e+02   5.4404510236e+00  0.009846483  0.009419925 -34.31 0.0003360412    1.054    0.051
       199 -11.1326     73.1859    156.7246   2.9186780656e+02   5.5349733205e+00   0.02420742   0.01297804  23.03  0.002172802    1.993    0.498
       200  -9.9043    134.3732    155.6252   2.9116394330e+02   5.1946429610e+00   0.01154441   0.01019091 -74.60 0.0005560925    1.147    0.128
       201 -10.4723     62.2217    152.9703   2.9197051828e+02   5.6415579301e+00    0.0190254  0.009655286 -71.50  0.001106061    2.241    0.554
       202  -9.0504    124.6587    154.3002   2.9126673495e+02   5.2660755088e+00  0.006934171  0.004875112  61.16 0.0002989512    1.670    0.401
       203 -11.0085     33.0554    153.9984   2.9230923235e+02   5.7975181858e+00   0.01452755    0.0124913 -13.23 0.0003317164    1.272    0.214
       204 -10.2927    205.0327    249.6616   2.9091908899e+02   3.6991809424e+00  0.009068878  0.008370159  25.31 0.0004701304    1.106    0.096
       205 -10.3641    219.4864    247.5472   2.9074227152e+02   3.6400586301e+00  0.006523737  0.006302241 -39.82 0.0001633529    1.034    0.033
       206 -10.9567    103.2541    151.0913   2.9149157110e+02   5.4267438565e+00   0.01584429   0.01353104 -45.69 0.0008999212    1.164    0.141
       207 -10.1203    105.8376    146.2763   2.9143348905e+02   5.4675138980e+00    0.0160578   0.01126438 -22.91  0.001470185    1.734    0.423
       208  -9.9414     95.1613    153.1280   2.9159592266e+02   5.4498790977e+00  0.009951601  0.008634582 -27.16 0.0003001176    1.220    0.180
       209 -11.5870     56.0487    149.7405   2.9202172914e+02   5.7144617963e+00   0.02358469   0.01611455 -48.62   0.00150582    1.443    0.307
       210  -9.8287     46.8208    150.7068   2.9213270358e+02   5.7564035677e+00    0.0104626   0.00843132  -3.29  0.001183623    1.408    0.290
       211 -10.2796     61.0093    137.3403   2.9189149425e+02   5.8293137517e+00   0.01259424    0.0104772  24.13 0.0004111699    1.234    0.190
       212 -11.2967     59.0687    133.5157   2.9189090136e+02   5.8847221806e+00   0.01579207   0.01048784 -59.36 0.0009061125    1.453    0.312
       213 -13.5863     67.3029    143.3464   2.9185540592e+02   5.7235980827e+00   0.04857742   0.03394506 -86.46  0.005060161    1.704    0.413
       214 -12.4423     74.2808    138.9158   2.9174949995e+02   5.7346295559e+00   0.03689378   0.02494217 -89.17   0.00247115    1.843    0.457
       215 -11.7359    133.5444    142.9031   2.9109766586e+02   5.3465167068e+00   0.04091707   0.01525401 -67.91  0.003038282    3.080    0.675
       216 -10.4634    236.6217    146.1266   2.8994354095e+02   4.7126268335e+00   0.01585064  0.008880598  12.90  0.001431264    2.244    0.554
       217  -8.6036    122.3171    144.2658   2.9123371167e+02   5.3956196386e+00  0.006614264  0.004931491 -24.59 0.0002864567    1.551    0.355
       218 -11.6675    248.2142    141.2691   2.8978276135e+02   4.7015115902e+00   0.04302156   0.01920109  13.87  0.003218273    3.343    0.701
       219 -12.4478    248.2991    134.6392   2.8974222932e+02   4.7775830490e+00   0.04143963   0.02690927 -55.61  0.004345319    1.478    0.324
       220 -12.3533     49.6873    138.7560   2.9202904524e+02   5.8781328827e+00   0.03753804   0.01236639  31.06  0.002877872    2.860    0.650
       221 -10.5199    119.1631    138.2177   2.9123366171e+02   5.4837606713e+00   0.01794247   0.01192738 -36.48  0.001623176    1.663    0.399
       222 -11.2676    113.1765    136.2856   2.9129039671e+02   5.5406681725e+00   0.01874967    0.0146476  27.14  0.001463391    1.305    0.234
       223 -11.9139    145.8840    241.0087   2.9154029284e+02   4.1408631421e+00   0.02418317   0.01807389 -33.63 0.0007338447    1.456    0.313
       224  -8.9239     82.3414    136.2495   2.9164173040e+02   5.7189976425e+00  0.006605778  0.004941516 -20.77 0.0003966328    1.571    0.363
       225 -10.1674    136.8481    134.1729   2.9100804164e+02   5.4283493368e+00  0.009588139  0.008735966  68.19 0.0003236082    1.152    0.132
       226 -12.8781     45.1212    130.6311   2.9203286972e+02   5.9983814646e+00   0.03014557   0.02337959 -66.33  0.002022434    1.282    0.220
       227 -10.5375     51.8762    133.1227   2.9197061077e+02   5.9306822546e+00   0.01005934  0.008894701  74.85 0.0004539741    1.211    0.174
       228  -9.1242     86.1099    147.8692   2.9166784396e+02   5.5628950485e+00  0.009056305  0.007431902 -28.62   0.00103629    1.314    0.239
       229 -11.1132     27.0434    141.0441   2.9230094005e+02   5.9819336497e+00   0.01884684    0.0119565  77.50  0.001347394    2.216    0.549
       230  -9.3832    107.0029    130.0073   2.9132340790e+02   5.6488972409e+00   0.01779332  0.005531298  45.87  0.001141487    4.160    0.760
       231 -11.4755     65.9458    127.5641   2.9177708110e+02   5.9139327212e+00    0.0237138   0.01650422 -81.16  0.002449898    1.641    0.390
       232 -10.1428    118.1804    128.8208   2.9118892579e+02   5.5980748620e+00   0.00948332  0.007327432 -38.42 0.0006459537    1.350    0.259
       233 -11.6236     32.6840    126.8078   2.9215206325e+02   6.1141544936e+00   0.01614843   0.01183941  86.41  0.001217413    1.632    0.387
       234  -9.9341     85.8661    126.7597   2.9154509462e+02   5.8084050891e+00    0.0129805  0.009457529 -14.10  0.001124542    1.680    0.405
       235  -9.0013     93.2376    127.5876   2.9146595814e+02   5.7563114796e+00  0.008185644  0.006414492   9.65  0.000269112    1.407    0.289
       236 -10.1449    113.5804    152.2839   2.9138097747e+02   5.3533554468e+00   0.01417349   0.01107318  80.18  0.000885031    1.482    0.325
       237 -12.0802    248.3223    101.6543   2.8954499994e+02   5.1582884627e+00   0.04819815   0.02162221 -61.39  0.004207402    2.146    0.534
       238 -11.4320    247.0337    122.5147   2.8968423889e+02   4.9249282078e+00   0.04174514   0.01984872  50.57  0.003472034    2.608    0.617
       239 -11.4016    248.4780    112.9786   2.8961087234e+02   5.0266510341e+00   0.02447737   0.02073073 -12.74  0.002886575    1.306    0.234
       240 -10.3353    209.8440    125.7646   2.9012666607e+02   5.1030370955e+00    0.0114944   0.01009691 -69.10 0.0004881395    1.134    0.118
       241  -9.6715    159.6852    126.3332   2.9070115014e+02   5.3869086834e+00  0.006935165  0.004930957  65.18  0.000403169    1.685    0.407
       242  -9.8471    124.9664    125.5749   2.9109224755e+02   5.5963992301e+00  0.009919617  0.008701483 -62.30   0.00036025    1.117    0.105
       243 -12.1603     18.3549    124.9681   2.9230465432e+02   6.2178115806e+00   0.02387825   0.01362277  50.12  0.001557996    1.994    0.498
       244 -10.7506     20.4899    121.0113   2.9225679503e+02   6.2513011697e+00   0.01309113   0.01003044 -26.14 0.0008727371    1.472    0.321
       245  -9.5346     50.3600    122.7316   2.9192616021e+02   6.0595789106e+00   0.01074941  0.007416374  65.48  0.001090384    1.776    0.437
       246  -9.6857     87.9032    133.1035   2.9155959961e+02   5.7233036749e+00  0.009441306  0.009111363 -47.55 0.0003315088    1.024    0.023
       247 -10.2271    249.5071    117.5222   2.8962630676e+02   4.9682207377e+00   0.01254211   0.01102012 -50.56 0.0008817586    1.116    0.104
       248  -8.9792     79.6862    122.2881   2.9158897683e+02   5.8957431076e+00  0.006732931  0.004909721  61.85 0.0003443754    1.585    0.369
       249  -9.6377    143.1432    120.5369   2.9085507675e+02   5.5495730799e+00   0.01535384  0.007985959 -81.91  0.001235085    2.833    0.647
       250  -8.9370    130.7000    119.2777   2.9098938645e+02   5.6360576081e+00  0.006608817  0.004915805  62.00 0.0001915937    1.539    0.350
       251 -11.9737     31.6949    117.2126   2.9210635314e+02   6.2308052480e+00   0.02133359   0.01483229 -44.51  0.002289326    1.458    0.314
       252  -9.6054    114.7161    122.9968   2.9119374050e+02   5.6854101565e+00   0.00895198  0.008161315 -66.32 0.0002380869    1.082    0.076
       253 -10.8933    168.3806    113.5819   2.9052607811e+02   5.4839395886e+00   0.01807513    0.0125008  61.04  0.001285998    1.713    0.416
       254 -10.0060     72.9516    115.0454   2.9162271171e+02   6.0183091768e+00  0.009650973  0.009415085 -24.90  0.001220782    1.039    0.038
       255 -10.6655     70.0597    111.1048   2.9163226004e+02   6.0805377517e+00   0.01137392  0.009481643 -73.20 0.0002965764    1.222    0.182
       256  -9.5133    134.3230    114.3221   2.9091856461e+02   5.6723943971e+00  0.006982564  0.004855188 -29.08 0.0007046412    1.679    0.404
       257  -8.9959     82.1685    114.3824   2.9151362479e+02   5.9728331372e+00  0.008944313  0.005834249  39.76 0.0001486076    1.550    0.355
       258 -11.2295     59.8951    111.7965   2.9175235015e+02   6.1311088738e+00   0.02142874   0.01347421  88.36  0.002008649    2.170    0.539
       259  -9.1027    203.6678    111.6607   2.9011279911e+02   5.3017460157e+00  0.007111955  0.004820558 -29.37 0.0007051737    1.745    0.427
       260  -9.3146     86.4030    118.2283   2.9148821227e+02   5.9039479669e+00   0.01533323  0.005773947  47.40 0.0009046663    3.341    0.701
       261  -8.7786     79.6995    109.2807   2.9151142836e+02   6.0460518557e+00  0.006623443  0.004917632  62.22 0.0001967791    1.545    0.353
       262 -10.4535     62.6581    107.5089   2.9169531914e+02   6.1647631510e+00   0.01174885  0.006026065 -62.67 0.0007416332    1.907    0.475
       263 -10.4518    134.5024    105.0068   2.9086100228e+02   5.7790132636e+00    0.0174232  0.006317717 -62.45  0.001350748    2.681    0.627
       264  -9.6093    112.4705    104.4838   2.9110908176e+02   5.9123709152e+00  0.006491603  0.006352563 -59.11 0.0008097312    1.001    0.001
       265  -9.7518     63.4653     98.4647   2.9163229461e+02   6.2646674295e+00  0.006469698  0.006353293 -74.19 2.358385e-05    1.015    0.015
       266  -8.9549    136.6931     94.2749   2.9077204485e+02   5.8903570538e+00  0.006634906  0.004902677  61.14 0.0002430407    1.547    0.354
       267  -9.3495    101.9287     88.0987   2.9113168542e+02   6.1626108955e+00  0.009418062  0.008296797  69.21  0.001123544    1.214    0.176
       268  -9.4761    154.5118     76.4687   2.9046268167e+02   5.9929639343e+00  0.006487941  0.006355025 -53.83 0.0001146586    1.006    0.006
       269  -9.4724    150.7824    239.2094   2.9147388818e+02   4.1333921680e+00  0.009837113   0.00878802  62.94 0.0006579024    1.179    0.152
       270  -9.7612    117.3233    247.2922   2.9190252142e+02   4.2329714130e+00  0.006806435  0.004904487 -26.98 0.0003006075    1.613    0.380
