#   1 NUMBER                 Running object number                                     
#   2 MAG_AUTO               Kron-like elliptical aperture magnitude                    [mag]
#   3 X_IMAGE                Object position along x                                    [pixel]
#   4 Y_IMAGE                Object position along y                                    [pixel]
#   5 X_WORLD                Barycenter position along world x axis                     [deg]
#   6 Y_WORLD                Barycenter position along world y axis                     [deg]
#   7 A_WORLD                Profile RMS along major axis (world units)                 [deg]
#   8 B_WORLD                Profile RMS along minor axis (world units)                 [deg]
#   9 THETA_WORLD            Position angle (CCW/world-x)                               [deg]
#  10 FWHM_WORLD             FWHM assuming a gaussian core                              [deg]
#  11 ELONGATION             A_IMAGE/B_IMAGE                                           
#  12 ELLIPTICITY            1 - B_IMAGE/A_IMAGE                                       
         1 -11.3422    196.6658     46.8281   7.8757647903e+01   2.9836593940e+01     1.185076    0.4808848 -44.30  0.003992101    2.703    0.630
         2 -11.7650    230.6640     52.2733   7.5577210662e+01   2.0716196185e+01     5.993242     1.643935 -48.99  0.009301696   16.102    0.938
         3 -11.2895    221.3403     37.5341   7.2579035081e+01   2.4743543806e+01     1.088921    0.5847909 -39.33   0.00396799    1.781    0.439
         4 -11.8864    215.3236     26.4803   7.0053060257e+01   2.7514622250e+01     1.253745    0.9321368 -66.12   0.00629059    1.512    0.339
         5 -13.4198    223.2886     16.4621   6.6217055940e+01   2.6546100855e+01     3.549906     1.843507 -86.99   0.01144089    2.595    0.615
         6 -12.0036    178.8475     42.9408   8.0410040977e+01   3.4929102419e+01    0.7269965    0.4243352  -5.68   0.00173939    2.273    0.560
         7 -10.1725     70.0771     28.0648   1.0173625322e+02   6.1514337059e+01    0.5228783    0.2840836 -60.47  0.001213611    3.053    0.672
         8 -11.8174    232.1774      9.1635   6.3273476991e+01   2.5032903069e+01    0.6483492    0.4003329 -12.99   0.00180169    1.671    0.402
         9  -8.6218    115.9460     12.0689   8.1318153835e+01   5.4716273964e+01    0.3065476    0.2374095  -2.43  0.001614236    1.311    0.237
        10 -10.3687    120.4242      9.1994   7.9059751971e+01   5.3998625482e+01    0.4425474    0.4157444  41.73  0.001392694    1.089    0.082
        11 -10.1293    173.7379      5.0072   6.8274686634e+01   4.0709586991e+01     1.008654     0.273936 -44.05  0.002849302    4.397    0.773
        12 -10.4044    248.6504      4.0324   6.0526212743e+01   2.1517131016e+01    0.6675417    0.3337518 -27.00  0.003132774    1.759    0.432
        13  -9.7934      2.8774      7.6288   1.2289859310e+02   7.2902029343e+01    0.2920287   0.08809672 -56.22  0.001419854    2.277    0.561
        14  -8.5363    162.6891      3.2379   6.9147303820e+01   4.3827581296e+01    0.4326625    0.1499173 -43.01  0.001430034    3.199    0.687
        15  -8.8093     32.7881      5.6003   1.0663929039e+02   7.0604972512e+01     0.147065    0.1126448  45.06 0.0009579759    1.754    0.430
        16 -10.7951     15.2374      9.8811   1.1731609927e+02   7.1582323011e+01    0.3908623    0.1625109 -41.11  0.002040284    2.025    0.506
        17  -9.2539     64.0063      4.1821   9.2744102116e+01   6.6327507309e+01    0.1981997    0.1301314 -10.39  0.001063027    1.611    0.379
        18  -8.8417      3.1937      1.7988   1.2036192270e+02   7.3986665261e+01    0.2042567   0.07133295  31.00  0.001046392    3.527    0.716
        19  -8.4581    132.9932    138.0480   1.1469255942e+02   2.8901540070e+01    0.1839951    0.1704506  61.91            0    1.027    0.027
        20  -9.8317    242.7215    131.4524   9.3387895821e+01   8.3122362140e+00    0.3413402    0.1133615 -22.25  0.001228938    3.627    0.724
        21  -8.6777    197.6786    126.9444   9.9800535960e+01   1.7922716019e+01    0.2166794     0.168975  33.56 0.0003099912    1.218    0.179
        22  -8.6144    201.9824    125.9737   9.8826770453e+01   1.7172136409e+01    0.2066869    0.1900815  21.14 0.0004701041    1.012    0.012
        23  -8.4272    129.9972    122.9779   1.1242226151e+02   3.2244036799e+01    0.1877967    0.1784062  62.93            0    1.046    0.044
        24 -10.9392    243.5457    118.2588   9.0371171563e+01   9.7160239041e+00     0.363602    0.2912816 -35.22 0.0002628104    1.372    0.271
        25  -7.8599    205.6620    122.3055   9.7368269714e+01   1.6930638724e+01    0.1314816    0.1097358 -79.31 0.0007040722    1.675    0.403
        26  -7.6011    223.2982    120.6911   9.4054806092e+01   1.3494135315e+01    0.1253893      0.10695 -64.84 0.0001966487    1.595    0.373
        27  -8.1805    200.8231    115.5854   9.6676058734e+01   1.8924884072e+01    0.1921346    0.1322306  63.13 0.0007900393    1.711    0.415
        28  -7.5721    168.3304    113.6675   1.0232453454e+02   2.6199303664e+01     0.142689    0.1115936 -83.18 0.0007052039    1.722    0.419
        29  -8.9087    205.8734    110.1105   9.4506855318e+01   1.8632628907e+01    0.2081637    0.1962904 -76.79 0.0006631978    1.275    0.216
        30 -10.6774    188.1776    105.2511   9.6491345683e+01   2.3247536722e+01    0.4245018    0.3532383 -22.60   0.00137648    1.227    0.185
        31 -11.3629    244.7992     99.5988   8.5861241005e+01   1.1718961806e+01    0.5536552    0.3839049 -14.86  0.002155618    1.368    0.269
        32  -9.0549    193.1804     99.8238   9.4227404646e+01   2.2969257464e+01    0.1969664    0.1627944  13.33 0.0004021356    1.288    0.224
        33  -8.3940    144.6815     97.7587   1.0343585400e+02   3.4042904426e+01    0.2280536     0.117252  59.44 0.0005258765    2.321    0.569
        34 -10.7454    186.7780     91.7848   9.3331986947e+01   2.5673140487e+01    0.8477044    0.2375609 -35.78  0.002687652    3.413    0.707
        35  -9.1402    150.3960     90.8957   1.0040987215e+02   3.4062036210e+01    0.3458491    0.2660377  -8.74  0.001144817    1.663    0.399
        36 -10.4071    240.6173     81.6915   8.2041675399e+01   1.4812245520e+01    0.2936991    0.2616445  -7.98  0.001653921    1.018    0.018
        37 -10.4457    243.1983     89.3094   8.3587943965e+01   1.3314373359e+01    0.4600877    0.2004167 -16.94  0.001784032    2.630    0.620
        38  -8.3063    135.7236     90.3124   1.0354546649e+02   3.7316100944e+01    0.2539938    0.2020136  83.20 0.0008398317    1.522    0.343
        39  -9.0293    159.6971     81.6464   9.5901874554e+01   3.3599461472e+01    0.2802835    0.2341026  -7.55  0.001081961    1.349    0.259
        40 -10.2329    162.9435     78.6586   9.4385330173e+01   3.3355935446e+01    0.4296889    0.3558042 -16.75  0.001618917    1.292    0.226
        41 -11.1606    136.3541     38.7239   8.7248510755e+01   4.6196995043e+01     1.699229    0.5457458  66.39  0.003745677    7.631    0.869
        42 -11.6756    176.3046     64.2761   8.7540185604e+01   3.2468449934e+01     1.017681    0.8014919 -58.21  0.005027198    1.445    0.308
        43 -11.1747    162.2742     50.8103   8.5996457982e+01   3.8004948060e+01     1.665085    0.8935526 -78.09  0.004105614    6.664    0.850
        44  -8.5982    231.7192     79.8642   8.2826953240e+01   1.7020261132e+01    0.2486588    0.1797827  43.10  0.001290075    1.397    0.284
        45  -9.6575    144.3788     79.1217   9.8506456881e+01   3.7513390354e+01    0.3210495    0.2524159 -42.46  0.000792477    1.255    0.203
        46  -9.8221    237.0290     77.7421   8.1529551493e+01   1.6097544297e+01    0.2571528    0.1758209  43.10 0.0008727614    1.489    0.328
        47  -8.0778    213.3514     77.8465   8.5057548396e+01   2.1518819050e+01    0.2007487    0.1319685 -14.10 0.0002129321    1.627    0.385
        48  -8.8206    220.2413     74.3065   8.3046686118e+01   2.0383199786e+01    0.3873967    0.2824971  56.60  0.001971125    1.434    0.303
        49  -9.6969    238.9774     70.4936   7.9384715483e+01   1.6558635502e+01    0.3238436    0.1365147 -41.12  0.001264066    2.454    0.592
        50 -10.9985    159.5727     67.0179   9.1654665610e+01   3.6095727745e+01    0.3909872    0.2841114 -18.97  0.001594844    1.514    0.339
        51  -9.7029    208.7039     61.9086   8.1363120639e+01   2.4810856923e+01     1.082847    0.4779709 -59.55  0.002595315    6.968    0.856
        52 -10.1758    202.1365     60.9014   8.2095122539e+01   2.6564084324e+01    0.8615825    0.4142065 -62.15  0.002398156    5.133    0.805
        53  -9.0918    196.1666     56.4696   8.1746144097e+01   2.8661520547e+01    0.2927479    0.2253956 -14.15 0.0003400834    1.334    0.250
        54  -9.1509    237.9934    249.2070   1.1367172743e+02  -2.2421697972e+00    0.1163307    0.1047455  42.95  0.001060415    1.619    0.382
        55 -10.3213    186.2129     39.7098   7.8162685254e+01   3.3456901267e+01    0.8892722    0.4256865 -56.26  0.002997357    3.170    0.685
        56 -11.1374     67.6987    245.3897   1.3823646485e+02   2.1176298770e+01    0.2884807    0.2330994  32.02 0.0007296748    1.843    0.458
        57 -11.8231      3.5597    241.5139   1.4721147239e+02   2.8287443320e+01    0.5410026    0.2324265 -87.06  0.004285846    2.084    0.520
        58  -7.8724    134.7298    230.6682   1.2687429116e+02   1.4381933835e+01   0.09157763   0.07274894  25.40 0.0003439925    1.588    0.370
        59  -7.8461     61.3074    229.2875   1.3824955227e+02   2.4147504736e+01   0.07862757   0.07020759  47.39 0.0001714399    1.572    0.364
        60  -9.5705    228.9199     61.0491   7.8215454643e+01   2.0052539697e+01     0.390303     0.240292 -32.72 0.0004942386    1.514    0.339
        61 -12.6303     20.7131    222.4995   1.4410448474e+02   2.9455589750e+01    0.5548353    0.3133034  63.31  0.002552346    1.200    0.167
        62  -9.3619    144.1743     59.1993   9.2509321747e+01   4.1047064863e+01    0.3007309    0.2607827 -72.62 0.0006712929    1.313    0.239
        63  -7.7569     72.7498     58.3364   1.1155080531e+02   5.5266050622e+01    0.1296522     0.097626 -75.82 0.0003993685    1.562    0.360
        64  -9.9449    185.3578     55.4833   8.3246551446e+01   3.1516877082e+01    0.2924675    0.2875321  -4.96 0.0003596696    1.020    0.020
        65  -8.2581    174.2014     52.7128   8.4357536076e+01   3.4730157737e+01    0.2327675    0.1949455 -89.06  0.000890796    1.395    0.283
        66  -8.6407    136.0043     46.9401   9.0251945321e+01   4.4989917795e+01    0.2159545    0.2043535 -30.48 -0.001877172    1.029    0.028
        67  -9.4719    250.3675     41.9148   7.0474722276e+01   1.7295702560e+01    0.2525287    0.1672601 -19.55  0.001286347    1.401    0.286
        68 -10.4042    202.8521     38.5203   7.5307235297e+01   2.9310411022e+01     0.401348    0.2858206  23.05  0.001026245    1.625    0.385
        69 -10.4046    182.8549     77.5311   9.0182138938e+01   2.8825082254e+01    0.5607297    0.4604232 -50.95  0.002893667    1.314    0.239
        70  -9.1737    242.5757     32.3727   6.8726370323e+01   2.0147896943e+01    0.4275952    0.3114208 -21.22   0.00227195    1.278    0.218
        71  -8.7723     76.3107     38.7573   1.0381721554e+02   5.8551775159e+01    0.3303296    0.1881228 -60.41  0.001159594    2.381    0.580
        72  -8.6686     46.0421    223.6110   1.4028303855e+02   2.6691603249e+01    0.1430991    0.1137322 -81.61 0.0005914596    1.495    0.331
        73  -7.7315    158.7187     34.3240   8.1088760997e+01   4.1278477816e+01    0.1539814     0.112192 -57.56 0.0005926791    1.593    0.372
        74  -7.9763    198.2224     27.4130   7.2491197090e+01   3.1833888861e+01    0.1950644    0.1428766  87.56 0.0004196449    1.564    0.361
        75  -9.4835    179.1923     23.7627   7.3996106979e+01   3.7268572626e+01    0.4621443    0.3567469  61.25   0.00231646    1.296    0.229
        76 -10.1947    145.0550     22.9882   7.9559003857e+01   4.6251064241e+01    0.2704837    0.2201049 -25.01  0.001395156    1.202    0.168
        77  -9.9565    248.1020     17.5708   6.4191267451e+01   2.0365968793e+01     0.465883    0.2453055 -83.67  0.001988797    2.571    0.611
        78  -8.6442    155.3397     18.0331   7.5805689972e+01   4.4211653159e+01    0.2093774    0.1907792 -12.95 0.0006458345    1.084    0.077
        79 -12.9231     41.8660    201.8521   1.3971291920e+02   3.0537178542e+01    0.7646541    0.6514406  87.72  0.006766438    1.366    0.268
        80  -9.7648    188.6148    190.8091   1.1313827513e+02   1.0928197329e+01    0.2092721    0.1581456  35.40 0.0003775802    1.106    0.096
        81 -11.4880     56.6012    186.2536   1.3606975352e+02   3.1497223581e+01      0.72963    0.5534471  86.70  0.005710156    1.177    0.150
        82  -8.3642    213.4280    167.4337   1.0515346008e+02   9.4557109867e+00    0.2970126     0.182688  73.92  0.001182349    4.392    0.772
        83  -7.6645    159.7177    158.6917   1.1306333722e+02   2.0516236891e+01    0.1206792    0.0956672  14.71 0.0003404051    1.564    0.360
        84  -8.4427     16.5289    151.5224   1.4116594245e+02   4.2002766429e+01    0.1055337    0.0779712  80.33 7.974543e-05    1.018    0.018
        85  -9.8881     67.5856    144.3214   1.2974892116e+02   3.7920142274e+01    0.4548403    0.2469659  61.66  0.001903271    1.842    0.457
        86  -8.6016    244.2925    145.6474   9.6100565659e+01   6.3941638396e+00    0.1132105   0.09818325 -54.84 0.0007029919    1.679    0.405
        87  -8.7533    231.9777     63.9696   7.8593838315e+01   1.8971218490e+01     0.212508    0.1961923 -17.21  0.001228241    1.025    0.024
        88  -8.6336    233.5374    145.4944   9.7723648815e+01   8.3929125383e+00    0.1268252    0.1088596  17.02 0.0002540348    1.023    0.022
        89  -7.7687    192.4796    144.4742   1.0439451205e+02   1.6427332906e+01    0.1304408    0.1181048  34.90 1.589352e-05    1.036    0.035
