#   1 NUMBER                 Running object number                                     
#   2 MAG_AUTO               Kron-like elliptical aperture magnitude                    [mag]
#   3 X_IMAGE                Object position along x                                    [pixel]
#   4 Y_IMAGE                Object position along y                                    [pixel]
#   5 X_WORLD                Barycenter position along world x axis                     [deg]
#   6 Y_WORLD                Barycenter position along world y axis                     [deg]
#   7 A_WORLD                Profile RMS along major axis (world units)                 [deg]
#   8 B_WORLD                Profile RMS along minor axis (world units)                 [deg]
#   9 THETA_WORLD            Position angle (CCW/world-x)                               [deg]
#  10 FWHM_WORLD             FWHM assuming a gaussian core                              [deg]
#  11 ELONGATION             A_IMAGE/B_IMAGE                                           
#  12 ELLIPTICITY            1 - B_IMAGE/A_IMAGE                                       
         1 -11.8269     31.3024     14.9955   9.6166188227e+01   6.9642986463e+01    0.8728932    0.2836849 -51.05  0.003375115    3.037    0.671
         2 -12.0026     16.8160     51.9761   1.1499205437e+02   6.3416718254e+01     1.231978    0.2796941 -60.52  0.004939173    2.875    0.652
         3 -12.7804     42.3991     19.4525   9.3112464604e+01   6.7566795577e+01    0.9124853    0.8583261  64.95  0.004539012    1.507    0.337
         4 -11.1083     19.4644     10.8084   1.0014445761e+02   7.1557982314e+01    0.3631329    0.3505571 -39.21  0.002821584    1.363    0.266
         5 -12.7755     20.2539     26.1617   1.0603274224e+02   6.8574602325e+01     1.516784     0.370134 -50.55  0.005746541    2.768    0.639
         6 -13.0730     10.5921     18.1154   1.0778209324e+02   7.0882512847e+01    0.5793515    0.5068436  34.45  0.002416238    1.533    0.347
         7 -10.8551     26.0653      7.5152   9.5125805956e+01   7.1496715023e+01    0.2414021    0.1840117 -14.58 0.0003906474    1.230    0.187
         8 -12.1855     19.3707      3.5616   9.6625346062e+01   7.2832944671e+01    0.9151927    0.3542885  31.21  0.004663129    3.062    0.673
         9 -12.1819     30.5689     38.5748   1.0572087346e+02   6.5158784266e+01    0.7817725    0.5111723 -37.12  0.001840973    1.403    0.287
        10 -11.2915     42.0917     10.1169   8.8709061018e+01   6.9179217906e+01    0.2863139    0.2373525  -3.36  0.000739134    1.163    0.140
        11 -12.5250     50.1765      8.5830   8.4339477385e+01   6.8293008239e+01    0.8346047    0.6361092 -50.37  0.005071722    1.664    0.399
        12 -11.9588     32.5613     29.7812   1.0178225122e+02   6.6739420221e+01    0.9785976    0.4985107  -1.24  0.003908315    4.404    0.773
        13 -11.9625     58.8221     28.2316   9.0184835033e+01   6.3784099016e+01     0.452872    0.3697535  63.91  0.001838533    1.782    0.439
        14 -12.8093    245.3348     23.3935   4.9820052440e+01   2.0531576546e+01    0.6399036    0.4986026  17.42  0.003460858    1.552    0.356
        15 -12.2178      2.3082      9.8489   1.0899480698e+02   7.3001124713e+01    0.7987575     0.152106 -49.85  0.003428868    2.929    0.659
        16 -10.9856    235.6741     20.0836   4.9829974623e+01   2.3208467070e+01    0.2403414    0.1850293 -76.21 0.0009555038    1.368    0.269
        17 -11.5571     58.3898     16.3941   8.4924883556e+01   6.5848991155e+01    0.3925947     0.338321  84.36  0.001387892    1.870    0.465
        18 -10.7470     59.3691     11.4909   8.2081496795e+01   6.6448199459e+01    0.4310845    0.2601926  -7.03  0.001980155    2.064    0.515
        19 -11.5618     82.7480      7.7388   7.1888732126e+01   6.2750142182e+01    0.4131584     0.313677  46.34   0.00236938    1.385    0.278
        20 -11.7027     68.9457      7.8186   7.6564486786e+01   6.5344433607e+01    0.6909721    0.3461355  24.56  0.002930456    2.795    0.642
        21 -12.1939     75.8147      3.8438   7.2109740709e+01   6.4575888550e+01    0.6830598    0.4357233  29.41  0.001686657    1.596    0.373
        22 -12.2095    249.3555     13.3098   4.6834867414e+01   2.0665028658e+01    0.6307616    0.2720016 -22.99  0.002697282    2.198    0.545
        23 -11.5347     86.5840     13.7253   7.3637554646e+01   6.1217390380e+01    0.4126125     0.202723 -31.33  0.001873493    1.875    0.467
        24 -10.4043     59.4812      2.4769   7.7214091300e+01   6.7682804780e+01    0.3444147    0.1697451 -24.42  0.001536417    1.863    0.463
        25  -9.4327    197.6210      5.8009   4.9486824327e+01   3.4390937415e+01    0.2084314     0.120361 -34.57 0.0009447743    1.651    0.394
        26  -9.4401    148.1738      5.8543   5.6050987577e+01   4.7544306264e+01    0.2013946    0.1573617  32.25 0.0003659766    1.290    0.225
        27  -9.3966     57.4856      6.5430   8.0228142413e+01   6.7463643080e+01    0.2220286    0.1381484 -10.87 0.0005615706    1.695    0.410
        28  -9.7806    222.7376      3.4564   4.6381149511e+01   2.8118121318e+01     0.189053    0.1219811  60.02 0.0009397984    1.582    0.368
        29  -8.8940    141.3056      2.3666   5.5815860620e+01   4.9657721882e+01     0.158422   0.09761616  30.42 0.0007036221    1.746    0.427
        30  -9.7121     35.0846      2.1176   8.7689267311e+01   7.1326449689e+01     0.184583     0.142014 -22.85 0.0007165733    1.026    0.025
        31 -10.5509    103.3071    240.1508   1.1923924298e+02   1.5517346972e+01    0.1828988    0.1368549  48.85 0.0004277672    1.163    0.140
        32  -9.7808    249.8996    250.0128   9.7498104579e+01  -6.6250188280e+00    0.1599437    0.1027542  22.96 0.0006896501    1.126    0.112
        33 -11.2902    225.1996    247.8589   1.0084395424e+02  -3.0492396199e+00     0.307791      0.21446  51.44  0.001866776    1.766    0.434
        34  -9.9421    232.3008    250.6968   1.0015930875e+02  -4.2862653024e+00     0.244374    0.1077035  42.21 0.0008138453    1.767    0.434
        35 -10.0980    233.7207    247.3847   9.9510968657e+01  -4.2034503407e+00    0.1832189    0.1365889  28.61 0.0008472605    1.111    0.100
        36 -10.9940    233.9996    244.0033   9.9014063038e+01  -3.9527364254e+00    0.3252012    0.1564268  33.29 0.0004767442    1.551    0.355
        37 -10.0875    218.9672    249.7715   1.0202682210e+02  -2.3374916477e+00    0.3155109    0.1377288  24.69  0.001668301    2.748    0.636
        38 -11.3780    166.3247    248.5367   1.0999579103e+02   5.4371477431e+00    0.1906413    0.1570638  42.33 0.0003068746    1.131    0.116
        39 -11.9242    139.9164    246.8241   1.1399100156e+02   9.4848459344e+00    0.3562105    0.2315146  26.76 0.0007833013    1.901    0.474
        40  -9.8003     87.5147    249.9305   1.2247393214e+02   1.6233075847e+01    0.1613545    0.1127876  43.04 0.0004953614    1.376    0.273
        41  -9.5153     72.8360    250.6010   1.2476156549e+02   1.7970527430e+01    0.1390807   0.07051127  46.06  0.000537825    1.484    0.326
        42 -10.9876     61.5087    248.4343   1.2634562354e+02   1.9633432143e+01    0.2001882     0.151133  65.32 0.0006151901    1.144    0.126
        43 -11.2492     46.0955    249.9903   1.2872662083e+02   2.1164633597e+01     0.283103    0.1191535  46.14  0.001528289    1.722    0.419
        44  -9.9880      1.6680    248.9772   1.3502745444e+02   2.5782611687e+01    0.1839493   0.08922925 -84.38  0.001483565    1.879    0.468
        45 -10.4954     68.8593    240.1033   1.2470865794e+02   1.9971774912e+01     0.194737    0.1317797  40.63 0.0005417325    1.541    0.351
        46 -10.6743     51.5662    240.4115   1.2740782053e+02   2.1962997512e+01    0.1693478    0.1402653  74.03 0.0005178779    1.314    0.239
        47  -9.0486     35.6057    240.1642   1.2981820288e+02   2.3756526118e+01    0.1095823   0.07570823 -79.04 0.0004039277    1.594    0.373
        48 -11.0918     26.6783    238.5072   1.3108039250e+02   2.4938429441e+01    0.2892939    0.2403924 -26.82  0.001369123    2.917    0.657
        49 -11.5398     35.0111    230.9315   1.2946795978e+02   2.5245308424e+01     0.365233     0.244574  39.13  0.002611037    1.699    0.411
        50 -10.4694      9.6299    238.8297   1.3359636895e+02   2.6559838224e+01    0.1674921     0.114248  73.56 0.0005766999    1.131    0.116
        51 -10.6202    238.8247    215.9481   9.4185022537e+01  -2.0765523033e+00    0.3921933    0.2176779   0.63  0.001130668    2.263    0.558
        52 -10.7524    233.9404    209.5140   9.3928477076e+01  -6.8201217777e-01    0.3433889    0.2541261   5.18  0.000688749    1.263    0.209
        53 -11.3989    241.5465    175.5895   8.6809764969e+01   1.7956512621e+00    0.6048765    0.2427394 -25.46  0.002766605    2.685    0.628
        54 -10.3892    249.2132    232.5736   9.5133316027e+01  -5.1098460745e+00    0.2863282    0.1652295   9.10  0.001894391    1.755    0.430
        55 -11.7936    235.0320    238.6258   9.8118852215e+01  -3.6287438736e+00    0.8371904    0.2348012  35.29   0.00340423    3.007    0.667
        56 -11.5604    237.4809    196.5376   9.1219723941e+01   1.2532370593e-01     0.718416    0.3377193 -12.54  0.003338379    3.115    0.679
        57 -11.8006    245.9006    191.6507   8.9045897264e+01  -7.0258529845e-01    0.5076178    0.4054811  10.24  0.003453372    1.065    0.061
        58 -11.8664    246.6543    206.0840   9.1390212124e+01  -2.2977959661e+00    0.4074157     0.237894 -21.91  0.002492421    1.798    0.444
        59 -10.9311    250.2018    199.6461   8.9764508593e+01  -2.2019295279e+00    0.4462271    0.1845624 -21.78  0.001946243    2.717    0.632
        60 -11.5193    239.3357    206.0665   9.2522784563e+01  -1.1680172276e+00    0.4655375    0.3269065 -38.69    0.0023167    1.938    0.484
        61 -11.5717    242.9824    198.2811   9.0650550057e+01  -9.3593546226e-01    0.4626161     0.269167   8.80  0.001854278    1.909    0.476
        62 -10.8006    250.5999    172.0104   8.4703621622e+01   6.7702223744e-01    0.2585063    0.1092387 -26.94 0.0007894715    2.362    0.577
        63 -12.1267    249.6332    183.8709   8.7070629187e+01  -4.7156956954e-01    0.4016933    0.2522756 -13.52   0.00126065    1.571    0.363
        64 -11.8773    247.2324    176.7343   8.6125317224e+01   7.0826434230e-01    0.5545512    0.2539791 -17.81  0.001700503    2.545    0.607
        65 -11.3247    248.5609    212.9592   9.2217801697e+01  -3.2501387232e+00    0.3278376     0.190194  34.12 0.0004951095    1.367    0.269
        66 -11.7170    244.7099    230.9518   9.5565773610e+01  -4.3318110909e+00    0.4347433     0.224218  20.92  0.002171387    1.854    0.461
        67 -12.3480    245.5372    225.1403   9.4574402136e+01  -3.9326759101e+00    0.5411281    0.3651863  19.93  0.001850089    1.164    0.141
        68 -11.9579    246.8432    218.0661   9.3288175939e+01  -3.4749768993e+00    0.2694392    0.1913239 -21.68 0.0008190907    1.571    0.363
        69 -10.4667    148.6366    238.0936   1.1169077506e+02   9.3029538322e+00    0.2048665    0.1346742  45.10 0.0003823712    1.141    0.123
        70  -9.9580    134.9410    238.7962   1.1399270053e+02   1.1232850815e+01    0.1565368    0.1351424  54.10 0.0003927555    1.166    0.142
        71  -9.8153     61.9883    239.0385   1.2571574735e+02   2.0957183485e+01    0.1518013    0.1093447  61.06 0.0004902816    1.065    0.061
        72 -10.9260    184.0206    236.6933   1.0580381420e+02   4.1268228169e+00    0.2306308    0.1690949  24.19 0.0005160992    1.326    0.246
        73  -9.8401     41.3785    236.4915   1.2876338810e+02   2.3694709051e+01    0.1930485    0.1062059  60.36  0.001072115    1.279    0.218
        74 -11.2419    159.0702    235.1060   1.0965618719e+02   8.1087096791e+00    0.2750939    0.1653467  41.61 0.0007925775    1.275    0.215
        75 -10.5770     91.1792    235.7975   1.2084296802e+02   1.7771646142e+01    0.1904747    0.1629109  30.94 0.0005419694    1.623    0.384
        76 -11.6058     86.7654    233.2731   1.2136211212e+02   1.8727323215e+01    0.4108643    0.1936585  54.11  0.001520189    1.636    0.389
        77 -10.6287     77.1981    235.3295   1.2306252960e+02   1.9650003783e+01     0.262938    0.1583556  57.32  0.001071352    1.222    0.182
        78 -10.8023    140.3190    234.6459   1.1268389119e+02   1.0987278786e+01    0.3253744    0.1489137  46.23  0.001075108    1.653    0.395
        79 -10.6576    145.5192    230.6031   1.1138372722e+02   1.0741946042e+01    0.2231337    0.1900658  25.92  0.000670613    1.354    0.261
        80  -9.8740    143.9705    225.9897   1.1112457872e+02   1.1598440481e+01    0.1747058    0.1667511 -26.09 0.0004260032    1.392    0.282
        81 -11.1077    128.9094    233.8542   1.1448417688e+02   1.2777375808e+01    0.2902549    0.1722814  55.89  0.001922551    1.436    0.304
        82 -10.7554    123.9655    230.6089   1.1497935309e+02   1.3950673712e+01    0.2333443    0.1622237  37.96  0.000520302    1.378    0.274
        83  -9.8459      3.8244    235.0119   1.3431427132e+02   2.7681741070e+01    0.1261796   0.09649473  76.80 0.0006090738    1.301    0.231
        84 -10.9843    230.4033    233.3508   9.8077313751e+01  -2.4829652404e+00    0.2111919    0.1481606  30.68  0.000429147    1.065    0.061
        85 -10.5834    226.6975    229.7017   9.8125630449e+01  -1.5919841982e+00    0.2973646    0.1744848 -11.72  0.001536777    2.090    0.522
        86 -10.0809    229.4678    225.3434   9.7062420852e+01  -1.5836113879e+00    0.1776407    0.1455648  13.60 0.0005924545    1.163    0.140
        87 -11.0975    236.2646    226.2663   9.6151883866e+01  -2.6815945410e+00    0.2429487    0.1728009  13.13  0.000449757    1.230    0.187
        88 -10.1603    233.6043    222.2173   9.5955590360e+01  -1.9002126589e+00    0.3222089    0.1451167  40.65  0.001252709    1.770    0.435
        89 -10.7383    177.7649    232.0972   1.0624188758e+02   5.6114552871e+00    0.2284378    0.1682728  19.07 0.0006148041    1.491    0.329
        90  -8.9110    152.9705    232.9760   1.1041522208e+02   9.3026556326e+00     0.129656   0.09844479  45.51 0.0003332003    1.002    0.002
        91  -9.0839    108.5747    233.1604   1.1777593082e+02   1.5787259023e+01    0.1134193    0.1004589 -56.24  0.000420044    1.568    0.362
        92 -10.1880    187.4853    231.4345   1.0457878838e+02   4.1893668564e+00    0.2338651    0.1443879  41.07 0.0007935495    1.236    0.191
        93 -10.0976    190.6751    230.6579   1.0396167782e+02   3.7850255289e+00    0.2359146    0.1087348  34.49  0.001201307    1.889    0.471
        94  -9.9341    164.9823    232.3278   1.0836205329e+02   7.5502353505e+00    0.2719205    0.1027241  39.73  0.001387561    2.138    0.532
        95 -11.1170     55.2544    230.3507   1.2624816981e+02   2.3081830877e+01    0.2835759    0.2035592 -76.70  0.001458644    1.547    0.354
        96 -10.2957      9.8001    231.6564   1.3332647389e+02   2.7650952642e+01    0.1655469    0.1210267  78.96 0.0005534898    1.233    0.189
        97 -11.0642    216.7334    230.3300   9.9766034887e+01  -1.6236088910e-01    0.2326236    0.1580177  27.12 0.0004782355    1.176    0.149
        98 -10.3048    100.5867    230.2414   1.1883859795e+02   1.7322972325e+01     0.180373     0.162406  66.17 0.0006580072    1.277    0.217
        99 -11.0844    103.8620    227.8525   1.1807987644e+02   1.7224684310e+01    0.2870251    0.1699229  43.72  0.001100861    1.402    0.287
       100 -10.0220    134.3723    230.3855   1.1321904701e+02   1.2446571043e+01    0.2132608    0.1031507  45.89 0.0007405226    1.577    0.366
       101 -10.1444     44.9475    229.3234   1.2782712942e+02   2.4417938470e+01     0.158081    0.1209283  88.52 0.0005160706    1.316    0.240
       102  -9.1048    158.4849    229.0707   1.0904888861e+02   8.9591984641e+00     0.125502      0.11234 -41.98 0.0003649467    1.457    0.314
       103 -10.8020    113.6896    227.8830   1.1643303395e+02   1.5829359732e+01    0.2856516    0.1692442  36.03 0.0005310845    1.715    0.417
       104 -10.7181    115.1594    222.4086   1.1564548834e+02   1.6427076133e+01    0.3613915    0.2065004 -78.77  0.001830283    2.423    0.587
       105  -9.5130     92.9334    227.8562   1.1990703777e+02   1.8724719231e+01    0.1462522    0.1225797  49.86 0.0004615145    1.279    0.218
       106 -10.3617     78.7700    226.9121   1.2218488114e+02   2.0737294049e+01    0.2949802    0.1487342 -82.37  0.001091861    2.322    0.569
       107 -10.9416     19.0146    226.9956   1.3175829637e+02   2.7504569574e+01    0.3385396    0.1941805  77.87  0.001587864    1.325    0.245
       108 -10.6260     16.1605    221.1748   1.3195935499e+02   2.8722249713e+01    0.2194521    0.1644746  87.19 0.0009632189    1.307    0.235
       109  -9.7823    174.3580    227.1376   1.0617613600e+02   6.7345645844e+00    0.1790192    0.1236611  35.75 0.0004916328    1.191    0.160
       110 -10.6558    170.2297    223.3209   1.0637660650e+02   7.8576421419e+00    0.2512886    0.2420735 -17.09  0.001559043    1.309    0.236
       111 -10.9926    163.9731    225.0505   1.0764420683e+02   8.6215718684e+00    0.3244805    0.2291257  44.06 0.0009818949    1.102    0.092
       112 -10.4948    165.9543    220.2914   1.0670879680e+02   8.9243103994e+00    0.3517168    0.1544894  36.19  0.001102747    2.107    0.525
       113  -9.0444    138.8403    226.8403   1.1208595331e+02   1.2263060696e+01    0.1460645    0.1071462  61.57 0.0003853809    1.293    0.227
       114 -10.4384     68.0551    227.0268   1.2395895139e+02   2.2069125496e+01    0.1987718    0.1247242  43.18 0.0005178933    1.476    0.322
       115  -9.5578      1.6188    227.1176   1.3439014106e+02   2.9115241971e+01    0.1269878   0.08367421  77.83 0.0008936518    1.149    0.130
       116  -9.8728    210.8547    210.6722   9.7824352282e+01   2.8586839612e+00    0.1932029    0.1479572 -12.47 0.0007286852    1.448    0.309
       117 -11.1333    228.2093    217.6807   9.6108968525e+01  -6.3099300038e-01    0.2977816     0.203947   2.28 0.0005774163    1.515    0.340
       118 -11.6108    223.8097    213.3755   9.6144023734e+01   4.9895091607e-01    0.4444959    0.2901028   2.61  0.002227793    1.712    0.416
       119 -10.4694    210.9355    215.9637   9.8612029061e+01   2.2514282701e+00    0.2604939    0.1848032  10.67 0.0004028917    1.468    0.319
       120 -11.3195    222.5106    225.2190   9.8129243662e+01  -5.2250417538e-01    0.4235026    0.1822392  39.21  0.001898347    1.797    0.443
       121 -11.9499    216.5103    220.4618   9.8381557243e+01   8.8898287384e-01    0.4604179    0.3385283 -32.33  0.001327119    1.689    0.408
       122 -12.3546    216.7608    206.1519   9.6150710004e+01   2.4157308234e+00    0.4184652    0.3200586  -7.96  0.001100143    1.389    0.280
       123 -12.1078    224.6807    203.7881   9.4481994915e+01   1.3976510793e+00    0.4305156    0.4068411 -85.69  0.001405506    1.682    0.406
       124  -9.4585    184.8491    225.8939   1.0428363012e+02   5.2402353675e+00    0.1615581    0.1238353  27.95 0.0003712816    1.178    0.151
       125  -9.7593    199.8015    224.7103   1.0168056553e+02   3.0331893095e+00    0.1668322    0.1326352  12.88 0.0004587815    1.272    0.214
       126  -9.7401    120.7933    224.8780   1.1493443925e+02   1.5237529161e+01    0.1531235    0.1283756  46.26 0.0005001528    1.192    0.161
       127  -9.6208      7.8544    224.9482   1.3338145987e+02   2.8894838746e+01    0.1298662   0.09986834  71.81 0.0004843252    1.251    0.201
       128  -9.9184    191.0867    223.1587   1.0288953060e+02   4.5790933448e+00    0.1666251    0.1452395  16.14 0.0004600301    1.198    0.165
       129  -9.6520    129.5903    223.8326   1.1332696332e+02   1.4082123484e+01    0.1784535    0.1236441  41.16 0.0005005707    1.261    0.207
       130 -10.6947    207.1547    222.5424   1.0018564188e+02   2.1232631317e+00    0.1989566    0.1563845  24.59 0.0004353931    1.086    0.080
       131  -8.7092    155.4505    223.4213   1.0888069344e+02   1.0168432905e+01    0.1136723   0.08807619  44.13 0.0001530564    1.020    0.020
       132  -9.6984    135.9110    222.9573   1.1215202516e+02   1.3251075270e+01    0.1738094     0.134618  52.27  0.000498904    1.033    0.032
       133  -9.5588     82.8207    222.8692   1.2118998497e+02   2.0844940697e+01    0.1475118    0.1235505  54.90 0.0005609935    1.251    0.201
       134 -10.1665     50.1772    222.4709   1.2658693927e+02   2.4925435857e+01    0.1563572    0.1398128  77.07 0.0006655954    1.422    0.297
       135  -9.2130     97.8638    221.8952   1.1855427664e+02   1.8966147893e+01    0.1454676    0.1270196  50.83 0.0004311379    1.284    0.221
       136  -9.6275     74.2120    222.1889   1.2258444456e+02   2.2065829067e+01    0.1453145    0.1190348  61.13 0.0003931067    1.190    0.160
       137 -10.6307     40.1647    220.7778   1.2811837773e+02   2.6321664126e+01    0.1827948    0.1672821  61.49 0.0006445897    1.531    0.347
       138  -9.8952     28.7414    221.9856   1.3001531963e+02   2.7335898641e+01    0.1607979    0.1070908  58.26 0.0004907113    1.153    0.133
       139  -9.7921    180.8883    220.8513   1.0426695032e+02   6.4737018331e+00    0.1690863    0.1259409  28.57 0.0004048429    1.230    0.187
       140  -9.7409    174.8940    220.6926   1.0525089304e+02   7.4491074215e+00    0.1658354    0.1430701  16.80 0.0003025342    1.255    0.203
       141 -10.3653    148.5871    220.1010   1.0964957641e+02   1.1693098393e+01    0.1924786    0.1850877  23.53  0.000548913    1.272    0.214
       142  -9.8959     68.4225    221.0686   1.2347184147e+02   2.2973922696e+01    0.1772379    0.1334669  38.53 0.0007999364    1.561    0.360
       143 -10.0721     59.4032    220.3368   1.2492718418e+02   2.4192963382e+01    0.2849884    0.1580753  53.19  0.001979974    1.361    0.265
       144 -10.0457     56.0730    216.8709   1.2524971954e+02   2.5158949870e+01    0.1656114    0.1162134  83.79 0.0007541197    1.244    0.196
       145  -9.0330    140.5557    220.0262   1.1102136134e+02   1.2953758215e+01    0.1339649    0.1125558 -59.74 0.0003275521    1.482    0.325
       146  -9.7422    186.1362    219.0055   1.0313841062e+02   5.8604985361e+00    0.1702857     0.135014  34.16 0.0004161672    1.036    0.035
       147 -10.1095    159.1177    217.6675   1.0753989675e+02   1.0361841647e+01    0.1996379    0.1814022  45.60 0.0008053555    1.148    0.129
       148  -8.9895    128.7363    218.9595   1.1294206210e+02   1.4919883501e+01    0.1165181   0.09782049 -66.58 0.0004000248    1.443    0.307
       149  -9.7708    109.3455    218.8498   1.1629067896e+02   1.7811427088e+01    0.1893799    0.1166812  52.38 0.0004077515    1.275    0.216
       150 -11.0023    132.3966    213.4851   1.1168046660e+02   1.5171815550e+01    0.2414703    0.1698953  36.43  0.000581324    1.388    0.279
       151 -11.1193    137.2582    213.9436   1.1087926795e+02   1.4346714342e+01     0.297311    0.2260954  55.84  0.001957665    1.125    0.111
       152  -8.8820    104.2907    218.3143   1.1711354144e+02   1.8619848861e+01   0.09473917   0.08453166  21.40 0.0007003292    1.591    0.372
       153 -10.6308    193.8035    215.8033   1.0140817005e+02   5.0136086891e+00     0.254307    0.1898756  14.13 0.0004743969    1.422    0.297
       154 -10.9043    202.2472    215.4303   9.9954756070e+01   3.6987267824e+00    0.4001059     0.273011 -21.62  0.002504015    1.766    0.434
       155 -11.5296    198.5771    212.7277   1.0016460403e+02   4.6077382025e+00    0.4844613    0.2987412   2.85  0.002658843    2.448    0.592
       156  -9.8882    119.7935    216.5119   1.1423138590e+02   1.6633771731e+01    0.2037587    0.1540103 -76.94 0.0005728188    1.535    0.348
       157 -10.4606    118.7469    212.3356   1.1396254152e+02   1.7433994165e+01    0.2688939    0.1471096  37.13   0.00127368    1.791    0.442
       158 -10.4622      7.9420    216.0654   1.3304168931e+02   3.0335495303e+01    0.1796354    0.1660718 -82.73  0.001135595    1.693    0.409
       159  -9.3357     21.6901    216.6883   1.3088954145e+02   2.8921659248e+01   0.08065199   0.07091214 -77.34 0.0002948288    1.626    0.385
       160  -9.3998    179.9686    215.3199   1.0366606223e+02   7.3118371355e+00    0.1642273    0.1158334  39.61 0.0003142762    1.126    0.112
       161  -9.5845    124.4536    215.5036   1.1330593403e+02   1.6085531028e+01    0.1143018   0.09042355  54.12 9.548706e-05    1.006    0.006
       162  -9.3626     83.1830    215.2302   1.2049164068e+02   2.2023837960e+01    0.1476663    0.1251854  55.89  0.000535922    1.241    0.194
       163 -10.1599     31.4128    214.2893   1.2919410319e+02   2.8334583245e+01    0.1655432    0.1440143  73.33 0.0006532939    1.391    0.281
       164  -9.4070    186.4909    213.9066   1.0236353846e+02   6.4296954291e+00    0.1725897    0.1262232  38.36 0.0004906943    1.087    0.080
       165  -9.6538    165.8498    213.8712   1.0588515446e+02   9.7916841342e+00    0.1726523    0.1346957  27.86 0.0004743344    1.278    0.218
       166  -9.7772    143.4167    214.1807   1.0982781735e+02   1.3344245192e+01    0.1889256    0.1286684  38.86 0.0004547194    1.299    0.230
       167 -10.7673     63.6337    213.2685   1.2370998003e+02   2.4849619956e+01     0.216878    0.1568601  55.57 0.0005276821    1.153    0.133
       168  -9.8395     51.8472    212.5751   1.2567561583e+02   2.6373190897e+01    0.1527357    0.1218843 -90.00 0.0005185034    1.280    0.219
       169 -10.4073     41.1913    212.4411   1.2746683932e+02   2.7599521635e+01    0.1599969    0.1396197  84.08 0.0006157897    1.384    0.278
       170  -9.4526    154.6923    212.0911   1.0759032870e+02   1.1842298713e+01    0.1484737    0.1356551  41.70 0.0004454198    1.146    0.127
       171  -9.5441     96.9594    212.3504   1.1781949360e+02   2.0607405180e+01    0.1554828    0.1150531  51.18 0.0005152925    1.141    0.124
       172 -10.2370    124.5706    210.5912   1.1273237588e+02   1.6819932908e+01    0.2778102    0.1723293  79.41  0.001485048    2.216    0.549
       173 -10.1379    124.2457    205.9803   1.1225523131e+02   1.7592073637e+01    0.2582056    0.1398095  38.41            0    1.735    0.424
       174  -9.6188     25.5054    210.4765   1.2996943294e+02   2.9586911694e+01    0.1373687    0.1175915 -73.33 0.0005653959    1.610    0.379
       175 -10.2212     18.2519    210.6718   1.3116858363e+02   3.0270383576e+01    0.1689414    0.1473754  84.42 0.0008677508    1.452    0.311
       176  -8.9128    149.2502    209.9542   1.0827147746e+02   1.3025769670e+01    0.1225724    0.1017229 -57.74 0.0003864186    1.478    0.323
       177  -9.3700    106.7963    210.1687   1.1585572453e+02   1.9550105049e+01    0.1364179    0.1242054  44.08 0.0003813461    1.319    0.242
       178  -9.9341     56.4327    209.8108   1.2469910231e+02   2.6304543506e+01    0.1553876    0.1092142  48.12 0.0003973047    1.329    0.248
       179 -10.2030    171.2912    213.7717   1.0493461615e+02   8.9214413532e+00    0.2001483    0.1653129  44.69 0.0004711005    1.073    0.068
       180 -10.2930    161.2033    208.5554   1.0597872335e+02   1.1280315072e+01    0.2249721    0.1656543  34.89 0.0004794686    1.233    0.189
       181  -9.9599    140.4871    209.4964   1.0976740132e+02   1.4497210586e+01    0.1173731   0.09530438  48.18 0.0002573758    1.033    0.032
       182  -9.1856     93.4569    208.7346   1.1809277269e+02   2.1691866395e+01    0.1291232    0.1027644 -60.33 0.0006313769    1.563    0.360
       183  -9.1283     78.4378    208.7669   1.2076633342e+02   2.3725470392e+01    0.1252383   0.09748954 -67.70 0.0004637419    1.510    0.338
       184  -9.7386    177.0363    208.0282   1.0314064255e+02   8.7385390714e+00    0.1728601    0.1413295  36.19 0.0003391432    1.035    0.034
       185 -10.3217    147.5069    206.3805   1.0811806298e+02   1.3832003399e+01     0.464464    0.2529142  22.09  0.001987282    3.713    0.731
       186 -10.8809    144.9761    200.2416   1.0776113071e+02   1.5172792143e+01    0.3027903    0.1600803  40.94  0.001141711    1.634    0.388
       187 -11.1036    132.4861    207.0381   1.1089573832e+02   1.6138144794e+01     0.354786    0.2308242  39.57  0.001354527    1.390    0.281
       188 -11.2837    139.3527    203.6147   1.0922744991e+02   1.5570408295e+01    0.3600673     0.248167  13.07  0.001272965    2.479    0.597
       189  -9.0941    193.0917    207.5382   1.0031410362e+02   6.1391990049e+00    0.1701797   0.09605994  41.88 0.0003687665    1.441    0.306
       190  -9.5766    120.2822    206.8787   1.1307577441e+02   1.8060012429e+01    0.1537817    0.1361254  67.65 0.0007676383    1.127    0.113
       191 -10.8955    114.7591    206.5880   1.1404023244e+02   1.8945765239e+01    0.2738515    0.1614428  57.33  0.001509202    1.504    0.335
       192 -11.0138     15.5801    206.2213   1.3140307770e+02   3.1288797307e+01    0.2094672    0.1844362  40.03 0.0009929538    1.672    0.402
       193  -9.8371    206.9358    206.0109   9.7751047285e+01   4.0383821322e+00    0.1804498    0.1392105  27.33 0.0004028702    1.070    0.066
       194 -10.2719     47.1254    206.0871   1.2605266497e+02   2.8027758893e+01    0.1826104    0.1375336  42.10 0.0005122884    1.505    0.336
       195  -9.2060     32.2226    206.5526   1.2863603394e+02   2.9571892220e+01    0.1167647   0.08895877  43.07 0.0004175618    1.522    0.343
       196  -8.8809    183.5442    205.4672   1.0164087408e+02   7.9928622834e+00    0.1200011   0.09693044  34.79 0.0001086359    1.029    0.028
       197  -9.7945     86.4880    204.9212   1.1897964755e+02   2.3296848850e+01    0.1832716    0.1423191  38.43 0.0006382475    1.462    0.316
       198 -10.7411    109.9727    201.6096   1.1435497399e+02   2.0481953238e+01    0.3112416    0.2159912 -85.29  0.001650445    1.632    0.387
       199 -10.9369     56.2663    201.8233   1.2414299497e+02   2.7710846388e+01    0.1922875    0.1576371  87.97 0.0004403931    1.231    0.188
       200  -9.1620    179.2055    202.2229   1.0191327346e+02   9.1537310076e+00    0.1511748    0.1217025  53.09 0.0003145049    1.250    0.200
       201  -8.7163    173.4403    202.4158   1.0295535510e+02   1.0099868278e+01    0.1202992   0.09800949  39.44 0.0001271117    1.011    0.011
       202 -10.7997      6.6945    204.0540   1.3277039403e+02   3.2482966411e+01    0.1908993    0.1803319 -62.07  0.001253066    1.786    0.440
       203 -10.1795     20.9910    202.0182   1.3029587071e+02   3.1499893426e+01    0.1542004    0.1128102  72.44 0.0005375872    1.073    0.068
       204 -10.0101    198.3533    201.0727   9.8424044593e+01   6.0703040355e+00    0.1872405       0.1367  30.11 0.0004064642    1.170    0.145
       205  -9.1829    186.9017    200.9061   1.0037069824e+02   8.0275947775e+00    0.1708872    0.1342439  26.94 0.0002972081    1.165    0.142
       206 -10.7865    164.2897    200.1526   1.0425336958e+02   1.1963075194e+01    0.4625543    0.1987384  36.52  0.001990576    2.274    0.560
       207  -8.9615     34.2828    201.2916   1.2797582566e+02   3.0277090995e+01   0.08535424   0.07519363 -75.35 0.0002081347    1.533    0.348
       208 -10.4139     26.8839    200.5245   1.2921035319e+02   3.1177838902e+01     0.284583    0.1244853  51.77  0.001822791    1.754    0.430
       209  -9.8136    132.2984    199.6788   1.1001135861e+02   1.7323415954e+01    0.2112845    0.1579568  14.01 0.0007940878    2.028    0.507
       210  -9.1513     98.4906    200.5127   1.1634915614e+02   2.2359497312e+01    0.1150416   0.09376469  61.42 0.0001282984    1.044    0.042
       211 -10.4651     69.3713    200.2994   1.2166257218e+02   2.6362760106e+01     0.177614    0.1239963  36.98 0.0006107606    1.630    0.386
       212 -10.5383    230.1712    198.3326   9.2693034614e+01   1.1111751453e+00    0.2568904    0.1693172  27.41 0.0006427458    1.267    0.211
       213 -10.4058    209.9596    198.1106   9.5982706067e+01   4.4820557816e+00    0.2628131    0.2211097 -62.46  0.001148978    1.841    0.457
       214 -10.0110    209.5955    192.3322   9.5084974511e+01   5.2541086828e+00    0.2323945    0.1789177  12.28 0.0007201361    1.269    0.212
       215 -10.2212    202.6403    194.8922   9.6696958450e+01   6.1234342404e+00    0.2595716    0.1780515  22.81 0.0004420614    1.425    0.298
       216 -10.5748    206.3137    188.2623   9.4954518461e+01   6.3366627898e+00    0.4331455    0.2741036  -2.96  0.001711684    2.142    0.533
       217  -9.9339    210.3144    187.3095   9.4104867079e+01   5.7618788186e+00    0.1858554    0.1401682   5.62 0.0003571719    1.377    0.274
       218  -9.6899     72.8320    207.6780   1.2166585727e+02   2.4639732062e+01     0.156332    0.1198039  44.66 0.0005304157    1.368    0.269
       219  -8.9211     80.5394    198.9322   1.1949796693e+02   2.5140128241e+01    0.1449568    0.1014023 -75.85 0.0003684477    1.460    0.315
       220  -9.5903     41.9064    199.1019   1.2650064993e+02   2.9843220759e+01     0.133032    0.1224109 -68.33 0.0004975077    1.592    0.372
       221 -10.1982    103.4772    197.6886   1.1511869984e+02   2.2112936176e+01    0.2673643    0.1676332  67.37  0.001026068    1.586    0.370
       222  -9.8805     49.4913    198.0550   1.2507564122e+02   2.9175419056e+01    0.1607229    0.1382546  52.36 0.0005331714    1.382    0.276
       223 -10.0590    215.5434    196.1976   9.4732397873e+01   3.7739629676e+00     0.226205    0.1676471   9.29 0.0009446428    1.345    0.257
       224  -9.5683    170.0488    196.0008   1.0260535407e+02   1.1582011306e+01    0.1832765    0.1522136  40.54 0.0003603064    1.008    0.008
       225 -10.6082    157.8555    194.4416   1.0458896402e+02   1.3899527501e+01    0.2856788    0.2566843 -35.31  0.001814304    1.335    0.251
       226  -9.8820    149.1971    196.3514   1.0645324707e+02   1.5071328913e+01    0.1842376    0.1291378  34.53  0.000428176    1.392    0.281
       227  -8.7298    124.7617    196.3251   1.1098283226e+02   1.9072487466e+01    0.1140642    0.0818449  74.91 0.0002285599    1.524    0.344
       228 -10.3951     89.1716    195.6916   1.1757657183e+02   2.4524242152e+01    0.1866843     0.171294  85.22 0.0004922755    1.257    0.205
       229  -9.4022     60.9861    195.9641   1.2282826625e+02   2.8184899286e+01    0.1343421    0.1016737  67.92 0.0003689318    1.019    0.018
       230  -9.8962    184.4390    194.4797   9.9800872118e+01   9.3146134144e+00    0.2053783    0.1630709  34.51 0.0002946663    1.068    0.063
       231  -9.5119    176.1997    195.3534   1.0140309648e+02   1.0616347773e+01    0.1665931    0.1267069  43.90 0.0003946177    1.120    0.107
       232  -9.2889    140.4225    195.2074   1.0791722069e+02   1.6712178702e+01    0.1489462    0.1142236 -75.77 0.0008282887    1.590    0.371
       233 -10.2834    231.1853    192.3763   9.1512511408e+01   1.6107961277e+00    0.3284146    0.1848768   8.82  0.001603612    2.321    0.569
       234  -9.4803    143.8653    193.7689   1.0707813414e+02   1.6368321197e+01    0.1704242    0.1286378  65.39 0.0008540107    1.367    0.269
       235  -9.4064    113.1499    193.8321   1.1285587501e+02   2.1311229175e+01    0.1464086    0.1331845  38.38 0.0003499879    1.298    0.230
       236 -10.3936     81.5995    193.7565   1.1880066393e+02   2.5915305149e+01    0.2120725    0.1330768  47.73 0.0006180984    1.380    0.275
       237  -8.8904     54.5210    194.4716   1.2389302617e+02   2.9234587482e+01    0.1094497   0.08466314  71.49 7.685683e-05    1.042    0.040
       238  -9.7741     74.5082    193.5043   1.2010604734e+02   2.6909951099e+01    0.1133953   0.09069601  68.68 9.498495e-05    1.038    0.037
       239  -9.1333     36.2281    192.8060   1.2709807583e+02   3.1596954661e+01    0.1270516    0.1097964  84.73  0.000484009    1.313    0.238
       240 -10.3725    151.7173    191.3960   1.0527699326e+02   1.5415903523e+01    0.2305909    0.2147285  15.85 0.0008975903    1.231    0.188
       241  -9.5047    104.2924    191.7599   1.1428963473e+02   2.3019316155e+01    0.1512329     0.135618  32.93  0.001060937    1.392    0.282
       242 -10.0667    161.9551    190.1797   1.0319730412e+02   1.3841396383e+01    0.2643508    0.2070687  83.31  0.001059217    1.696    0.410
       243 -10.6259    158.6109    186.2552   1.0321604111e+02   1.5029847097e+01    0.3831809    0.2050783  38.25  0.001826894    1.729    0.421
       244 -10.0408    224.6328    189.8969   9.2151908102e+01   2.9907790922e+00    0.2084406    0.1886403  55.70  0.001442061    1.482    0.325
       245 -10.0890     96.7735    188.6979   1.1537592104e+02   2.4679218361e+01    0.2953103    0.1749302 -64.36   0.00112139    1.805    0.446
       246  -9.2022     64.4285    189.7421   1.2165589092e+02   2.8892392120e+01     0.134248    0.0962115 -68.48 0.0003014173    1.493    0.330
       247  -8.9333    194.4021    192.4626   9.7723832055e+01   7.8598487981e+00    0.1221072    0.1021133  29.15 0.0001168878    1.028    0.028
       248 -10.1923    214.9628    186.9956   9.3260405688e+01   4.9948047732e+00    0.2882148    0.1848315  -8.47  0.001263986    1.888    0.470
       249 -10.3765    199.2338    188.6508   9.6246648431e+01   7.5231664381e+00    0.2295256    0.2045881   0.40 0.0004445197    1.171    0.146
       250  -9.4117    172.6758    189.0157   1.0104846923e+02   1.2143421582e+01     0.160035    0.1495516  22.44 0.0003500131    1.125    0.111
       251 -10.8774     72.8499    188.2932   1.1992369153e+02   2.8079254070e+01    0.2598477    0.1593247  69.63  0.001612439    1.495    0.331
       252  -8.9189    186.2638    188.7290   9.8548881229e+01   9.7926925262e+00    0.1103259   0.09263613  67.11 0.0002097313    1.466    0.318
       253  -9.1191    179.2165    187.8709   9.9675921308e+01   1.1158107672e+01    0.1607917    0.1292299  20.91 0.0003317342    1.271    0.213
       254  -9.9210     77.5355    188.5332   1.1905188061e+02   2.7412977796e+01    0.1166553   0.09173214  69.25 1.741462e-05    1.013    0.013
       255 -12.2945    233.8002    185.1628   8.9816708185e+01   1.9985790658e+00    0.5189618    0.2705646  36.58  0.001621142    1.652    0.395
       256  -8.9756    193.8201    186.1627   9.6777009189e+01   8.8123738358e+00     0.164057    0.1285829  17.83 0.0003242852    1.273    0.215
       257 -10.3116    127.8424    185.4014   1.0895462557e+02   2.0414012560e+01    0.3330384    0.1663972  37.31  0.001314637    2.020    0.505
       258  -8.8070     80.6944    184.6785   1.1804737296e+02   2.7697048319e+01    0.1005447    0.0930506 -29.82 0.0003520413    1.638    0.389
       259  -9.2972     34.9259    184.4972   1.2677686817e+02   3.3275732196e+01    0.1452792   0.09388282  43.69  0.000819544    1.539    0.350
       260 -10.9374    211.1723    179.9177   9.2652831490e+01   6.5626010463e+00    0.3238313    0.2348007 -16.22  0.001167459    1.492    0.330
       261 -10.3459    210.3355    173.9341   9.1704549718e+01   7.5048127638e+00    0.3856784    0.2108319  47.20 0.0008702752    1.731    0.422
       262 -10.2497    205.1119    175.0083   9.2815966198e+01   8.3096649471e+00    0.2248022    0.1836444  14.81 0.0004932893    1.163    0.140
       263 -10.2304    140.9857    182.6068   1.0601376309e+02   1.8678657659e+01    0.2969274    0.2022515  17.84  0.001172434    2.248    0.555
       264  -9.5860    167.0417    184.2101   1.0131911653e+02   1.3860514695e+01    0.1858877    0.1524244  26.05 0.0004439575    1.239    0.193
       265  -9.5141     67.1468    182.6809   1.2048217775e+02   2.9866981195e+01    0.1552593    0.1247656  61.84 0.0005812565    1.121    0.108
       266  -9.0871    224.1238    181.8080   9.0800796485e+01   4.0481864276e+00    0.1620981    0.1196862  17.07 0.0003440817    1.239    0.193
       267 -10.3291    156.0987    181.4238   1.0293412604e+02   1.6238886710e+01    0.3350533    0.1817469  34.62   0.00165278    1.914    0.477
       268  -9.5211    116.6263    187.5029   1.1140197009e+02   2.1861846585e+01    0.3298762    0.1528129  33.42  0.001488813    2.689    0.628
       269  -8.9384    218.2581    181.6725   9.1760055680e+01   5.0867925487e+00    0.1057962   0.09942821 -82.65 0.0002835223    1.558    0.358
       270 -10.0482    202.9374    180.0488   9.4107907419e+01   8.0177278475e+00    0.3395583    0.2614225 -71.86  0.001831108    2.230    0.551
       271 -10.3541    198.0033    174.3603   9.3958927232e+01   9.7001665687e+00    0.2454291    0.2097725 -46.66 0.0004009248    1.431    0.301
       272  -9.4240    184.2625    180.9402   9.7603773883e+01   1.1261182130e+01    0.1672337    0.1483401  22.86 0.0003430805    1.081    0.075
       273  -8.7342    197.6821    180.7054   9.5151021800e+01   8.8728714870e+00    0.1285494   0.08842804  17.81 0.0003212664    1.607    0.378
       274 -10.3825    175.1820    179.5719   9.9040773057e+01   1.3107795902e+01    0.2302782    0.2209634  31.41 0.0004469637    1.112    0.101
       275  -9.5562     55.3535    179.9523   1.2252571917e+02   3.1846017858e+01     0.154339     0.119695  89.75 0.0005515971    1.142    0.125
       276  -9.1722    235.8005    179.0962   8.8387508798e+01   2.3651193358e+00    0.1681692    0.1183867  14.23 0.0004274758    1.320    0.242
       277  -8.9411    231.2356    178.2880   8.8981619183e+01   3.2441544785e+00    0.1186703   0.08144049  10.88 0.0002095568    1.455    0.313
       278  -9.7425    191.0415    176.9140   9.5671168532e+01   1.0611902078e+01     0.193042    0.1629358  27.56 0.0004133474    1.062    0.058
       279 -10.9596    140.4580    176.3302   1.0516292898e+02   1.9837397099e+01    0.3297571    0.2727715  70.79  0.001238678    1.240    0.194
       280 -10.2087    101.1141    176.0411   1.1298662541e+02   2.6355248680e+01    0.2062451    0.1502515  71.01            0    1.305    0.234
       281  -8.9988     69.3459    177.2980   1.1951565367e+02   3.0611226374e+01     0.101017   0.09274578 -29.83 0.0007035262    1.676    0.403
       282  -9.1373    169.5029    176.4540   9.9575962982e+01   1.4620734585e+01    0.1293797    0.1124071  37.25 9.472378e-05    1.035    0.034
       283 -10.0480     60.0445    176.4719   1.2128401161e+02   3.1947937839e+01    0.1627208   0.09986739  44.94  0.000411503    1.532    0.347
       284  -9.4414    219.3519    175.0179   9.0357072100e+01   5.7380236911e+00    0.1663733    0.1414089  -1.77 0.0003473504    1.142    0.125
       285  -8.8675    215.2504    175.3948   9.1126561192e+01   6.4237775328e+00    0.1291699   0.08748188   6.95 0.0003457358    1.684    0.406
       286 -10.6388    152.6984    173.8765   1.0237147599e+02   1.8086200948e+01    0.3619126     0.232216  24.89  0.001719211    2.029    0.507
       287 -10.4696    146.0872    174.7069   1.0380052320e+02   1.9126403879e+01    0.1918318    0.1496778  47.08 0.0008830321    1.132    0.117
       288  -9.1868     46.9382    175.0155   1.2374606330e+02   3.3780781268e+01    0.1390117    0.1065085  69.05 0.0009969702    1.069    0.064
       289  -9.3027    182.8942    173.9130   9.6629615585e+01   1.2551764183e+01    0.1893186    0.1583202  20.34 0.0003933495    1.190    0.160
       290 -10.4744    161.7640    173.9568   1.0062813541e+02   1.6430742856e+01    0.2401658     0.169781  36.01 0.0005325796    1.343    0.255
       291  -9.1728    129.1806    172.8536   1.0687308554e+02   2.2395600336e+01    0.1604147    0.1464286  25.03 0.0003136213    1.289    0.224
       292  -9.0339     24.4996    172.3915   1.2792902502e+02   3.6648097421e+01    0.1059129   0.08168124  78.85 0.0001743334    1.075    0.070
       293 -10.1224    225.8717    170.7739   8.8458325174e+01   5.1136829206e+00    0.1885588    0.1430088  20.75 0.0004168703    1.173    0.148
       294  -9.4388    193.0817    171.1343   9.4257000205e+01   1.1073534427e+01    0.1930681    0.1555385  20.20  0.000283645    1.213    0.175
       295  -9.0019     76.3337    171.3001   1.1745769533e+02   3.0848630659e+01    0.1047567   0.09535351 -27.78 0.0007033544    1.653    0.395
       296  -9.5513    201.1499    169.8581   9.2564690239e+01   9.7558189563e+00    0.1751562    0.1382791  12.86 0.0003216456    1.283    0.220
       297  -9.0500    188.1408    170.6401   9.5070802018e+01   1.2067670053e+01    0.1845348    0.1065324  35.98 0.0004288926    1.631    0.387
       298  -8.8862     44.5191    170.5226   1.2384288689e+02   3.4934911428e+01    0.1133529   0.08883563  78.98 0.0001834916    1.033    0.032
       299 -10.5431    245.7594    166.8572   8.4465200110e+01   2.0928917212e+00    0.3464336    0.1724188 -22.26 0.0009960312    2.057    0.514
       300 -10.1079    143.5594    169.2263   1.0341226343e+02   2.0525032697e+01    0.1671681    0.1246696 -35.13  0.000812456    1.648    0.393
       301  -9.0753    233.3901    172.4632   8.7536147298e+01   3.5734381012e+00    0.1252435    0.1027009  13.19 0.0001123631    1.033    0.032
       302  -9.9648    231.8987    157.5110   8.4842925028e+01   5.7175038175e+00    0.2325133    0.1698836  -9.57 0.0004658406    1.346    0.257
       303 -10.2739    233.2080    151.9014   8.3474604414e+01   6.2040347530e+00    0.3283531    0.1891124 -35.01  0.001286234    1.804    0.446
       304 -10.0566    240.1302    162.3302   8.4469485593e+01   3.6217500442e+00    0.2327635    0.1745792   8.45 0.0005129242    1.223    0.182
       305 -10.5545    239.7998    151.1586   8.2247244535e+01   5.0771549983e+00     0.501402    0.2457425  39.39  0.002413752    1.923    0.480
       306 -10.6726    237.5450    157.1345   8.3841758975e+01   4.7323754674e+00    0.3906125    0.2189187 -14.07  0.001293037    2.007    0.502
       307 -10.5167    237.5115    167.0575   8.5823789657e+01   3.5076038692e+00    0.2942131    0.2138872 -30.69  0.001143547    1.480    0.325
       308 -10.5270    234.1799    162.4212   8.5453822393e+01   4.6756894770e+00    0.3038378    0.2163676 -33.94 0.0004757997    1.537    0.349
       309 -11.0207    205.5879    166.1341   9.1067606789e+01   9.4539023983e+00    0.3443475    0.2216298 -14.53  0.001733074    1.882    0.469
       310  -9.6566    211.9518    167.5058   9.0210820723e+01   8.0782124280e+00    0.2304611    0.1948721  79.43 0.0008836556    1.761    0.432
       311  -9.2730    197.4415    168.4731   9.2971787340e+01   1.0646322870e+01    0.1314023    0.1133195  24.16  0.000127336    1.041    0.039
       312  -9.2876    134.9845    167.6811   1.0488994688e+02   2.2322301916e+01    0.1825129    0.1521812  47.93 0.0004325174    1.099    0.090
       313 -10.2947    150.1465    166.7048   1.0167211308e+02   1.9773110177e+01    0.1846019    0.1537402  45.06 0.0004631012    1.089    0.082
       314  -9.2982     84.5132    167.0244   1.1525623411e+02   3.0550875681e+01     0.171459    0.1116071 -72.24 0.0004118952    1.512    0.339
       315  -8.9920     53.7020    167.3088   1.2168574924e+02   3.4519793915e+01    0.1214176   0.07081231  70.46  0.000395964    1.595    0.373
       316 -10.3974    218.9316    165.2722   8.8572225718e+01   7.0896555480e+00    0.2111149    0.1705756  -2.48 0.0003549015    1.205    0.170
       317  -9.2983    179.0179    166.3172   9.5980571865e+01   1.4445480238e+01    0.1833411    0.1531856  38.81 0.0003906959    1.070    0.066
       318  -9.4355    169.9643    166.4939   9.7743190273e+01   1.6125988784e+01    0.1985047    0.1185436  44.81 0.0003636931    1.504    0.335
       319  -9.0399    140.5121    166.5468   1.0358302627e+02   2.1545027731e+01     0.131129    0.1159668  58.09 0.0004077205    1.031    0.030
       320  -9.3117    250.8196    165.0444   8.3316734280e+01   1.4350641785e+00    0.1583164   0.08588003 -26.07 0.0004997498    1.794    0.443
       321  -8.4799     95.3502    164.3056   1.1262340004e+02   2.9491852013e+01    0.1143495    0.1009228 -10.54 0.0007041984    1.705    0.413
       322  -9.4173    199.9639    162.6581   9.1404890525e+01   1.1015905563e+01      0.18788    0.1511004  34.44 0.0004100933    1.113    0.101
       323  -9.7002    192.0031    162.5113   9.2832763431e+01   1.2558833290e+01    0.1843117    0.1690038  10.22 0.0003748868    1.075    0.070
       324  -9.9720    184.3634    162.9781   9.4346843731e+01   1.3950412766e+01    0.2947288    0.1798185  58.65 0.0008943359    1.953    0.488
       325  -8.5761    120.2900    163.3165   1.0722680755e+02   2.5671531871e+01    0.1184708    0.1035835  -4.43 0.0005603095    1.595    0.373
       326  -9.2759    111.1638    162.8855   1.0907851797e+02   2.7274753640e+01    0.1577858    0.1537586 -22.93 0.0004202389    1.306    0.234
       327  -9.0875     80.5356    163.5038   1.1565593717e+02   3.1815102825e+01    0.1232029    0.1030191  76.71 8.185876e-05    1.003    0.003
       328 -10.9467    158.3641    168.8299   1.0041221770e+02   1.7901268646e+01    0.2204031    0.1637436  53.10 0.0005380474    1.270    0.212
       329 -10.0201    213.1295    160.2147   8.8580554850e+01   8.8630261021e+00     0.202392    0.1743831  -2.68 0.0004354869    1.124    0.111
       330 -10.6825     53.2382    158.5285   1.2090291851e+02   3.6355857211e+01    0.4643933    0.2998013  17.36  0.002547547    2.717    0.632
       331  -9.4227    221.1747    159.8409   8.7115183962e+01   7.4007590325e+00    0.1842329    0.1709234  35.26  0.000678956    1.214    0.176
       332 -11.1969    205.8880    158.5577   8.9531286226e+01   1.0478706614e+01    0.4262978     0.297795  -3.84  0.001691751    1.701    0.412
       333  -9.6388    206.0474    152.4569   8.8266426375e+01   1.1337684368e+01     0.217711    0.1736945  -7.76 0.0004310461    1.299    0.230
       334 -10.4862    153.0243    159.9899   9.9913960283e+01   2.0414154294e+01    0.2028223    0.1865516  42.87 0.0004497075    1.043    0.042
       335 -11.6146    156.5390    157.4803   9.8744862492e+01   2.0191417037e+01    0.4105488    0.2774177  61.40  0.001921852    1.651    0.394
       336 -10.2003    250.5393    156.6883   8.1688092046e+01   2.4647807008e+00    0.2898361    0.1147526 -27.38   0.00116777    2.468    0.595
       337 -10.5298    166.9846    153.6883   9.5928284085e+01   1.8835281926e+01    0.2058496    0.1822197 -40.52 0.0005251911    1.222    0.182
       338  -9.4933    140.8044    156.9631   1.0187875822e+02   2.3231515154e+01    0.2134205    0.1511082 -87.89 0.0006341889    1.963    0.491
       339  -8.8138     99.2730    156.2962   1.1064226211e+02   3.0482594327e+01    0.1128209    0.1016936 -24.99  0.000258709    1.524    0.344
       340  -8.7905    246.4150    155.4808   8.2086622797e+01   3.3399183330e+00    0.1293703    0.1053183   7.71 0.0001475095    1.041    0.039
       341  -9.2809    226.2642    154.5723   8.5182951405e+01   7.1529876103e+00    0.1825942    0.1100352  34.03 0.0008748522    1.564    0.361
       342  -9.8473    221.5551    150.6966   8.5179937990e+01   8.5761913763e+00    0.2404876    0.1266159 -31.24  0.000459223    1.929    0.482
       343  -9.2706    216.2274    154.1427   8.6812897277e+01   9.1206391956e+00    0.1854873    0.1801005 -53.49 0.0003472499    1.312    0.238
       344 -10.6873    213.2489    148.7324   8.6210392563e+01   1.0468073677e+01    0.4894629    0.3999845  -0.47  0.002431704    1.210    0.173
       345  -9.2767    197.4288    154.5170   9.0254183495e+01   1.2718817278e+01     0.134386    0.1208915  21.61 0.0001210322    1.012    0.012
       346  -9.6871    228.0309    150.6270   8.4068655689e+01   7.3480363040e+00    0.1865521    0.1523785  28.79 0.0005518096    1.119    0.106
       347 -10.3124    144.8040    149.4436   9.9662739582e+01   2.3877386221e+01    0.4777835    0.2266854 -53.47  0.002036994    2.391    0.582
       348  -9.0402    107.8245    151.3673   1.0800363025e+02   3.0099323106e+01    0.1715293    0.1196146  36.43 0.0004604875    1.563    0.360
       349 -10.8262     20.2141    151.4035   1.2729285829e+02   4.1257622473e+01    0.1617506    0.1201484  71.30 0.0009712353    1.123    0.110
       350 -10.4128    249.6438    148.0463   8.0040677917e+01   3.6709331807e+00    0.3604838    0.1955301 -16.68  0.001428645    1.904    0.475
       351  -9.4301    157.5051    150.5468   9.7233773113e+01   2.1233016975e+01     0.136276    0.1262303  47.08 3.928455e-05    1.004    0.004
       352  -8.7804    202.5197    149.5168   8.8295795942e+01   1.2470958260e+01    0.1366156    0.1223326  20.08 0.0002480444    1.009    0.009
       353 -11.0657      4.9156    147.5893   1.3024801977e+02   4.3320021145e+01    0.3902017    0.1475194  67.16  0.002017036    2.540    0.606
       354  -8.5821    122.2777    148.3188   1.0430652460e+02   2.8235426704e+01    0.1244395     0.107436 -10.71 0.0002754102    1.576    0.365
       355 -10.8259    243.7943    145.6727   8.0455405486e+01   5.0374316335e+00    0.4515161    0.2320522 -29.51  0.001092845    1.873    0.466
       356 -10.4138    248.5678    133.5944   7.7090520844e+01   5.6873689185e+00    0.3304296    0.2249752 -12.95 0.0009671251    1.396    0.284
       357  -9.9260    247.6396    142.2947   7.9130433393e+01   4.7536497730e+00     0.176718    0.1555773 -59.00  0.000655424    1.639    0.390
       358 -10.7236    250.1612    139.3809   7.8112151698e+01   4.6541675104e+00    0.3832966    0.1948144 -24.79 0.0009829699    1.869    0.465
       359 -10.0461    161.5621    147.4855   9.5800821675e+01   2.0982811971e+01     0.261271    0.1279226  49.06 0.0006380416    1.956    0.489
       360 -10.2107    159.7876    144.2383   9.5511324741e+01   2.1915584625e+01    0.2383146    0.1887594 -34.98 0.0003768831    1.375    0.273
       361  -9.2257    150.2487    147.0177   9.8051242023e+01   2.3282628114e+01    0.1686503    0.1180853 -46.31 0.0003535928    1.521    0.342
       362  -8.8218     98.3456    146.3092   1.0930731045e+02   3.2669213904e+01    0.1227534    0.1052959 -15.21 0.0005063219    1.702    0.413
       363 -11.7082     36.9237    143.9652   1.2299041297e+02   4.1208203058e+01    0.4216129    0.2164906 -69.56  0.002418178    1.669    0.401
       364 -11.6510     25.9174    143.9281   1.2544456105e+02   4.2294166002e+01     0.375048    0.1789351  68.63  0.001475469    2.084    0.520
       365 -10.7617     12.2261    146.4145   1.2862290213e+02   4.2977076629e+01    0.1702318    0.1016732  74.62   0.00112265    1.374    0.272
       366  -9.4455    223.4597    144.6361   8.3572077892e+01   9.0485739143e+00    0.1698851    0.1225589 -12.63 0.0009153333    1.410    0.291
       367  -8.8833    165.5011    145.4963   9.4596977101e+01   2.0551679892e+01    0.1393002    0.1281236  27.59 0.0008094013    1.081    0.075
       368  -9.6437    119.0969    144.5617   1.0434156936e+02   2.9546495054e+01    0.3576922    0.2339443  14.85  0.001522439    2.967    0.663
       369 -10.1591    234.8839    143.9271   8.1514891074e+01   6.9389713486e+00    0.2181175    0.1712337  27.43 0.0005818669    1.174    0.148
       370  -9.1447    208.4952    142.9553   8.5824427395e+01   1.2261573124e+01    0.1917344    0.1320215 -28.69 0.0003836551    1.481    0.325
       371  -9.3596    113.1768    142.2086   1.0525177022e+02   3.1056419719e+01    0.1964117    0.1477906  73.22 0.0007451128    1.418    0.295
       372  -8.9926    139.0450    141.0139   9.9268425605e+01   2.6575922089e+01    0.1636656    0.1512805  57.83 0.0003711456    1.025    0.024
       373  -9.5178     18.3208    141.3397   1.2690854665e+02   4.3521957073e+01    0.1076236   0.07384922 -55.18 0.0007050209    1.716    0.417
       374  -9.9724    238.6825    139.2926   7.9896384640e+01   6.8271676877e+00    0.2628096    0.1814913 -35.46 0.0005024288    1.517    0.341
       375 -10.4697     28.6578    140.0684   1.2447800665e+02   4.2855261765e+01    0.1912137    0.1296478  58.56  0.000653658    1.374    0.272
       376 -10.1388    135.5356    138.9527   9.9630433803e+01   2.7646860855e+01    0.2428668    0.1913498  30.67 0.0006943634    1.422    0.297
       377  -9.7530    131.2957    138.9893   1.0057716563e+02   2.8440434361e+01    0.1897762    0.1745392 -65.14 0.0004331014    1.109    0.098
       378  -9.2005    243.5254    138.0445   7.8853579687e+01   6.0678396190e+00    0.1860316    0.1201363 -23.04 0.0003382253    1.461    0.316
       379 -10.6519    166.2260    137.3039   9.2735664288e+01   2.1859870239e+01    0.3111558    0.2305949 -56.90 0.0008819413    1.558    0.358
       380  -8.9743    218.5903    135.5700   8.2424089019e+01   1.1310288022e+01    0.1354688    0.1237618   6.72  6.14923e-05    1.035    0.034
       381 -10.4131     11.0862    134.3273   1.2796822153e+02   4.5602048213e+01    0.1911695    0.1195921 -73.83 0.0006955349    1.328    0.247
       382  -9.6136    109.6660    138.6073   1.0540816003e+02   3.2401428842e+01    0.2200153     0.157706 -45.57 0.0006159672    1.546    0.353
       383  -9.5401    203.1637    133.1531   8.4626789606e+01   1.4853987018e+01    0.2193229    0.1789542  13.10 0.0006744876    1.254    0.203
       384  -9.9248     38.8541    131.9841   1.2125685823e+02   4.3593230784e+01    0.2260427    0.1400221 -58.85  0.001128318    1.593    0.372
       385 -12.2474    231.2129    111.3751   7.4668328177e+01   1.2187171992e+01    0.8127317    0.3216674 -20.39   0.00272607    3.411    0.707
       386 -10.2449    240.3481    124.2283   7.6254824620e+01   8.5192102088e+00    0.4132551    0.1822069 -37.97   0.00175275    2.287    0.563
       387 -10.6669    231.5326    128.2805   7.8597303791e+01   9.7299304438e+00     0.574904    0.3245783  21.54  0.002492979    2.309    0.567
       388 -12.2288    235.7958    121.1453   7.6260529917e+01   9.8588875425e+00    0.8961579    0.3347117  39.95  0.003360135    2.910    0.656
       389 -10.8657    249.0211    122.8214   7.4597078620e+01   6.9972095118e+00    0.3636394    0.2893609  45.64 0.0007087414    1.363    0.266
       390 -10.3490    242.2339    131.7401   7.7662522578e+01   7.1422846736e+00    0.2596194    0.2022088   8.64 0.0004811607    1.218    0.179
       391 -10.9834    246.7515    127.9977   7.6119176812e+01   6.7602185290e+00     0.459508    0.2924812   5.76  0.001698205    1.814    0.449
       392  -8.8863     32.3670    131.2977   1.2273074878e+02   4.4391318085e+01    0.1116796   0.08198565 -46.96 0.0007031502    1.727    0.421
       393 -10.5755      6.5301    131.5526   1.2879070301e+02   4.6538986098e+01    0.1940529    0.1045814  30.92  0.001219345    2.219    0.549
       394  -8.6278     80.3232    130.3480   1.1094604598e+02   3.8818793337e+01     0.127508    0.1000315 -33.22 -1.84879e-05    1.744    0.427
       395  -9.3350    137.4653    129.5382   9.7264682915e+01   2.9131935688e+01    0.1391753     0.134798  65.42 8.323758e-05    1.026    0.025
       396 -10.2919    102.7726    125.6634   1.0461609468e+02   3.6309232853e+01    0.3448933    0.2508107 -16.65    0.0012555    2.352    0.575
       397 -10.4963    222.0795    126.1490   7.9682800478e+01   1.1968158803e+01    0.2267739    0.1718235  17.94  0.001202861    1.356    0.262
       398 -10.3583      5.4074    124.1785   1.2848006109e+02   4.8193954978e+01    0.1605935   0.08093142  89.36 0.0005006553    1.619    0.382
       399  -9.9841    145.8755    123.2980   9.4005417333e+01   2.8672954619e+01    0.2324213    0.1817483  64.71  0.001186762    1.387    0.279
       400  -9.1596    124.6327    123.6858   9.8967250018e+01   3.2798545923e+01    0.1419285    0.1142783  -0.17 0.0005306827    1.771    0.436
       401  -9.1037    108.2732    123.3879   1.0282428778e+02   3.5849872558e+01    0.1373821    0.1077343 -25.63 0.0006994071    1.719    0.418
       402  -9.1940    127.5404    121.5033   9.7808494760e+01   3.2691518690e+01    0.1410677    0.1349031  88.91 -0.0003036984    1.004    0.004
       403 -10.9393     12.8412    118.9498   1.2622543302e+02   4.8778806632e+01    0.2718443    0.1241357 -86.12 0.0008635784    1.880    0.468
       404 -10.7848    235.1085    114.9111   7.4898583029e+01   1.0869552414e+01    0.2336148    0.2011682  39.07 0.0004076893    1.202    0.168
       405 -11.8411    241.8946     91.1422   6.8028210734e+01   1.2734223710e+01    0.3586196    0.2746106 -70.08  0.001523949    1.813    0.448
       406 -12.6960    247.6870    102.6738   7.0042758568e+01   9.9420617957e+00    0.8653065    0.5449607 -34.08  0.004250683    1.485    0.326
       407 -11.5657    248.4404     94.2341   6.7868358759e+01   1.0918100777e+01    0.5774341    0.2822526 -37.21  0.002550768    1.914    0.478
       408 -12.7252    239.4521    112.8084   7.3717511570e+01   1.0262662652e+01    0.7875662    0.3849525 -27.78  0.003474829    1.918    0.479
       409 -11.4551    245.5122    109.8206   7.2083418328e+01   9.4262617267e+00     1.023542    0.6206343  85.46  0.003630894    4.552    0.780
       410  -9.6084     21.5291    113.5395   1.2346555078e+02   4.9279779604e+01    0.1185429   0.09161948 -85.05 3.013329e-06    1.005    0.005
       411  -9.8107     90.4694    111.7733   1.0493164926e+02   4.1369630272e+01    0.2228943    0.1865143  50.63 0.0004315742    1.249    0.199
       412 -11.0803      6.0135    111.9843   1.2728874207e+02   5.0794405483e+01    0.1815305    0.1337586 -86.94  0.000848313    1.016    0.016
       413 -11.5575     28.1281    106.2784   1.2082242981e+02   5.0338972000e+01    0.3422744     0.237191  22.07  0.002151842    1.941    0.485
       414 -11.2564      2.4299    107.3924   1.2778913547e+02   5.2034956302e+01    0.4401173     0.151705 -70.66  0.002185948    2.103    0.525
       415  -8.7568    133.6899    107.6600   9.3117475173e+01   3.4303942020e+01    0.1476741    0.1180145  -3.26 0.0007044782    1.691    0.409
       416  -8.5359    129.3409    106.6729   9.3919830324e+01   3.5392637587e+01     0.152408    0.1147793 -89.45 -5.822111e-05    1.736    0.424
       417 -10.0056     60.2409    103.2061   1.1142716689e+02   4.7619679064e+01    0.4388899    0.1753566 -68.38  0.001776017    2.583    0.613
       418  -9.7504     89.1294    102.9180   1.0338478211e+02   4.3550043272e+01    0.2055869     0.192406 -55.02 0.0007864036    1.113    0.102
       419 -10.1425     16.7625    115.4094   1.2489103952e+02   4.9251899020e+01    0.1308062     0.113984  -4.18  0.000949935    1.698    0.411
       420 -11.5634      4.4953    100.7438   1.2660304078e+02   5.3365486044e+01    0.4151095    0.1583429  46.19  0.002167452    2.778    0.640
       421 -11.0754     24.9224     99.0523   1.2073211077e+02   5.2245094116e+01    0.3260176    0.1841407 -52.50  0.001179172    1.720    0.419
       422  -9.5785     44.3256     98.4953   1.1509968995e+02   5.0533679948e+01    0.2700588    0.1380279 -42.31  0.001091619    2.432    0.589
       423  -9.9737    214.5170     97.3820   7.3901569165e+01   1.7936123363e+01    0.2489514    0.2348723  58.55 0.0005960027    1.172    0.146
       424  -9.0593     34.5088    100.9889   1.1830186614e+02   5.0951069409e+01    0.1709399    0.0753547 -50.19 0.0005964714    2.297    0.565
       425 -10.3696     86.9384     96.0360   1.0241074624e+02   4.5431899913e+01    0.3171175    0.2702514 -51.72 0.0009794108    1.124    0.110
       426 -11.7645     20.4400     94.7676   1.2142245653e+02   5.3575277412e+01    0.3432219     0.250302 -29.58  0.002205709    1.869    0.465
       427 -11.1583      6.9688     95.4517   1.2535413434e+02   5.4380408349e+01    0.2735048    0.1365029  78.77  0.001473073    2.095    0.523
       428  -9.4919     68.9873     93.6959   1.0700269421e+02   4.8630052488e+01    0.1843145    0.1681971 -77.63 0.0009055806    1.059    0.056
       429 -10.2150     39.7584     93.9596   1.1564762242e+02   5.2038804155e+01    0.2394918    0.1850398   4.81 0.0009370039    1.863    0.463
       430 -10.5589     43.9065     90.8922   1.1386204302e+02   5.2311652216e+01    0.4390228    0.2428624  73.34  0.002026044    2.635    0.621
       431  -9.9087    198.3320     91.9948   7.5300751880e+01   2.2547281471e+01    0.2703198    0.2177393 -78.28  0.001242994    1.620    0.383
       432  -9.7370    230.5819     90.7405   6.9602471235e+01   1.5282104840e+01    0.2886026    0.1356228 -24.49  0.001122404    2.130    0.531
       433  -9.2433     35.2721     91.5812   1.1657071204e+02   5.3018200211e+01    0.1383679    0.1216518  -6.99 0.0004842248    1.531    0.347
       434  -9.1172      2.3134    114.3279   1.2842469370e+02   5.0531432055e+01    0.1100003   0.06778322 -56.55 0.0007043227    1.670    0.401
       435  -9.7792     24.2579     87.9697   1.1929365655e+02   5.4808079044e+01    0.2098747    0.1504677 -23.76  0.001049765    1.958    0.489
       436 -10.7896     12.4488     82.1641   1.2204026206e+02   5.6993358496e+01    0.3094302    0.2043834 -44.02  0.001979681    1.649    0.394
       437 -11.1887     10.6948     86.3155   1.2315072722e+02   5.6178493017e+01    0.1865512    0.1199743 -73.86 0.0007166531    1.182    0.154
       438 -11.2993      6.0000     87.5238   1.2470551429e+02   5.6207027618e+01    0.2406957    0.1301674 -75.25  0.001445165    1.396    0.284
       439  -9.9736    249.5240     86.6910   6.5841742370e+01   1.1696594531e+01    0.2654328    0.1286729 -22.64 0.0008580578    1.992    0.498
       440  -9.8584    230.0518     84.4202   6.8039509941e+01   1.6303828449e+01    0.2855225    0.2127914 -51.23  0.001074134    1.504    0.335
       441  -9.4830    201.9911     84.4634   7.2591669296e+01   2.2878211647e+01    0.2170537    0.1495232  55.62 0.0004136465    1.513    0.339
       442  -9.4608    193.4724     83.5025   7.3842950346e+01   2.5085662283e+01    0.1511957    0.1455321 -20.03  0.000220618    1.020    0.020
       443 -10.7961      2.5583     82.6138   1.2513690739e+02   5.7503038867e+01    0.2826905    0.1567812  79.40  0.001655011    1.828    0.453
       444 -11.4524    243.0585     81.5210   6.5417215667e+01   1.3792350828e+01     0.269698    0.1869183  -7.50 0.0008215263    1.537    0.349
       445 -12.0429    249.3363     78.6598   6.3840844335e+01   1.2802450981e+01     0.577609    0.3600817 -31.52  0.001976726    1.426    0.299
       446 -11.6888    243.1827     76.1294   6.4010977934e+01   1.4492301388e+01    0.3934361    0.2071153  -9.71  0.001549917    2.496    0.599
       447  -8.6744     64.7258     82.3042   1.0566768174e+02   5.1777372961e+01    0.1296585   0.09762395 -89.98  0.000222184    1.541    0.351
       448 -10.8320    235.7500     80.0060   6.6050330404e+01   1.5631307696e+01    0.4828324    0.1321024 -23.90   0.00130739    4.641    0.785
       449 -11.4366     46.5335     79.5295   1.1075704728e+02   5.4613626911e+01    0.3288212    0.2707072   0.29  0.002054334    1.620    0.383
       450 -10.2975     37.6531     80.2012   1.1373891126e+02   5.5377938300e+01    0.3826552    0.1865615 -51.04  0.001940104    1.810    0.447
       451  -9.6569    229.4038     75.7905   6.5849473197e+01   1.7673906211e+01    0.2155067    0.1339782 -15.49 0.0009588895    1.714    0.416
       452  -8.7569    135.3064     76.3583   8.4084525801e+01   4.0202020528e+01    0.1570812    0.1202245   2.35   0.00070406    1.727    0.421
       453 -11.4208      7.2607     74.6515   1.2259177969e+02   5.9004156624e+01    0.3797522    0.1895075  67.63  0.001955889    2.599    0.615
       454  -9.9456    217.5432     72.7860   6.6804684416e+01   2.0905355120e+01    0.3752192    0.2398489   1.44  0.001577707    2.098    0.523
       455  -9.5909    125.5174     73.4388   8.5643656364e+01   4.2923516514e+01    0.1492278    0.1428278 -53.86 0.0001227092    1.047    0.044
       456 -10.6304     10.2235     71.2106   1.2108892988e+02   5.9591389882e+01    0.3985342    0.2057431  78.43   0.00179914    2.481    0.597
       457 -12.9121    241.0160     68.0642   6.2192292475e+01   1.6059229498e+01    0.5944492     0.502835 -21.56  0.003338344    1.082    0.076
       458 -11.1749    101.6426     68.6039   9.0649396641e+01   4.8754669117e+01    0.3655697    0.2359062 -36.21 0.0005946523    1.538    0.350
       459 -11.4702     53.1182     70.9710   1.0659394169e+02   5.5783864874e+01    0.3571152    0.2917918  78.38  0.001974353    1.432    0.302
       460 -12.1573    247.7670     62.2345   5.9810310552e+01   1.5294607715e+01    0.5258213    0.2851125 -33.60  0.002428673    1.617    0.382
       461 -10.4298     43.5477     64.1827   1.0813465277e+02   5.8373160078e+01    0.4378025    0.1833375 -45.47  0.001966025    2.221    0.550
       462  -8.9906     28.8578     64.1729   1.1331561033e+02   5.9789510303e+01    0.1700748    0.1170653 -45.64 0.0005552496    1.358    0.264
       463  -8.8090     54.3590     62.2998   1.0385113027e+02   5.7542088278e+01    0.1337543    0.0921179 -28.27 0.0007036089    1.712    0.416
       464 -10.5448     17.4417    248.2588   1.3279971942e+02   2.4400981664e+01    0.1995594     0.152015 -66.88  0.001307815    1.982    0.496
       465 -12.8186      5.6910     56.0882   1.2006505157e+02   6.3209291860e+01    0.8548921    0.6194758 -68.06  0.003702526    1.045    0.043
       466 -10.2354      8.9290    248.3430   1.3400151794e+02   2.5204616653e+01    0.1508294    0.1131916  68.29 0.0004383062    1.271    0.213
       467 -10.7195    154.5718    240.9521   1.1103922180e+02   8.0640617606e+00    0.2389491    0.1396689  51.18 0.0008504731    1.414    0.293
       468 -11.3007    157.4523    245.5607   1.1107561161e+02   7.0838930399e+00    0.3468784    0.2366993  25.55  0.001283237    1.654    0.395
       469 -11.6915    169.0955    239.7912   1.0857171168e+02   6.0298022835e+00    0.6147647    0.2784235  32.97  0.001944837    2.232    0.552
       470 -10.4306    171.0005    232.7002   1.0742050826e+02   6.5807430593e+00    0.1717236    0.1560986  63.74 0.0003858882    1.313    0.238
       471  -9.5219    119.3077    248.0562   1.1736695444e+02   1.2243659967e+01    0.1441654    0.1077814  55.78  0.001147446    1.062    0.059
       472 -10.5779     31.5813    247.1086   1.3072173700e+02   2.3142940998e+01    0.1918481    0.1263037  67.94 0.0006884234    1.062    0.059
       473 -11.8099    210.8761    246.0580   1.0277930755e+02  -8.3430147247e-01    0.2312968    0.1600561  26.12 0.0005295459    1.180    0.152
       474  -9.9495    124.1708    246.9580   1.1650091622e+02   1.1708138180e+01    0.1533846    0.1155043  50.41 0.0004750082    1.055    0.052
       475 -11.0405    125.3529    240.0817   1.1567459213e+02   1.2447986453e+01    0.3113872    0.1942224  63.40  0.000477184    1.569    0.363
       476 -10.1893     60.3869     59.7580   1.0101674967e+02   5.7316363606e+01    0.3134754    0.1203171  29.21  0.001187394    3.679    0.728
       477 -11.8001     81.8755     50.1467   9.0533878637e+01   5.6018695842e+01    0.6169785    0.3211934 -52.63  0.002681699    2.036    0.509
       478  -9.9994     65.1558     56.8557   9.8466767896e+01   5.7274621477e+01    0.1857531    0.1457573 -28.29 0.0003733715    1.326    0.246
       479  -9.9579    250.4482     55.2248   5.7667251773e+01   1.5581606339e+01    0.2666364    0.1295464 -21.63 0.0009975128    2.008    0.502
       480 -10.5611     27.4108     55.4906   1.1179818615e+02   6.1830649340e+01    0.4019857    0.2241457  17.52  0.001876697    2.417    0.586
       481  -9.7024    198.1902     55.1688   6.4748763804e+01   2.8263544136e+01    0.2234206    0.2026314   7.84 0.0004247141    1.149    0.129
       482 -10.8734     45.7380     53.9090   1.0451335032e+02   6.0370546327e+01    0.3006252    0.2166592 -28.46  0.001423331    1.525    0.344
       483  -9.4707    221.4669     53.4894   6.0822095747e+01   2.2647676239e+01     0.147181     0.137259 -32.42 9.690418e-05    1.015    0.015
       484  -9.4287    131.4903     53.0222   7.7354726138e+01   4.5344109371e+01    0.2349965     0.145111 -33.92  0.000598497    1.562    0.360
       485  -9.1036     63.3105     52.3590   9.7649229547e+01   5.8471075146e+01    0.1403206   0.09444995 -25.20 0.0007042201    1.739    0.425
       486 -10.4060    248.4496     50.7393   5.6723080287e+01   1.6593392720e+01    0.2753348    0.1160935 -31.11  0.001112737    2.020    0.505
       487 -10.6578    244.7975     51.0267   5.7216205607e+01   1.7395152001e+01    0.2323865    0.1536583   7.25 0.0009952978    1.954    0.488
       488  -9.1473    172.2533     49.9874   6.7579729759e+01   3.5707284076e+01    0.2065203    0.1895209 -22.07  0.001075571    1.071    0.066
       489 -10.0308    137.3348     49.7998   7.4812800456e+01   4.4503860108e+01    0.2478017    0.2114984  69.60 0.0005898427    1.305    0.234
       490 -11.6790     50.1216     42.8757   9.9293458822e+01   6.2155883839e+01    0.3906541    0.2982941 -22.62   0.00234513    1.385    0.278
       491 -11.0511     48.2329     47.8015   1.0168006188e+02   6.1372627456e+01    0.2550313     0.195667 -38.19  0.000841025    1.175    0.149
       492  -9.4847     42.1333     49.7301   1.0461202264e+02   6.1658762112e+01    0.2448774    0.1267568 -37.56 0.0009565622    1.991    0.498
       493 -10.7106    113.2258    244.5698   1.1802763268e+02   1.3548586344e+01    0.2836743    0.2210068 -17.22  0.001365853    2.604    0.616
       494 -10.0071    105.0238     47.0339   8.2232609903e+01   5.2226947606e+01    0.2221441    0.1920817  -6.87 0.0004233533    1.194    0.163
       495 -10.7652    108.3881     45.2648   8.0607533380e+01   5.1836767876e+01    0.2512757    0.1992467 -18.37 0.0004381096    1.283    0.220
       496  -8.8538    193.7523     45.9560   6.2628258261e+01   3.0702714195e+01    0.2005689    0.1268871 -25.83 0.0007264459    1.552    0.356
       497 -10.5944     11.9748     44.2847   1.1508653682e+02   6.5404793446e+01    0.3010123    0.1790878 -44.52  0.001132975    1.472    0.321
       498 -11.3587    249.4912     31.5112   5.1566833697e+01   1.8649402143e+01    0.4661795    0.1494522 -35.99  0.001767279    2.494    0.599
       499 -11.9684    246.7663     36.0291   5.3026270622e+01   1.8758678049e+01    0.3930887    0.2167707 -32.72  0.001581539    1.579    0.367
       500  -9.9135    243.5048     42.5258   5.5098809531e+01   1.8744573661e+01    0.1408552    0.1270246 -36.01 8.253427e-05    1.011    0.011
       501 -10.9821    119.1113     41.8145   7.6385825420e+01   5.0072180205e+01    0.4812274    0.2860247  61.31  0.001708291    1.990    0.497
       502 -11.8637     60.1945     36.4494   9.3036438867e+01   6.2070998185e+01    0.6192828    0.3539565 -64.81  0.002600151    3.016    0.668
       503 -10.9885    117.9988    238.9763   1.1676334953e+02   1.3643521047e+01    0.4091338    0.2663043  21.21  0.002043044    2.653    0.623
       504 -10.5755     50.5584     50.4915   1.0167231433e+02   6.0531564660e+01    0.2148679    0.1708365 -49.74 0.0006774869    1.059    0.055
       505  -9.7824    127.3729     40.6047   7.3838277958e+01   4.8359005527e+01     0.355525    0.2160635  18.82  0.001383093    2.465    0.594
       506  -9.8896      2.6483     33.7308   1.1643214626e+02   6.8181038431e+01    0.2907505    0.1595656 -13.50  0.001706125    2.456    0.593
       507 -10.6520      3.8326     29.5626   1.1478335101e+02   6.8987640635e+01    0.3464238    0.2382423 -23.80   0.00237853    1.611    0.379
       508 -11.8529     65.5482     26.5298   8.6866002952e+01   6.3053907283e+01    0.4378835    0.3345973 -11.62  0.001756905    1.330    0.248
       509 -10.7452     49.1192     32.5982   9.5862189246e+01   6.4305761889e+01    0.3061775    0.2045041  34.79  0.001760596    1.755    0.430
       510 -10.2541    114.5240    239.5845   1.1738142057e+02   1.4048468465e+01    0.3276561    0.1627415  66.71  0.001828034    2.565    0.610
       511 -11.2941     77.7267     21.2354   8.0086088977e+01   6.1835354594e+01    0.3917041    0.3494778  58.07  0.001328935    1.410    0.291
       512 -10.3986    133.0059    245.2748   1.1494012471e+02   1.0672520071e+01    0.1718288    0.1427721  45.20 0.0004166871    1.185    0.156
       513  -9.2133    243.2281    245.2402   9.7817182111e+01  -5.3398255386e+00    0.1215994   0.09548615  28.67 0.0003846714    1.246    0.197
       514 -11.6885    204.8543    231.5722   1.0181169308e+02   1.5102977397e+00    0.4167039    0.2025295  35.71 0.0005341466    1.629    0.386
       515 -11.6773    191.9945    244.0692   1.0545108282e+02   2.1329936810e+00    0.2808702    0.2104188  -2.77 0.0005376029    1.671    0.401
       516 -11.0100    225.8234    240.1408   9.9719509408e+01  -2.4445309457e+00    0.2424802    0.1711296  19.89 0.0004332373    1.192    0.161
       517 -11.6475    220.4426    238.8761   1.0036911086e+02  -1.5456265153e+00    0.5770079    0.3276781   1.95  0.002938075    2.493    0.599
       518 -11.9423    211.1045    237.7371   1.0165847457e+02  -5.9760767008e-02    0.5736676    0.2583224  43.30  0.003397357    1.739    0.425
       519 -10.7894    202.0980    239.9755   1.0335672435e+02   1.0544090914e+00    0.2152591    0.1694314  30.66 0.0005095112    1.080    0.074
       520  -9.6272    178.9900     15.0001   5.4746770196e+01   3.8425746244e+01    0.2160248    0.2143164  15.62 0.0004246084    1.021    0.021
       521 -10.5624     70.8448     20.0746   8.1964491484e+01   6.3234725856e+01    0.2033706    0.1716366 -44.62  0.001164165    1.327    0.246
       522 -11.5968    198.3846    237.8262   1.0366296673e+02   1.8322275078e+00    0.4027001    0.2211512  36.26   0.00147577    1.392    0.281
       523 -10.1524     93.4789    244.7217   1.2116575568e+02   1.6186946311e+01    0.1793503    0.1219151  44.72 0.0005853758    1.296    0.228
       524 -10.2720     80.8573    244.3672   1.2311815462e+02   1.7861529284e+01    0.1794731    0.1279324  49.01 0.0004757647    1.229    0.187
       525  -9.7155     41.5423    244.7943   1.2914913729e+02   2.2424378705e+01    0.1420659    0.1003283  51.89 0.0005621752    1.289    0.224
       526 -11.1771    177.0723    243.3279   1.0771135466e+02   4.4318526146e+00    0.2322972    0.1649301  30.00 0.0005611719    1.270    0.213
       527  -9.9311     98.4259    241.5701   1.2013668380e+02   1.5975425917e+01    0.1840554    0.1461821  50.71 0.0008196374    1.207    0.171
       528 -10.3323    246.9904    239.0270   9.6395071814e+01  -5.3445675135e+00    0.2154584    0.1309237  -4.41  0.001393011    1.749    0.428
