#   1 NUMBER                 Running object number                                     
#   2 MAG_AUTO               Kron-like elliptical aperture magnitude                    [mag]
#   3 X_IMAGE                Object position along x                                    [pixel]
#   4 Y_IMAGE                Object position along y                                    [pixel]
#   5 X_WORLD                Barycenter position along world x axis                     [deg]
#   6 Y_WORLD                Barycenter position along world y axis                     [deg]
#   7 A_WORLD                Profile RMS along major axis (world units)                 [deg]
#   8 B_WORLD                Profile RMS along minor axis (world units)                 [deg]
#   9 THETA_WORLD            Position angle (CCW/world-x)                               [deg]
#  10 FWHM_WORLD             FWHM assuming a gaussian core                              [deg]
#  11 ELONGATION             A_IMAGE/B_IMAGE                                           
#  12 ELLIPTICITY            1 - B_IMAGE/A_IMAGE                                       
         1 -13.7618     68.2793    145.0634   1.2240662958e+02   3.7993344247e+01     3.793695     1.940176  82.48   0.01188601    4.223    0.763
         2 -13.8622    196.2459     27.8759   6.0367495580e+01   3.2644827484e+01     1.667703      1.21855   9.69  0.007051026    2.184    0.542
         3 -13.6548    202.7811     21.8139   5.8134610476e+01   3.1771679363e+01     1.721739    0.8915258 -28.27  0.007400235    2.193    0.544
         4 -13.2621    209.8228     15.5854   5.5948066931e+01   3.0797663657e+01     0.750017    0.6461359  -1.51    0.0014207    1.648    0.393
         5 -11.5759      2.1565      6.2698   1.1119322747e+02   7.4562639101e+01    0.7825772    0.1228575 -48.86  0.002731511    5.610    0.822
         6 -12.5010    223.1978      2.6561   5.1935100171e+01   2.9093406653e+01    0.6294642    0.2895381  78.57  0.002886298    1.934    0.483
         7 -10.4215     42.6089    230.9841   1.3849105378e+02   2.1479762426e+01    0.2688338    0.1869116 -67.21  0.001388264    1.599    0.375
         8 -12.0214    162.6281    247.8048   1.1573996043e+02   5.6921913103e-01    0.4785523    0.2810607  19.68   0.00245154    1.970    0.492
         9 -13.1794    140.3515    249.0898   1.2038906193e+02   3.8853274225e+00     1.111755    0.3440097  42.35  0.004509693    2.596    0.615
        10 -12.3686    123.7490    248.3104   1.2365718974e+02   6.6263381206e+00    0.8155808    0.2309574  45.23  0.003114377    2.974    0.664
        11 -12.1773    125.7267    244.2803   1.2277180716e+02   7.0105158992e+00    0.3355487    0.2969459  79.18  0.002243264    1.278    0.217
        12 -14.9137     34.8659    245.8343   1.4095899806e+02   1.9489513342e+01     10.89435     2.602005  29.78   0.03139998    8.145    0.877
        13 -14.1040     95.1966    232.0554   1.2772572416e+02   1.4032845125e+01     1.994405     1.469884 -86.46  0.006794388    1.500    0.333
        14 -14.1363     10.5930    206.4276   1.4334440238e+02   3.0092281595e+01    0.9856236    0.9437829 -76.30  0.006413701    1.432    0.302
        15 -15.5940      3.9477    186.8661   1.4357546857e+02   3.4978831966e+01     7.903276     1.110011 -72.67    0.0268145    4.666    0.786
        16 -10.6065     63.3088    250.2701   1.3588072171e+02   1.5104045788e+01    0.2511031    0.1309346  42.57 0.0005941537    1.544    0.353
        17 -11.2763     29.2242    233.7348   1.4129092339e+02   2.2490724853e+01    0.3923017    0.2499826  59.19  0.001705399    1.213    0.176
        18 -10.4820     32.3136    222.8018   1.3997815052e+02   2.4363373525e+01    0.2536737    0.1965832 -34.62  0.001586702    2.159    0.537
        19 -12.1131     26.3961    213.1142   1.4052335683e+02   2.7058347161e+01    0.3984166    0.3694825  21.53  0.002888232    1.526    0.345
        20 -10.0559     47.0741    230.9722   1.3759730286e+02   2.0934842012e+01    0.2362033    0.1573101  58.95 0.0008524013    1.198    0.165
        21 -10.4659    192.8627    194.3204   1.0075032670e+02   4.3954613677e+00    0.7984573    0.4246179 -64.52  0.002238839    6.714    0.851
        22 -11.8065     65.5279    189.1449   1.2950443768e+02   2.7638987063e+01    0.4232244    0.2790269 -41.01  0.002104066    2.084    0.520
        23 -11.7920     70.7213    182.5457   1.2739925409e+02   2.8456552259e+01    0.3145377      0.25993 -43.85  0.001058719    1.474    0.322
        24 -12.7233     86.5404    163.9036   1.2052339985e+02   3.0539507878e+01     1.974242    0.6969471  51.13  0.001205194    3.564    0.719
        25 -11.2976    197.2695    249.3459   1.0919607290e+02  -4.9691701178e+00    0.5550077    0.1468937  30.61  0.001773711    4.770    0.790
        26 -10.1361    228.1924    170.9961   8.9289558050e+01   2.1550184157e+00    0.2137691    0.1566632 -61.25  0.001083952    2.016    0.504
        27 -13.3806     67.2455    168.3976   1.2635728478e+02   3.2355421102e+01    0.5204499    0.2987604 -44.38  0.001849283    2.144    0.533
        28 -10.6130    230.5562    167.2604   8.8102490162e+01   2.3687575671e+00    0.2682326    0.1198991 -42.09  0.001144686    2.176    0.540
        29 -11.3494     32.7523    157.3309   1.3409454713e+02   3.9266472881e+01    0.2948549    0.1588529 -76.15   0.00145714    1.658    0.397
        30  -9.9353    133.7903    145.1880   1.0420204699e+02   2.6240624150e+01     0.682519    0.1325918 -52.45  0.001396985    7.084    0.859
        31  -9.9490     99.8691    147.8337   1.1391698092e+02   3.2206372121e+01    0.2850339    0.2506337 -39.50  0.000765562    1.238    0.192
        32  -9.4191    102.7334    143.8446   1.1229989384e+02   3.2661554305e+01    0.3586509    0.2108895 -30.07  0.001326715    2.647    0.622
        33 -12.0584     88.2616    146.8671   1.1699536415e+02   3.4449758341e+01     0.294071    0.2585763 -40.68 0.0004512669    1.243    0.195
        34 -11.2218     38.6172    146.3695   1.3113157540e+02   4.1357913138e+01    0.3663372    0.1991386  46.44   0.00090938    1.898    0.473
        35 -12.0795     29.5433    144.0850   1.3340186665e+02   4.2838451944e+01    0.4093619    0.3225693 -20.17  0.002396427    1.687    0.407
        36 -12.9902     39.6798    220.9757   1.3834868683e+02   2.3889412537e+01    0.4931055     0.289667 -58.86  0.001937054    1.987    0.497
        37  -9.7148    110.6373    134.3370   1.0799924368e+02   3.3470418101e+01    0.3007814    0.2215291 -12.97 0.0009580375    1.984    0.496
        38 -11.2442     79.8939    171.4200   1.2348246506e+02   2.9759045082e+01    0.2589252    0.2422109 -74.09 0.0003470535    1.117    0.105
        39 -10.7983     98.0474    131.0230   1.1087131573e+02   3.6644760640e+01     0.317535    0.2581702 -23.62 0.0006847281    1.482    0.325
        40 -15.3962     49.8464    209.0029   1.3520134766e+02   2.5214084296e+01     5.848185     1.769436  47.05   0.01730704    2.752    0.637
        41  -9.6337    107.4608    121.9474   1.0598237174e+02   3.7049570310e+01    0.2127837    0.2066965  48.97 0.0003122281    1.039    0.038
        42 -11.5237     74.8235    249.3705   1.3357151568e+02   1.3708563636e+01    0.3468617    0.2600718 -52.15   0.00224334    1.804    0.446
        43  -8.8799    116.5285    127.4926   1.0473523759e+02   3.3927993619e+01    0.1553319    0.1532198 -16.50 0.0008092574    1.059    0.056
        44  -9.7907    204.6999    110.5865   8.0039954843e+01   1.7655327606e+01    0.4089274    0.2420681  31.60  0.001650305    2.393    0.582
        45 -11.1608    167.9135    112.6158   8.7910361013e+01   2.5746734908e+01    0.3825385    0.3159716 -75.17  0.000792145    1.399    0.285
        46 -10.5231     41.8449    104.1220   1.2310270024e+02   5.1465749339e+01    0.2076399    0.1823511  87.31 0.0009550457    1.229    0.186
        47 -11.4168      1.8670     90.1767   1.3486696814e+02   5.7838970618e+01    0.6008962    0.1138295 -70.64  0.001992509    4.178    0.761
        48  -9.4374    157.4989     78.4549   8.0822859880e+01   3.4867437532e+01    0.1536758    0.1475732  77.05 0.0001270622    1.005    0.005
        49 -13.3596      6.5141    246.5929   1.4609368492e+02   2.2414507181e+01     1.301732    0.6191816  61.27   0.00770764    1.558    0.358
        50 -11.5781    176.9633    249.4674   1.1313760562e+02  -1.9160846786e+00    0.4382913    0.1302735  34.28  0.001689235    3.004    0.667
        51 -13.5719     14.4587    239.8216   1.4437897159e+02   2.2892485579e+01     1.837376    0.7372301  72.86  0.009621431    2.318    0.569
        52 -12.5880     55.4342    239.2549   1.3656468948e+02   1.8230970187e+01    0.6540465    0.3310212  62.37  0.001186679    1.800    0.444
        53  -9.7736    131.5164     38.9928   7.4166303216e+01   4.7577468658e+01    0.2042862    0.1099537 -54.27 0.0008095537    2.515    0.602
        54 -10.7954    189.9447     15.0464   5.7795377207e+01   3.5649800313e+01     0.209875    0.1766021 -85.46 0.0008322999    1.012    0.012
        55 -11.1019     53.8281    229.1483   1.3608567873e+02   2.0451475857e+01    0.4465415    0.2323838 -81.54  0.002384052    1.990    0.498
