#   1 NUMBER                 Running object number                                     
#   2 MAG_AUTO               Kron-like elliptical aperture magnitude                    [mag]
#   3 X_IMAGE                Object position along x                                    [pixel]
#   4 Y_IMAGE                Object position along y                                    [pixel]
#   5 X_WORLD                Barycenter position along world x axis                     [deg]
#   6 Y_WORLD                Barycenter position along world y axis                     [deg]
#   7 A_WORLD                Profile RMS along major axis (world units)                 [deg]
#   8 B_WORLD                Profile RMS along minor axis (world units)                 [deg]
#   9 THETA_WORLD            Position angle (CCW/world-x)                               [deg]
#  10 FWHM_WORLD             FWHM assuming a gaussian core                              [deg]
#  11 ELONGATION             A_IMAGE/B_IMAGE                                           
#  12 ELLIPTICITY            1 - B_IMAGE/A_IMAGE                                       
         1 -14.4917    102.2906     71.0236   9.9636575191e+01   4.8663726306e+01    0.9902427    0.6212131 -46.06  0.004736209    1.641    0.390
         2 -14.1681    177.7717     32.6554   7.1059813726e+01   3.7105157065e+01     1.124036    0.8930347  10.11  0.004393448    1.717    0.418
         3 -12.7802    182.0669     26.1773   6.8684259137e+01   3.6834964593e+01    0.4787382    0.4399269 -36.41  0.001110438    1.252    0.201
         4 -12.6441    197.1487      2.4792   6.0864175495e+01   3.5729557638e+01    0.7078032    0.2504561  70.52  0.003025132    2.360    0.576
         5 -14.3330    248.2708    165.8910   9.1383115813e+01  -1.7781021788e+00     2.020632    0.4560302 -38.46    0.0061494    4.134    0.758
         6 -15.4648    243.2191    229.0914   1.0453641634e+02  -1.0805220417e+01     3.466973     1.266129 -35.05   0.01545772    2.809    0.644
         7 -14.7074    139.1957    231.5436   1.2501023393e+02   6.7240606055e+00     2.719696     1.622012  41.30   0.01404572    1.499    0.333
         8 -16.9947    147.1201    184.5762   1.1565831820e+02   1.4714161787e+01     6.962881     5.409262  14.24   0.03368773    1.741    0.426
         9 -11.4081    197.8419    175.2125   1.0284536900e+02   6.2861101853e+00     0.462407    0.3129355 -49.19  0.001836646    1.560    0.359
        10 -11.4309    202.8713    167.2385   1.0013830033e+02   6.8090997480e+00     0.405439    0.3108553 -71.34  0.001873265    1.723    0.420
        11 -19.2932     37.1753    144.9749   1.3553569285e+02   4.1633617021e+01     19.95043     1.758156 -65.08   0.04733064    7.411    0.865
        12 -11.5116     87.9915    157.1249   1.2466765889e+02   3.1975809880e+01     0.244332    0.1760773 -35.85  0.001186218    1.781    0.439
        13 -11.4955    143.8515    150.5010   1.0949267933e+02   2.3001269167e+01    0.5687763    0.4027674 -45.82  0.001498103    1.437    0.304
        14 -12.9514    148.5262    142.3331   1.0653252113e+02   2.3854127571e+01     1.123502    0.8257128  23.85  0.003646319    1.750    0.429
        15 -10.9191    211.0215    179.9281   1.0118008362e+02   2.7545172541e+00    0.4152537    0.2682432 -21.84  0.001896275    1.888    0.470
        16 -10.7700    101.3704    140.2350   1.1795133995e+02   3.3763080034e+01    0.1926925    0.1900376 -34.84 0.0004179171    1.137    0.120
        17 -12.2589    142.7136    127.6638   1.0445759265e+02   2.8431453411e+01    0.4401471    0.3191515  87.68  0.001471138    1.899    0.473
        18 -16.5019     92.6321    221.0985   1.3300981069e+02   1.6703660241e+01     1.817829      1.12515 -69.91  0.008056321    1.643    0.391
        19 -11.7985    135.4575    123.1088   1.0514202236e+02   3.1031177467e+01    0.7015656    0.1511715 -48.98  0.001703305    4.878    0.795
        20 -12.1817    134.5442    104.1671   1.0046171535e+02   3.5378428567e+01    0.7124483    0.1478887 -45.28  0.001765321    4.788    0.791
        21  -9.9242    205.7661    110.3904   8.6442993609e+01   1.7408170366e+01    0.2088021    0.1425304  44.53 0.0004925921    1.588    0.370
        22 -18.2766     74.7337    242.4497   1.3872298929e+02   1.5163839161e+01     4.257775      1.29622  44.19   0.01854225    2.687    0.628
        23 -12.2376    115.1482     94.4122   1.0291867469e+02   4.1538281648e+01    0.3486829    0.2597553  13.31  0.001452853    1.767    0.434
        24 -11.9600    231.1022     93.0236   7.8006206230e+01   1.4779025646e+01    0.6051143    0.3513122  81.01  0.002468539    2.498    0.600
        25 -11.8404    224.4705     87.1001   7.7632085620e+01   1.7329342374e+01     1.329357    0.8876045  42.20   0.00627961    1.833    0.454
        26 -12.6764    241.2956     79.3404   7.3402924091e+01   1.4841449375e+01    0.5995846    0.3850714 -73.59  0.002866903    1.817    0.450
        27 -10.7869     85.4464     77.0290   1.0657219481e+02   5.0563196728e+01     0.203983    0.1839176  23.90 0.0003582308    1.142    0.124
        28 -13.4588    247.9933     69.3217   7.0311261559e+01   1.4997756400e+01    0.9645091    0.5437738 -36.98  0.003286484    1.737    0.424
        29  99.0000     70.8774    213.6412   1.3652558415e+02   2.1593361780e+01     0.500388    0.2248078 -62.92  0.001929561    2.156    0.536
        30 -13.1700    164.3205     48.3387   7.7743721962e+01   3.8331481622e+01    0.6251636    0.4709742 -20.86   0.00237398    1.576    0.365
        31 -12.6735    125.6507     93.2835   9.9765431316e+01   3.9579178746e+01    0.4428231     0.317396 -79.43  0.001907191    2.057    0.514
        32 -10.1390      9.6443    204.9139   1.4752333652e+02   3.0862888955e+01    0.3138852    0.2347416 -78.34  0.001473557    1.264    0.209
        33 -10.3399     19.4577     36.8238   1.1751985318e+02   6.5955550715e+01    0.1810131    0.1344473   5.64 0.0007022007    1.363    0.266
        34 -10.0163     73.6288    204.7446   1.3494458418e+02   2.3124596812e+01    0.1136797    0.1053077 -13.88 0.0006966913    1.642    0.391
