#   1 NUMBER                 Running object number                                     
#   2 MAG_AUTO               Kron-like elliptical aperture magnitude                    [mag]
#   3 X_IMAGE                Object position along x                                    [pixel]
#   4 Y_IMAGE                Object position along y                                    [pixel]
#   5 X_WORLD                Barycenter position along world x axis                     [deg]
#   6 Y_WORLD                Barycenter position along world y axis                     [deg]
#   7 A_WORLD                Profile RMS along major axis (world units)                 [deg]
#   8 B_WORLD                Profile RMS along minor axis (world units)                 [deg]
#   9 THETA_WORLD            Position angle (CCW/world-x)                               [deg]
#  10 FWHM_WORLD             FWHM assuming a gaussian core                              [deg]
#  11 ELONGATION             A_IMAGE/B_IMAGE                                           
#  12 ELLIPTICITY            1 - B_IMAGE/A_IMAGE                                       
         1 -13.4310    222.5485     46.8551   4.3383093764e+00   2.8135601941e+01    0.6335593    0.5953028  55.84  0.001715534    1.596    0.373
         2 -11.8022    249.0045     23.1194   3.5877784423e+02   2.6822319722e+01    0.4207933    0.2880453 -34.68  0.002936689    1.781    0.438
         3  -9.4839    194.1482      4.8249   3.5877437988e+02   3.7509238991e+01     0.125963    0.1072003  86.43 0.0004304498    1.325    0.245
         4  -9.8577      2.2607      2.4481   4.5945087634e+01   7.5946645623e+01    0.2386296    0.1303778 -36.57  0.001401968    2.040    0.510
         5  -9.2295    108.3275    240.1130   5.8651308300e+01   1.0366012022e+01    0.2591769   0.09876099 -48.76  0.001106121    2.598    0.615
         6 -10.0111     75.2034    248.3297   6.7748514554e+01   1.2116218248e+01    0.5347922    0.1709719 -47.62  0.002083513    3.309    0.698
         7 -13.1185     43.7805    243.0455   7.5298043644e+01   1.6232638658e+01     1.807192    0.8392839   7.40   0.00732306    2.403    0.584
         8 -13.9722     41.8894    230.4160   7.4786104899e+01   1.9212809767e+01     2.807629     1.647602  -3.24   0.01323883    1.977    0.494
         9 -13.7644     55.2944    232.7484   7.1403208878e+01   1.7415897707e+01     2.621627    0.7014034 -61.92  0.009477748    3.595    0.722
        10 -16.1475     26.4336    176.9401   7.4477763310e+01   3.3845163699e+01     11.50554     5.779136  77.52   0.04205916    2.767    0.639
        11 -10.1287    174.8035    223.0484   4.1639997004e+01   6.5057128989e+00    0.2085835    0.1579784   7.95  0.001014906    1.227    0.185
        12  -9.7987    164.0000    222.3880   4.3699701142e+01   7.7488028729e+00    0.2645279   0.06444413 -50.00 0.0009386385    3.966    0.748
        13  -9.3001    148.6415    230.6801   4.8130511897e+01   7.8752610809e+00    0.1379936   0.08218718 -15.46            0    1.763    0.433
        14  -9.5442    161.4832    222.4852   4.4231046507e+01   7.9994292142e+00    0.1261027    0.1035486 -12.40 0.0002678063    1.005    0.005
        15  -8.8395     90.4695    217.4661   6.0324911773e+01   1.7089043230e+01    0.1401636    0.1240354   5.47 8.281002e-05    1.007    0.007
        16  -8.8126    131.9784    211.5261   4.9096102704e+01   1.3445290051e+01    0.1877086    0.1221295  21.81  2.44598e-05    1.452    0.311
        17  -9.8942     95.6123    209.6939   5.7933333416e+01   1.8219414573e+01    0.2375453    0.1870614 -73.09  0.001271137    1.571    0.364
        18 -14.5757     41.6480    173.3340   6.9101710736e+01   3.3358931080e+01     7.858305    0.7394502  33.81   0.01962873    5.155    0.806
        19  -9.6754    210.9191    198.8232   3.1518924974e+01   6.8660896394e+00    0.2004513    0.1411411 -25.85 0.0004734694    1.170    0.145
        20  -9.9361    193.6700    196.0146   3.3984611304e+01   9.1567342425e+00      0.35545    0.1794452 -62.06  0.001412606    4.285    0.767
        21 -13.5183     18.7950    237.3922   8.1383323470e+01   1.9611215332e+01    0.8283969    0.4802469  64.10   0.00046923    1.879    0.468
        22  -9.2931     73.2274    190.8665   6.1592169986e+01   2.5337790074e+01    0.2786646    0.1823221 -40.35  0.001130434    1.598    0.374
        23 -14.8591     10.2251    206.2686   8.1819120059e+01   2.7605791779e+01     1.246711    0.8081542   3.35  0.004051577    1.637    0.389
        24 -11.1528     77.9728    185.7408   5.9472489261e+01   2.6007317172e+01    0.3363569    0.2842441 -75.42 0.0006585707    1.356    0.262
        25  -9.6734     94.8853    183.2346   5.4233347628e+01   2.4410855818e+01    0.3950263    0.2517696  23.45  0.001276012    1.513    0.339
        26 -14.7507     12.4050    245.8178   8.3465588449e+01   1.8252578848e+01     1.528726     1.110768 -58.92  0.009244751    1.562    0.360
        27  -9.1491     83.3165    180.7542   5.7158072379e+01   2.6538507289e+01    0.2505193    0.1851817 -78.69 0.0008937626    1.681    0.405
        28 -15.3460      5.2964    232.0010   8.4591504500e+01   2.1845639667e+01     1.770867    0.7787613 -69.15  0.008274551    2.364    0.577
        29 -11.2468    172.3113    173.8933   3.4260347336e+01   1.5706432610e+01    0.3569644    0.3043317  -3.53  0.001812959    1.171    0.146
        30  -8.7484     79.8416    173.7202   5.7089835559e+01   2.8719951499e+01    0.1942605    0.1658625  55.60 0.0004679514    1.308    0.235
        31 -10.1370    234.4249    169.7086   2.3532750054e+01   9.0104658610e+00    0.2117242   0.08380753 -46.99  0.001128574    2.102    0.524
        32 -11.1653     91.7019    167.8545   5.2609346352e+01   2.8519276366e+01    0.8222076    0.2859111  30.87  0.002846937    2.686    0.628
        33 -10.6188    178.4812    163.9997   3.1375238267e+01   1.6709807010e+01    0.3294491    0.2473518  48.29  0.001688563    1.640    0.390
        34  -9.6526    110.5292    166.8168   4.7158352267e+01   2.6022010621e+01     0.252391    0.2231321  47.70 0.0004021201    1.241    0.194
        35 -11.6764     84.9178    131.9257   4.7886196278e+01   3.8199378770e+01    0.2901211     0.269569 -20.39 0.0003987039    1.090    0.082
        36 -12.0893     56.4215    127.7166   5.6783981924e+01   4.3502074212e+01    0.9702829    0.5683182 -85.12  0.001092499    2.728    0.633
        37 -11.5481     81.8310    145.3104   5.1530962212e+01   3.5450232074e+01     1.480355    0.7095692 -26.92  0.001188014    4.195    0.762
        38 -13.5655     74.9593    134.6723   5.1681226869e+01   3.9094665106e+01     1.976764     1.688531  71.56  0.006850203    1.375    0.273
        39 -11.6732     64.5527    157.1448   5.9221138107e+01   3.4909671983e+01    0.7243508    0.4472615   2.56  0.002584463    1.983    0.496
        40 -12.4812     74.5887    149.9494   5.4705954361e+01   3.5363478636e+01    0.7411988    0.5632768 -58.04 0.0004650504    1.362    0.266
        41 -13.7438     63.5444    144.8856   5.7462676586e+01   3.8177223774e+01     1.392627    0.7181846  21.81  0.005314899    1.987    0.497
        42 -16.0690      5.4760    216.9346   8.3774095927e+01   2.5348999047e+01     3.253827      1.94294  11.96   0.01349056    1.665    0.399
        43 -10.1878     43.1177    155.3779   6.6221532415e+01   3.7938765929e+01    0.4998532    0.2588908  56.40  0.001475947    2.570    0.611
        44  -8.1782    198.3024    240.6614   3.9805398998e+01   1.4260007796e+00   0.09152307   0.09028189 -13.06 0.0005919653    1.669    0.401
        45  -9.6536    103.0424    238.6534   5.9760250196e+01   1.1217383560e+01    0.2539828    0.1793929 -37.86  0.000887016    1.443    0.307
        46  -9.3666    141.9655    163.4524   3.8755515051e+01   2.2048426525e+01     0.242248    0.1867017 -65.24 0.0005638971    1.542    0.351
        47 -10.6519    133.4416    144.6326   3.7143221425e+01   2.7311938162e+01     1.089874    0.2911484 -55.31  0.002909375    5.417    0.815
        48  -9.4179     47.6456    146.9034   6.3348335694e+01   3.9661937505e+01     0.259668    0.2074327   0.54 0.0008425575    1.293    0.226
        49 -10.3893    108.9868    145.3301   4.3520837603e+01   3.1165987317e+01    0.2721369    0.2645875 -22.56  0.000613711    1.026    0.026
        50 -11.1657     37.2193    142.7262   6.6479368591e+01   4.1920804303e+01    0.6753508     0.342711  57.97  0.002391356    2.782    0.640
        51  -9.1006    100.7918    143.5426   4.5464398434e+01   3.2904404401e+01    0.2685793    0.1955233 -78.17 0.0009038674    1.821    0.451
        52 -10.3589     72.7522    232.9253   6.6805770978e+01   1.5618008602e+01    0.2785446    0.2365165  12.04 0.0006446462    1.038    0.036
        53  -9.6896     46.4000    139.7477   6.2633768841e+01   4.1681895243e+01    0.3088312    0.2197587  56.90  0.001066677    1.637    0.389
        54 -10.6904     98.4357    133.6179   4.4119276908e+01   3.5581765713e+01    0.6135632    0.3829556   4.63   0.00241332    2.561    0.610
        55 -10.2046    105.8302    130.4743   4.1335885451e+01   3.5038409432e+01    0.3501192    0.3099294  62.89 0.0009602848    1.242    0.195
        56  -9.3635    108.7922    126.1226   3.9576832422e+01   3.5484387659e+01     0.299339    0.2261722  11.05 0.0008986915    1.623    0.384
        57  -8.5853    125.4979    134.5088   3.7010241680e+01   3.0777163521e+01    0.1386462    0.1355878 -82.97 -1.760728e-05    1.077    0.071
        58 -10.2569     44.0204    130.8681   6.2000377253e+01   4.4274570083e+01    0.3521773    0.2056268 -49.72  0.001532978    1.687    0.407
        59  -9.1783     23.7555    126.5766   6.9233997272e+01   4.7507423421e+01    0.3075655    0.1797154  51.71 0.0009130839    2.018    0.505
        60  -9.1263    136.2401    128.0009   3.3101590801e+01   3.0264424024e+01     0.189381    0.1119955 -48.02 0.0008903025    1.637    0.389
        61  -8.5512    219.0144    125.9447   1.8420647771e+01   1.7633409167e+01    0.1332256    0.1066808 -46.58 0.0004326658    1.004    0.004
        62  -9.0423     24.7624    129.9832   6.9339797491e+01   4.6516990396e+01     0.221116    0.2123328  -3.20 0.0002973665    1.021    0.021
        63  -9.1027     32.2083    124.1059   6.5441701467e+01   4.7342771946e+01    0.2302927    0.1927611 -24.14 0.0005655687    1.193    0.162
        64  -9.7141    239.3139    122.1917   1.5385655397e+01   1.5573984160e+01    0.1660402    0.1084632 -36.24 0.0005776175    1.373    0.272
        65 -10.7268     95.4571    121.3126   4.2340728018e+01   3.8884181075e+01    0.3287612    0.2496912  17.39 0.0007085789    1.477    0.323
        66  -8.9168    115.4988    121.5094   3.6767882379e+01   3.5284426112e+01    0.1419349    0.1360459  -7.26 -7.055734e-05    1.079    0.074
        67  -9.9744     38.1139    120.6682   6.2470679031e+01   4.7591514835e+01    0.3500994    0.1940476   9.96 0.0007672081    2.002    0.500
        68 -11.6596     59.4624    161.1963   6.1544261662e+01   3.4513406650e+01    0.5459652    0.3686986 -34.55  0.001456915    1.603    0.376
        69 -10.6492     27.9709    118.7033   6.6252956562e+01   4.9172661673e+01    0.3058032    0.2602235  49.10 0.0004477085    1.275    0.216
        70 -12.6409    127.4308    229.5471   5.2739054571e+01   1.0381305978e+01    0.9250603    0.4193463  14.34  0.004000569    2.355    0.575
        71 -10.4634    122.6887    115.5807   3.3623308895e+01   3.5205414940e+01    0.4377911     0.275556 -82.95  0.001537472    3.105    0.678
        72  -9.2365    105.8703    116.0188   3.8133359944e+01   3.8191073109e+01     0.205013    0.2011403  -5.08 0.0002979968    1.036    0.035
        73 -10.3773    243.9648    114.3345   1.3627224992e+01   1.6124327379e+01    0.1913244    0.1157257 -57.50  0.001179952    1.542    0.351
        74 -11.1522     53.3106    109.0255   5.4075545133e+01   4.8551016135e+01    0.5333626    0.2547809 -54.93   0.00214256    2.110    0.526
        75 -10.4199     13.8250    110.0678   7.0882648304e+01   5.2636074081e+01    0.4659875    0.2236485  -7.20  0.001769071    2.526    0.604
        76  -9.0394    234.0896    109.6563   1.3909114973e+01   1.8059448876e+01    0.1861618    0.1122058 -51.51 0.0006337499    1.341    0.254
        77 -11.0647     33.0890    108.4358   6.2226129056e+01   5.1259095040e+01    0.4584216     0.319047 -36.75  0.002227403    1.457    0.314
        78 -11.1006     23.9891    104.8394   6.5493228332e+01   5.3100600816e+01    0.5125794    0.3235295 -45.17  0.001838847    1.536    0.349
        79 -11.0991     16.3189    100.3267   6.8135840956e+01   5.4917963539e+01    0.3579894    0.2204169 -24.67 0.0007964156    1.706    0.414
        80 -10.7040     14.5369     97.5306   6.8462769514e+01   5.5761840412e+01    0.2456949    0.2073954  23.14 0.0007988776    1.190    0.160
        81 -10.4759     55.0560     97.1144   5.0607950341e+01   5.1097164239e+01    0.2992259    0.2323373  -0.09 0.0007280443    1.422    0.297
        82  -9.9584     22.9698     95.7248   6.4187388482e+01   5.5461717261e+01    0.2522705    0.1950661 -45.17 0.0003494682    1.258    0.205
        83  -8.4874     81.6172     95.2291   4.0453835418e+01   4.7045592386e+01    0.1472671    0.1059736  60.09 0.0006893802    1.621    0.383
        84  -8.5569    103.4657     92.2813   3.3084943896e+01   4.3500659626e+01     0.197453    0.1340006 -62.70 0.0009417818    1.744    0.427
        85 -10.3167     42.8413     89.2687   5.3748725520e+01   5.4657799138e+01    0.2495466    0.2261478 -13.95 0.0002562833    1.082    0.076
        86  -8.2055    140.2953     87.2595   2.3207078134e+01   3.7148167933e+01    0.1192793    0.1034582  17.47 0.0001559578    1.501    0.334
        87  -8.3702    137.3929     83.7410   2.2961741409e+01   3.8317543868e+01    0.1352077   0.09715007  87.83 0.0006968297    1.698    0.411
        88  -9.2499     24.4512     77.9378   5.9498162969e+01   5.9508940478e+01    0.2726196    0.1724944  37.38  0.000892964    1.616    0.381
        89  -9.1949     27.4329     69.4850   5.5792253795e+01   6.1034098949e+01    0.2650219    0.1013978  36.44  0.001027634    2.489    0.598
        90  -9.7020     31.4705     72.4893   5.4608680199e+01   5.9888394292e+01    0.2910274    0.1787317  42.85  0.001390622    1.752    0.429
        91  -8.4631     96.9874     71.9785   2.9482287413e+01   4.8546249608e+01    0.1631715    0.1472924  55.13 0.0003283879    1.022    0.022
        92  -9.5259     82.1105     70.5642   3.3525551345e+01   5.1785722138e+01    0.2165455    0.1921874 -67.66 0.0003904654    1.269    0.212
        93 -10.4377     19.3591     66.6663   5.9232809797e+01   6.2551289307e+01    0.3001578    0.1851456  31.86  0.001348829    1.563    0.360
        94 -12.0172    199.8353     61.9847   9.1332405420e+00   2.9943383870e+01    0.5197034    0.3307416  54.99  0.001452029    1.880    0.468
        95 -12.9177    210.6467     55.0660   6.7956705451e+00   2.9036115689e+01    0.7432035    0.5911309 -62.44  0.003244815    1.050    0.048
        96 -10.0518    125.0989    248.4409   5.5741505710e+01   7.0415309043e+00    0.2701095    0.1663759 -44.88  0.001245325    1.664    0.399
        97 -10.9303      2.2748     50.3776   6.4763536579e+01   6.7541174132e+01    0.4637022    0.1222794 -59.99  0.001726875    3.541    0.718
        98 -10.4752     19.0143     46.0218   5.3207100822e+01   6.6791978656e+01    0.2029145    0.1724604  15.27 0.0005209813    1.069    0.065
        99 -11.5716      8.5101     43.9687   5.8928510128e+01   6.8312670766e+01    0.4000897     0.271036  47.25  0.001439507    1.905    0.475
       100  -9.8799     64.7145     57.9829   3.5673652878e+01   5.7377525008e+01    0.2460282    0.1782048  61.97 0.0007021958    1.609    0.378
       101  -9.0971    108.6678     38.6582   1.7070835540e+01   5.1116618094e+01    0.1276134   0.09287978  34.10 0.0007051181    1.751    0.429
       102  -9.6075     18.4786     36.4910   5.0120055355e+01   6.8600149330e+01    0.1301567    0.1078951   9.84 9.250307e-05    1.012    0.011
       103 -11.2128    115.9742    231.1978   5.5675024978e+01   1.1315407986e+01    0.3459755    0.2442587 -35.53  0.001950755    1.397    0.284
       104 -11.2924    249.2025     28.4096   3.5958238832e+02   2.6231929940e+01    0.3165801    0.1863894 -47.43  0.002096882    1.332    0.249
       105  -9.7978    101.4546    247.7175   6.1211642501e+01   9.5866114446e+00    0.2832745    0.1147254 -53.34  0.001265493    2.572    0.611
       106 -10.5355     13.2943     30.3255   5.0981594753e+01   7.0308228297e+01    0.2326841    0.1870826  27.01 0.0007416113    1.203    0.169
       107  -9.6135      2.1757     22.2071   5.5429793128e+01   7.2906628538e+01    0.1595061    0.1321536  28.96 0.0007260018    1.333    0.250
       108  -9.4142     60.7085     21.1511   2.3928268662e+01   6.3549587660e+01    0.2175202    0.1499756  60.09 0.0006244936    1.331    0.248
       109  -9.8250     72.6493    225.3796   6.6016642622e+01   1.7294294888e+01    0.2519373    0.2206081  17.40  0.000551655    1.025    0.024
       110 -10.1548     67.3784    240.5941   6.8981729837e+01   1.4510340261e+01     0.348153    0.2085536 -68.90  0.001771838    1.994    0.499
