#   1 NUMBER                 Running object number                                     
#   2 MAG_AUTO               Kron-like elliptical aperture magnitude                    [mag]
#   3 X_IMAGE                Object position along x                                    [pixel]
#   4 Y_IMAGE                Object position along y                                    [pixel]
#   5 X_WORLD                Barycenter position along world x axis                     [deg]
#   6 Y_WORLD                Barycenter position along world y axis                     [deg]
#   7 A_WORLD                Profile RMS along major axis (world units)                 [deg]
#   8 B_WORLD                Profile RMS along minor axis (world units)                 [deg]
#   9 THETA_WORLD            Position angle (CCW/world-x)                               [deg]
#  10 FWHM_WORLD             FWHM assuming a gaussian core                              [deg]
#  11 ELONGATION             A_IMAGE/B_IMAGE                                           
#  12 ELLIPTICITY            1 - B_IMAGE/A_IMAGE                                       
         1 -12.0007     44.8517     50.7883   7.3666866792e+01   6.3680841850e+01    0.6907664    0.2469892 -47.44  0.001504012    2.680    0.627
         2 -12.0713      5.1856     38.7033   9.4679131983e+01   7.0298464047e+01    0.6842457    0.1802489 -69.53  0.002486514    3.116    0.679
         3 -10.4748     40.9359     14.0043   5.8624645701e+01   7.1831161709e+01    0.2045285    0.1816778   6.36 0.0003482207    1.028    0.027
         4  -9.8235     13.5318    250.5263   1.0629765969e+02   2.1440204671e+01    0.1058782   0.07373801  42.98 3.405562e-05    1.001    0.001
         5 -10.8354     92.6394    230.3441   8.8472742440e+01   1.6854164937e+01    0.1873088    0.1113598  49.60  0.001109256    1.670    0.401
         6 -10.4128     72.6750    228.1239   9.2700859723e+01   1.9505626227e+01    0.1833348    0.1277582  57.91  0.001195519    1.470    0.320
         7 -11.1260     84.9816    226.9969   8.9868787745e+01   1.8301525595e+01    0.2001941    0.1128465  50.54  0.001143334    1.751    0.429
         8 -10.1634     66.5603    226.7799   9.3967222723e+01   2.0408946818e+01    0.1478618    0.1030046  73.58 0.0009499532    1.682    0.405
         9 -10.5929    192.1881    225.8743   6.7734804689e+01   5.3116496002e+00    0.1586859    0.1037398   3.32 0.0008232377    1.313    0.238
        10 -11.1297    161.9431    223.8527   7.3165731578e+01   9.2640243999e+00    0.3018383     0.207894 -25.25  0.002001479    1.577    0.366
        11  -9.7811     99.0290    225.0111   8.6566826812e+01   1.6969447133e+01    0.1503057     0.112293  30.08 0.0005571481    1.038    0.037
        12 -10.0253     18.5051    224.5133   1.0454016679e+02   2.5474874173e+01    0.1135162   0.08391489  45.19 0.0001852613    1.009    0.009
        13 -10.5797     59.9974    222.8033   9.5168345021e+01   2.1816518136e+01    0.2129854   0.08871824  46.75  0.001078737    2.015    0.504
        14 -10.0309    141.3392    222.6633   7.7187047249e+01   1.2042759820e+01    0.1168933   0.08176327  48.78 0.0007051117    1.756    0.431
        15 -10.6849    126.2025    220.2586   8.0101322957e+01   1.4344532598e+01    0.1648763    0.1206337  41.89 0.0006658338    1.355    0.262
        16 -10.4107     74.4320    219.2844   9.1603688056e+01   2.0851974811e+01    0.2293298    0.1051841  43.12  0.001191106    1.786    0.440
        17 -11.1539    144.0109    217.0122   7.5910864966e+01   1.2539415059e+01    0.1838303    0.1337805  49.01  0.001139601    1.705    0.414
        18 -10.5352    132.0000    213.0171   7.7957739971e+01   1.4733648699e+01    0.1696241   0.07117712 -51.12 0.0008004807    2.929    0.659
        19 -10.2808     76.6017    212.8236   9.0548556264e+01   2.1767287471e+01    0.1585464    0.1124544  82.54 0.0009595453    1.775    0.437
        20 -10.8368    116.9820    210.0396   8.0914918960e+01   1.7204286474e+01    0.2015394    0.1325903  51.50  0.001142196    1.739    0.425
        21 -11.2214    139.7186    207.5621   7.5568880834e+01   1.4567365023e+01    0.1857466    0.1590782  74.78  0.001195937    1.774    0.436
        22 -11.3738    124.4949    206.2231   7.8747351919e+01   1.6844969020e+01    0.2983226      0.17048  52.53            0    2.288    0.563
        23 -10.8120     99.4098    205.3606   8.4424539159e+01   2.0316173616e+01    0.2636157    0.1763173  65.61  0.001450479    1.998    0.500
        24 -14.3161    184.4139    193.7524   6.4351927678e+01   1.0501150562e+01    0.8417932     0.446584  43.20  0.004399813    2.206    0.547
        25 -13.7795    156.1801    186.7562   6.8936640760e+01   1.5580286349e+01    0.5918313    0.4094061 -42.32   0.00297219    1.644    0.392
        26 -14.0864    160.2518    174.6745   6.6045237663e+01   1.6943335863e+01    0.6248707    0.4651035  61.61  0.003340773    2.132    0.531
        27 -13.8687    150.1202    168.9915   6.7274168307e+01   1.9500982968e+01    0.5413173    0.4471695  31.74  0.003247796    1.150    0.130
        28 -14.5937    148.9998    193.8110   7.1585180772e+01   1.5480369302e+01     1.362667    0.6099024 -57.10   0.00559739    3.876    0.742
        29 -14.6582    148.1258    179.8678   6.9573863341e+01   1.7929738930e+01    0.9831601    0.7008469 -75.22  0.004886253    2.679    0.627
        30 -13.3575    166.5712    203.1009   6.9316878653e+01   1.1595758814e+01    0.5302273    0.3174464  42.08  0.002985628    1.818    0.450
        31 -14.7697    175.5804    197.7087   6.6695594618e+01   1.1148770805e+01    0.8539385    0.6541358  38.51  0.005519216    1.477    0.323
        32 -11.6908    131.4304    203.2374   7.6802237326e+01   1.6399409840e+01    0.2305342    0.1924389  86.35  0.001377805    1.826    0.452
        33 -11.6224    140.9037    200.7761   7.4370031320e+01   1.5493659286e+01    0.2125883    0.1680788  73.44   0.00123887    2.086    0.521
        34 -12.5955    124.8299    197.4057   7.7504627804e+01   1.8304180594e+01    0.3372129     0.263357  50.97  0.001697546    1.454    0.312
        35 -11.3968    113.1934    197.4644   8.0221502271e+01   1.9905101581e+01      0.30211    0.2071959  62.86  0.001628765    1.999    0.500
        36 -10.7845     88.4343    197.7227   8.6216795461e+01   2.3146597814e+01    0.2152192    0.1307995 -73.20  0.001136724    2.149    0.535
        37 -14.0295    163.1593    194.5566   6.8705766116e+01   1.3346654693e+01    0.6141869    0.4737662  29.94  0.003246757    1.208    0.172
        38 -10.0718     66.4687    193.9716   9.1319762573e+01   2.6578482695e+01    0.1779691   0.09417941  70.04 0.0008097821    2.574    0.611
        39 -10.3405     43.8098    192.9948   9.7001461993e+01   2.9255722486e+01    0.2190766    0.1098197  60.81  0.001087012    2.050    0.512
        40 -11.4769      8.0601    188.9060   1.0582299457e+02   3.3257238488e+01     0.381461    0.1350019  77.47  0.001700502    2.947    0.661
        41 -12.6506    129.9007    187.8855   7.4979605657e+01   1.9252011033e+01    0.3332888      0.29352  67.25  0.001719406    1.479    0.324
        42 -11.2036     87.0125    188.3269   8.5511756226e+01   2.5165207785e+01    0.2592489    0.1507312  71.86  0.001170604    2.677    0.626
        43 -12.4851    193.1156    188.1211   6.1787108578e+01   1.0092357657e+01    0.2666858    0.1582912  42.10  0.001385956    1.939    0.484
        44 -12.8955    166.1010    186.9577   6.6884395564e+01   1.4096435839e+01    0.4030086    0.2414248  41.87   0.00184742    1.751    0.429
        45 -12.4931    120.4850    183.5380   7.6564813367e+01   2.1419860803e+01    0.5873434     0.276262 -60.58  0.002535498    2.962    0.662
        46 -11.9066     95.2187    184.1843   8.2920584573e+01   2.4891456170e+01    0.5462807    0.3690618  87.33  0.002794876    2.165    0.538
        47 -13.1124    139.3885    189.0349   7.2982330227e+01   1.7665966334e+01    0.3872836    0.3264484 -48.71  0.001946023    1.451    0.311
        48 -11.3746    109.7040    184.8113   7.9374473835e+01   2.2740959539e+01    0.3317996     0.275919  68.30  0.001985579    1.474    0.322
        49 -10.3558     54.7763    186.1888   9.3641969730e+01   2.9515084332e+01    0.2363817   0.09484631  55.87 0.0009566486    2.832    0.647
        50 -12.4356    183.4823    184.4550   6.2994066180e+01   1.1963958956e+01     0.251969    0.1928231  45.97  0.001158101    1.700    0.412
        51 -12.9333    175.3896    183.6871   6.4454698713e+01   1.3245236723e+01    0.3793356    0.2092059  39.47  0.001850574    1.795    0.443
        52 -10.4384     74.4215    183.1887   8.8186217222e+01   2.7827065468e+01    0.2685708    0.1310669 -81.25  0.001134921    3.028    0.670
        53 -12.9099    197.5787    182.7304   6.0053446381e+01   1.0220259997e+01    0.3145139    0.2240233  39.05  0.001960955    1.595    0.373
        54 -13.0979    193.2447    178.5167   6.0121535617e+01   1.1422835261e+01    0.3461741    0.2652678  -8.00   0.00224149    1.150    0.130
        55  -9.9776     44.3118    181.6689   9.6044972018e+01   3.1597826058e+01    0.1392027   0.07764325  54.56 0.0004094134    1.674    0.402
        56 -12.7202    138.9515    178.7240   7.1464843526e+01   1.9526796808e+01    0.3450922    0.3185706  54.68  0.001770124    1.330    0.248
        57 -11.7960    129.4153    176.5873   7.3357779020e+01   2.1371061848e+01    0.3321795    0.2326777 -80.70  0.001612123    2.514    0.602
        58 -12.6122    185.0412    176.2340   6.1274334158e+01   1.2947154422e+01    0.2853297    0.2166146  39.73  0.001755088    1.483    0.326
        59 -11.5506     78.0574    175.1886   8.6303525155e+01   2.9048273999e+01    0.4412304    0.2407944  62.72   0.00194594    2.427    0.588
        60 -10.2118     59.5152    176.0430   9.1439330219e+01   3.1154831872e+01    0.1884416    0.0980355  71.18 0.0008097566    2.573    0.611
        61 -10.8398     12.6756    175.0065   1.0412539595e+02   3.5892374929e+01     0.318574    0.1302993  83.51  0.001462982    2.537    0.606
        62 -10.7709    105.8967    174.7881   7.8908590798e+01   2.5253950393e+01     0.256512     0.176884  74.30  0.001250939    2.168    0.539
        63 -11.0438      2.9822    172.5080   1.0661710712e+02   3.7135212209e+01    0.3666307    0.1052782  71.93  0.001393741    3.648    0.726
        64 -12.7980    135.1312    171.0529   7.1091407522e+01   2.1506428608e+01    0.3945621    0.3137501 -89.41  0.001959512    1.978    0.494
        65 -13.2313    178.3683    170.9836   6.1646519192e+01   1.4745745074e+01    0.3743157    0.2902912  26.83  0.001893911    1.189    0.159
        66 -13.6832    168.7038    167.9584   6.3066220884e+01   1.6726710669e+01    0.5520372    0.3155867 -48.69  0.002738126    2.167    0.538
        67 -13.1666    122.4421    167.7518   7.3625064667e+01   2.4128864436e+01    0.6140873    0.4401902 -66.06  0.003213774    1.840    0.457
        68 -14.0254    139.8663    163.2913   6.8623598106e+01   2.2182119741e+01    0.7545038     0.497282 -48.76  0.003909863    1.715    0.417
        69 -11.7025    192.9049    166.1450   5.7961075876e+01   1.3265346807e+01    0.1827636    0.1692955  10.44  0.001141561    1.272    0.214
        70 -13.5380    157.8078    154.1505   6.2808929165e+01   2.0845866412e+01    0.8129818    0.3461936 -54.32   0.00286403    3.945    0.747
        71 -13.9783    149.6847    143.6308   6.2548283052e+01   2.4158350383e+01    0.8349674    0.5241221 -58.37    0.0038153    2.214    0.548
        72 -10.8287     80.0989    163.7339   8.4286099240e+01   3.1262893167e+01    0.4578044    0.2353162  70.32   0.00164057    3.666    0.727
        73  -9.8870     19.3401    165.6691   1.0184847853e+02   3.7466556527e+01    0.1428285     0.072345  53.56 0.0007051633    1.744    0.426
        74 -10.1030     37.6155    163.8201   9.6497613642e+01   3.6261023586e+01    0.1864233    0.1133324  81.75 0.0009503692    1.754    0.430
        75 -13.7875    152.2561    161.0955   6.5365543361e+01   2.0546557878e+01    0.5649164     0.380264  26.84  0.002989403    1.382    0.276
        76 -13.7358    178.2028    159.8285   5.9613804319e+01   1.6524814911e+01    0.4865021    0.3862499 -40.53  0.002360228    1.427    0.299
        77 -11.2171      8.6871    159.4698   1.0457331597e+02   3.9687909529e+01    0.4122418    0.1170381  68.36    0.0014246    4.065    0.754
        78 -11.3459    186.0319    167.4933   5.9511135193e+01   1.4108354508e+01    0.1939193    0.1137995  34.05  0.001035739    1.599    0.374
        79 -11.0675     93.0342    159.4733   8.0056031045e+01   3.0355101782e+01    0.3297541    0.2268902  79.18  0.001570581    2.043    0.511
        80 -13.1381    197.7477    158.4106   5.5617208846e+01   1.3663564708e+01    0.3368536    0.2996978  64.64  0.002143458    1.748    0.428
        81 -13.6289    190.6740    150.2415   5.5331842440e+01   1.6008911086e+01     0.464198      0.39294 -78.24  0.002684849    2.024    0.506
        82 -12.8108    189.5160    158.1042   5.7083658397e+01   1.4992286282e+01    0.3348186    0.2636344  57.39  0.001939395    1.876    0.467
        83 -14.2402    168.5229    155.7333   6.0809413624e+01   1.8775632589e+01    0.7674443    0.4141073 -38.62  0.003724887    1.894    0.472
        84 -13.2795    166.2346    143.1058   5.8764810729e+01   2.1317673781e+01    0.5409273    0.3530391 -52.73  0.002616143    1.953    0.488
        85 -11.7074    128.5260    158.5143   7.0517088582e+01   2.4953206353e+01    0.2880552    0.2371968  83.73  0.001548889    1.714    0.416
        86 -11.2028    105.6845    157.4979   7.6273156113e+01   2.8848342996e+01    0.3713637     0.237118  67.58  0.001617599    2.400    0.583
        87 -11.7411    119.5846    154.4193   7.2055386838e+01   2.7247317514e+01    0.4642389    0.2641654 -63.97  0.001995786    2.453    0.592
        88 -12.6316    144.9993    154.1324   6.5720256847e+01   2.3024966883e+01    0.3309186    0.2842043  81.46  0.001774707    1.658    0.397
        89 -12.7357    133.6585    151.9462   6.8030927029e+01   2.5374529724e+01    0.5165126    0.3565516 -66.13  0.002481739    2.062    0.515
        90 -10.8207     81.7651    153.9375   8.2427534335e+01   3.3223296821e+01    0.2656375     0.197977  79.68  0.001362342    1.625    0.385
        91 -11.0805     68.3111    152.5551   8.6207214049e+01   3.5379829996e+01    0.3106796    0.2260325  63.71  0.001621458    1.466    0.318
        92  -9.6666     47.3198    163.6422   9.3672173188e+01   3.5303924022e+01    0.1479702   0.08391909  57.04 0.0007044735    1.761    0.432
        93 -12.5549    182.2399    150.7693   5.7052259907e+01   1.7309896990e+01    0.2514158    0.2449446  87.76  0.001369655    1.428    0.300
        94 -12.3879    162.7220    149.6765   6.0853622627e+01   2.0789723166e+01    0.3633263    0.2409563 -48.11  0.001859598    1.742    0.426
        95 -10.0069     98.4179    150.2238   7.7058130825e+01   3.1557904397e+01    0.1934897    0.1412065 -75.34 0.0009556729    1.709    0.415
        96 -11.1501     28.7428    149.1120   9.7970344441e+01   4.0561879706e+01    0.3517276    0.1368772  80.69  0.001275968    3.423    0.708
        97 -12.0075    200.9873    148.9789   5.3202427059e+01   1.4542454269e+01    0.2026017    0.1749243  -2.41  0.001318944    1.052    0.050
        98 -10.6824     49.3181    153.9229   9.2105998112e+01   3.7354762009e+01    0.4022057    0.2109311  76.77  0.001717028    2.457    0.593
        99 -11.0729     39.0644    146.4935   9.4513589007e+01   4.0221417855e+01     0.460885    0.2156087  72.79   0.00183508    2.762    0.638
       100 -12.1807    107.6009    144.7640   7.3515747009e+01   3.1265376522e+01    0.6608659    0.4172112  75.32  0.002586536    2.963    0.663
       101 -11.3097     55.6571    144.3511   8.9031849293e+01   3.8915632508e+01    0.5870979    0.3141797  78.24  0.002392341    2.605    0.616
       102 -12.6217    175.7712    145.6971   5.7318805785e+01   1.9222356452e+01    0.2747691    0.2518144  51.83  0.001581783    1.367    0.269
       103 -11.0193     12.9106    144.6694   1.0258597207e+02   4.2891554298e+01    0.3551194    0.1658481  84.07  0.001631959    2.149    0.535
       104 -11.8954    138.2886    143.8291   6.5301993441e+01   2.6148197428e+01    0.2636793      0.23043  88.87   0.00144413    1.535    0.348
       105 -12.2853    125.0739    141.9245   6.8257970571e+01   2.8867502568e+01    0.6080576    0.3808018 -73.61  0.002442108    2.869    0.651
       106 -10.8737     87.9143    142.9055   7.8862848311e+01   3.4833570164e+01    0.3854957    0.2139898 -68.50  0.001641995    2.207    0.547
       107 -12.2892    182.3407    141.3533   5.5120662722e+01   1.8802750771e+01    0.2903712    0.2348157 -64.81  0.001608388    1.854    0.461
       108 -11.7183      2.7171    139.4762   1.0551784382e+02   4.4797731025e+01    0.4959855    0.1485754  88.29  0.001837717    3.368    0.703
       109 -12.4181    172.4308    137.5628   5.6307402687e+01   2.1167380116e+01    0.3870561    0.2489701 -55.18  0.001837797    2.155    0.536
       110 -11.4719     22.7679    135.4095   9.8787009057e+01   4.4423969729e+01    0.7409559    0.2848439 -89.03  0.002854075    2.915    0.657
       111 -11.8895    162.7727    135.7218   5.7951340676e+01   2.3230215378e+01    0.2789701    0.1933794 -47.80  0.001124296    1.618    0.382
       112 -11.5005     38.9761    134.1032   9.3244044672e+01   4.3284154574e+01    0.4763299    0.1770717 -69.07  0.001865756    2.583    0.613
       113 -10.7073    188.0000    135.0203   5.2709190750e+01   1.8834546847e+01    0.2169281   0.07102351 -37.42 0.0007581062    2.940    0.660
       114 -11.9280    179.5760    133.3092   5.3960922086e+01   2.0599470306e+01    0.3272667    0.2001012 -49.59  0.001571834    1.994    0.499
       115 -11.9710    132.1314    130.1047   6.3959316093e+01   2.9994407159e+01    0.6652688    0.3173823 -57.26  0.002434615    2.951    0.661
       116 -10.7910    113.0841    132.9092   6.9666996920e+01   3.2892361123e+01     0.316458    0.2170689  71.86  0.001355874    2.251    0.556
       117 -12.0027    143.2219    130.5105   6.1288682013e+01   2.7828908127e+01    0.5107018    0.2608761 -50.46  0.002113599    2.241    0.554
       118 -11.7240     83.3405    129.4398   7.7875069714e+01   3.8688434123e+01     0.831643     0.296685 -61.49  0.002806647    3.193    0.687
       119 -10.7993    193.3226    129.9942   5.0655215825e+01   1.8691986093e+01    0.2101471   0.09487028 -52.49 0.0007048956    4.288    0.767
       120 -12.3884    168.7698    128.7493   5.5152019640e+01   2.3344808703e+01    0.4013731    0.2634692 -49.87  0.001967058    1.781    0.438
       121 -11.9813    153.1141    128.3154   5.8475877252e+01   2.6371989997e+01     0.550643    0.2506147 -49.86  0.002130256    2.627    0.619
       122 -12.2941     12.6542    125.3292   1.0146009954e+02   4.7686682739e+01    0.8700839    0.2376723 -75.01  0.003147619    3.221    0.690
       123 -12.1377     98.7355    125.8000   7.2373135321e+01   3.6997470575e+01    0.8573561    0.3883557 -63.51  0.003008097    3.027    0.670
       124 -10.6365     72.8274    128.1241   8.1037049289e+01   4.0592808724e+01    0.3724184    0.2064746 -77.62  0.001498799    2.385    0.581
       125 -11.5246    118.1419    124.9895   6.6562277187e+01   3.3677667550e+01    0.4459822    0.3186167  85.44  0.001913557    2.305    0.566
       126 -11.5022    180.1259    124.2098   5.1853135398e+01   2.1998283206e+01     0.328096    0.1666437 -45.67  0.001437526    2.167    0.539
       127 -12.2983     42.8695    119.7912   9.0100496330e+01   4.6500709286e+01     1.012469    0.4224587  89.52  0.003221708    4.009    0.751
       128 -12.2086     27.8356    120.9835   9.5694825768e+01   4.7648780548e+01    0.9061805     0.328912  67.18  0.002743556    4.576    0.781
       129 -11.6528     58.6486    121.3595   8.4704750958e+01   4.4224285446e+01    0.8627395    0.3660312 -78.44  0.002863652    3.511    0.715
       130 -10.9690    158.6027    120.8644   5.5542105364e+01   2.6682285060e+01    0.2824888    0.1786619 -52.56  0.001291813    1.903    0.474
       131 -11.7136    141.8981    118.6733   5.8906594155e+01   3.0383627335e+01     0.461405    0.3047956 -69.65  0.001898714    2.548    0.607
       132 -11.0815     70.8117    118.6563   7.9990268548e+01   4.3209283958e+01    0.4057379    0.2123283 -71.34  0.001606929    2.314    0.568
       133 -11.1864    131.0796    118.4136   6.1573658861e+01   3.2571801660e+01    0.3581232    0.2530555 -72.54  0.001570535    2.136    0.532
       134 -12.2429      2.7198    114.5397   1.0431505606e+02   5.0984674555e+01    0.8112539    0.2585412  89.30  0.002992791    3.140    0.682
       135 -11.4991    108.8324    112.0987   6.6266016331e+01   3.8247086100e+01    0.7191171    0.3207296 -58.46  0.002474624    2.953    0.661
       136 -11.7471     92.4112    109.6864   7.0814216620e+01   4.1840981469e+01    0.9351062    0.3399325 -57.03  0.003050393    3.139    0.681
       137 -11.5791     78.4345    110.4080   7.5679449204e+01   4.4052939213e+01    0.7111865    0.3556164 -72.30  0.002497158    2.987    0.665
       138 -10.7453    122.3824    112.2160   6.2413434639e+01   3.5575813882e+01     0.213436    0.1438602 -57.39 0.0009506287    1.721    0.419
       139 -12.0447     14.2003    108.7359   9.9590216394e+01   5.1826212684e+01    0.5876831    0.2985193 -80.27  0.002723839    1.848    0.459
       140 -10.2154    159.3205    111.6606   5.3195358339e+01   2.8203018421e+01      0.14259    0.1164507 -79.87 0.0004346715    1.715    0.417
       141 -11.3364     66.2473    108.7214   7.9660670570e+01   4.6349245411e+01    0.6107209      0.27621 -68.77  0.002223406    2.661    0.624
       142 -12.5048     44.7872     99.6581   8.6171333589e+01   5.1477172787e+01     1.126097    0.5535548 -88.56  0.004029186    3.062    0.673
       143 -13.3256     21.9108     98.5318   9.5422233367e+01   5.3947418814e+01     1.162632    0.4971659  88.81  0.004387197    2.821    0.646
       144 -10.3462    139.6942    104.3391   5.5909408036e+01   3.3626012113e+01    0.2346465    0.1859043 -89.35  0.001108732    1.781    0.439
       145 -10.7888    150.4906    102.5388   5.2882150927e+01   3.1693542028e+01    0.2738523    0.1328046 -49.88    0.0010404    2.415    0.586
       146 -12.3155      6.9407    100.4489   1.0175942324e+02   5.4386454543e+01    0.6187521    0.2081469 -73.55  0.002438491    2.564    0.610
       147 -10.5855    128.4933    101.9869   5.8165799386e+01   3.6443939159e+01    0.2107791     0.133825 -67.80 0.0007239162    2.501    0.600
       148 -11.5017     81.8516     97.8430   7.1553341327e+01   4.6512262959e+01    0.6375993    0.2240991 -56.42  0.002070225    3.057    0.673
       149 -11.7683    108.4352     97.1998   6.2601130287e+01   4.1604685995e+01    0.6640724    0.3824112 -61.38  0.002591049    2.288    0.563
       150 -11.2318     94.9972     94.9272   6.6268470257e+01   4.4775118690e+01    0.6095796    0.2288425 -48.93  0.002071036    2.710    0.631
       151 -12.3253     63.3520     92.7239   7.7257385338e+01   5.0780709334e+01    0.9937397    0.4152127 -62.86  0.003568707    2.601    0.616
       152 -10.2566     57.9972     92.0067   7.9237249153e+01   5.1741872045e+01    0.2284766    0.1685409  63.28  0.001086661    1.564    0.361
       153 -12.8594      5.3291     88.3261   1.0142943017e+02   5.7607879869e+01    0.8059046    0.2793548 -63.04  0.003264309    2.434    0.589
       154 -12.2633      8.8825     79.7236   9.8947127947e+01   5.9679399546e+01    0.4239569    0.2587422  67.34  0.002103031    1.757    0.431
       155 -11.1506    124.5695     90.2839   5.6031957823e+01   3.9648707276e+01    0.3780747    0.2323181 -65.33  0.001403778    2.510    0.602
       156 -11.8104     34.8925     86.4741   8.7953185307e+01   5.5967141035e+01      0.87442    0.2839243 -63.73  0.003127872    2.714    0.632
       157 -11.4713     86.0249     85.5462   6.6774928302e+01   4.8641791219e+01    0.4550908    0.2883177 -69.94  0.001843005    2.172    0.540
       158 -12.4987     48.2789     81.7920   8.0983877389e+01   5.5641059366e+01    0.8149067    0.4054774 -67.88  0.003276404    2.162    0.537
       159 -11.5244    104.4046     81.0496   5.9234884607e+01   4.5920826664e+01    0.6681272    0.2727728 -49.95  0.002288101    2.685    0.628
       160 -13.1487     25.6150     75.6231   9.0263423442e+01   5.9641208193e+01     1.175806    0.3699528 -52.99  0.004263395    2.758    0.637
       161 -10.8943     74.2866     78.4247   6.9122674534e+01   5.2458682018e+01    0.4715879    0.2066704 -55.82  0.001709263    2.440    0.590
       162 -12.1618     62.6801     69.8634   7.1357149991e+01   5.6468284591e+01     1.182995    0.1850819 -50.32  0.002871967    5.476    0.817
       163 -10.5523    127.7655     74.7299   5.0569880901e+01   4.1951757865e+01    0.2446153    0.1159806 -49.09 0.0007924967    2.388    0.581
       164 -11.9426     81.8984     71.5796   6.4058706803e+01   5.2602261202e+01    0.4995785    0.2756077 -62.75  0.001875852    2.477    0.596
       165 -10.9464     42.5044     70.9661   8.0984263758e+01   5.9098629371e+01    0.3912817     0.137952 -62.15  0.001370867    2.758    0.637
       166 -11.0159     94.8556     68.8811   5.8494945044e+01   5.0524367038e+01    0.6201591    0.2022831 -49.33  0.001869857    3.479    0.713
       167 -11.8491     51.1870     66.4563   7.5562696025e+01   5.9058389717e+01    0.8756856    0.2659635 -60.79  0.002657597    3.739    0.733
       168 -11.3158      5.7800     69.9273   9.9327224713e+01   6.2364429889e+01    0.3627355    0.1316803 -66.03  0.001489653    2.267    0.559
       169 -11.7268     16.3825     69.1945   9.3767649334e+01   6.1991730070e+01    0.3387013    0.2597642 -74.87  0.001883588    1.231    0.188
       170 -11.6631     17.6181     63.5647   9.2108010825e+01   6.3360671008e+01    0.5071141    0.1539014 -60.10  0.001895371    2.610    0.617
       171 -11.1803     10.1779     64.1362   9.6231937064e+01   6.3655799609e+01    0.3110592    0.1489874 -60.87  0.001423867    1.792    0.442
       172 -11.6000     37.3761     61.9169   8.1142036665e+01   6.1966186013e+01    0.5694716    0.2266368 -57.01  0.002216503    2.274    0.560
       173 -10.6432    110.0093     61.2014   5.1035551002e+01   4.8633347356e+01    0.3995839    0.1708554 -29.17  0.001261592    3.343    0.701
       174 -11.4856     73.2933     56.2350   6.2161698214e+01   5.7627611269e+01    0.8581448    0.2370502 -44.21  0.002538894    3.728    0.732
       175  -9.9438    100.0000     57.4436   5.2782757104e+01   5.1664728314e+01    0.4997949   0.08776046 -40.29  0.001149772    5.869    0.830
       176 -11.2148     25.1612     57.3386   8.6571277843e+01   6.4354744981e+01    0.4152843     0.195637 -55.15  0.001813794    1.877    0.467
       177 -12.5594      7.8694     53.3269   9.5775744442e+01   6.6529545725e+01    0.8041741    0.1856873 -65.71  0.002825409    3.136    0.681
       178 -10.2955     92.4970    237.9913   8.9171229894e+01   1.5645116517e+01    0.1458818   0.08580524  65.44 0.0008095549    2.457    0.593
       179 -11.1057     53.7533     51.2359   6.9221441445e+01   6.2226488787e+01    0.6755003    0.1947955 -56.08  0.001952747    4.230    0.764
       180 -11.4368     30.9112     48.3172   8.0696417245e+01   6.6009985548e+01    0.6786961    0.2026155 -62.48  0.002265387    3.354    0.702
       181 -10.6723     20.5733     49.3376   8.7219733085e+01   6.6733877945e+01    0.4894212    0.2212538 -36.86  0.002008719    2.394    0.582
       182 -11.0476     91.9903     47.7501   5.1759753638e+01   5.5312551512e+01    0.6517378    0.1884219 -42.02  0.001975308    3.551    0.718
       183 -10.7245     82.0000     45.0278   5.4263405880e+01   5.8061332953e+01    0.4522144    0.1438258 -39.13  0.001425284    3.325    0.699
       184 -10.8450     62.8067     49.6077   6.4233879519e+01   6.1021860538e+01    0.4811964     0.220997 -40.63  0.001845694    2.313    0.568
       185 -10.7140     57.7858     40.6010   6.2919619525e+01   6.3815035689e+01    0.4385612    0.1692996 -52.23  0.001515886    3.046    0.672
       186 -10.0530     85.3143    233.6570   9.0356651073e+01   1.7159235276e+01    0.1218106   0.06970917  50.25 0.0007047531    1.708    0.415
       187 -10.7858     69.1644     39.3014   5.7042189508e+01   6.1868689808e+01    0.5396594    0.1936733 -40.63  0.001864752    2.894    0.654
       188 -10.8742     36.8898     38.3436   7.3498843710e+01   6.7604439753e+01    0.4429006    0.1423834 -48.11  0.001577855    2.870    0.652
       189 -11.4523     27.5765     29.6146   7.5901116355e+01   7.0698252515e+01    0.5747104     0.159477 -44.31  0.001909982    3.543    0.718
       190 -10.8400     60.7745     30.0864   5.6576809704e+01   6.5274119674e+01    0.4048391    0.1693801 -31.60   0.00141311    3.094    0.677
       191 -11.2166     16.9768     41.7094   8.7429593165e+01   6.8881255712e+01    0.5477502    0.1125834 -58.53   0.00183953    3.358    0.702
       192 -11.1886     12.5962     27.9934   8.6293634015e+01   7.2460714722e+01    0.5389397   0.09841238 -63.88  0.001658686    4.382    0.772
       193  -9.8931    114.0065     41.4792   4.2685558895e+01   5.1051268205e+01    0.2057469    0.1164495  35.53 0.0003351338    2.180    0.541
