#   1 NUMBER                 Running object number                                     
#   2 MAG_AUTO               Kron-like elliptical aperture magnitude                    [mag]
#   3 X_IMAGE                Object position along x                                    [pixel]
#   4 Y_IMAGE                Object position along y                                    [pixel]
#   5 X_WORLD                Barycenter position along world x axis                     [deg]
#   6 Y_WORLD                Barycenter position along world y axis                     [deg]
#   7 A_WORLD                Profile RMS along major axis (world units)                 [deg]
#   8 B_WORLD                Profile RMS along minor axis (world units)                 [deg]
#   9 THETA_WORLD            Position angle (CCW/world-x)                               [deg]
#  10 FWHM_WORLD             FWHM assuming a gaussian core                              [deg]
#  11 ELONGATION             A_IMAGE/B_IMAGE                                           
#  12 ELLIPTICITY            1 - B_IMAGE/A_IMAGE                                       
         1 -13.0101     46.6543     27.3415   3.8694971250e+01   6.9953165575e+01    0.6226065    0.2830369 -45.04   0.00258272    2.354    0.575
         2 -12.4748     66.8630     16.1917   2.2891784886e+01   6.7111519160e+01    0.2697604    0.2366696 -22.87 0.0004722789    1.267    0.211
         3 -10.8166    135.5145     11.9341   6.5583609510e+00   4.9572008091e+01    0.1854104    0.1337194 -33.67 0.0003294788    1.455    0.313
         4 -11.3677     90.7441     12.0219   1.3833499794e+01   6.1494080360e+01    0.2187168    0.1755959 -68.85 0.0006012048    1.269    0.212
         5 -11.7413     91.8759      7.7817   1.1534479721e+01   6.1620204777e+01    0.2978365    0.2009235 -32.12  0.001533189    1.600    0.375
         6 -11.0452     85.1828     10.1832   1.4202717419e+01   6.3145219042e+01    0.1928826    0.1525926 -67.86 0.0004172633    1.319    0.242
         7 -10.3613     49.0235      8.0019   2.5096693914e+01   7.2303680759e+01    0.1610458     0.143117  47.74  0.000391391    1.015    0.014
         8 -12.8010    215.2489      2.6262   3.5826095602e+02   3.1580173653e+01    0.2405671    0.1736996 -56.12  0.000428914    1.022    0.022
         9 -10.7908    128.9834      1.4186   3.4658102354e+00   5.2292780199e+01    0.2093176    0.1175769  80.10 0.0004924383    1.559    0.359
        10 -10.2072     48.7415      1.3305   2.0416618348e+01   7.3094563408e+01    0.1256893   0.09840512 -63.95 0.0002667803    1.564    0.361
        11 -10.8977    198.6988    241.1913   4.8549345881e+01   2.5218781566e-01    0.1852985    0.1245448  38.78  0.001263617    1.935    0.483
        12 -12.7532    246.4217    249.9347   4.2230684964e+01  -5.1850859578e+00    0.1892156    0.1208555  -3.94 0.0006713906    1.094    0.086
        13 -11.2112     84.7103    250.6682   7.2342056186e+01   1.1955849395e+01     0.212919    0.0902814  26.70 0.0005427194    1.898    0.473
        14 -13.7479     72.9487    231.7618   7.3484385221e+01   1.6732688762e+01      0.78376    0.2945088 -59.76   0.00133711    3.082    0.676
        15 -14.1308     62.2889    234.8435   7.6222371550e+01   1.7393130238e+01     1.036099    0.6362212  85.93  0.005882024    2.025    0.506
        16 -12.8487     56.4434    228.9099   7.7190166765e+01   1.9215603808e+01    0.4004081    0.2257757 -65.97  0.002199056    2.107    0.525
        17 -13.4202     57.8307    221.7160   7.6337197124e+01   2.0504576098e+01     0.525786    0.3957176 -87.97  0.002836324    1.512    0.339
        18 -12.0699     55.6043    249.4407   7.8698306616e+01   1.5438775548e+01    0.4296699    0.2438754  20.79  0.002445452    1.662    0.398
        19 -12.3430     64.1451    245.8040   7.6554847416e+01   1.5150133252e+01    0.2193278     0.190432  18.00 0.0004174982    1.258    0.205
        20 -13.2984     68.5162    247.6988   7.5704021958e+01   1.4320101626e+01    0.4678817    0.2955429  37.57  0.002340302    1.185    0.156
        21 -12.4892     71.6682    244.9715   7.4801770141e+01   1.4446603743e+01    0.4047568    0.1761386  49.62  0.001448408    2.133    0.531
        22 -12.8099     52.6503    244.0534   7.9044095720e+01   1.6739257747e+01    0.6583554    0.3333115 -34.35  0.002847607    4.146    0.759
        23 -13.3378     49.2956    237.8492   7.9447955050e+01   1.8270344728e+01    0.5572352    0.3109105  55.51  0.003159194    1.616    0.381
        24 -14.9362     46.8010    226.8400   7.9375289231e+01   2.0709491611e+01     1.245273    0.9744356 -82.24   0.00805248    1.476    0.322
        25 -16.0012     10.9505    186.9467   8.6624064453e+01   3.3191003088e+01      2.86503     1.557489  15.35   0.01398138    2.035    0.509
        26 -14.7689     23.5944    237.6443   8.5375643535e+01   2.0951736486e+01    0.7341241     0.436446  63.57  0.003754167    1.506    0.336
        27 -14.5203     10.3823    216.0826   8.7781331515e+01   2.6602328951e+01    0.7424856    0.2586449  33.01  0.002890815    2.053    0.513
        28 -15.9462      3.0509    223.1040   8.9730159795e+01   2.5751222055e+01     1.807543    0.4813078 -84.88  0.007289152    3.926    0.745
        29 -15.5785     14.9260    227.2477   8.7034281497e+01   2.3848760793e+01    0.9421414    0.4656278  56.87  0.005187249    1.634    0.388
        30 -15.5968      5.2677    248.9185   8.9764674082e+01   2.0484377554e+01    0.8064425    0.3482919  30.11  0.004535194    1.724    0.420
        31 -16.6979      9.4554    237.5994   8.8590716280e+01   2.2271467656e+01     1.740905    0.5588804  47.29  0.008592485    2.047    0.511
        32 -11.9778    108.4390    240.1190   6.6175484844e+01   1.0909262170e+01    0.3250668    0.1639436  23.46  0.001089926    1.739    0.425
        33 -10.5605    180.8712    240.1619   5.1559219254e+01   2.2984022542e+00    0.1435888   0.09973013   0.84 0.0009904891    1.241    0.194
        34 -11.0708    149.5209    238.9920   5.7405384079e+01   6.0811627719e+00    0.1836807    0.1326188  20.49 0.0008050466    1.102    0.093
        35 -11.3035    103.5959    237.2477   6.6955733347e+01   1.1993873866e+01    0.1889016    0.1531224 -39.77 0.0009482636    1.506    0.336
        36 -10.7087    137.5128    237.2695   5.9646121788e+01   7.7975746986e+00    0.1521487     0.103886 -27.64 0.0008594431    1.674    0.403
        37 -10.9292     80.1663    237.0531   7.2245147809e+01   1.4882753094e+01    0.2530999    0.1440416   4.75  0.001192607    2.592    0.614
        38 -11.3161    210.2343    235.7897   4.5875874855e+01  -2.7805063248e-01    0.1508368    0.1211123   0.45 0.0007985069    1.186    0.157
        39 -10.5677    196.7007    233.9944   4.7914722459e+01   1.3682889510e+00    0.1804447    0.1301313 -47.60 0.0008803274    2.012    0.503
        40 -11.8977    194.8778    229.3274   4.7581947712e+01   2.1735413210e+00    0.2120229    0.1576852 -16.23 0.0003947433    1.203    0.169
        41 -11.6233    182.5759    232.4483   5.0214807765e+01   3.1400300935e+00    0.2039564     0.172937  23.04 0.0009092308    1.332    0.249
        42 -11.6015    178.0721    228.4952   5.0501297225e+01   4.2066747836e+00    0.1696244    0.1345036 -16.21 0.0003685108    1.205    0.170
        43 -10.9190    150.3011    229.6672   5.6071848982e+01   7.3986123503e+00     0.111619   0.08711263  50.06  0.000635563    1.653    0.395
        44 -11.1009     78.7097    228.3817   7.1837772319e+01   1.6681181264e+01    0.2083727    0.1649885  58.76 0.0005024223    1.284    0.221
        45 -12.2339     81.2102    225.5826   7.0991605768e+01   1.6910681365e+01    0.2528821    0.2232143  -6.99  0.001195488    1.345    0.257
        46 -12.4659     80.1670    221.8373   7.0894296944e+01   1.7771265311e+01    0.2966087    0.2111757 -49.57  0.001658025    1.722    0.419
        47 -12.6088     77.1391    218.9317   7.1359476280e+01   1.8729492673e+01    0.3190008    0.2126781  52.35  0.001022689    1.413    0.292
        48 -11.9484    230.7514    227.9931   4.1521784514e+01  -1.4017127221e+00    0.2109239    0.1268604 -12.29  0.001456974    1.394    0.283
        49 -10.6629     97.7640    227.9929   6.7339130330e+01   1.4372766888e+01    0.1411067    0.1091234 -62.89 0.0006334684    1.595    0.373
        50 -10.7736    120.8549    227.1567   6.2017817932e+01   1.1556025148e+01    0.1682027    0.1293605   6.10 0.0003933494    1.312    0.238
        51 -12.6489    106.5317    226.5121   6.5166509937e+01   1.3519941609e+01     0.279719    0.2096213  18.24  0.001712788    1.233    0.189
        52 -11.4555    129.1891    225.9337   6.0042303965e+01   1.0686922559e+01    0.2182572    0.1559065 -21.36 0.0008474166    1.630    0.387
        53 -11.6062    116.1739    226.0644   6.2932813064e+01   1.2352354857e+01    0.1926448    0.1560809   5.71   0.00122661    1.247    0.198
        54 -10.3954    182.4827    225.5206   4.9269334321e+01   4.1058508383e+00    0.1156573   0.09073917   5.00 0.0003174768    1.007    0.007
        55 -11.4446    173.3972    224.8030   5.0867033084e+01   5.2908959423e+00    0.1918893    0.1575881   4.71 0.0003765964    1.049    0.047
        56 -13.3919    174.2385    220.1490   5.0047916532e+01   5.8697379515e+00    0.2776512    0.2479764 -32.85 0.0007494313    1.381    0.276
        57 -12.2300    160.1384    223.0390   5.3203908029e+01   7.1900568568e+00    0.3273112    0.2400725  25.21   0.00213867    1.175    0.149
        58 -11.4896     91.8753    224.4188   6.8349899794e+01   1.5789382584e+01    0.2146398    0.1851836 -50.23 0.0007318485    1.405    0.288
        59 -11.9264     69.0566    224.2774   7.3798178072e+01   1.8655957642e+01     0.270644    0.2091502  83.74  0.001656848    1.486    0.327
        60 -11.5546    212.1163    223.3936   4.3805018751e+01   1.0580851340e+00     0.244409    0.1422347 -22.00  0.001045497    1.549    0.354
        61 -12.0599    245.9818    220.9395   3.8252190459e+01  -2.0502384263e+00     0.203527    0.1112108 -21.24  0.001236698    1.473    0.321
        62 -12.1874    124.3936    221.9467   6.0604275061e+01   1.1999300393e+01    0.3753288    0.1651458  35.35  0.001796509    1.877    0.467
        63 -13.2363    121.2572    215.3708   6.0485060476e+01   1.3592448455e+01    0.5383712    0.3422893  76.14  0.002462102    3.114    0.679
        64 -11.4506    193.3219    219.9808   4.6514303591e+01   3.6069405487e+00    0.2086505   0.09939016 -47.30  0.001096888    2.680    0.627
        65 -10.7407     97.3093    220.3093   6.6636551257e+01   1.5868954955e+01     0.125164   0.09449787  -5.94 0.0003007364    1.619    0.382
        66 -12.8179     51.6024    209.2345   7.6971685160e+01   2.3869830961e+01    0.5519291    0.1224546  41.96  0.001954067    3.068    0.674
        67 -11.4716     48.9808    199.9984   7.6950500506e+01   2.6234784954e+01    0.2057802    0.1719767  43.41  0.000393559    1.045    0.043
        68 -12.8379     62.6166    216.4541   7.4739090852e+01   2.1024833096e+01    0.4612898    0.2404831  54.98  0.002262131    1.869    0.465
        69 -12.7079     66.8954    216.1276   7.3642057636e+01   2.0573376314e+01    0.5336143    0.2810743  60.58  0.002549768    2.105    0.525
        70 -13.1596     57.3491    207.3362   7.5332169110e+01   2.3605511394e+01    0.7366205    0.3497854  55.98  0.002178289    2.111    0.526
        71 -12.6356     52.2658    204.0312   7.6395085277e+01   2.4940663687e+01    0.3679688    0.1952324  33.59  0.001454704    1.545    0.353
        72 -13.6222    144.7508    214.8746   5.5243924534e+01   1.0503484498e+01    0.8075729    0.5096378  56.80  0.004091036    2.476    0.596
        73 -12.4773    129.6058    216.7797   5.8790890988e+01   1.2211237566e+01    0.2440158     0.177346   3.89 0.0008700586    1.465    0.317
        74 -11.3421    225.7676    216.1911   4.0557793940e+01   5.1294600496e-01    0.1619945    0.1240753  17.03 0.0003942644    1.310    0.237
        75 -10.7464    207.2939    216.0136   4.3514553913e+01   2.5418845639e+00    0.1506266    0.1163896  -9.03 0.0003817323    1.061    0.058
        76 -10.7338    161.8439    215.8445   5.1851750766e+01   8.0921053857e+00    0.1492995    0.1322225  31.05 0.0002577474    1.279    0.218
        77 -10.8554    154.4212    216.4796   5.3447496876e+01   8.9574159410e+00    0.1635736    0.1439316  47.27  0.000127614    1.425    0.298
        78 -11.5556    156.1140    213.3166   5.2650010564e+01   9.2470516398e+00    0.3384016    0.2527106 -69.32   0.00196835    2.174    0.540
        79 -11.3519    142.6067    205.3312   5.4349216080e+01   1.2443852089e+01    0.3207521     0.170665  46.09 0.0007898523    2.118    0.528
        80 -12.2521    107.9908    215.0181   6.3512921923e+01   1.5456077981e+01    0.2590457    0.2009675 -78.05  0.001019078    1.676    0.403
        81 -12.5188     84.2105    214.5000   6.9189724702e+01   1.8719055426e+01    0.6489471    0.2233372  36.26  0.002686947    2.225    0.551
        82 -10.9780    247.6100    213.1882   3.6873105443e+01  -1.3213040878e+00    0.1411369   0.07284509 -23.66 0.0004920992    1.576    0.366
        83 -12.6533    123.7615    210.5828   5.9292323396e+01   1.4126340552e+01    0.3135178    0.2302924  79.56  0.001087848    2.120    0.528
        84 -11.0198    209.5237    211.5039   4.2458972435e+01   2.8885472074e+00    0.1117812   0.08803398  -4.04 0.0002140042    1.030    0.029
        85 -11.3455    187.3289    211.2258   4.6287057356e+01   5.5634659925e+00    0.1775436    0.1230017 -17.51 0.0006351703    1.355    0.262
        86 -10.8174    170.1955    210.1210   4.9358624557e+01   7.9051565804e+00    0.1477883     0.135739  29.73 0.0003871337    1.320    0.242
        87 -12.1199    160.5273    207.0116   5.0821563613e+01   9.6866230334e+00    0.4054662    0.2601013 -69.79  0.001922251    3.248    0.692
        88 -11.7372    157.4941    206.5030   5.1366687112e+01   1.0182398194e+01    0.2117105    0.1942596  -0.30  0.000689224    1.135    0.119
        89 -12.1223    229.3403    208.6213   3.8858020416e+01   1.0765705780e+00    0.2374825    0.2346401  75.43  0.001374473    1.908    0.476
        90 -11.6644    230.1413    204.1522   3.8043153010e+01   1.5529076077e+00    0.1973012    0.1247071 -20.03 0.0003240824    1.304    0.233
        91 -11.2530    225.6228    204.2831   3.8755554972e+01   2.0295523075e+00    0.1697407    0.1390538  17.22 0.0006109584    1.336    0.251
        92 -12.6391    180.4243    207.2121   4.6953758008e+01   7.0295101604e+00    0.4229595    0.2610526  43.50  0.002414849    1.957    0.489
        93 -12.1589    104.0866    206.3632   6.3394551567e+01   1.7676017143e+01    0.3892332    0.3430911  50.85  0.001586543    1.158    0.137
        94 -11.4604    103.5828    201.7545   6.2938579146e+01   1.8675763522e+01    0.2586425    0.1607381  50.44 0.0008947328    1.655    0.396
        95 -11.6197     63.1972    207.5145   7.3831423823e+01   2.2854519347e+01    0.3585659    0.1603455  89.95  0.001392545    3.443    0.710
        96 -12.8378     44.3888    200.8338   7.8245101084e+01   2.6571796577e+01    0.3433457    0.2666105  14.52  0.001359972    1.437    0.304
        97 -11.3062     97.5674    212.3781   6.5694191990e+01   1.7374580877e+01    0.3787449    0.1978711 -83.17  0.001547347    3.529    0.717
        98 -12.1866    116.7477    204.6524   6.0134678944e+01   1.6230601463e+01    0.2406174    0.1890363 -74.44 0.0008507397    1.639    0.390
        99 -12.2352    111.0224    204.8169   6.1521317529e+01   1.7009293302e+01    0.2107596    0.1929816 -45.56 0.0005891323    1.252    0.201
       100 -13.2793     75.5656    185.3980   6.8240109134e+01   2.6210313729e+01     1.718941     0.919439  85.25  0.006826716    2.845    0.648
       101 -11.5100     65.5368    183.5074   7.0830416106e+01   2.8019761026e+01    0.4111674    0.3338234  79.37  0.002250389    1.268    0.212
       102 -12.4052     63.4460    177.1523   7.0720113332e+01   2.9831380909e+01       0.5717    0.1897559  35.58  0.001948983    2.422    0.587
       103 -11.5593     91.0565    189.2550   6.4529668290e+01   2.3131581184e+01    0.2503761    0.2110979 -75.41 0.0006002021    1.334    0.251
       104 -12.1371     86.8019    202.0294   6.7191521045e+01   2.0958640187e+01    0.4549784     0.234247  61.15  0.001529215    2.628    0.620
       105 -12.5761     91.4242    199.5517   6.5719572595e+01   2.0846294141e+01     0.655642    0.3187014 -38.31  0.002634902    3.081    0.675
       106 -13.1374     94.7901    193.2762   6.4073110288e+01   2.1712599771e+01     0.792769    0.2831822  36.27   0.00264343    2.307    0.567
       107 -11.3347    239.9917    203.4811   3.6479081218e+01   5.9234595743e-01    0.1454498   0.09124053  22.43 0.0004361063    1.579    0.367
       108 -12.5924    145.7690    201.5496   5.3102721082e+01   1.2666499375e+01    0.3316483    0.2596486  56.74  0.001322584    1.651    0.394
       109 -10.9672    166.9984    202.3193   4.8800210001e+01   9.5760055480e+00    0.1758827    0.1390825  20.34 0.0004104751    1.126    0.112
       110 -11.8148    212.5360    200.3677   4.0220764924e+01   4.0454334192e+00    0.1969824    0.1798292 -15.17   0.00067383    1.366    0.268
       111 -11.4982    138.0296    197.0328   5.4130432739e+01   1.4602456687e+01     0.207817    0.1482342  -4.32 0.0004558196    1.657    0.397
       112 -10.8965    136.8338    200.8461   5.4967710956e+01   1.4072074950e+01    0.1991154    0.1661362  88.84 0.0003713267    1.710    0.415
       113 -10.9558    134.5138    197.5097   5.4996680495e+01   1.5028073440e+01    0.2004812    0.1602875  59.21  0.001148397    1.546    0.353
       114 -13.0437    121.8950    196.6423   5.7802876970e+01   1.7048975781e+01    0.3391652    0.2926135  11.29  0.002048689    1.134    0.118
       115 -13.2817    173.7301    195.9780   4.6466750717e+01   9.6851561912e+00    0.4598326    0.3318115  59.29   0.00252708    2.277    0.561
       116 -11.3303    180.7508    199.4040   4.5668835098e+01   8.1886930610e+00    0.1977584    0.1445046   6.46  0.001231965    1.288    0.224
       117 -12.2356    201.9709    196.3206   4.1342448102e+01   5.9049576518e+00    0.2357032    0.1607145 -32.63  0.001517412    1.370    0.270
       118 -12.5536    110.5709    196.0793   6.0462893699e+01   1.8826292267e+01      0.25204    0.2316578   3.68 8.832433e-05    1.137    0.121
       119 -12.2025    192.8467    194.0440   4.2572572276e+01   7.4138563622e+00     0.310972    0.2122935 -12.87  0.001421461    1.441    0.306
       120 -11.5557    189.4922    192.9867   4.3004721712e+01   8.0189828142e+00    0.2279172    0.1121611 -46.18  0.001148956    2.249    0.555
       121 -11.3120    149.6536    196.3082   5.1461127453e+01   1.3040640945e+01     0.126202   0.09873044  58.50 0.0003307451    1.702    0.412
       122 -10.8332    153.3497    195.7024   5.0575549946e+01   1.2613246874e+01    0.1245288   0.09836152  57.62 0.0007035245    1.684    0.406
       123 -10.5342    245.4758    194.4279   3.4272569376e+01   1.1301392833e+00    0.1060443   0.07890328 -13.43 8.776716e-05    1.016    0.016
       124 -12.4789    133.2345    190.6436   5.4245160721e+01   1.6526182737e+01    0.3095354    0.2468126 -14.53   0.00176698    1.382    0.276
       125 -13.0409    132.4321    185.6141   5.3640111666e+01   1.7631533916e+01    0.3387459    0.2682458 -31.04 0.0002716984    1.361    0.265
       126 -13.5356    126.7310    186.4404   5.5119434163e+01   1.8348020213e+01    0.6656132    0.2180459  38.48  0.002457426    2.710    0.631
       127 -13.3422    110.2453    187.7691   5.9367808362e+01   2.0600586518e+01    0.5492815    0.3119105 -81.40  0.002086274    3.231    0.690
       128 -11.7968     48.3897    182.4966   7.5639163253e+01   3.0432598766e+01    0.5430935    0.1498852  38.60  0.001624913    2.668    0.625
       129 -12.1861     50.7700    189.9852   7.5629273229e+01   2.8348275213e+01     0.374625    0.2146705  42.76 0.0009362035    1.454    0.312
       130 -11.8681     54.2558    185.0850   7.4197077622e+01   2.9091756890e+01    0.3084266    0.2207358  16.64 0.0005739426    1.536    0.349
       131 -10.9362    174.4385    188.8273   4.5153177869e+01   1.0759688157e+01    0.1749103    0.1080365 -28.63 0.0006484093    1.655    0.396
       132 -11.4487     97.1533    188.5083   6.2829661958e+01   2.2403640918e+01    0.2138584    0.1941556 -66.85 0.0005369214    1.233    0.189
       133 -11.4087    206.9522    188.3103   3.9172839401e+01   6.4371773496e+00    0.1622017    0.1322112   5.45 0.0005208581    1.110    0.100
       134 -11.8808    195.2009    186.9467   4.0968778686e+01   8.1826660898e+00      0.22094    0.1663055  38.39 0.0008761531    1.512    0.338
       135 -12.4663    191.1909    183.8155   4.1152414979e+01   9.2160355913e+00    0.3561028    0.2282553 -17.88   0.00201566    1.635    0.388
       136 -12.9677    248.7037    185.3886   3.2369948510e+01   1.9071692828e+00    0.2368789     0.167646  -3.54 0.0005709862    1.250    0.200
       137 -12.0159    156.8462    185.8558   4.8234903233e+01   1.3850266601e+01     0.243799     0.174034   4.38  0.001325828    1.560    0.359
       138 -16.5552     22.4960    215.6512   8.4764843287e+01   2.5573525132e+01     3.348108     1.348933  63.56   0.01527703    2.357    0.576
       139 -10.7803    163.8902    184.8785   4.6601302352e+01   1.2969537396e+01    0.1635883    0.1524076  45.82 0.0004022237    1.291    0.225
       140 -11.9244    137.3988    182.7529   5.2021098941e+01   1.7421060263e+01    0.3662955    0.1780975 -37.76  0.001438644    2.414    0.586
       141 -12.5851    100.5046    181.7333   6.1001087650e+01   2.3392332285e+01    0.4164705    0.2687732 -64.98  0.002027074    1.772    0.436
       142 -12.2905     94.2599    181.8676   6.2681653153e+01   2.4309904035e+01    0.5599537    0.2932888 -73.38  0.002306529    2.571    0.611
       143 -11.9870    142.1313    181.5359   5.0736402563e+01   1.6916520519e+01    0.2670113    0.1910994 -49.86 0.0004419067    1.517    0.341
       144 -11.7112    232.7939    181.0991   3.3903244596e+01   4.2605766248e+00    0.2010543    0.1655392 -43.19 0.0008844669    1.560    0.359
       145 -13.9729    117.7457    179.5906   5.6238218212e+01   2.1167759174e+01    0.7121103    0.3605671  49.77  0.002122346    2.226    0.551
       146 -11.6812     88.6939    180.9506   6.4061861446e+01   2.5350695667e+01    0.4346174    0.2446708  63.12  0.001803043    2.334    0.571
       147 -11.2281    222.5178    180.4757   3.5341268291e+01   5.5922719727e+00    0.1152691   0.09178413 -14.41 9.139309e-05    1.005    0.005
       148 -10.8100    198.3635    180.2321   3.9260145220e+01   8.7861975972e+00    0.1565587      0.10472 -42.41 0.0002728628    1.538    0.350
       149 -15.4944     34.9659    228.5738   8.2318566841e+01   2.1620078077e+01     2.906093    0.5043424 -71.26   0.01004176    5.445    0.816
       150 -14.6201     36.0901    249.0558   8.3020552418e+01   1.7555359573e+01    0.9137359    0.3643247  38.48  0.002547598    1.693    0.409
       151 -13.0961    131.4392    169.1768   5.1113435208e+01   2.1127829792e+01    0.3844121    0.2037753  38.90  0.001250174    1.776    0.437
       152 -13.1154    122.3669    167.8222   5.3115932242e+01   2.2934193371e+01    0.5598577    0.2710477  24.88  0.002122553    2.569    0.611
       153 -13.4786    126.7512    176.5707   5.3521295065e+01   2.0360183690e+01    0.4359525    0.3246565  22.95  0.001342929    1.337    0.252
       154 -12.8295    125.9342    172.0593   5.2959233263e+01   2.1436937058e+01    0.2924349    0.2395567  17.64 0.0004188703    1.244    0.196
       155 -13.2886    147.8480    174.8969   4.8311602913e+01   1.7289369719e+01    0.7594203    0.3717722  56.68  0.002606652    4.090    0.756
       156 -12.3851    154.1480    175.1036   4.6964118463e+01   1.6243103502e+01    0.3248064     0.193157 -39.99  0.001009447    1.715    0.417
       157 -12.6468    152.8044    170.3011   4.6396815088e+01   1.7369057396e+01    0.2876881    0.2578315 -45.14 0.0009437962    1.194    0.163
       158 -12.9832    152.1024    164.8196   4.5542446953e+01   1.8541422083e+01    0.3074712     0.292404 -21.02 0.0008060133    1.064    0.060
       159 -12.2190    137.3441    176.9840   5.1067399466e+01   1.8569079449e+01    0.2652889     0.207068  48.86 0.0007435385    1.363    0.266
       160 -10.6799     52.9956    177.1907   7.3787290570e+01   3.1173112206e+01     0.191658    0.1014573  29.38 0.0002859953    1.727    0.421
       161 -12.0824    247.8730    175.5176   3.0848384531e+01   3.2483356130e+00    0.2732297    0.1491363 -21.38 0.0008478356    1.637    0.389
       162 -12.7808    106.4725    175.7656   5.8530631042e+01   2.3788475841e+01    0.3102804    0.2325978  35.04 0.0007578236    1.218    0.179
       163 -11.6121    242.4646    175.2771   3.1544103468e+01   3.8988490122e+00    0.1751672     0.137656  15.72 0.0007429901    1.338    0.253
       164 -13.9437      5.0909    160.8530   8.7304848905e+01   4.0187797815e+01     1.309492    0.4236465  62.19  0.004811988    2.876    0.652
       165 -11.8460     11.9263    174.8116   8.5828251726e+01   3.6087928342e+01    0.3958977    0.2085125  85.57  0.001213633    1.817    0.450
       166 -10.3656      7.4436    172.5133   8.7059245684e+01   3.7032056126e+01    0.2350196    0.1285113  17.31 0.0005633535    1.948    0.487
       167 -13.3458     18.1810    168.3463   8.3606819519e+01   3.7181253256e+01    0.6740831    0.4055445  -3.97  0.002448119    2.381    0.580
       168 -12.6978     22.5532    167.4630   8.2202525534e+01   3.7004327237e+01     0.415278    0.2291108  88.81  0.001939244    1.787    0.440
       169 -12.1918    173.1861    173.4569   4.2730348793e+01   1.3561425465e+01    0.2245463    0.2007446 -20.35 0.0002648664    1.074    0.069
       170 -10.5095    167.4167    174.4428   4.4062972191e+01   1.4278345689e+01    0.1292192    0.1170227  -3.45 2.985688e-05    1.012    0.012
       171 -12.9107     80.2661    173.1595   6.5356280957e+01   2.8430037515e+01    0.4460003    0.2838647  15.32  0.001989692    1.906    0.475
       172 -14.2749     84.6001    159.1999   6.2039669416e+01   3.1171698566e+01    0.6744081    0.4208606  52.70  0.003012557    1.617    0.382
       173 -14.6541     83.5205    150.9729   6.1023717959e+01   3.3400456580e+01    0.8426309    0.5548825  27.44  0.001233007    1.575    0.365
       174 -12.8865     76.2842    154.7037   6.3856093943e+01   3.3601156087e+01    0.3959138    0.2434807  45.51 0.0004965464    1.510    0.338
       175 -14.2105     81.4858    145.1951   6.0664426173e+01   3.5201807145e+01      1.06719    0.4893564  17.42  0.003068257    4.265    0.766
       176 -12.2336     91.6346    166.2061   6.1095880871e+01   2.8353340068e+01    0.2640578    0.2028718 -39.19 0.0002472196    1.517    0.341
       177 -13.4747     87.7762    165.0410   6.2019924590e+01   2.9242402742e+01      0.61765    0.3805877  -3.94  0.002283492    3.084    0.676
       178 -12.3441     94.8911    172.1231   6.1092212803e+01   2.6445822377e+01    0.3288965     0.225769  40.05 0.0009818213    1.317    0.241
       179 -12.7560    100.4393    170.9628   5.9392813572e+01   2.5835842140e+01    0.3374821    0.2642691  35.52 0.0006009339    1.176    0.150
       180 -11.6578    163.5011    170.9430   4.4235089906e+01   1.5525158636e+01    0.2270076    0.1819362  28.97 0.0004243424    1.213    0.175
       181 -11.6168    160.3217    168.0948   4.4378479956e+01   1.6562056205e+01    0.2101128    0.1757886  -6.04 0.0008132982    1.213    0.176
       182 -11.6638    156.8434    165.8442   4.4702032752e+01   1.7555707733e+01    0.2058832    0.1950165  -6.81 0.0005953751    1.040    0.038
       183 -11.9611     61.5861    170.9485   7.0551788076e+01   3.1613281544e+01    0.3708441    0.1942252  29.10  0.001437854    1.790    0.441
       184 -11.1927    197.7518    170.2381   3.7591851229e+01   1.0436601878e+01    0.1719203    0.1287684  -7.26 0.0005379849    1.327    0.246
       185 -13.1840     52.4131    167.7239   7.2969898215e+01   3.3624773287e+01    0.6534485    0.2787133  41.53  0.001734766    1.996    0.499
       186 -13.0608     30.5379    167.3981   7.9718358420e+01   3.6229485973e+01    0.4113593     0.312283  48.71  0.001278484    1.140    0.123
       187 -11.9554     40.6891    168.5052   7.6664029415e+01   3.4837982965e+01    0.3035527    0.2253685  39.01  0.001319233    1.208    0.173
       188 -13.0702     90.5332    171.7224   6.2243650971e+01   2.7218161085e+01    0.3892806    0.2876472 -42.27 0.0006481246    1.566    0.361
       189 -12.1226     72.0089    166.5401   6.6872819139e+01   3.1258621065e+01    0.2691444    0.1944858 -51.33 0.0006770281    1.546    0.353
       190 -13.1449    102.3040    165.0834   5.7934218637e+01   2.6891968919e+01     0.496797    0.2875837  20.86  0.001229936    2.099    0.524
       191 -10.9969    201.4686    166.0000   3.6180650464e+01   1.0570807065e+01    0.2524613   0.06839858  40.35 0.0009389464    3.969    0.748
       192 -12.8253    111.4680    164.1045   5.5291333212e+01   2.5589779396e+01    0.3767202    0.2530316 -36.15 0.0008205943    1.766    0.434
       193 -12.3104     64.0305    164.3512   6.9000702473e+01   3.2941539392e+01    0.2565522    0.2150129 -83.96 0.0006444972    1.226    0.184
       194 -13.6052     67.7402    159.5181   6.7212163709e+01   3.3648063608e+01    0.6725911    0.4199306 -13.40  0.002580455    2.871    0.652
       195 -12.5004     58.0068    164.6604   7.0894181082e+01   3.3681446919e+01    0.4412691    0.2004291  58.78  0.001617431    2.589    0.614
       196 -11.1228    212.2248    164.0073   3.4046072461e+01   9.3489261511e+00    0.1649186     0.132004 -25.06 0.0002052921    1.066    0.062
       197 -11.9393     41.3015    161.7947   7.5832315578e+01   3.6505606384e+01    0.4236162    0.1669988  49.55  0.001590288    2.360    0.576
       198 -12.3896     47.0235    160.9410   7.3919223889e+01   3.6047016985e+01    0.3614554    0.2154582  52.64  0.001653612    1.556    0.358
       199 -12.6654    169.7925    160.0611   4.0913906812e+01   1.6492719724e+01    0.3167593     0.268892  41.76  0.001187336    1.265    0.210
       200 -12.4938     95.5913    159.0731   5.8812790092e+01   2.9421035237e+01    0.3152969    0.2581907   1.73 0.0003103358    1.490    0.329
       201 -12.8881    135.0811    158.5139   4.8276936020e+01   2.2739484428e+01    0.5630247    0.2627798  53.44  0.002025163    2.992    0.666
       202 -13.4426    118.2080    157.5943   5.2346766520e+01   2.5900614672e+01    0.4496225    0.2911364  44.73  0.002096283    1.497    0.332
       203 -12.4789    105.2949    158.5690   5.5996830998e+01   2.7909811235e+01    0.3599195    0.2495821  75.95  0.001411282    1.950    0.487
       204 -11.1893     23.7649    159.3954   8.1261947716e+01   3.8990699702e+01    0.1894664    0.1350052   7.40 0.0009470062    1.685    0.407
       205 -12.9858     31.7741    156.5756   7.8425635302e+01   3.8934459449e+01    0.4834229    0.3400567  65.38  0.002459495    1.313    0.238
       206 -10.2184    250.4667    157.5207   2.7418485711e+01   5.2878518361e+00    0.1120478   0.08359709 -21.63 0.0003602586    1.044    0.042
       207 -13.1196    121.8403    156.1550   5.1133946299e+01   2.5583534456e+01    0.4393327    0.2789995 -59.15  0.001023729    1.741    0.425
       208 -11.3434    190.6398    155.2443   3.6034227896e+01   1.3963943487e+01    0.2160018    0.1401044 -41.16 0.0006015416    1.446    0.308
       209 -10.7767    141.5045    155.5153   4.6172341796e+01   2.2233068867e+01    0.1401301    0.1363818  23.04 6.612423e-06    1.031    0.030
       210 -11.9831     12.4250    150.0716   8.4381170996e+01   4.2462514250e+01    0.4424154    0.1964983 -56.76   0.00181743    2.453    0.592
       211 -11.1632     14.6106    153.1854   8.3839910944e+01   4.1453908872e+01    0.2768546    0.2167099 -55.49  0.001513216    1.450    0.310
       212 -12.4752     20.0162    154.6518   8.2147406306e+01   4.0594580967e+01    0.4178542    0.2409542  16.65  0.001929699    1.899    0.473
       213 -12.1688     19.7809    150.3797   8.1920996251e+01   4.1757510898e+01    0.3592097     0.250984 -45.73   0.00104425    1.713    0.416
       214 -10.6004     25.0431    153.7026   8.0409234091e+01   4.0378157612e+01    0.1948895    0.1651875  46.40 0.0003999429    1.098    0.089
       215 -12.6965    133.1761    150.2962   4.7138926610e+01   2.4830763842e+01    0.5198466    0.2218912 -56.45  0.001870814    2.810    0.644
       216 -12.2286     37.4715    149.0272   7.5788207234e+01   4.0336920520e+01    0.3707979    0.1814323  47.63  0.001537274    1.866    0.464
       217 -13.5820     51.1655    142.6068   7.0303474017e+01   4.0404517444e+01    0.6582469    0.2857367  34.23   0.00188354    2.070    0.517
       218 -12.6867     40.6290    146.7974   7.4463545348e+01   4.0577629497e+01    0.4710514    0.1949023 -74.18  0.001764925    2.424    0.587
       219 -12.5287     44.1783    145.0095   7.3030075603e+01   4.0638539143e+01    0.4114466    0.2325214 -44.07  0.001181212    2.196    0.545
       220 -11.8675     51.3287    152.4985   7.1541190816e+01   3.7729861940e+01    0.2988584    0.2414581  64.82 0.0007865945    1.156    0.135
       221 -12.3916     53.6318    149.2016   7.0354009648e+01   3.8305825498e+01    0.3390808      0.23005 -55.36  0.001240651    1.581    0.368
       222 -11.9140    171.9882    151.4763   3.8793249063e+01   1.7694828896e+01    0.2546452    0.1850987 -55.92 0.0007268821    1.584    0.369
       223 -12.7854     63.0782    152.1557   6.7655863172e+01   3.6222761871e+01    0.2982306    0.2223443  23.75  0.001445549    1.415    0.293
       224 -11.9463     43.9773    152.0315   7.3924919740e+01   3.8771926013e+01    0.2242777    0.2005269  67.06 0.0003356338    1.021    0.021
       225 -12.5914     69.3372    150.4501   6.5389060313e+01   3.5752979865e+01     0.289879    0.1912065 -74.50 0.0008285064    1.610    0.379
       226 -12.6118     11.9080    161.4628   8.5183653957e+01   3.9499055039e+01    0.7120875    0.2675622  77.28  0.002519709    2.774    0.639
       227 -12.6496    109.2737    149.1623   5.3165675649e+01   2.9421658276e+01     0.386127    0.3167261  43.25  0.001133709    1.162    0.139
       228 -12.4706     27.2235    148.7544   7.9259956038e+01   4.1494487103e+01    0.4222244    0.2962174 -55.62  0.002113304    1.565    0.361
       229 -12.2125      5.4609    149.8545   8.6702374430e+01   4.3045563967e+01    0.2368637    0.1573282  52.20 0.0007091716    1.307    0.235
       230 -11.4288    147.0128    148.7175   4.3543366812e+01   2.2641782342e+01    0.1965817    0.1828652  27.21 0.0003922959    1.066    0.062
       231 -12.5141     96.0451    148.9904   5.6912997445e+01   3.1792532932e+01    0.2353164     0.222521  68.17 0.0006327451    1.035    0.034
       232 -11.2946     32.3682    148.0985   7.7437447243e+01   4.1145022253e+01    0.2201295    0.2073366  -2.04 0.0007169546    1.258    0.205
       233 -11.7950      8.8380    146.5630   8.5395537354e+01   4.3678786240e+01    0.2479764    0.1626826  67.57  0.001260052    1.357    0.263
       234 -13.0891    119.1915    144.2981   4.9507187625e+01   2.8739683975e+01    0.5105575    0.2989081  56.30  0.001351442    2.045    0.511
       235 -10.9215    228.9896    145.2839   2.8052636409e+01   9.7824907256e+00    0.1554759    0.1347182 -16.70  0.000352226    1.096    0.088
       236 -11.8070    170.2882    145.0681   3.7829501747e+01   1.9174331241e+01    0.1955259    0.1739105 -34.30  0.000917153    1.068    0.063
       237 -11.8535    157.7757    145.1002   4.0419032361e+01   2.1409866931e+01    0.2293559    0.1976997  29.64 0.0002823813    1.182    0.154
       238 -13.3421     95.3229    140.1613   5.5458410815e+01   3.4098809817e+01    0.5662463    0.4056681  21.79  0.001653283    1.622    0.384
       239 -12.5024    103.2911    144.9148   5.4036246900e+01   3.1506672907e+01    0.4577855    0.2858657  41.66 0.0009843527    1.519    0.342
       240 -11.8764    101.3512    141.2012   5.3870475140e+01   3.2757451309e+01    0.3029811    0.2527793 -81.88 0.0006591919    1.303    0.232
       241 -13.1135     12.1967    142.4130   8.3985881613e+01   4.4543040091e+01    0.5498571    0.2661836  58.36   0.00237193    1.916    0.478
       242 -11.9092    187.2558    143.2169   3.4247978104e+01   1.6575415177e+01    0.2154642    0.2015286 -43.49   0.00020582    1.142    0.124
       243 -12.4458     58.0075    143.9289   6.8148623730e+01   3.9119698294e+01    0.2328522    0.2177599  61.41 0.0004850919    1.042    0.041
       244 -11.4116     70.6493    143.3230   6.3832092571e+01   3.7417520013e+01    0.1701756    0.1074469  62.23 0.0007048379    1.751    0.429
       245 -11.0386    201.2814    142.0865   3.1618331014e+01   1.4453090489e+01    0.1802866    0.1461949 -32.80 0.0003985823    1.084    0.077
       246 -10.6024    178.2770    142.6361   3.5779049993e+01   1.8218815323e+01    0.1324718    0.1047549 -69.76 0.0007008897    1.671    0.401
       247 -11.3017    166.4396    142.0287   3.7970645472e+01   2.0433038622e+01     0.286996     0.191297 -72.47  0.001247998    2.524    0.604
       248 -11.6666     20.0538    142.0061   8.1186257828e+01   4.4000679177e+01    0.2174552    0.1887197  63.80 0.0003089477    1.019    0.018
       249 -12.4297     41.2578    139.9080   7.3426281940e+01   4.2380130246e+01    0.3061006    0.2500039  -9.37  0.001547656    1.539    0.350
       250 -10.3648    212.3517    138.2689   2.9111302787e+01   1.3310609669e+01    0.1223036   0.08977603  -0.68 0.0005894017    1.627    0.385
       251 -12.2108    129.1385    136.7891   4.5339065235e+01   2.8544763515e+01    0.5516927    0.3121172  27.06  0.001612823    2.303    0.566
       252 -11.4955    128.0457    133.9958   4.5007895057e+01   2.9379007032e+01    0.2616167    0.2135404 -49.66 0.0003443217    1.235    0.190
       253 -10.3284    109.3089    138.3066   5.0989612848e+01   3.1985902930e+01    0.1519547    0.1226095 -11.37 0.0007020126    1.613    0.380
       254 -13.4488     50.9931    136.2320   6.9460661448e+01   4.2161244385e+01    0.7746956    0.2766237 -74.39  0.002471366    3.203    0.688
       255 -12.9307     46.0467    129.6118   7.0288756386e+01   4.4626008628e+01    0.3646947    0.2779207  36.24  0.001214287    1.274    0.215
       256 -13.2826     66.1233    135.5733   6.4050519530e+01   4.0170537726e+01    0.6239306    0.3054858  12.93  0.001903621    3.826    0.739
       257 -12.8273     57.1365    133.8481   6.6906873320e+01   4.1965151234e+01       0.3812    0.2008372  39.06  0.001277979    1.751    0.429
       258 -11.6514     46.5043    136.4877   7.1103575262e+01   4.2674328400e+01    0.2531244     0.145805 -73.29 -4.377681e-05    1.730    0.422
       259 -12.2273     43.7079    134.0280   7.1778893333e+01   4.3700074954e+01    0.2729941    0.2155029 -78.14  0.001016578    1.239    0.193
       260 -11.0030     26.8951    136.1263   7.8191818139e+01   4.4978282822e+01    0.2420153    0.1694263  58.83 0.0006203018    1.329    0.248
       261 -12.9694     13.8615    134.6976   8.2856010873e+01   4.6520344973e+01    0.4247183    0.3149862  48.82  0.001899956    1.236    0.191
       262 -11.9822     20.5241    130.8600   8.0054441775e+01   4.7027868487e+01     0.350682     0.277236 -13.61 0.0009683038    1.567    0.362
       263 -11.8395     16.8052    130.8029   8.1452850423e+01   4.7359135980e+01    0.3603559    0.1450331 -82.12  0.001136975    2.387    0.581
       264 -11.8994    197.2148    134.8799   3.0819344529e+01   1.6317296477e+01    0.2414641    0.1865561  64.77  0.000858741    1.721    0.419
       265 -11.1689    209.9480    134.0016   2.8619601309e+01   1.4365414340e+01    0.1513587    0.1339555 -25.91   0.00049161    1.044    0.042
       266 -13.0730    103.7224    134.0094   5.1700636091e+01   3.4071117090e+01       0.4996    0.2306823  36.67  0.001404452    2.160    0.537
       267 -13.2149     34.7486    131.8562   7.4810138978e+01   4.5345534541e+01    0.5979038    0.3393343   8.40  0.002440889    2.295    0.564
       268 -11.7811    118.7509    135.4499   4.7771271753e+01   3.0857398234e+01    0.2164776    0.1468845  27.83 0.0009477171    1.678    0.404
       269 -11.7841    230.0692    130.5831   2.5080040243e+01   1.1780053140e+01    0.2203353    0.1442734 -34.82 0.0003752489    1.238    0.192
       270 -12.0939    121.8108    128.4863   4.5406198184e+01   3.1856955124e+01     0.347288    0.2024199 -57.07  0.001435424    1.836    0.455
       271 -10.9300    222.1917    133.1367   2.6656956723e+01   1.2583856591e+01    0.1584205    0.1289801 -49.65  0.000354413    1.307    0.235
       272 -12.3272    130.4133    128.5250   4.3178118127e+01   3.0125594610e+01    0.2594261    0.2525791 -63.44  0.001427642    1.024    0.024
       273 -13.1504     82.6719    128.1089   5.7043338765e+01   3.9411447382e+01    0.4571292     0.350839   1.22  0.001969435    1.799    0.444
       274 -13.6454     58.6814    126.0515   6.5035353862e+01   4.3865533802e+01    0.5846168    0.3729462  -6.81  0.002221577    2.648    0.622
       275 -13.0333     53.5796    126.7490   6.7037470771e+01   4.4407822062e+01    0.3649581     0.304551 -19.13  0.001075759    1.493    0.330
       276 -14.5870     76.4794    120.4034   5.7538429853e+01   4.2512329560e+01    0.8696151    0.6201093 -52.81  0.002326049    1.448    0.309
       277 -13.2577     82.7542    114.3467   5.4007342829e+01   4.2961729026e+01    0.7566304    0.2843448 -53.40  0.002509244    2.631    0.620
       278 -11.9841      6.8756    132.2316   8.5267613636e+01   4.7706002488e+01    0.2915954    0.1469765 -52.48  0.001253734    2.178    0.541
       279 -11.4590    169.5361    125.9616   3.3864096326e+01   2.2900026977e+01    0.2098073    0.1308155 -41.42 0.0003164332    1.506    0.336
       280 -12.1210     26.5949    125.0802   7.7128612701e+01   4.8077735447e+01    0.3342118    0.2497767  83.49 0.0008539554    1.273    0.214
       281 -12.6085    186.5687    123.9147   3.0281350578e+01   2.0072252372e+01     0.325846    0.2433323 -20.97 0.0009204437    1.458    0.314
       282 -12.7837     88.7519    135.3752   5.6543341200e+01   3.6470571306e+01    0.5197237    0.2388839  52.11  0.001508568    2.505    0.601
       283 -12.0913      9.9653    125.7427   8.3668005765e+01   4.9280670766e+01    0.2278591    0.1738314 -67.75  0.001208965    1.298    0.230
       284 -11.8715     23.7489    115.9363   7.7209194607e+01   5.0908249355e+01    0.4635078    0.2473601 -61.44 0.0008851574    1.791    0.442
       285 -13.1075     14.4722    119.0118   8.1334004757e+01   5.0823568562e+01      0.52847    0.3054405 -15.06  0.002253846    2.377    0.579
       286 -12.6900     18.5067    114.4835   7.9224409211e+01   5.1771886351e+01    0.3324038    0.2350255  58.81  0.001654811    1.359    0.264
       287 -13.0157     20.6891    122.9597   7.9224097017e+01   4.9213824348e+01    0.3513151     0.275603  26.38 0.0006834722    1.323    0.244
       288 -12.3054      5.0667    122.9147   8.5380881007e+01   5.0384981482e+01    0.3591691    0.2141978  82.77  0.001449078    1.546    0.353
       289 -12.7213    195.0279    122.4790   2.8550670427e+01   1.8787959143e+01    0.2445055    0.2324198 -32.11  0.000360145    1.078    0.073
       290 -13.3544    105.9292    121.5552   4.8276808827e+01   3.6665504059e+01    0.5033298    0.3318509  52.30  0.001021881    1.544    0.352
       291 -12.0963    100.4600    119.5254   4.9452256251e+01   3.8247307997e+01    0.2504406    0.2325709  85.63 0.0005636685    1.061    0.057
       292 -11.4227    224.0990    120.3627   2.3832716802e+01   1.4218081773e+01    0.1571808    0.1451517 -35.55 0.0005130051    1.137    0.120
       293 -11.1469    201.5328    120.4769   2.7088087726e+01   1.7970667726e+01    0.1311154    0.1137905 -35.88 0.0001924893    1.001    0.001
       294 -11.7384     64.2440    118.9967   6.1655621244e+01   4.4930299956e+01    0.2094285    0.1313001 -65.16 0.0008840141    1.598    0.374
       295 -10.6815     47.7676    119.6325   6.8054444598e+01   4.7165948798e+01    0.2186672    0.1310821  40.03 0.0003901768    1.582    0.368
       296 -10.5991     36.2085    119.3784   7.2588761129e+01   4.8662743891e+01      0.21371    0.1271208  38.89 0.0005200222    1.593    0.372
       297 -11.4456     94.6589    117.4071   5.0771979913e+01   3.9912692367e+01    0.3136335    0.2046833 -52.24  0.001348338    1.556    0.358
       298 -12.9737      8.9417    117.0240   8.3416041446e+01   5.1770366110e+01    0.3488875    0.2458148 -38.48  0.001756719    1.638    0.390
       299 -11.4066    241.1695    115.8637   2.0810394387e+01   1.2253729712e+01    0.1736708    0.1355566 -49.48 0.0008386273    1.273    0.214
       300 -13.0306    109.1656    112.6899   4.5172824347e+01   3.8125697572e+01    0.5751384    0.2662042 -60.11  0.001953225    2.643    0.622
       301 -10.2341     29.5614    116.5417   7.4889676799e+01   5.0174880552e+01    0.1495644    0.1363266  77.24 0.0001195012    1.006    0.006
       302 -12.9231     68.0481    114.2013   5.9246983048e+01   4.5600567867e+01    0.4159941    0.2079159 -61.31  0.001584766    1.998    0.499
       303 -12.1477    104.4960    113.9786   4.6883815395e+01   3.8784111397e+01    0.3174288    0.2159549  59.38 0.0009852021    1.600    0.375
       304 -12.0591     58.6075    114.0779   6.2805595330e+01   4.7145302170e+01    0.2729613    0.2251614  28.05 0.0003688389    1.277    0.217
       305 -12.5909    116.6772    112.8966   4.3078655029e+01   3.6497855519e+01    0.2963243    0.2253982  53.37 0.0006203185    1.314    0.239
       306 -12.3780     62.9164    113.1121   6.0949216444e+01   4.6733240301e+01    0.3350637    0.2545356  68.10  0.001227148    1.390    0.280
       307 -12.1860     62.0375    108.5318   6.0304411061e+01   4.8111225727e+01    0.3368762    0.2647418  88.29  0.001192763    1.351    0.260
       308 -11.2287    171.5383    112.5124   3.0381985491e+01   2.5022248783e+01    0.1412876    0.1307903 -42.66 0.0001239345    1.022    0.022
       309 -10.6215    198.5316    111.5056   2.5588441178e+01   1.9994165474e+01    0.1332192    0.1160815 -39.07 7.293246e-05    1.011    0.010
       310 -11.4199     52.4777    110.7916   6.4570945026e+01   4.8955946740e+01    0.2727473    0.2074159  29.84 0.0005702079    1.352    0.260
       311 -13.4043     12.6210    109.5483   8.1215855398e+01   5.3604538515e+01    0.6383221    0.1924868  51.73   0.00202202    3.573    0.720
       312 -13.1804     10.9807    102.0305   8.1187767782e+01   5.5816943783e+01     0.560158    0.3017585 -78.25  0.001184511    1.706    0.414
       313 -12.3859     12.0197     98.3212   8.0310712066e+01   5.6781525839e+01    0.6159887     0.338022   0.32 0.0003818256    2.240    0.554
       314 -11.3184    210.1499    108.6333   2.3262608768e+01   1.8367326793e+01     0.217303    0.1504285 -44.28 0.0005283265    1.250    0.200
       315 -10.6895    101.4712    109.4663   4.6676407262e+01   4.0496672371e+01    0.1600027    0.1507151  78.66 0.0001445443    1.017    0.017
       316 -12.5323      2.4467    107.2804   8.5423419242e+01   5.4859499389e+01     0.312367    0.2277832 -60.22  0.001237632    1.356    0.262
       317 -10.0018    242.7081    107.6934   1.9022076259e+01   1.3171885929e+01    0.1113982   0.08216279 -11.78  0.000325611    1.578    0.366
       318 -12.1616    159.2116    106.5481   3.1324570258e+01   2.8701120757e+01    0.2631008    0.2420852 -55.77 0.0002903458    1.023    0.023
       319 -10.8530     92.5199    105.5106   4.8525600495e+01   4.3298708722e+01    0.1611229    0.1512964  77.83 0.0008102063    1.017    0.016
       320 -12.0465     73.4206    104.6884   5.5050629712e+01   4.7184105804e+01    0.3101224    0.1568551 -63.60 0.0009801502    2.116    0.527
       321 -11.7932    153.8837    101.1810   3.1054697219e+01   3.0891197749e+01    0.4132256    0.2239216 -45.03  0.001754826    1.750    0.428
       322 -12.9495     78.8898    101.3132   5.2176701515e+01   4.7040552015e+01    0.5968597    0.3801192 -84.72  0.001978839    2.216    0.549
       323 -13.8117     77.7950     92.2396   5.0126907810e+01   4.9548187412e+01    0.7042441     0.394626  54.15    0.0017317    1.960    0.490
       324 -12.6106     55.5619    101.4185   6.1328881752e+01   5.1054498573e+01    0.2779491    0.2660592 -86.77 0.0005298104    1.036    0.035
       325 -10.9568     57.3019     97.4623   5.9680260343e+01   5.1846762592e+01    0.6321732    0.2760487  38.51  0.002310999    2.180    0.541
       326 -11.7794     84.8629    101.0056   4.9955619928e+01   4.5956909080e+01    0.2569265    0.2257554  48.26 0.0003370407    1.119    0.107
       327 -12.4558    162.1259     98.8108   2.8803712309e+01   2.9548879345e+01    0.3332357    0.1848938 -54.62  0.001105853    1.931    0.482
       328 -11.2765     97.4746    100.4619   4.5564790854e+01   4.3505185391e+01    0.2649465    0.2349187  54.36 0.0004794268    1.101    0.092
       329 -12.6623     94.4696     98.5064   4.6006856742e+01   4.4609593045e+01    0.5786948     0.296913  40.89  0.001768368    1.966    0.491
       330 -10.9288     31.9836     98.9894   7.1154395911e+01   5.4834945792e+01     0.234781    0.1667124 -38.24 0.0003311484    1.596    0.373
       331 -10.6469     26.7219     99.6134   7.3667223557e+01   5.5204528628e+01    0.2007985    0.1283801  37.69 0.0004583097    1.536    0.349
       332 -11.1551    188.9245     98.2553   2.4028892278e+01   2.4056906621e+01    0.1821685    0.1746768 -66.96 0.0005492985    1.100    0.091
       333 -12.0289    105.0023     97.4787   4.2383649592e+01   4.2590547750e+01    0.2838934    0.2280063 -53.90  0.001348385    1.247    0.198
       334 -11.6919    178.6546     96.5027   2.5261317414e+01   2.6452107243e+01    0.3037607    0.2168897 -62.13  0.001002998    1.494    0.331
       335 -12.2616    156.7024     94.3635   2.8710981475e+01   3.1579144203e+01    0.3001721    0.2294183  69.23 0.0008743501    1.418    0.295
       336 -12.4289     66.6434     94.5353   5.5099168664e+01   5.1046101671e+01    0.2920527    0.2516388 -57.09 0.0009435022    1.172    0.147
       337 -11.5328    168.5311     99.4803   2.7770679945e+01   2.8049363548e+01    0.1442562    0.1318405 -55.42 0.0001893369    1.007    0.007
       338 -10.7970     41.6750     91.6288   6.5227075771e+01   5.5701358660e+01     0.212604    0.1324502  40.06 0.0005885743    1.577    0.366
       339 -10.6337     28.4966     90.4399   7.1255928473e+01   5.7573948153e+01    0.1462636    0.1394997 -70.17 0.0001524651    1.046    0.044
       340 -12.1609    125.6121     87.0789   3.3642374539e+01   4.0180828317e+01     0.429112    0.3861644 -39.05  0.001648588    1.197    0.164
       341 -10.5810     10.8911     87.0840   7.9510822964e+01   5.9971406317e+01    0.5053768     0.232488   1.42  0.001978335    2.728    0.633
       342 -11.7071      3.3971     88.2142   8.3421007564e+01   6.0078557137e+01    0.3417039    0.2322792 -67.93  0.001106165    1.346    0.257
       343 -10.8359      6.2815     86.3071   8.1765616036e+01   6.0456089843e+01    0.2287923    0.1585209 -64.10 0.0001959731    1.335    0.251
       344 -10.5511    171.3371     88.2797   2.4431577060e+01   2.9457693443e+01    0.1360321    0.1135026  15.17  0.000275842    1.617    0.382
       345 -12.0373    149.2903     88.0054   2.8497454384e+01   3.4467413866e+01    0.2425304    0.1965035 -73.40  0.001177172    1.285    0.222
       346 -12.1029    149.5907     83.7193   2.7247190594e+01   3.5207904686e+01    0.4346791    0.1452729 -36.98  0.001378366    3.185    0.686
       347 -10.6269     39.0912     88.1292   6.5660428066e+01   5.6986589048e+01    0.1982293    0.1636024  63.28            0    1.241    0.194
       348 -12.3237     68.8982     86.6374   5.2001374498e+01   5.2659350530e+01    0.2818384    0.2227875 -68.35 0.0002403439    1.299    0.230
       349 -12.4833     54.7365     85.7716   5.7809310986e+01   5.5352674168e+01    0.5368109    0.4401256  11.93  0.002626342    1.429    0.300
       350 -10.8913    177.7108     85.9835   2.2789476172e+01   2.8472251236e+01    0.1753213    0.1161751 -40.32 0.0005358894    1.376    0.273
       351 -10.9034    100.5243     86.5098   4.0569045569e+01   4.6105902719e+01    0.1593595    0.1516124  83.26 4.592259e-05    1.017    0.016
       352 -11.7616    165.1134     84.4951   2.4524136582e+01   3.1506786323e+01    0.2098511    0.1430449  59.96 0.0007042822    1.550    0.355
       353 -10.9537    134.1400     84.1128   3.0707403694e+01   3.8770033065e+01    0.2177151    0.2104544  36.30   0.00047205    1.184    0.155
       354 -13.0383     64.5934     82.4598   5.2560589661e+01   5.4505688116e+01    0.5922319    0.4015858   5.35  0.002327786    2.411    0.585
       355 -11.4373    215.9491     80.2251   1.6222085052e+01   2.1664038006e+01    0.2162741    0.1526643 -40.09 0.0003871861    1.176    0.150
       356 -10.4011     94.7766     80.9668   4.0700320008e+01   4.8652914663e+01    0.2030203    0.1300895 -48.61 0.0004071467    1.582    0.368
       357 -13.5917      6.8023     78.0403   8.0496553132e+01   6.2687107111e+01    0.5150558    0.3544229 -26.55  0.001778356    1.603    0.376
       358 -12.7077    115.1142     75.8739   3.2960416303e+01   4.4989917104e+01    0.5519109    0.3708142 -19.02  0.001685431    2.391    0.582
       359 -11.7366     88.1698     79.1549   4.2370680296e+01   5.0532390473e+01    0.2330402     0.224684  -3.03 0.0006720728    1.196    0.164
       360 -10.6772     52.1534     79.4304   5.7219066779e+01   5.7412526805e+01    0.2122329    0.1372478  46.33 0.0004412533    1.561    0.359
       361 -11.5735    160.9917     77.4929   2.3359503125e+01   3.3683685498e+01     0.218111    0.1428821  60.40  0.001032063    1.590    0.371
       362 -12.4294    224.7075     80.0079   1.5208760040e+01   2.0088643754e+01    0.2240369    0.1868041 -49.73 0.0004083515    1.055    0.052
       363 -11.8184    206.6985     75.0105   1.6094829579e+01   2.4219163503e+01    0.1901528    0.1447446 -43.76 0.0003903715    1.105    0.095
       364 -11.1942     86.6548     75.0086   4.1541740495e+01   5.1807707991e+01    0.3208617     0.207915  19.41   0.00117356    2.680    0.627
       365 -11.5001    106.4509     73.1918   3.4526237236e+01   4.7623762808e+01    0.3947586    0.2625781  82.36  0.001587969    2.043    0.511
       366 -12.0165      2.9138     72.6537   8.1990527170e+01   6.4332018954e+01    0.3469715    0.1518199 -60.98  0.001479629    1.990    0.498
       367 -10.3797    111.5356     72.5734   3.2871968488e+01   4.6526102891e+01    0.1573912    0.1462576  85.93 6.162575e-05    1.009    0.009
       368 -11.5908     68.4937     72.4563   4.7728533337e+01   5.6209912307e+01    0.2699485    0.1529107 -52.89  0.001097311    1.787    0.440
       369 -11.1084     71.1550     69.8205   4.5712879964e+01   5.6293073503e+01    0.2485412    0.1973175  -5.77 0.0006159123    1.763    0.433
       370 -12.2921    188.9920     70.4704   1.7202058415e+01   2.8568397433e+01    0.2608393    0.2196455 -71.11 0.0003976333    1.131    0.116
       371 -12.0333     61.1678     71.1877   5.0496188935e+01   5.7913084499e+01    0.2312643    0.2140149 -16.30 0.0007314979    1.217    0.178
       372 -10.9974    132.9538     70.3472   2.6824129032e+01   4.1704366645e+01    0.2077621    0.1836995  72.45 0.0002976448    1.106    0.095
       373 -11.6227    154.7334     68.3121   2.1875783335e+01   3.6750755579e+01    0.3085701    0.2178392  72.44  0.001506529    1.467    0.318
       374 -12.5931     54.7965     68.2719   5.2477370389e+01   5.9762872507e+01    0.2744202    0.2633843  79.41 0.0002502211    1.035    0.034
       375 -11.2544    165.4288     66.2485   1.9492048028e+01   3.4552630885e+01    0.3762882    0.1181906 -39.77  0.001301661    2.779    0.640
       376 -12.8310     11.1252     62.5223   7.5448559404e+01   6.6580955206e+01    0.5366945    0.3276742 -54.29  0.001159987    1.506    0.336
       377 -10.1898    179.6771     65.7319   1.7238566194e+01   3.1356839242e+01    0.1270089    0.1095108  26.07 0.0002309682    1.566    0.362
       378 -11.0672     67.9960     65.2516   4.5413400575e+01   5.7981533112e+01     0.212848    0.1872794  47.70            0    1.112    0.100
       379 -10.8724     92.1539     63.8485   3.5738583372e+01   5.2954134388e+01    0.2393002    0.2046067 -87.45 0.0004656433    1.225    0.184
       380 -10.2598     39.2372     64.3839   5.9198208684e+01   6.3181471226e+01    0.1528832    0.1047805 -35.92 0.0004117065    1.636    0.389
       381 -11.7781    109.3242     60.0398   2.9192241926e+01   4.9516766079e+01    0.2740066    0.2503456 -62.82  0.001084646    1.088    0.081
       382 -12.4457    110.0065     55.6715   2.7439687137e+01   5.0147039361e+01    0.2469391    0.2096729 -47.82  0.001194715    1.203    0.169
       383 -12.2910     41.6819     59.6501   5.6263516365e+01   6.3988556230e+01    0.3291321    0.2655652  37.11   0.00156904    1.235    0.190
       384 -10.5920    129.8025     59.4373   2.4016749799e+01   4.4456289567e+01    0.1998127    0.1390228  51.72 0.0003365493    1.500    0.333
       385 -12.5648    100.5451     57.5794   3.0788646844e+01   5.2162201001e+01    0.3570979    0.2746406 -45.87 0.0006218679    1.331    0.249
       386 -10.5548     25.2867     59.2681   6.5777296008e+01   6.6203400127e+01    0.1949964    0.1625896  62.16  0.000182756    1.315    0.239
       387 -12.3565     18.9993     49.0085   6.6793646681e+01   6.9397551780e+01      0.66244    0.1618077 -54.16  0.002226373    3.249    0.692
       388 -12.3566     23.8238     55.5828   6.5604883645e+01   6.7285928281e+01    0.3233911     0.266331 -15.77 0.0002905419    1.295    0.228
       389 -12.0680     19.9109     53.0232   6.7399263473e+01   6.8316845301e+01    0.2575182    0.2181686  57.48 0.0003197052    1.295    0.228
       390 -11.4200    198.5965     57.7326   1.2845886719e+01   2.8413351287e+01    0.2274835    0.1542464  57.63  0.001251496    1.716    0.417
       391 -11.2822    182.0330     58.4929   1.5006040658e+01   3.1933268899e+01    0.2020403    0.1319664  66.89  0.001035758    1.618    0.382
       392 -12.0648     36.4901     55.3398   5.7703055183e+01   6.5784915620e+01    0.6118318    0.2384341 -45.36  0.002201498    2.727    0.633
       393 -10.7778     41.6762     53.4025   5.3968992204e+01   6.5471612036e+01     0.295108    0.1295803  38.67  0.001034779    2.217    0.549
       394 -12.6224    193.3208     55.9925   1.2997190832e+01   2.9796042047e+01     0.320334    0.2562433 -12.57    0.0018107    1.650    0.394
       395 -10.7085     54.9362     57.2802   4.8422076454e+01   6.2318209386e+01    0.1778647    0.1291285  42.83 0.0004079732    1.351    0.260
       396 -10.2119    205.2745     54.3595   1.1316490518e+01   2.7486616201e+01    0.1186997     0.100625  -0.46 0.0003959211    1.655    0.396
       397 -12.6415    114.2968     50.3037   2.4395811812e+01   4.9989141629e+01    0.4367415    0.3113052  27.42  0.001397973    2.048    0.512
       398 -12.8689    161.8790     50.8275   1.5611347343e+01   3.7824204127e+01    0.4210906    0.2345769 -26.32  0.001239087    2.133    0.531
       399 -12.1293    120.7344     52.0928   2.3524592884e+01   4.8030977643e+01    0.2569533     0.230431 -80.82  0.000532155    1.033    0.032
       400 -13.1562     30.2512     49.8765   5.9555344641e+01   6.7930493961e+01    0.3925474     0.300707  88.58  0.001290265    1.623    0.384
       401 -11.6829    130.8657     50.8534   2.0924563531e+01   4.5628049826e+01    0.2293535    0.2068923  44.66 0.0007955309    1.293    0.226
       402 -11.8254    173.5984     49.0506   1.3512329085e+01   3.5272626814e+01    0.3136944    0.2345806 -58.45  0.001717558    1.174    0.148
       403 -10.9883    152.1379     49.7792   1.6772840075e+01   4.0388335507e+01      0.18279    0.1737928  36.05 0.0007533001    1.311    0.237
       404 -12.2529    100.1593     49.9899   2.8013282379e+01   5.3647042071e+01    0.3539119    0.2270324  72.00  0.001527133    1.700    0.412
       405 -11.5823     41.6680     47.6924   5.1672974360e+01   6.6774476833e+01    0.3578823    0.2591245 -67.75   0.00176064    1.599    0.374
       406 -11.3690    142.7589     45.4593   1.6940018865e+01   4.3414573268e+01    0.2108176    0.1279746  55.61   0.00095302    1.708    0.414
       407 -11.7415     96.1255     44.1837   2.6864553241e+01   5.5667452041e+01    0.2306617    0.2018586  38.56 0.0006893853    1.275    0.216
       408 -11.5386     29.5700     56.7914   6.2373706316e+01   6.6336505454e+01    0.2542411    0.1792602   3.31 0.0005894628    1.665    0.399
       409 -10.4769    123.5420     39.5233   1.8414463275e+01   4.9290150803e+01    0.1514011    0.1336571 -82.64 -1.357587e-06    1.024    0.023
       410 -10.9643    116.3736     42.3148   2.0954175792e+01   5.0745730693e+01    0.2611643    0.1319236  53.71 0.0005780766    1.940    0.485
       411 -12.5940    119.4365     39.4471   1.9223219850e+01   5.0379488952e+01    0.3502494    0.2846083 -70.81 0.0009700611    1.192    0.161
       412 -12.9562     33.1632     40.3859   5.3780700042e+01   6.9703746778e+01    0.5294189    0.2016706  33.40   0.00201544    2.565    0.610
       413 -11.1710    205.0885     39.5035   7.7124922308e+00   2.9507436479e+01    0.1907197    0.1459039 -49.21 0.0004164389    1.083    0.077
       414 -10.9352    159.9911     31.6658   1.0128078339e+01   4.0965999856e+01    0.2121803     0.169479 -49.35 0.0004522855    1.164    0.141
       415 -11.9698    161.0544     38.4220   1.2038615669e+01   3.9805156088e+01     0.257908    0.2184968 -28.98 0.0003131139    1.352    0.260
       416 -10.8108    157.9949     35.0298   1.1401465843e+01   4.1024782281e+01    0.2128804    0.1803282 -67.34 0.0003667359    1.022    0.021
       417 -11.2438     87.3044     39.3640   2.7515845877e+01   5.8685049789e+01    0.2284838    0.1743424  25.36  0.000710134    1.700    0.412
       418 -13.5098     30.7520     32.9428   5.1881778963e+01   7.1650498632e+01    0.6207854    0.3942652 -20.35    0.0028488    2.132    0.531
       419 -10.4086    126.5292     36.4033   1.6709307993e+01   4.8957050758e+01    0.1483474    0.1313739 -89.69 7.047338e-05    1.023    0.023
       420 -11.2351     79.9642     35.7057   2.8302800094e+01   6.1093902792e+01    0.2705027    0.1827804 -53.58 0.0007817547    1.635    0.388
       421 -11.9613    106.8244     32.4960   1.9278384601e+01   5.4710759440e+01    0.2580583     0.208831 -44.25 0.0006606134    1.277    0.217
       422 -11.6239    114.7632    247.3409   6.5540814138e+01   8.9641350875e+00    0.2985687    0.1405295 -48.69  0.001607649    2.586    0.613
       423 -11.9840      2.1040     30.9701   7.4582799848e+01   7.4969949661e+01     0.225437    0.1866278 -43.01 0.0003294448    1.088    0.081
       424 -10.9503    141.8728     31.1310   1.2346097321e+01   4.5656870704e+01     0.181516    0.1646716  57.59  0.001032012    1.268    0.211
       425 -11.2533     96.8355     31.1410   2.1152741863e+01   5.7519510806e+01    0.1998791    0.1658699  43.36 0.0003336843    1.309    0.236
       426 -10.7805     20.2649     29.6633   5.8214608657e+01   7.3745087109e+01    0.1271636    0.1037412  70.45 0.0001972396    1.588    0.370
       427 -11.1299     82.2933     28.7021   2.4217191559e+01   6.1594247475e+01    0.1463227    0.1092152 -75.67 0.0001988974    1.564    0.361
       428 -12.2270     84.7500     24.3823   2.1386035166e+01   6.1575996676e+01    0.2996835    0.2145956 -71.05 0.0007521822    1.622    0.384
       429 -10.6307    190.5133     23.9346   4.9674612817e+00   3.4626652241e+01    0.1880241    0.1126945 -36.58 0.0004559728    1.504    0.335
       430 -10.7502     70.4719     21.4846   2.4531863927e+01   6.5538751067e+01    0.1426412    0.1307659  59.87 0.0002429989    1.009    0.009
       431 -11.4936     60.7778     20.3901   2.7705013586e+01   6.7998542121e+01    0.2020425    0.1189437  47.21 0.0003935322    1.586    0.370
       432 -11.3583     92.4535     17.8628   1.6231145513e+01   6.0395233437e+01    0.2828452    0.1725195 -50.92  0.001315671    1.757    0.431
       433 -11.6884     80.6573     18.2820   1.9542824434e+01   6.3406360288e+01    0.3409767    0.1815984  59.28   0.00104569    1.665    0.399
       434 -11.5200     79.2742     14.9356   1.8205581203e+01   6.4158360139e+01    0.2123908    0.1799949 -79.87 0.0003933327    1.219    0.179
       435 -10.8688    162.9199    246.2825   5.5682576660e+01   3.4838653556e+00    0.1636652    0.1125075  19.69 0.0005005521    1.139    0.122
       436 -10.2199    126.7206     13.2798   8.1454217972e+00   5.1760565236e+01    0.1443224   0.09241042 -65.32 0.0001850834    1.506    0.336
       437 -10.9170     99.9999    246.5127   6.8640659961e+01   1.0859189482e+01    0.1719487   0.09292482   7.41 0.0008103449    2.573    0.611
       438 -11.2535    119.4527    244.5138   6.4253541611e+01   8.8520764760e+00    0.1206253   0.09446112  22.09 -4.482932e-07    1.037    0.036
       439 -11.6376     78.0852    243.1002   7.3212563468e+01   1.4037798937e+01    0.1883189    0.1733505 -34.86 0.0009013271    1.389    0.280
       440 -10.9305    124.8218    249.9138   6.3693190679e+01   7.3718335994e+00    0.1739217    0.1333751   2.39 0.0008855528    1.306    0.234
       441 -10.4049    193.0497    242.5399   4.9704351314e+01   6.7669173839e-01    0.1455078   0.08555049  23.50 9.944915e-05    1.414    0.293
       442 -11.4007    126.3498    241.7298   6.2493920287e+01   8.4595141840e+00    0.1871471    0.1496975  37.01  0.000526315    1.223    0.182
       443 -10.3069    111.3323     11.7334   9.7931112432e+00   5.6035001838e+01    0.1480149   0.09510197 -70.37 0.0002171871    1.582    0.368
       444 -12.3308    139.7444    248.2605   6.0461948782e+01   5.8691342419e+00    0.3105052    0.1927707 -53.61  0.001947385    2.138    0.532
