#   1 NUMBER                 Running object number                                     
#   2 MAG_AUTO               Kron-like elliptical aperture magnitude                    [mag]
#   3 X_IMAGE                Object position along x                                    [pixel]
#   4 Y_IMAGE                Object position along y                                    [pixel]
#   5 X_WORLD                Barycenter position along world x axis                     [deg]
#   6 Y_WORLD                Barycenter position along world y axis                     [deg]
#   7 A_WORLD                Profile RMS along major axis (world units)                 [deg]
#   8 B_WORLD                Profile RMS along minor axis (world units)                 [deg]
#   9 THETA_WORLD            Position angle (CCW/world-x)                               [deg]
#  10 FWHM_WORLD             FWHM assuming a gaussian core                              [deg]
#  11 ELONGATION             A_IMAGE/B_IMAGE                                           
#  12 ELLIPTICITY            1 - B_IMAGE/A_IMAGE                                       
         1 -17.0567    180.3708    134.1687   6.2568523295e+01   1.8734933296e+01     2.642908     1.764117  51.29   0.01236231    1.631    0.387
         2 -13.8312    208.2146      2.5654   2.8294569378e+01   3.3311652358e+01    0.3250352    0.2270747  59.61  0.002084696    1.645    0.392
         3 -11.3748     44.9275    247.0629   1.1323349597e+02   1.5764096906e+01    0.2056797    0.1498253 -75.91  0.001163553    1.419    0.295
         4 -16.9038    243.1991    230.4380   6.9630088841e+01  -8.7351338615e+00      3.28321     1.075717 -37.39   0.01498318    2.675    0.626
         5 -16.6191    183.7909    197.8052   7.5136392717e+01   5.0839820707e+00     1.469113     1.223168 -75.41  0.005892928    1.728    0.421
         6 -17.9251    191.9187    175.6816   6.9134911116e+01   8.0663491511e+00     2.632632      2.06314  52.51   0.01043221    1.540    0.351
         7 -17.7475    141.4527    216.5397   8.7835835817e+01   8.2700355858e+00      4.22184     2.335861 -24.37   0.01646991    2.952    0.661
         8 -17.9177    164.6459    200.6744   7.9825798875e+01   7.6896090661e+00     4.152541     2.120992 -41.55   0.01799561    1.979    0.495
         9 -15.7207     43.7407    150.9057   1.0318052820e+02   3.8998585991e+01     1.830969    0.9738736 -77.62  0.007795303    1.999    0.500
        10 -19.6853     76.2636    203.0407   1.0159862290e+02   2.1512015399e+01     6.586379     5.729226  65.35   0.03413572    1.081    0.075
        11 -13.7190     11.8442    205.5717   1.1733486263e+02   2.8525286167e+01    0.6536284    0.4330615  19.71  0.003771177    1.902    0.474
        12 -12.4117    120.4093    165.3984   8.3800332880e+01   2.3502912575e+01    0.3834519    0.2688902  72.28  0.001593824    1.996    0.499
        13 -11.3944    101.3390    166.3020   8.9122733139e+01   2.6664038207e+01    0.2028461    0.1680964  63.71 0.0007479223    1.301    0.231
        14 -12.5977     37.3384    242.6497   1.1447597119e+02   1.7573919758e+01    0.2771871    0.2074836  64.35   0.00135134    1.105    0.095
        15 -18.7607     64.2892     75.2715   7.8981146492e+01   5.4656790685e+01     13.55592    0.8606169 -48.77   0.02049999   16.367    0.939
        16 -16.8787    160.9282    126.0264   6.4841565351e+01   2.4495331017e+01     1.507852     1.157394 -59.22  0.007243178    1.374    0.272
        17 -14.4101    177.4042    121.5882   6.0246076074e+01   2.1928126934e+01    0.4662445    0.3711138 -75.90 0.0009610957    1.486    0.327
        18 -11.3509    116.2429    224.7219   9.4916379213e+01   1.0573426198e+01    0.1765057    0.1510316  -0.32 0.0004483459    1.327    0.246
        19 -12.0695    113.6515    151.6651   8.2778514130e+01   2.8112406961e+01    0.2825328    0.2474518  79.58 0.0006955578    1.277    0.217
        20 -12.5888    152.1109    150.9135   7.2681862146e+01   2.0816702327e+01    0.2337276    0.2121667 -86.39 0.0003452409    1.247    0.198
        21 -11.5954    137.6070    153.8764   7.6915209595e+01   2.2996902724e+01     0.301851    0.2294231  78.78 0.0003519162    1.798    0.444
        22 -12.6805    134.4154    147.4914   7.6316692810e+01   2.5125422163e+01    0.6652544      0.36976 -55.37  0.002622678    1.905    0.475
        23 -13.0926    108.1942    144.4152   8.2732162626e+01   3.0916024448e+01    0.5398182    0.3912964 -56.73  0.002043911    1.379    0.275
        24 -11.8204     27.9971    145.2179   1.0711891120e+02   4.2110551446e+01    0.2699123    0.1956691  69.08  0.001429408    1.493    0.330
        25 -12.3597    131.7016    140.0854   7.5331281310e+01   2.7410625962e+01    0.4738749    0.3634928 -77.60  0.002131647    1.645    0.392
        26 -12.4773     96.0379    136.9482   8.4608877710e+01   3.4979940806e+01    0.3191694    0.2629612 -22.47  0.001542366    1.383    0.277
        27 -11.9404     43.4620    135.8572   1.0085031925e+02   4.2950105770e+01    0.3086205    0.1977542  10.07  0.001035126    1.978    0.494
        28 -13.9172    136.2372    128.2575   7.1337111861e+01   2.9223217763e+01    0.7901689    0.2021471 -49.77   0.00207165    4.161    0.760
        29 -15.3357    133.6345    116.2903   6.9012869819e+01   3.2463908154e+01     1.106596    0.5630574 -58.43  0.003921324    2.524    0.604
        30 -12.6465    115.7264    127.4150   7.6654047603e+01   3.3605344852e+01    0.3132161    0.2726893 -75.61 0.0006259948    1.267    0.211
        31 -12.4172    121.3850    125.1840   7.4530128390e+01   3.2995059777e+01     0.325836    0.2748162 -69.51  0.001581824    1.301    0.231
        32 -12.0302    109.5685    123.3541   7.7415703147e+01   3.5781624671e+01    0.2631515    0.2251341  52.46 0.0006045539    1.225    0.183
        33 -12.3681     88.0700    121.9105   8.3565444909e+01   4.0108965227e+01    0.4301049    0.2174893 -51.19 0.0007977989    1.894    0.472
        34 -12.6696     76.7707    246.5638   1.0644402568e+02   1.1793429820e+01     0.305613    0.2082698  16.19  0.001649514    1.876    0.467
        35 -11.6275     20.7710    179.5585   1.1306254357e+02   3.3998928885e+01    0.2618686     0.135139 -56.27  0.001020221    1.889    0.471
        36 -13.3108    106.1670    129.5095   7.9901613955e+01   3.4957078230e+01    0.5049763    0.3247038 -48.01  0.002182998    1.519    0.341
        37 -11.0217    120.0494    153.5345   8.1435321871e+01   2.6456666010e+01    0.2255413    0.1537526  39.90  0.000508862    1.479    0.324
        38 -11.3335    108.9609    118.4729   7.6368279934e+01   3.7052819102e+01    0.2289242    0.1548441  39.02 0.0005180904    1.506    0.336
        39 -14.3418    167.4053    112.5696   6.0142521542e+01   2.5905548599e+01     0.462991    0.3488809 -83.75  0.001354311    1.719    0.418
        40 -12.8399     91.9140    109.8383   7.9324274830e+01   4.2319350914e+01    0.4475623    0.3477189  37.64   0.00193664    1.313    0.239
        41 -12.4853    100.9200    151.2185   8.6254372977e+01   3.0530553090e+01    0.4724417    0.3447421 -30.91  0.002131632    1.602    0.376
        42 -13.1000    144.9297    104.1884   6.3054036154e+01   3.2587130304e+01    0.2922482    0.2106768 -60.26 0.0004547237    1.535    0.349
        43 -11.9758     24.2538    104.9279   1.0185493835e+02   5.2676703695e+01    0.2338438     0.190112 -16.91 0.0008065178    1.312    0.238
        44 -11.0432    100.9002    102.2908   7.4499773553e+01   4.2342605485e+01    0.2555571    0.1134414  57.55 0.0005536053    4.386    0.772
        45 -11.5999     29.9251    104.9498   9.9771399700e+01   5.2168298006e+01    0.2007294    0.1788192 -41.65 0.0004430045    1.047    0.045
        46 -13.1684    139.9349    130.1759   7.0862554245e+01   2.8015171539e+01    0.2903399    0.2389925 -32.62 0.0007976051    1.267    0.211
        47 -13.0409     37.5964     95.4454   9.4816107669e+01   5.3695648889e+01    0.3389987    0.2717619 -43.14  0.001749419    1.105    0.095
        48 -13.0792     45.3150     92.9103   9.1241720368e+01   5.3418230255e+01    0.2606937    0.2032998   8.67 0.0006314332    1.371    0.271
        49 -11.1379     17.3920    176.8244   1.1367407582e+02   3.4993433619e+01    0.1807301    0.1014209 -62.56 0.0007011995    1.614    0.380
        50 -11.4018    175.7717     90.7449   5.3043175993e+01   2.8259973045e+01    0.2005847     0.160686 -75.11 0.0005015817    1.338    0.252
        51 -13.1925     97.1118     88.1398   7.1635267773e+01   4.6137265027e+01    0.2927536     0.210685 -24.62 0.0009499504    1.597    0.374
        52 -11.7518     22.2816     84.0054   9.8211176408e+01   5.7808830084e+01    0.1880928    0.1517699 -46.70  0.000391981    1.064    0.060
        53 -10.8805    168.7007     83.7206   5.2594208737e+01   3.1127406261e+01    0.1372825    0.1156806  18.66 0.0001794206    1.541    0.351
        54 -12.2437    114.3888     76.8761   6.3161816510e+01   4.4751610039e+01    0.2712024    0.2002543  58.05  0.001316673    1.427    0.299
        55 -14.1647    152.9867     74.0574   5.3131212188e+01   3.6449055447e+01    0.4056428     0.390297  75.52 0.0008955543    1.042    0.041
        56 -12.9741     51.5717     74.9914   8.3822681170e+01   5.6586746609e+01    0.2520082    0.1982113  22.51 0.0002314541    1.285    0.222
        57 -12.9064      6.3932     74.5153   1.0274041968e+02   6.1071681255e+01    0.2402405    0.1997074  88.27 0.0007851144    1.503    0.335
        58 -10.8968      1.0000    174.8796   1.1766716471e+02   3.6821015208e+01    0.1946969   0.06113403 -76.86 0.0006998638    2.665    0.625
        59 -11.3513    115.2953     72.2963   6.1517134488e+01   4.5388326101e+01    0.1452294    0.1139388  13.19  0.000698474    1.565    0.361
        60 -15.5101    165.8089     61.4993   4.7323204334e+01   3.5497028401e+01     0.998916    0.8788807   2.44  0.004424757    1.478    0.324
        61 -13.8873    170.7279     54.2877   4.4617461525e+01   3.5433183390e+01    0.4111469    0.3763329  69.41 0.0007335143    1.118    0.106
        62 -12.2626    106.6797     61.0660   6.0341521154e+01   4.9207759197e+01    0.2475424     0.188416  58.63 0.0004926025    1.363    0.266
        63 -12.0886     13.5076     59.9688   9.5931921127e+01   6.3729234072e+01    0.1865867    0.1075346 -54.08 0.0005263574    1.541    0.351
        64 -11.9926      8.1530     56.8764   9.7608194196e+01   6.4737311565e+01     0.177463    0.1166171 -29.09 0.0005479322    1.313    0.238
        65 -12.0398     13.6951     55.0471   9.4426416452e+01   6.4715186505e+01    0.1759262    0.1357152 -33.91 0.0004468978    1.058    0.055
        66 -12.6231      2.1474     54.1745   9.9776517138e+01   6.5651498080e+01    0.2345681    0.1628688 -28.21 0.0006239364    1.219    0.180
        67 -11.8460     20.8843     52.9277   9.0321999617e+01   6.4532337531e+01    0.1950612     0.140149 -21.52 0.0004876285    1.227    0.185
        68 -14.9122    179.6363     40.0442   3.9701850720e+01   3.5339051357e+01     0.782046    0.5299085  87.40  0.004278137    1.457    0.313
        69 -14.3751    181.4805     35.1255   3.8252815095e+01   3.5546535311e+01    0.6393324     0.345421 -89.21  0.002970709    2.184    0.542
