#   1 NUMBER                 Running object number                                     
#   2 MAG_AUTO               Kron-like elliptical aperture magnitude                    [mag]
#   3 X_IMAGE                Object position along x                                    [pixel]
#   4 Y_IMAGE                Object position along y                                    [pixel]
#   5 X_WORLD                Barycenter position along world x axis                     [deg]
#   6 Y_WORLD                Barycenter position along world y axis                     [deg]
#   7 A_WORLD                Profile RMS along major axis (world units)                 [deg]
#   8 B_WORLD                Profile RMS along minor axis (world units)                 [deg]
#   9 THETA_WORLD            Position angle (CCW/world-x)                               [deg]
#  10 FWHM_WORLD             FWHM assuming a gaussian core                              [deg]
#  11 ELONGATION             A_IMAGE/B_IMAGE                                           
#  12 ELLIPTICITY            1 - B_IMAGE/A_IMAGE                                       
         1 -11.2264     49.6098     14.3443   5.9059215848e+01   6.6575440894e+01    0.2367089    0.1686736  22.34 0.0008302667    1.210    0.174
         2 -11.7854     32.1142     10.8595   6.5052953302e+01   6.9758806529e+01    0.2332315    0.1972244 -27.37  0.000943955    1.490    0.329
         3 -10.4744     27.2858     12.6139   6.8277846783e+01   7.0240700565e+01    0.1897325    0.1160533  -7.01  0.000272383    1.678    0.404
         4 -10.9742    114.5181      9.4273   3.9335252746e+01   5.3671310532e+01    0.2230557    0.1701121  62.50 0.0006765634    1.086    0.079
         5 -11.7264     56.6117      9.3817   5.4201256801e+01   6.5826188847e+01    0.3586626    0.2003614  36.20  0.001406076    1.511    0.338
         6 -10.8466      3.6875      8.8392   7.9785810058e+01   7.3459908753e+01    0.1882794    0.1194056   7.11 0.0006995961    1.315    0.239
         7 -11.5781     86.1642      7.5790   4.4686051154e+01   6.0080257956e+01    0.3544421    0.1627706  48.84 0.0004380251    1.740    0.425
         8 -10.4538    125.2367      7.4956   3.6912028728e+01   5.1393473106e+01    0.1718957    0.1044713  81.13 0.0007990726    1.616    0.381
         9 -11.2220     38.9625      2.7396   5.7958284362e+01   6.9526967508e+01    0.2998892    0.1299428  44.93  0.001585869    1.964    0.491
        10 -11.3237    113.8826      1.9446   3.7056221062e+01   5.4417348888e+01    0.3280646    0.1384942  63.57 0.0006854004    1.861    0.463
        11 -16.7500     33.2334    237.2104   1.1310135489e+02   1.9227696804e+01     4.605891      1.24716  33.65   0.01859596    3.015    0.668
        12 -14.0553     89.6874    245.3244   1.0133503021e+02   1.0377845040e+01     1.082425    0.5945169 -59.70  0.005482321    2.016    0.504
        13 -13.8076     93.0307    222.3770   9.7777919320e+01   1.4799052672e+01     0.811915    0.4497893  37.88  0.002150281    1.630    0.386
        14 -14.1063     95.0884    229.3528   9.8186599853e+01   1.2968238831e+01     0.642308    0.4951953 -62.94  0.002393221    1.411    0.291
        15 -13.7539     90.7521    228.9152   9.9155292054e+01   1.3688108714e+01    0.5319754    0.4422522 -39.97  0.002528489    1.388    0.280
        16 -16.9556     24.5387    200.9790   1.1218686212e+02   2.8501706923e+01     4.687764     2.819506  70.80    0.0242642    1.655    0.396
        17 -17.0069     10.4723    243.6421   1.1826047533e+02   2.0227581705e+01     4.418254     3.384211 -31.35   0.02484405    2.039    0.510
        18 -12.4369    246.2063    182.8754   5.8243279568e+01  -9.2368133593e-01    0.5815035    0.3512431 -65.56  0.002374924    4.234    0.764
        19  -9.9452     57.5230    174.4864   1.0045747890e+02   3.1421565703e+01    0.1441408    0.1349157 -87.63 0.0008100881    1.001    0.001
        20 -12.1131     19.8819    152.1235   1.0843008416e+02   4.1275135334e+01    0.2609304    0.1779313  28.85  0.001051595    1.615    0.381
        21 -15.8105     18.2276    214.4288   1.1474931794e+02   2.5932049783e+01       2.4192    0.8639103  45.58   0.01071277    2.432    0.589
        22 -11.2915    236.2370    147.2457   5.3036006825e+01   6.6425099884e+00    0.2135883   0.08744561 -49.52  0.000882307    2.430    0.588
        23 -11.7452      4.4122    138.5537   1.1153591460e+02   4.5900043122e+01    0.2672997     0.198908   5.83 0.0009873997    1.629    0.386
        24 -10.1865     28.5061    138.4528   1.0390766677e+02   4.4049501499e+01    0.1401289    0.1241074 -60.69 3.865466e-05    1.029    0.028
        25 -10.3712     46.2531    135.4202   9.7622996363e+01   4.2980391491e+01     0.196539    0.1314664  40.32 0.0005615184    1.601    0.375
        26 -10.6593     10.7932    133.9692   1.0897951832e+02   4.6640963100e+01    0.2252029    0.1351642  75.35   0.00107817    1.979    0.495
        27 -11.5521    245.4707    120.4945   4.6481957049e+01   9.7686276902e+00    0.1277635    0.1034678 -47.02 6.385347e-05    1.009    0.009
        28  -9.8595     91.4619    116.5544   7.8657292283e+01   4.0977261892e+01    0.1528824    0.1467222 -18.58 5.267665e-05    1.026    0.025
        29 -10.7518    103.2994     97.3710   6.9872764496e+01   4.3035260543e+01    0.2805569    0.2382433 -62.66  0.001428173    1.312    0.238
        30 -11.5132    131.8843     92.9979   6.0790625762e+01   3.7862587658e+01    0.3012843    0.2120855  48.63 0.0005908909    1.402    0.287
        31 -11.6283    107.7394     89.5649   6.6333272674e+01   4.3739649763e+01    0.3526485    0.2667351  74.40   0.00163886    1.776    0.437
        32 -10.7761     52.5960     77.4688   8.1654484802e+01   5.6012423142e+01    0.3748958    0.1215612  35.79  0.001350538    3.061    0.673
        33  -9.8694      7.6193     68.5284   9.8607986066e+01   6.2488383551e+01    0.1251038    0.1020115 -40.02 0.0001852503    1.038    0.037
        34 -10.7393    192.0689     66.0269   4.2252626056e+01   2.9008660854e+01    0.1919613    0.1673399 -74.48 0.0002957708    1.014    0.014
        35 -10.0051    204.4948     65.5581   4.0461777396e+01   2.6424567626e+01     0.131525    0.1111083 -71.52 0.0001412113    1.029    0.028
        36 -10.4235     67.1076     64.9541   7.2042666247e+01   5.6215809704e+01    0.1889241    0.1848798  37.16            0    1.218    0.179
        37 -11.6060     99.0623     62.1140   6.0450086412e+01   5.0588665530e+01    0.3409763    0.2800947 -84.23  0.001798917    1.645    0.392
        38 -10.0361     39.2904     44.3682   7.6144741152e+01   6.4050323847e+01    0.1353734   0.08640685 -10.98 0.0007024793    1.712    0.416
        39 -10.8563    151.8715     40.8768   4.2112954765e+01   4.1677120876e+01    0.1961165    0.1732324  77.70 0.0004254954    1.010    0.010
        40 -10.4018    159.0198     40.0217   4.0739668441e+01   4.0127174803e+01    0.1608414    0.1411396  83.28 0.0004399767    1.004    0.004
        41 -10.3544     95.6279     39.1926   5.3703843941e+01   5.4700432504e+01    0.1805649     0.125704 -12.71 0.0009448357    1.750    0.429
        42 -10.7736     40.6952     36.1445   7.2284015966e+01   6.5162892952e+01    0.2093995    0.1566968  31.87 0.0007394466    1.327    0.246
        43  -9.9016    119.3482     35.2735   4.6608738939e+01   4.9915439938e+01    0.1376562   0.09137072  36.90 0.0002553204    1.628    0.386
        44 -10.1301     51.4837     33.4286   6.6511193463e+01   6.3906580419e+01    0.1284144    0.1052973  13.63 0.0001806396    1.027    0.027
        45 -10.2696    140.6727     32.6705   4.1723467785e+01   4.5289685855e+01    0.1342169   0.09328105  36.78 0.0005858897    1.707    0.414
        46 -10.8608     17.8550     31.9101   8.1824018949e+01   6.8634945289e+01    0.1766553    0.1393107  -9.23 0.0003555661    1.007    0.007
        47 -11.2623    153.1744     28.0067   3.8440434851e+01   4.2920051189e+01    0.2094001    0.1614884  72.21 0.0003039717    1.131    0.116
        48 -10.2142    160.3439     27.0371   3.7163924854e+01   4.1374417955e+01    0.1689182    0.1468496 -75.83 0.0003945982    1.103    0.094
        49 -10.2505     46.8468     26.8852   6.5717827381e+01   6.5540798650e+01    0.1499353    0.1384065  19.49 0.0002699808    1.276    0.217
        50 -11.6102     98.4775     23.0467   4.7305076410e+01   5.5973078668e+01    0.2333437    0.1763003  57.01 5.876869e-05    1.165    0.142
        51 -10.4429    142.1674     22.8180   3.8692262470e+01   4.6037098184e+01    0.1741588    0.1342344  49.29 0.0003200357    1.319    0.242
        52 -11.0649     72.9494     22.4933   5.4213209181e+01   6.1372371403e+01    0.1794262    0.1573842  14.78 0.0003499985    1.115    0.103
        53 -10.1392    106.4184     22.4662   4.5260354932e+01   5.4274001774e+01    0.1278804    0.1105312  53.16 8.561365e-05    1.012    0.011
        54 -10.9445     84.8778     20.6346   4.9950281650e+01   5.9140527667e+01    0.1834178    0.1381164  50.59 0.0005216162    1.151    0.131
        55 -11.4910     20.3980     17.4228   7.4170442801e+01   7.0510422968e+01    0.2111815    0.1777127  -0.26 0.0008802188    1.194    0.162
        56 -13.7003    105.4402    246.6868   9.7957118686e+01   7.8912230737e+00    0.5268962      0.44983  80.02  0.003242801    1.349    0.259
        57 -11.1186    151.6136     14.2042   3.4987122558e+01   4.4725240243e+01    0.1512437    0.1225102  -7.55 0.0009504291    1.674    0.403
        58 -11.0336     44.9253     12.8045   6.0259439844e+01   6.7533221072e+01    0.1928777     0.133427  21.08 0.0009747928    1.251    0.201
        59 -11.5032     35.4988     13.0222   6.4501476649e+01   6.9007320968e+01    0.2317907    0.1352939  19.24  0.001189381    1.647    0.393
        60 -13.1373     98.5074    246.3875   9.9476477154e+01   8.9317009868e+00    0.5268863     0.413137 -63.35  0.002409743    1.446    0.308
        61 -10.9537    110.4445    228.1909   9.4410917286e+01   1.0950663719e+01    0.1777504    0.1352403 -79.65 0.0004969346    1.620    0.383
        62 -14.8617      3.4850    231.1903   1.1900673505e+02   2.3549670288e+01    0.9354591    0.3708297 -83.14  0.004536531    2.341    0.573
        63 -11.6031     74.2380    210.3452   1.0084322782e+02   2.0251829129e+01     0.345265    0.1558048  48.63  0.001060479    2.259    0.557
        64 -11.7913     65.1348    203.6094   1.0229860163e+02   2.3106041826e+01     0.312586    0.2455631  62.64  0.001392259    1.248    0.198
        65 -10.0836     68.3707    188.2809   9.9428753469e+01   2.6457287860e+01    0.1453843    0.1109281 -22.28 0.0007013085    1.695    0.410
        66 -11.8367     53.2831    185.5348   1.0312966501e+02   2.9129063694e+01    0.3162133    0.2352146 -66.11 0.0004881156    1.286    0.222
        67 -12.5307     52.0299    180.4843   1.0281457815e+02   3.0571059315e+01    0.4295202    0.3079108 -35.16  0.001870193    1.688    0.408
