#   1 NUMBER                 Running object number                                     
#   2 MAG_AUTO               Kron-like elliptical aperture magnitude                    [mag]
#   3 X_IMAGE                Object position along x                                    [pixel]
#   4 Y_IMAGE                Object position along y                                    [pixel]
#   5 X_WORLD                Barycenter position along world x axis                     [deg]
#   6 Y_WORLD                Barycenter position along world y axis                     [deg]
#   7 A_WORLD                Profile RMS along major axis (world units)                 [deg]
#   8 B_WORLD                Profile RMS along minor axis (world units)                 [deg]
#   9 THETA_WORLD            Position angle (CCW/world-x)                               [deg]
#  10 FWHM_WORLD             FWHM assuming a gaussian core                              [deg]
#  11 ELONGATION             A_IMAGE/B_IMAGE                                           
#  12 ELLIPTICITY            1 - B_IMAGE/A_IMAGE                                       
         1 -12.7379      2.1917     91.6465   1.2442010404e+02   5.5892590287e+01    0.9001608    0.1912253 -75.79  0.003310729    3.857    0.741
         2 -13.4109    206.4936     34.6551   5.4011969041e+01   2.8584924482e+01     1.365675     1.171901  81.14  0.006320534    1.178    0.151
         3 -13.8898    224.9222     15.9796   4.6720827087e+01   2.6067972950e+01      1.24144    0.9738156  26.17  0.001252077    1.566    0.362
         4 -13.2506      2.6944     12.7530   1.0782807167e+02   7.2660431070e+01     1.169744    0.4490953 -61.35  0.005901565    2.353    0.575
         5 -11.1658     73.8226    244.0865   1.2189700836e+02   1.8355312319e+01    0.2803067    0.2221397  83.29  0.002322434    1.299    0.230
         6 -10.1749    205.0003    250.2464   1.0073796649e+02  -1.2914016412e+00    0.1518283   0.06847389  39.84 0.0008946667    1.624    0.384
         7 -11.8866    175.0972    249.5912   1.0551418911e+02   3.2015468437e+00    0.6872435    0.1840437  35.14  0.002567847    4.311    0.768
         8 -11.4714    170.4752    247.3256   1.0601367555e+02   4.1549341060e+00    0.3975716    0.2132577  18.96   0.00198066    3.236    0.691
         9 -11.5086    142.5529    249.1655   1.1086829866e+02   8.0983542155e+00    0.4839969    0.2100276  49.56   0.00274344    1.864    0.463
        10 -12.6023    150.2048    247.0134   1.0936213168e+02   7.2347241553e+00    0.5699701    0.3070235  46.43  0.003629238    1.397    0.284
        11 -11.4747    110.0970    247.5808   1.1614345107e+02   1.2991427250e+01    0.4830973    0.2954688  46.79  0.003387081    1.199    0.166
        12 -11.3045    116.9264    249.8943   1.1520952589e+02   1.1710926953e+01    0.4431038    0.2361016  41.75  0.001952015    1.444    0.307
        13 -11.7559    122.6855    249.1002   1.1417859893e+02   1.0998295886e+01    0.6252382    0.2345604  39.46  0.003319549    2.145    0.534
        14 -11.2927    100.1862    247.9685   1.1782586719e+02   1.4308442933e+01    0.3961459    0.2741973  63.31  0.002988379    1.236    0.191
        15 -10.5174     81.5135    247.9814   1.2090570327e+02   1.6791221523e+01    0.2914266    0.1534128 -79.07  0.001578098    2.288    0.563
        16 -12.3195    101.9882    230.0988   1.1597085773e+02   1.6706008921e+01     0.832796    0.2722048  36.87  0.003699607    3.073    0.675
        17 -11.4814     87.4134    248.5509   1.1997976892e+02   1.5938371481e+01    0.4512511     0.260469  50.86  0.001830783    1.239    0.193
        18 -10.8293     84.1605    230.1113   1.1909976978e+02   1.9169947789e+01    0.2404167    0.2072382  10.19  0.001782452    1.911    0.477
        19 -11.6684     90.5965    223.2875   1.1737881403e+02   1.9386383915e+01    0.4460253    0.3332688 -64.17  0.003042359    1.629    0.386
        20 -12.7332    102.9388    238.1447   1.1653033108e+02   1.5354293448e+01    0.5826306     0.508916  37.86  0.002242688    1.387    0.279
        21 -12.1864     89.1165    239.0472   1.1896613730e+02   1.7119351770e+01    0.6641086    0.3548617  72.99  0.004024853    2.151    0.535
        22 -11.3446     68.1151    245.4098   1.2292011104e+02   1.8870818425e+01    0.2737626    0.1674265  64.51  0.001138305    1.294    0.227
        23 -11.1333     60.3242    247.3289   1.2429916284e+02   1.9531608596e+01    0.3932867    0.2740777  15.57  0.002475337    3.195    0.687
        24 -11.3814     58.6843    244.6688   1.2440481052e+02   2.0131297853e+01    0.3017586    0.2449961 -50.20   0.00242669    2.065    0.516
        25 -11.7541     34.5696    228.1185   1.2743107433e+02   2.5516710938e+01    0.4965841    0.3078038  51.10  0.001828813    1.264    0.209
        26 -12.5539     37.1633    206.3936   1.2575093307e+02   2.8979809938e+01    0.6697149    0.4483308  49.51  0.004912435    1.301    0.231
        27 -12.3323    135.5599    238.1326   1.1090548585e+02   1.0598476287e+01     1.206347    0.4515623 -47.21  0.006125122    3.685    0.729
        28  -9.4937     53.5125    241.1253   1.2503468483e+02   2.1290111099e+01    0.1466756    0.1200316  54.09  0.001105606    1.323    0.244
        29 -12.6193    124.9993    240.4537   1.1295989380e+02   1.1847696739e+01    0.5143976    0.4288946  26.13  0.003919902    1.460    0.315
        30 -10.5765     97.1537    239.4140   1.1762903345e+02   1.5970104429e+01    0.2242694    0.1637666  88.84  0.001167794    1.498    0.333
        31 -10.1886     77.5494    233.5565   1.2051346412e+02   1.9499502215e+01    0.2984414     0.128651  61.11  0.001229405    2.224    0.550
        32 -10.1600     73.8964    237.1827   1.2140149254e+02   1.9403469980e+01    0.2308019    0.1670271  86.44 0.0003719069    1.375    0.273
        33 -11.3014     69.3674    237.0862   1.2215714842e+02   1.9992914316e+01    0.3518766    0.2697544   5.73  0.001624808    2.869    0.651
        34 -14.6529     23.6675    219.9213   1.2884253160e+02   2.8035641969e+01    0.9874188    0.8463563  38.49  0.008437427    1.624    0.384
        35  -9.1542     48.7418    237.4129   1.2559992831e+02   2.2428052951e+01    0.2031856   0.06221411  45.09  0.001121101    2.247    0.555
        36 -12.6613    119.4178    237.5219   1.1363257581e+02   1.3081356242e+01    0.6989065    0.5046266  12.92  0.003463484    2.361    0.576
        37  -9.6382     55.1618    235.5565   1.2443165170e+02   2.1971500219e+01    0.2230674   0.09549413  55.88  0.001075098    1.765    0.433
        38 -10.7288    249.6743    231.8251   9.1125538082e+01  -5.9546755704e+00     0.195988   0.08813633 -17.93  0.001096381    2.640    0.621
        39 -11.0061    113.4370    230.4101   1.1397961584e+02   1.5003866564e+01    0.2291522    0.1750825 -61.45  0.001664444    1.643    0.391
        40 -11.1465     82.6753    240.0341   1.2013153663e+02   1.7826244577e+01     0.382578    0.1847779  57.50  0.001072501    1.698    0.411
        41 -10.1343    153.7999    229.9938   1.0680564119e+02   8.9011630585e+00     0.190602    0.1326301  44.33 0.0003331173    1.107    0.097
        42  -9.8554    123.1800    229.7857   1.1219163295e+02   1.3650210402e+01    0.1730142    0.1250918  58.60 0.0006218232    1.206    0.171
        43 -10.8112     56.6394    228.2612   1.2372163522e+02   2.2973891773e+01    0.2014786    0.1464017  67.76 0.0002675083    1.066    0.062
        44 -11.1352     78.8021    225.8272   1.1969321048e+02   2.0572821895e+01    0.3328276     0.244318 -73.87  0.002467425    1.539    0.350
        45 -11.3171     99.8582    223.8537   1.1576654923e+02   1.7989584119e+01    0.3137645    0.1823259  39.55  0.001944383    1.539    0.350
        46  -9.5774     65.3267    223.6640   1.2189922297e+02   2.2666680810e+01    0.2756909    0.1225639 -55.37  0.001525661    3.091    0.676
        47 -10.6127     71.2560    219.4562   1.2052755343e+02   2.2616359996e+01     0.373377    0.2056601  61.01  0.002366652    1.518    0.341
        48 -10.6848     60.3122    220.2330   1.2253516970e+02   2.3865706681e+01    0.1858661    0.1377475  60.83  0.000328464    1.045    0.043
        49 -10.6121    107.8985    217.0936   1.1362892037e+02   1.7903522875e+01     0.383906    0.1626852  57.47  0.001420701    2.523    0.604
        50 -10.1696     50.7867    218.6300   1.2410502947e+02   2.5284561954e+01    0.2895278    0.1361076  69.63 0.0007257492    2.025    0.506
        51  -9.8534     46.5706    214.5189   1.2458128849e+02   2.6485221645e+01     0.296864   0.08989457  49.13  0.001526996    2.402    0.584
        52  -9.6230    116.4213    216.0506   1.1194079684e+02   1.6787044846e+01    0.2468991    0.1409681  26.96  0.001271649    2.458    0.593
        53 -10.1165     88.2472    212.3497   1.1680277175e+02   2.1534917690e+01    0.2743854    0.1529531 -70.05  0.001355809    2.007    0.502
        54 -10.7898     62.8005    208.6199   1.2121095611e+02   2.5570033566e+01    0.3468367    0.2968042  28.12  0.002142738    1.638    0.390
        55  -8.9142     58.5120    212.5308   1.2229762910e+02   2.5412943587e+01    0.1763449    0.1093558  54.97 0.0006979565    1.244    0.196
        56 -10.2393     55.9206    208.9115   1.2250248927e+02   2.6367124532e+01    0.3879223    0.1526762 -74.82  0.002066768    2.649    0.622
        57 -10.0738    111.0240    211.3845   1.1243397796e+02   1.8367977372e+01    0.1902068    0.1543773  80.76 0.0003901443    1.263    0.208
        58 -10.1014     98.9390    209.4288   1.1450497438e+02   2.0500662283e+01    0.3063564    0.1487451  66.73  0.001315383    2.690    0.628
        59  -8.4442     74.2913    208.6743   1.1907523623e+02   2.4076758099e+01    0.1189241   0.06803524  66.58  0.000701612    1.616    0.381
        60 -14.0314      8.0348    211.8930   1.3111542991e+02   3.0931539571e+01     2.165364    0.8053298 -87.01   0.01292242    2.373    0.579
        61  -9.4414    113.9550    204.4310   1.1108357119e+02   1.9080608169e+01    0.1859367    0.1483679  82.78 0.0004382527    1.313    0.239
        62  -9.3870    106.8271    203.4204   1.1234261496e+02   2.0351388988e+01    0.1884384    0.1449844 -88.20 0.0005802026    1.397    0.284
        63  -8.5607     72.5232    203.4559   1.1894779689e+02   2.5240037169e+01    0.1185097   0.08706228  64.60 0.0001645537    1.081    0.075
        64  -9.9716    250.5311    200.0562   8.5852988600e+01  -2.9793579490e+00    0.1607156    0.1031322 -20.27 0.0006081616    1.559    0.359
        65  -9.5354     47.3697    198.7841   1.2334784756e+02   2.9218986615e+01     0.171348    0.1212342  57.16  0.001077857    1.148    0.129
        66  -9.8511     44.3233    198.3129   1.2388923451e+02   2.9656176780e+01    0.3026097    0.1837589 -44.91  0.001739701    2.949    0.661
        67 -14.8541     14.1615    242.7001   1.3130488214e+02   2.5275902201e+01     2.515794    0.8649959  42.85   0.01629757    2.114    0.527
        68  -8.4014     97.7065    196.2919   1.1331986346e+02   2.2986022631e+01    0.1227782   0.07795396  66.51 0.0002292457    1.553    0.356
        69 -10.2134    249.7242    194.1223   8.4943777214e+01  -2.2230301283e+00    0.2235684    0.1637658   3.79  0.001496327    1.185    0.156
        70 -12.1736     51.1534    191.9305   1.2209328275e+02   3.0059645561e+01     0.422435     0.329083  57.47  0.001411407    1.153    0.132
        71 -10.2403     30.9794    193.3234   1.2607121122e+02   3.2044523471e+01    0.1985022    0.1647479 -78.31  0.000990489    1.385    0.278
        72  -8.7075     38.6211    192.2924   1.2454770216e+02   3.1421040259e+01    0.1155901   0.08569676  70.61 0.0008348353    1.015    0.014
        73  -9.7685     35.2280    192.1849   1.2518976235e+02   3.1809437123e+01     0.172928    0.1414527  39.89  0.001307956    1.482    0.325
        74  -9.8986     25.8105    192.6847   1.2700460812e+02   3.2694972871e+01    0.2337759    0.1570515  55.46    0.0014361    1.232    0.188
        75  -9.1202     21.7066    193.3106   1.2780734422e+02   3.2985812338e+01     0.154341    0.1062439  81.25 0.0002657644    1.138    0.121
        76 -10.3728     19.0556    188.4340   1.2802785451e+02   3.4161193632e+01    0.2847854    0.1248845 -85.80 3.473869e-05    2.007    0.502
        77  -9.1841    191.7241    191.7499   9.4437339343e+01   7.8340502619e+00    0.1561013    0.1389278  53.84 0.0005861978    1.290    0.225
        78 -10.5439      9.8485    186.9561   1.2967636978e+02   3.5291956078e+01    0.2359576    0.1238341 -85.99  0.001387707    1.579    0.367
        79 -10.0359     70.6088    187.0855   1.1777954772e+02   2.8539826527e+01    0.2798959     0.153294  36.68  0.001564236    1.863    0.463
        80 -11.9651     57.4454    184.6543   1.2021967289e+02   3.0697012347e+01    0.3343837    0.2036687  48.34  0.000612653    1.424    0.298
        81  -9.2337     29.0664    184.2436   1.2584641550e+02   3.3974462555e+01    0.2151592    0.1110791 -52.57  0.001203685    2.756    0.637
        82  -9.5938     36.8776    180.3365   1.2401849933e+02   3.3918206806e+01    0.2047046    0.1408595 -77.92 0.0008943949    1.357    0.263
        83 -11.2072    198.0738    245.6567   1.0126803915e+02   2.0053572241e-01    0.2046354    0.1363282  32.39  0.001144271    1.122    0.109
        84  -9.4861     61.1044    177.5398   1.1879224063e+02   3.1641076067e+01    0.1820797   0.09931381  44.73  0.001033476    1.638    0.389
        85 -10.1791     20.0059    168.2089   1.2658843961e+02   3.8031421046e+01    0.1842099    0.1704689 -83.07 0.0006527597    1.384    0.278
        86 -11.4066     12.4288    153.2900   1.2717696791e+02   4.1759780010e+01    0.2823613    0.1571514 -80.39  0.001465989    1.467    0.318
        87 -11.6562     12.2494    171.9987   1.2840372125e+02   3.7975043926e+01    0.4561584    0.3096403 -67.60   0.00327615    1.562    0.360
        88 -12.5047     10.2805    165.0768   1.2839199385e+02   3.9528053064e+01    0.5887939    0.4266462  49.29  0.004408649    1.367    0.268
        89 -11.9371    248.0820    171.6551   8.1056107976e+01   5.9410381850e-01    0.5507861    0.3617396 -23.46   0.00328732    1.480    0.324
        90 -10.8476     69.7139    172.7015   1.1645696601e+02   3.1492440339e+01    0.2137454    0.1840406  74.91 0.0003511686    1.078    0.072
        91 -11.0245     53.9921    171.6711   1.1972100053e+02   3.3701004211e+01    0.3027247    0.2083891  53.57 0.0009906327    1.280    0.219
        92 -10.9745      2.4132    171.9003   1.3034543623e+02   3.8824486137e+01    0.3860824    0.1614142  81.56  0.002024498    2.048    0.512
        93  -9.1265     36.5275    171.5861   1.2340514939e+02   3.5701528854e+01    0.2111236   0.09041065 -89.54  0.001031181    2.469    0.595
        94 -10.2119     27.2003    171.0241   1.2530019425e+02   3.6773209635e+01    0.3179615    0.1884495 -82.58  0.001377603    1.444    0.307
        95  -9.5071     18.4182    172.3147   1.2718282687e+02   3.7355695780e+01    0.1875132   0.09372248  56.63 0.0007052372    1.672    0.402
        96  -9.1069     91.3056    168.4255   1.1123089649e+02   2.9274110896e+01    0.1784829    0.1045073  51.47 0.0008186274    1.542    0.351
        97 -10.2272     39.7483    167.7837   1.2240583729e+02   3.6128793047e+01    0.2483923     0.195542  17.79  0.001113061    1.877    0.467
        98 -12.1642     77.8511    164.6365   1.1372107035e+02   3.2019643297e+01    0.4929497    0.4247025  84.90   0.00296045    1.069    0.065
        99 -11.2263    245.2830    162.3464   7.9678649469e+01   2.2056999046e+00    0.3307423    0.2145148  38.24   0.00163668    1.448    0.309
       100 -10.9347    249.5056    161.5014   7.8837658211e+01   1.5775558702e+00    0.3545867    0.1669882 -35.06  0.001732523    2.183    0.542
       101 -11.0792    247.7810    157.6038   7.8326392051e+01   2.3594813923e+00    0.4100352     0.190063  50.93  0.001889789    2.479    0.597
       102  -9.3935     37.3006    162.0270   1.2242996351e+02   3.7579668729e+01    0.1664538    0.1228908  89.65 0.0007044321    1.128    0.114
       103 -10.3105     23.8524    161.9757   1.2533500581e+02   3.8940793557e+01    0.1717206    0.1381065  65.24  0.000408074    1.153    0.133
       104  -8.6353     42.9783    161.0243   1.2108969190e+02   3.7172948893e+01    0.1401083    0.1117308  78.33 0.0003074663    1.005    0.005
       105  -9.9188     68.1180    166.3083   1.1608359137e+02   3.3009156940e+01    0.1668571    0.1347686  70.45 0.0003593788    1.044    0.042
       106 -11.0730     21.9017    156.1417   1.2531327242e+02   4.0332553533e+01    0.2645553    0.2025463 -86.80  0.001910981    1.120    0.107
       107 -10.4679     25.9024    155.1417   1.2435161791e+02   4.0166864590e+01    0.2000627     0.129519  55.21 0.0005693276    1.391    0.281
       108  -8.8873     91.7021    156.3090   1.0943980617e+02   3.1697033989e+01     0.134687   0.09090195  72.85 0.0001884955    1.595    0.373
       109  -8.4295    228.2876    155.6349   8.1127946981e+01   6.1540496597e+00    0.1221732    0.1052162 -63.06  0.000702298    1.698    0.411
       110 -10.0925     32.0834    153.7442   1.2284942086e+02   3.9856599018e+01    0.1937847    0.1393552 -84.85 0.0004475355    1.167    0.143
       111 -10.9274    249.5291    151.0690   7.6712002300e+01   2.8713901134e+00     0.328162    0.2445322 -20.67  0.001980663    1.255    0.204
       112 -10.9216     92.3226    149.8339   1.0831272350e+02   3.2961624235e+01    0.3266728    0.2753707  62.79  0.001236195    1.085    0.079
       113 -10.8616     23.9937    150.3371   1.2438143290e+02   4.1359941868e+01    0.2765009    0.1366792  64.13  0.001533013    1.919    0.479
       114 -10.5116     80.7303    148.4492   1.1085698082e+02   3.5015364358e+01    0.2283306    0.2021207  82.52 0.0003427189    1.029    0.028
       115  -9.8070     39.2029    148.5800   1.2072175652e+02   4.0224129545e+01    0.2282269     0.173141 -38.55 0.0007414718    1.897    0.473
       116 -11.8537     68.2319    143.7208   1.1319442527e+02   3.7795953161e+01    0.6824094    0.3713096  75.04  0.002993467    2.398    0.583
       117 -12.6524      9.1971    143.0881   1.2717796226e+02   4.4163362953e+01    0.4768994    0.2079442 -72.07  0.002694911    1.870    0.465
       118 -12.8570    248.2215    134.6207   7.3417857474e+01   5.2376422036e+00      1.46403    0.5589746 -21.35  0.005380305    3.297    0.697
       119 -10.5680    247.5546    144.5116   7.5648683219e+01   4.0664603500e+00    0.2958832    0.2095636 -34.65  0.001237036    1.475    0.322
       120 -10.1129    249.4077    140.8183   7.4573409311e+01   4.2061552728e+00    0.2902864    0.2143337  -7.20  0.001350449    1.269    0.212
       121  -9.4652    236.0912    146.1162   7.7831699069e+01   5.9821810421e+00    0.2064762    0.1600092  11.92 0.0005318568    1.224    0.183
       122  -9.2888     96.1474    145.8578   1.0676563093e+02   3.3197281025e+01     0.199243    0.1656214  78.57 0.0004096033    1.153    0.133
       123  -8.9434    133.4094    141.1838   9.7128687373e+01   2.7526710727e+01    0.1978087    0.1343826 -63.59 0.0009499823    1.699    0.412
       124  -9.7808     44.9868    139.7889   1.1837516165e+02   4.1510786382e+01    0.2049342    0.1515656 -80.30 0.0003205817    1.167    0.143
       125 -12.4170      4.3150    142.7479   1.2826218425e+02   4.4608168504e+01    0.4353522    0.3059831  83.49  0.002249843    1.084    0.078
       126  -9.9423    106.3844    135.7314   1.0249831281e+02   3.3642810015e+01     0.351666    0.2566543  -6.44   0.00123145    2.449    0.592
       127 -11.9714      3.0090    132.6242   1.2786317181e+02   4.6852084733e+01    0.5163193    0.2595991 -75.80  0.003135218    1.572    0.364
       128 -11.8639      2.2603    123.4971   1.2736217335e+02   4.8870055958e+01    0.7237226     0.165977 -81.35  0.002689367    4.066    0.754
       129 -12.1999      6.0799    120.1760   1.2612666789e+02   4.9334806309e+01    0.5061537    0.2772847  66.30  0.003039833    1.756    0.431
       130 -11.7251     17.3096    132.8865   1.2444000072e+02   4.5702484937e+01    0.2615282    0.1687223  53.22  0.001699403    1.500    0.333
       131  -9.6647     44.2863    130.0040   1.1735059713e+02   4.3759726263e+01    0.1776805    0.1356773 -83.20 0.0005167003    1.117    0.105
       132  -9.1959     58.9100    127.7201   1.1323587060e+02   4.2560789405e+01    0.1747781    0.1507235  80.28 0.0004301379    1.059    0.056
       133 -12.8569      8.3844    132.5562   1.2657445023e+02   4.6477164048e+01    0.6882053    0.2108618 -75.54  0.002961282    2.566    0.610
       134 -12.7170     17.2371    121.5335   1.2337794040e+02   4.8205435818e+01    0.6701743     0.277795  67.20  0.003036918    2.966    0.663
       135 -11.4878    243.7705    120.7895   7.1015884827e+01   7.9611531975e+00    0.4172943    0.2120963 -43.50   0.00184976    2.232    0.552
       136 -11.5424    239.1163    120.1341   7.1587917968e+01   8.9817018308e+00    0.5658368    0.2136334 -23.37  0.002004753    3.194    0.687
       137 -11.2697    248.3784    105.4211   6.6764368523e+01   9.1446110683e+00    0.5409112    0.2755412  44.63  0.002495668    2.049    0.512
       138 -12.5017    248.4070     99.9574   6.5468020159e+01   9.8848782258e+00    0.8100185    0.5401042  15.58  0.004012482    1.838    0.456
       139 -10.0751    249.5589    117.5107   6.9393430497e+01   7.2679237468e+00    0.2369297    0.1927201   0.80 0.0005944208    1.165    0.142
       140 -12.2762    248.0134    113.0505   6.8597439231e+01   8.1774588685e+00    0.6100272    0.5539508   8.33  0.003481097    1.068    0.064
       141 -10.4297    232.0804    116.5017   7.1860773320e+01   1.0939059866e+01    0.2207265    0.1767725 -24.24 0.0007700962    1.178    0.151
       142 -13.2394      9.7098    105.8056   1.2377755807e+02   5.2265588637e+01    0.5914665    0.4089893 -82.65  0.003955407    1.146    0.127
       143 -10.1314    238.5042    249.5129   9.5392872162e+01  -5.9733483483e+00    0.1070589   0.07433422  24.65 4.860489e-05    1.001    0.001
       144 -12.9194      8.6365    113.1254   1.2481455680e+02   5.0711331131e+01    0.4756598    0.2897859 -71.15  0.003033951    1.324    0.245
       145  -9.8551    250.2441     86.9599   6.2093550795e+01   1.1268216732e+01    0.1844399    0.1053692 -29.50  0.000480946    1.572    0.364
       146 -11.7789      2.2815    111.5358   1.2636451404e+02   5.1481786791e+01    0.5381344    0.2056446 -82.69  0.002685031    2.192    0.544
       147  -9.5524    161.5317     79.5318   7.5286444634e+01   3.3344838500e+01    0.1524391    0.1503605  15.87 0.0002391821    1.008    0.008
       148 -11.0723    185.3875    248.1852   1.0365648024e+02   1.8211538745e+00     0.259793    0.1557622 -41.07  0.001753569    2.260    0.558
       149 -11.4942    180.1422    243.7893   1.0398429543e+02   3.1035379241e+00     0.343417    0.1135603  38.01   0.00155049    2.407    0.585
