#   1 NUMBER                 Running object number                                     
#   2 MAG_AUTO               Kron-like elliptical aperture magnitude                    [mag]
#   3 X_IMAGE                Object position along x                                    [pixel]
#   4 Y_IMAGE                Object position along y                                    [pixel]
#   5 X_WORLD                Barycenter position along world x axis                     [deg]
#   6 Y_WORLD                Barycenter position along world y axis                     [deg]
#   7 A_WORLD                Profile RMS along major axis (world units)                 [deg]
#   8 B_WORLD                Profile RMS along minor axis (world units)                 [deg]
#   9 THETA_WORLD            Position angle (CCW/world-x)                               [deg]
#  10 FWHM_WORLD             FWHM assuming a gaussian core                              [deg]
#  11 ELONGATION             A_IMAGE/B_IMAGE                                           
#  12 ELLIPTICITY            1 - B_IMAGE/A_IMAGE                                       
         1 -14.4509    193.5533     82.0158   2.1111820313e+01   2.5526577993e+01     3.034409     1.994029 -28.22   0.01465195    1.803    0.445
         2 -12.7039    160.0563     37.8324   1.5487032402e+01   3.9870069662e+01    0.7940998    0.6607363  61.46  0.002223824    1.107    0.096
         3 -13.4028    199.9462     34.9997   9.2451725247e+00   3.0896560139e+01      1.51652    0.7039599  48.62  0.005912651    2.655    0.623
         4 -13.1973    233.6579     48.2780   8.3927686072e+00   2.1915303864e+01    0.9760133     0.770355  73.49  0.002717343    1.285    0.222
         5 -12.8046    220.1510     39.4922   7.9850670376e+00   2.5890468121e+01     1.491284     0.612689  57.81  0.002234151    2.460    0.594
         6 -13.4818    219.4057     56.8196   1.1739502564e+01   2.3705008799e+01     1.904178     0.882054 -57.84  0.006481305    2.370    0.578
         7 -13.8769     56.5661     67.1290   5.3196603773e+01   5.7045031594e+01     2.208804    0.7154273 -44.42  0.008301087    2.938    0.660
         8  99.0000     30.7148     20.7281   4.7295396937e+01   6.8080542389e+01    0.8381421    0.6193069 -25.28  0.005673641    1.312    0.238
         9 -12.6808     47.4038     31.2544   4.4141797666e+01   6.4350944092e+01     2.235294     1.274374  47.97   0.01142456    2.330    0.571
        10 -11.9037     53.1359     21.0871   3.7590439529e+01   6.4797339601e+01     1.519579     1.118044  84.92  0.006736959    4.429    0.774
        11 -12.4684     25.0469     41.1638   5.8038118566e+01   6.5567152489e+01     1.433889    0.7560953 -31.80  0.007810547    1.722    0.419
        12 -13.4510     70.6929     25.3749   3.2839707990e+01   6.1221031281e+01     1.388218     1.043893 -59.38  0.006690225    2.223    0.550
        13 -12.3999     80.3271     22.2136   2.8469800589e+01   5.9728301785e+01    0.7918761    0.7414156  88.70   0.00527666    1.441    0.306
        14 -14.1247     10.1270     37.3041   6.3999648337e+01   6.7536841728e+01     1.509644     1.154877 -57.17   0.01016019    1.619    0.382
        15 -11.2706    199.2388     19.7893   5.9293089525e+00   3.2840014703e+01      1.56272    0.6717257  57.07  0.007516005    2.276    0.561
        16 -13.9456    242.7567     61.6159   1.0109971378e+01   1.8249924101e+01     1.372597     1.099342 -47.88  0.002904443    1.191    0.160
        17 -12.9382    226.1696     22.7622   3.9981916086e+00   2.6669123273e+01    0.4581311    0.3223844  78.51  0.001700341    1.288    0.224
        18 -11.3552    211.4770     21.1394   5.0050131731e+00   2.9985631998e+01     0.438511    0.4030518  32.61  0.003067096    1.547    0.354
        19 -12.0861    217.8933     28.1486   5.8505711263e+00   2.7782486549e+01    0.6315606    0.3892347 -77.74   0.00215915    1.558    0.358
        20 -13.1500    183.7958     57.7164   1.6799445162e+01   3.1556941905e+01     1.544887    0.9664875  63.55  0.002051509    1.507    0.336
        21 -13.0688    176.2326     23.4950   9.4438768694e+00   3.7712014252e+01    0.3154588    0.2666692  71.63 0.0005692297    1.100    0.091
        22 -14.0419    244.4748      8.1249   3.5983752982e+02   2.4622020424e+01    0.9599691    0.3929853 -78.55  0.003251953    2.776    0.640
        23 -11.4940    232.3624      3.8740   3.5988289072e+02   2.7474374010e+01    0.7587963    0.2189046 -45.29  0.003646155    2.755    0.637
        24 -11.3817    228.4857     10.2429   1.3669722106e+00   2.7591189308e+01    0.5946144    0.2496064 -55.10  0.002425868    2.131    0.531
        25 -12.8378    221.3417      8.1567   1.5129010575e+00   2.9295356311e+01    0.6068521    0.2126269 -55.68  0.001233673    2.772    0.639
        26 -11.0937     94.2301     15.9357   2.2185396342e+01   5.7497583085e+01    0.2727629     0.158658  45.38  0.001470762    1.423    0.297
        27 -10.9816    149.9397     13.0302   1.0335839255e+01   4.4994008820e+01    0.2416477    0.1762863  88.39  0.001222679    1.330    0.248
        28 -10.6086    125.0484     10.7374   1.3730778754e+01   5.1053240272e+01    0.4195818     0.272528  -6.40  0.001779678    2.064    0.516
        29 -10.4714    111.5897      4.8933   1.4407554824e+01   5.4630924895e+01    0.2862949    0.1408217  52.79 0.0007662274    1.606    0.377
        30 -10.8372    114.8403     12.8635   1.6376287009e+01   5.3213766856e+01    0.2194028    0.1987394  61.47            0    1.101    0.092
        31 -11.2585    116.1332      8.5865   1.4725829355e+01   5.3293610693e+01    0.3098757    0.2010513 -31.78  0.001413525    1.819    0.450
        32 -10.0615    141.9592     12.4278   1.1378037065e+01   4.6936535192e+01    0.2347417    0.1587946  19.74    0.0012695    2.059    0.514
        33 -12.5985    173.8692     42.7182   1.4579577516e+01   3.5959687524e+01     2.295884     1.009461  39.10  0.007988857    4.036    0.752
        34 -10.1094    132.8259     11.5511   1.2612830512e+01   4.9165789816e+01    0.1978604    0.1713942 -65.70 0.0006039024    1.300    0.231
        35  -9.1127    131.0630      8.3005   1.1939952224e+01   4.9864884403e+01    0.2353788    0.1919189  72.70 0.0005782699    1.091    0.083
        36 -10.5227     88.5764     11.4304   2.2003052488e+01   5.9117514302e+01    0.2462047     0.182168  17.48  0.001510195    1.406    0.289
        37 -10.2770    108.7259      9.9301   1.6676736329e+01   5.4857946884e+01    0.2692594    0.1760533 -23.49  0.001438049    1.814    0.449
        38 -12.4588     57.8187      4.5703   2.8670805306e+01   6.5739204869e+01    0.5727981    0.3524489  49.40   0.00340688    1.522    0.343
        39 -10.8148     76.9362      4.9557   2.2710657167e+01   6.2070804763e+01    0.2289464    0.1996465  21.35 0.0003382315    1.145    0.126
        40 -12.4603     78.8444      9.8702   2.4110003415e+01   6.1260068349e+01    0.3806263    0.1885533  46.30  0.001237998    1.614    0.380
        41 -11.6936     65.1875      7.3802   2.7348217280e+01   6.4136924425e+01    0.3858052    0.3220607  63.53  0.002574231    1.536    0.349
        42 -10.6041     47.1891      6.4751   3.3559039038e+01   6.7377245902e+01    0.3921992    0.2171864 -16.40  0.001375904    1.927    0.481
        43 -10.9306     47.4535      1.6061   3.1206254533e+01   6.7797961012e+01    0.2940892    0.1146863  39.91  0.001478535    2.059    0.514
        44 -11.5676     71.3423      6.0220   2.4808824798e+01   6.3084821593e+01    0.3954851    0.3671051  11.93  0.002252927    1.233    0.189
        45 -10.8548     65.6245      1.8909   2.4874632289e+01   6.4531745402e+01    0.3014887    0.2252625  87.29 0.0009914129    2.393    0.582
        46 -10.9905    101.0520      7.4841   1.7514401567e+01   5.6773197437e+01    0.2888931    0.1734008 -23.91  0.001281946    1.964    0.491
        47 -10.4942    104.5031      6.1117   1.6277842787e+01   5.6122555697e+01    0.2282583    0.1458913  53.80 0.0004380162    1.252    0.201
        48 -10.4230     26.8433      9.4588   4.4114913698e+01   7.0012495558e+01    0.2651049    0.1586158  16.71  0.001401872    1.460    0.315
        49 -11.3542    193.9106      7.6160   3.7757115998e+00   3.5311583835e+01    0.2779268    0.1945729  65.28  0.001195152    1.348    0.258
        50 -12.8341    173.1961      5.9756   5.5392477660e+00   4.0197062142e+01    0.4145892    0.2871182 -12.31  0.002445095    2.076    0.518
        51  -9.4704    157.0290      7.3107   7.8246239626e+00   4.3850170866e+01    0.1429665   0.09609288  69.75 0.0003783911    1.222    0.181
        52 -11.4826      2.8180      6.0181   5.5649631639e+01   7.2989175440e+01    0.2396213    0.1753518  -8.33 0.0009631621    1.036    0.035
        53  -9.2438    210.5181      6.4803   2.0507402728e+00   3.1770241230e+01    0.1164761   0.09564633  87.23 0.0002998417    1.121    0.108
        54  -9.2932    163.4687      6.5399   6.8142673527e+00   4.2409960645e+01     0.125999    0.1025301  79.65 0.0008084902    1.004    0.004
        55  -9.7350     91.2682      6.6666   1.9536423755e+01   5.8961502693e+01     0.158664    0.1145492  70.60  0.000301772    1.511    0.338
        56  -9.7657     93.1831      3.8736   1.8042516524e+01   5.8777841159e+01    0.1869967    0.1147881  33.55  0.001056876    1.563    0.360
        57  -9.5619    146.4165      5.5649   8.7940958405e+00   4.6498479226e+01    0.1271599    0.1005808  59.44 0.0001714761    1.141    0.123
        58 -10.7253    206.9648      3.1951   1.6709965086e+00   3.2867323221e+01    0.1888373    0.1539451 -44.02  0.001326761    1.395    0.283
        59 -10.5440    183.5223      3.5705   3.8833703230e+00   3.8048660049e+01    0.2258874    0.1580471  87.82 0.0009511033    1.194    0.162
        60 -11.2826    187.0521      1.4432   3.0579385886e+00   3.7445443898e+01    0.2641145    0.1203657  66.05 0.0004817796    1.826    0.452
        61 -10.0438    217.6866      1.9400   5.7229643013e-01   3.0699625487e+01    0.3048481    0.1646239  77.01  0.001584585    1.573    0.364
        62  -9.7956    213.3072      2.2831   9.7613622156e-01   3.1593513409e+01    0.1725338    0.1320151  75.34  0.000446795    1.246    0.198
        63 -12.1715     85.1868      1.5798   1.9153457311e+01   6.0650540874e+01    0.3432685    0.1384085  53.37   0.00107781    1.893    0.472
        64  -9.5140      7.5049      2.4744   5.1188013810e+01   7.3033931577e+01     0.110332   0.08016051  -3.42 0.0008100271    1.021    0.020
        65  -9.6874    250.4033      1.4646   3.5829170941e+02   2.4191610874e+01     0.108967   0.07988269 -71.98 0.0001767377    1.018    0.017
        66 -11.7530     96.0157     90.5165   4.6438757138e+01   4.5762560717e+01    0.5550557    0.4347895  54.38  0.001768341    1.429    0.300
        67 -11.6519    102.3675     96.2983   4.6105795595e+01   4.3330909581e+01    0.3040208    0.2749948 -24.54 0.0005632223    1.116    0.104
        68 -12.1851    106.9419     95.9891   4.4642281691e+01   4.2480995117e+01    0.3764782    0.2907777 -47.79  0.001290036    1.349    0.259
        69 -11.5488    108.1600     92.3494   4.3256808388e+01   4.2976893430e+01    0.3765529    0.2174594  43.18  0.001449739    1.684    0.406
        70 -12.4157     87.2998     64.3069   4.1228393132e+01   5.2396884486e+01    0.9724319    0.5581651  36.11  0.000747622    1.674    0.403
        71 -13.1208     37.8246     81.9543   6.4818811453e+01   5.6354625397e+01    0.9167407     0.459325 -54.24  0.003367631    1.847    0.459
        72  -9.8483    157.7016    222.6841   5.8618934679e+01   5.1155784048e+00    0.1387402    0.1018887  -1.98 0.0002145007    1.610    0.379
        73 -14.2069     11.0144     69.0876   7.2567023852e+01   6.1357519151e+01     1.712439      1.08507   2.27   0.01013228    1.676    0.403
        74 -13.6662     60.0654     89.5642   5.8420514051e+01   5.1975398461e+01    0.7559563    0.6827598  -0.25  0.002375201    1.071    0.066
        75 -12.6915     66.5168     83.0868   5.4273822128e+01   5.2401572839e+01    0.7774229    0.6417422  70.13 0.0006414885    1.706    0.414
        76  -9.7553    236.6910    145.9886   2.8074371350e+01   5.7019967783e+00    0.1866801    0.1497723 -36.11  0.000339316    1.093    0.085
        77 -12.2824     64.4997     47.6340   4.3532939038e+01   5.9227724622e+01    0.8688987    0.6621743 -89.66   0.00323487    2.936    0.659
        78 -12.3712     51.0221     44.8703   4.7848326058e+01   6.1761847417e+01     1.633629    0.5989996  29.62  0.006524245    2.906    0.656
        79 -12.2604     11.9829     24.5159   5.8386048557e+01   6.9507293415e+01    0.2848471    0.2418391 -25.12 0.0004517027    1.291    0.225
        80  -9.6281    227.7378    137.3090   2.7755542791e+01   8.8025291020e+00    0.3449738    0.2051135 -74.53  0.000632878    4.354    0.770
        81  -9.6643    184.5237    134.9918   3.5252704474e+01   1.7716199731e+01    0.2254824    0.1428504 -41.80 0.0004847132    1.535    0.349
        82 -13.1279     32.7834     66.2481   6.2587622741e+01   6.0133006102e+01     0.912509    0.5757257 -42.59   0.00356504    1.395    0.283
        83  -9.7344    202.8328    132.1518   3.1018882366e+01   1.4517579915e+01    0.1902442    0.1664393   1.49 0.0004143107    1.291    0.225
        84  -9.7827    152.7496    124.0194   3.9737605906e+01   2.6784575150e+01     0.207664    0.1941387 -45.41            0    1.078    0.072
        85 -10.2627    141.1568    120.1348   4.1632477086e+01   3.0132798761e+01    0.2157183    0.1883426  79.42 0.0005952028    1.312    0.238
        86 -13.5428     43.3084     56.3407   5.5073630439e+01   6.0831944663e+01     1.272567    0.7330563  18.18  0.005477418    1.797    0.443
        87 -12.6637     28.6115     56.6065   6.1507820269e+01   6.2426635967e+01    0.7947538    0.5336317  -6.62  0.002799704    1.480    0.324
        88 -12.8821      4.3150     56.0683   7.2309380962e+01   6.4407305546e+01    0.7539001    0.5055833 -33.34  0.002739697    1.209    0.173
        89 -10.9063    182.2502    117.5490   3.1669404987e+01   2.1631774725e+01    0.4021433    0.3669683 -40.55  0.002201233    1.080    0.074
        90 -11.8823     75.9471     52.0112   4.0925787849e+01   5.6551027375e+01    0.2405847    0.2214701 -28.83 0.0003214554    1.225    0.184
        91 -12.6212     75.2311     41.7462   3.7500299698e+01   5.8235594519e+01    0.5643334    0.3434005  38.94  0.002066992    1.480    0.324
        92 -12.6830     81.3426     40.4865   3.4980025957e+01   5.7259966854e+01    0.5655347    0.3080294  39.59   0.00148436    1.646    0.392
        93 -10.0748     72.9474    119.0098   6.1286108010e+01   4.3376408585e+01    0.2088411    0.2053233 -37.33 -0.001877172    1.039    0.037
        94 -11.5582     49.5550     95.2252   6.3714546263e+01   5.2102862577e+01    0.2516879    0.1888244  21.53 0.0005986334    1.391    0.281
        95 -10.2703     28.3422     95.0117   7.1505010682e+01   5.4377838594e+01    0.1886253    0.1474562 -48.74 0.0004430345    1.111    0.100
        96  -9.2805    232.7552     94.3199   1.7985593041e+01   1.5215692728e+01    0.1315834   0.08905965 -62.36 0.0001357896    1.523    0.343
        97 -12.0220    184.5528     92.4168   2.5184229148e+01   2.5781647543e+01    0.4325441    0.3769955  37.91  0.001458449    1.274    0.215
        98 -12.3529    115.9153     93.3145   4.1285423066e+01   4.1165167578e+01     0.536644    0.3394047  21.20  0.002174555    2.185    0.542
        99 -13.2159     79.5679     59.4021   4.2202152515e+01   5.4680189948e+01     1.371538    0.5534202  37.36  0.005438818    2.417    0.586
       100 -11.4405     81.7663     98.7765   5.3354699231e+01   4.6595083627e+01    0.3023494    0.2957822 -87.88  0.001115319    1.156    0.135
       101  -9.8038     78.8815     91.6784   5.2378781654e+01   4.8613797547e+01    0.2390063    0.1758119   2.40  0.001152813    1.618    0.382
       102 -11.9511    215.9932     90.2608   1.9490387561e+01   1.9276494757e+01    0.3774338    0.2062807 -61.18   0.00164815    2.239    0.553
       103 -10.8270    167.9909     89.9374   2.7763364809e+01   3.0020587143e+01    0.4006576    0.2516235  59.36 0.0009097168    1.620    0.383
       104 -11.3851    223.6684     88.3102   1.7961708179e+01   1.8008788166e+01    0.4798042    0.2256288  65.21  0.002082821    2.517    0.603
       105 -10.6674    225.7112     85.6367   1.7107291979e+01   1.8022987452e+01    0.2350484    0.1913946  -9.02 0.0007371235    1.709    0.415
       106 -11.8430     51.7656     87.1542   6.0838703078e+01   5.3607649916e+01    0.3933556    0.2159255 -30.54   0.00109355    2.055    0.513
       107 -12.2539     48.0807     85.5000   6.1789352914e+01   5.4424197308e+01    0.3222009    0.2986571 -15.04  0.001244099    1.065    0.061
       108 -11.9900      5.3361     87.3167   7.8630670431e+01   5.7752673778e+01    0.3325379     0.258904  72.05  0.002079192    1.659    0.397
       109 -11.3612    237.8440     86.4927   1.5697098818e+01   1.5476284884e+01    0.3662328    0.2457235  67.30  0.001498409    1.633    0.388
       110 -11.8152    231.5141     84.0850   1.6008524548e+01   1.7100324566e+01     0.400304     0.270261 -81.81  0.001667679    1.766    0.434
       111 -11.5597    175.2486     86.1133   2.5365760676e+01   2.9015353511e+01    0.5670597    0.2903703  41.11   0.00161368    2.331    0.571
       112 -11.5994    181.4348     83.3602   2.3531633018e+01   2.8061068293e+01    0.4095094    0.3327646  29.11  0.001959029    1.516    0.340
       113 -12.3231    168.5305     79.5790   2.4993221703e+01   3.1700687806e+01    0.5604594      0.45219 -51.16  0.001488353    1.260    0.206
       114 -11.6446    161.6191     83.9866   2.7528686198e+01   3.2559576306e+01    0.7372622    0.4270341  44.94  0.003221158    1.767    0.434
       115 -11.9743    147.5094     83.2484   3.0397610041e+01   3.5986557481e+01    0.6992457    0.4026965 -43.83  0.002966498    1.805    0.446
       116 -10.2449     30.9247     85.8375   6.8467333546e+01   5.6197487999e+01    0.2493258    0.1653746 -51.03  0.001057998    1.328    0.247
       117 -10.2868     12.5831     84.7474   7.5357937649e+01   5.7889718279e+01    0.1661663    0.1108889 -70.74 0.0008152972    1.542    0.351
       118 -10.9290    246.5108     83.0242   1.3941130328e+01   1.4360522972e+01    0.2530031    0.2086647 -58.57 0.0006850198    1.024    0.023
       119 -10.9569    250.6946     81.6769   1.3192574194e+01   1.3786284511e+01    0.3769338     0.211045 -33.54  0.001892506    1.871    0.466
       120 -12.7656    214.4778     83.1504   1.8139624141e+01   2.0758345273e+01    0.5178367     0.320392 -28.86   0.00251791    1.917    0.478
       121 -12.2198    221.1747     79.5134   1.6406426282e+01   1.9929700903e+01    0.3804769    0.2940406 -73.49 0.0004630644    1.290    0.225
       122 -12.9156    218.0072     75.2161   1.5900697905e+01   2.1266906284e+01    0.4535225    0.3485413 -22.37  0.001992904    1.653    0.395
       123 -12.9160    221.0598     69.8473   1.4334489136e+01   2.1445318190e+01    0.4983749    0.4111041 -36.33   0.00283312    1.316    0.240
       124 -11.6707    100.7518     81.0086   4.2180869613e+01   4.6712890187e+01    0.5550448     0.409715 -54.16    0.0027292    1.571    0.364
       125 -11.1439     96.6393     75.9188   4.1910327338e+01   4.8493554718e+01    0.3160977    0.2381145  57.63 0.0008865514    1.544    0.352
       126  -9.1221    238.2596     81.2548   1.4572886449e+01   1.6211784608e+01     0.107107   0.09910662  -2.04 0.0006786709    1.435    0.303
       127 -10.9338     81.8303     79.1443   4.7728977496e+01   5.0664513050e+01    0.2032285     0.197804  55.49 0.0003896801    1.199    0.166
       128  -9.6152    161.3076     76.5144   2.5621586358e+01   3.3914995742e+01    0.2610714    0.1675676 -60.80  0.001159284    1.894    0.472
       129 -10.4489    155.8713     76.9579   2.6859543858e+01   3.5121396119e+01    0.3444457    0.2128551  64.84  0.001193066    1.731    0.422
       130 -11.1549     86.8330     73.7922   4.4407108280e+01   5.0777923072e+01    0.4752611    0.2578387 -43.76  0.001775144    1.916    0.478
       131  -9.7341    103.9972     75.7172   3.9599946649e+01   4.7040145094e+01    0.2078457    0.1826584  33.39  0.000580681    1.073    0.068
       132 -10.4644    106.0822     71.6915   3.7747877068e+01   4.7328918880e+01       0.2979    0.1880887 -42.46 0.0007779487    1.687    0.407
       133 -12.5276     72.0933     74.0825   4.9576400931e+01   5.3317687332e+01     0.750605     0.519897  40.07   0.00316253    1.479    0.324
       134 -13.1336    204.4235     47.3813   1.1492879775e+01   2.8286623112e+01     2.006087    0.5945007  65.32  0.007438643    3.274    0.695
       135 -11.3826    110.7446     86.3555   4.0779438904e+01   4.3628497406e+01     0.319808    0.2906958 -81.75  0.001712959    1.303    0.232
       136 -12.2689    115.0691     80.2554   3.7759077364e+01   4.3864061652e+01    0.7090794     0.534144 -30.02  0.002943743    1.429    0.300
       137 -12.4248     96.9638     68.9927   3.9651351373e+01   4.9682319585e+01    0.7609019    0.4820287 -42.48  0.003155247    1.682    0.405
       138 -10.9756    127.7342     58.5517   2.7932037325e+01   4.4688897483e+01    0.4946813    0.2481783  37.09  0.001935384    2.341    0.573
       139 -10.0714     99.8648     41.7854   2.9796154912e+01   5.3310757915e+01    0.3214638    0.2116352 -19.90  0.001078519    1.766    0.434
       140 -10.8556     99.0673     47.6534   3.2020676858e+01   5.2663978613e+01    0.5560513    0.2090145 -30.29  0.002073531    3.189    0.686
       141 -11.4749     98.4810     56.0119   3.4988941342e+01   5.1531975991e+01    0.5549607    0.4266074 -76.35  0.002381252    2.037    0.509
       142 -10.9648    102.5370     53.4766   3.2962341146e+01   5.1069906880e+01    0.4393379    0.2465333  41.22  0.001629911    1.652    0.395
       143  -9.9344    136.9916     57.9724   2.5614563647e+01   4.2618165223e+01    0.2244928    0.2046309  61.78   0.00123498    1.035    0.033
       144 -11.5891    173.6448     56.5920   1.8149896771e+01   3.4105753663e+01    0.4160648    0.2488395  60.50 0.0008289983    1.553    0.356
       145 -12.6477    142.0520     69.1390   2.7702083028e+01   3.9677453041e+01     2.044547     1.183371  33.71  0.008508295    2.196    0.545
       146 -10.0538    142.8739     55.6487   2.3664584897e+01   4.1572753008e+01    0.2717794    0.2065513 -24.35  0.001422545    1.534    0.348
       147 -10.9461    146.1403     52.1812   2.1999721422e+01   4.1295201573e+01    0.3229042    0.2350882  28.30 0.0006466917    1.694    0.410
       148 -10.7728    136.0573     53.2122   2.4420866749e+01   4.3538091958e+01    0.4425543    0.2317784  58.36  0.001166956    1.784    0.439
       149 -10.8797     90.5722     51.1645   3.5780702941e+01   5.3892963826e+01    0.2243138    0.1820651  33.55 0.0002521657    1.109    0.098
       150  -9.6321    250.3559     49.5048   7.0169881479e+00   1.8458400293e+01    0.2679541    0.1279387 -40.68  0.001428591    1.875    0.467
       151 -11.4349    247.9719     42.5297   5.9123070969e+00   1.9838388354e+01    0.4446514    0.2251902 -73.16  0.001885217    2.237    0.553
       152 -10.3967    204.0963    116.1674   2.7219080915e+01   1.7238089416e+01    0.5454597    0.2769291  70.97  0.001789844    4.101    0.756
       153 -10.5735    131.9124     33.8568   1.9500431075e+01   4.7056859904e+01     0.263467    0.2074523 -48.75 0.0007051046    1.445    0.308
       154 -10.2154    133.8485     40.6085   2.1138578971e+01   4.5769934120e+01    0.7881233    0.5085557  73.86  0.003867594    1.708    0.415
       155 -12.2816    148.9809     40.7089   1.8202487059e+01   4.2158552505e+01    0.5954087    0.3791209 -51.98  0.002556851    1.782    0.439
       156 -11.3726    142.2932     46.7077   2.1204168284e+01   4.2968282260e+01    0.2396166    0.2034726  69.98 0.0001926657    1.110    0.099
       157 -11.9569    144.8757     44.1454   1.9954840824e+01   4.2694479493e+01    0.2855036    0.2278191 -26.76 0.0006168832    1.446    0.308
       158 -10.2862    245.3524     50.2447   7.6272114142e+00   1.9322266817e+01    0.1915653    0.1559605 -65.19 0.0003522725    1.033    0.032
       159 -10.5049    105.5005     43.7655   2.8908072197e+01   5.1826957192e+01    0.2432388    0.2258449  80.07 0.0007380647    1.257    0.205
       160 -10.7842    123.2844     43.3291   2.4301001824e+01   4.7884370043e+01    0.3878689    0.2327633  46.62   0.00120466    1.506    0.336
       161 -10.1642     94.0506     41.4418   3.1356998764e+01   5.4581184270e+01    0.2386704    0.1808864  -1.57 0.0007857144    1.489    0.328
       162  -9.7030    249.2942     36.4444   4.6568452697e+00   2.0364382356e+01    0.3604196    0.1352738 -49.36  0.001601946    2.204    0.546
       163  -9.4073    114.5057     38.5328   2.4860789741e+01   5.0511434459e+01    0.1365677    0.1216761  52.30 -2.784868e-05    1.052    0.049
       164 -10.2123     96.3434     36.4704   2.8953159044e+01   5.4754123014e+01    0.2000318    0.1813085  58.81 0.0005379965    1.211    0.174
       165 -11.2389     92.3800     33.7448   2.9128473301e+01   5.5928088483e+01    0.3695615    0.2457859  27.58  0.001081405    1.532    0.347
       166 -11.5687    122.4403     33.2930   2.1333985436e+01   4.9335719814e+01    0.3436531    0.2388446 -44.82 0.0005450149    1.671    0.402
       167  -9.7824    123.4830     28.4981   1.9595125574e+01   4.9644827140e+01    0.1959785    0.1536206 -85.50 0.0005767408    1.531    0.347
       168 -10.4400    112.3415     32.8360   2.3517657432e+01   5.1698203776e+01    0.3346608    0.2009548  50.24 0.0005985786    1.427    0.299
       169  -8.5442    106.6623     31.3730   2.4428940178e+01   5.3140282524e+01    0.3111864    0.1267756  61.79  0.001200851    2.720    0.632
       170  -8.8698    104.4226     28.0623   2.3864722837e+01   5.4015822941e+01    0.2517754    0.1586653 -33.86 0.0009841883    1.806    0.446
       171 -10.6058     75.2469     33.4671   3.4411601522e+01   5.9364135621e+01    0.3537431    0.2416231  17.71  0.001947568    1.512    0.339
       172 -10.1406     80.2827     30.5422   3.1648552288e+01   5.8767797088e+01    0.2015525     0.131284  23.47 0.0008112231    1.575    0.365
       173 -11.4955     85.9408     28.7437   2.9217555027e+01   5.7857219947e+01    0.4074722    0.2055571  47.62  0.001053469    1.706    0.414
       174  -9.3419    152.3021     33.6886   1.5654356224e+01   4.2227890136e+01    0.1354074   0.09681085 -75.83 0.0006953453    1.609    0.378
       175  -9.7913    127.3004    114.7111   4.3881487617e+01   3.4276974137e+01     0.152328    0.1242005  83.96 0.0001927421    1.560    0.359
       176 -11.3861    137.7513    112.5694   4.0582893578e+01   3.2479108115e+01    0.4929918     0.261318  37.11  0.001901807    2.039    0.510
       177 -11.1852    224.2466     31.2590   5.8793557922e+00   2.6056878833e+01    0.4978242    0.1871628  68.38  0.001884802    2.476    0.596
       178 -10.6120     95.7095    112.1636   5.2387373834e+01   4.1141529114e+01    0.3691758    0.2574283 -78.64  0.001552566    2.180    0.541
       179 -10.7513    169.8251     32.4309   1.2560822960e+01   3.8198978918e+01    0.4219766    0.1853995  75.02   0.00147379    2.499    0.600
       180  -9.8715    173.6786    112.2920   3.2169529712e+01   2.4538148651e+01    0.3045415    0.1735798  30.36  0.001152567    2.532    0.605
       181  -9.6197    168.8871     26.8552   1.1270720951e+01   3.9067055308e+01    0.1777369    0.1375077 -74.70 0.0006437243    1.290    0.225
       182 -10.9202    120.8143    110.7754   4.4641001730e+01   3.6494121702e+01    0.2105857    0.1853401  79.35 0.0004008721    1.321    0.243
       183 -10.7862    147.7142     25.1705   1.4051017647e+01   4.4290885266e+01    0.3754618    0.2278612  44.53  0.001932922    1.701    0.412
       184 -10.3397    113.6505     23.6330   2.0172451035e+01   5.2431375604e+01    0.2857883    0.2048172  72.37  0.001046787    1.473    0.321
       185 -10.8964     21.4576     25.0407   5.3681391535e+01   6.8524488714e+01    0.3663506    0.2304921  28.13  0.002110251    1.615    0.381
       186  -9.9821     19.7373     19.5717   5.2281809113e+01   6.9505523192e+01    0.2389533    0.1845123 -47.10  0.000881106    1.810    0.448
       187 -11.0566    234.1925     24.0975   3.5768457997e+00   2.4862260352e+01    0.2337067    0.1842188 -63.43  0.001101374    1.108    0.098
       188  -9.4876    153.4357     25.4089   1.3190086596e+01   4.2901424564e+01    0.1319434    0.1117276  77.44 7.850607e-05    1.048    0.046
       189 -10.3783    134.5627     24.9654   1.6306350345e+01   4.7434508580e+01    0.4463761    0.1920235  76.95  0.001560312    3.625    0.724
       190 -11.5886    126.6588     24.6364   1.7733696463e+01   4.9326004956e+01    0.3063378    0.2064099  71.00  0.000237152    1.445    0.308
       191 -10.5904    244.4753     18.9664   1.8043536219e+00   2.3411478409e+01    0.2902465    0.1635641 -66.72  0.001183997    1.535    0.349
       192 -11.9808    242.3680     22.7843   2.6702686932e+00   2.3380997707e+01    0.3908723    0.2044299  77.25  0.001272942    1.788    0.441
       193 -11.2157    247.1561     22.6082   2.2717287721e+00   2.2465855949e+01    0.2276295    0.1744831 -82.43   0.00141729    1.100    0.091
       194  -9.9538    102.5637     23.0273   2.2591575826e+01   5.4974214649e+01    0.1680625    0.1283686 -25.19 0.0007426075    1.499    0.333
       195 -10.2972     98.2121     21.5587   2.3178041349e+01   5.6077145418e+01    0.2987659    0.2240965  61.19  0.001038132    1.309    0.236
       196  -9.9276    119.5036     22.2099   1.8436552597e+01   5.1240157969e+01    0.2397541    0.1607893  58.33  0.000606572    1.266    0.210
       197 -11.3784    129.8018     19.1309   1.5434015947e+01   4.9156650799e+01    0.3162421    0.2097223  75.21 0.0008389066    1.492    0.330
       198  -9.6599    123.6771     20.3412   1.6988647491e+01   5.0464943905e+01    0.2024047      0.17318 -71.29 0.0007858379    1.356    0.263
       199  -9.9994    121.4414     17.2052   1.6443791947e+01   5.1291972478e+01    0.2269955    0.1839786 -83.76 0.0006802155    1.423    0.297
       200 -12.9208     80.9955     49.5381   3.8327454904e+01   5.6004843890e+01    0.7934976    0.5393453  33.24  0.004232322    1.353    0.261
       201 -10.1611    138.9970     17.9000   1.3434903972e+01   4.7113055816e+01     0.191061    0.1770167 -22.36 0.0006682792    1.294    0.227
       202  -9.9611    233.8781    108.9012   2.0873934561e+01   1.2585659836e+01    0.1875605    0.1750714   2.34  0.001080078    1.279    0.218
       203 -11.0161    196.8194    108.3481   2.6732626694e+01   2.0206670509e+01    0.4909131    0.3414557 -82.36  0.002236701    2.035    0.509
       204 -11.0581    191.9030    104.0843   2.6629372478e+01   2.2051123861e+01    0.6827288    0.2048702 -46.24  0.002166627    3.399    0.706
       205  -9.7686     84.6117    108.6993   5.5014544703e+01   4.3895925311e+01    0.1582394    0.1142149  -8.70 0.0007014961    1.792    0.442
       206  -9.3803    153.4734     17.0856   1.0919956585e+01   4.3762484801e+01    0.1644932    0.1299405 -30.14 0.0004948033    1.503    0.335
       207 -11.8234    161.8195    106.5370   3.3296780535e+01   2.8322726485e+01    0.3144878    0.2474469 -55.89  0.001543695    1.338    0.253
       208  -9.6409    160.0663     14.0320   9.1777355899e+00   4.2503740509e+01    0.1427055     0.126542  82.78 0.0003736826    1.076    0.071
       209 -11.8275    156.6306    104.6133   3.3972226567e+01   2.9874991516e+01    0.4051808      0.31438  18.05  0.001904494    1.637    0.389
       210  -9.7146    209.7011    105.5810   2.3882897820e+01   1.7974042145e+01     0.248578    0.1555757 -58.62  0.001161613    1.770    0.435
       211 -12.0887     69.0166    104.0705   5.9028763886e+01   4.7453094857e+01    0.5473226    0.1823269 -41.19  0.001734924    3.468    0.712
       212 -11.3285    144.6301    103.1073   3.6404893900e+01   3.2888500497e+01    0.4266824    0.3653245  -8.29  0.001470803    1.365    0.267
       213 -11.2144    109.3556    104.5718   4.6276891999e+01   4.0185043094e+01    0.2866092    0.1865453 -41.84 0.0006182267    1.565    0.361
       214 -10.1272    187.1483     13.1092   5.6957460863e+00   3.6289296006e+01     0.197747    0.1198249 -70.58 0.0006097701    1.667    0.400
       215  -9.4615    167.3465     12.8179   7.9182787947e+00   4.0909002662e+01    0.1575599    0.1228785 -10.58  0.000954475    1.755    0.430
       216 -11.4460    140.6786     96.0008   3.5481421218e+01   3.5179987205e+01    0.4217206    0.3517471 -89.12  0.000841759    1.442    0.307
       217 -13.5896     44.9085     72.3608   5.9385162779e+01   5.7554660149e+01    0.8893816    0.7455373 -48.52  0.003131565    1.256    0.204
       218 -13.1296    131.0253     96.0272   3.7931989492e+01   3.7341263696e+01    0.8468963     0.775516  23.83  0.004511226    1.120    0.107
       219 -13.1102    123.1516     98.1227   4.0607574671e+01   3.8646741911e+01    0.9145396    0.5353091 -23.31  0.003452226    2.541    0.606
       220 -12.0397    136.1066     87.7590   3.4356405744e+01   3.7789423208e+01    0.8716442    0.5045595  46.62  0.003753002    1.659    0.397
       221 -11.6971    127.3950     89.6863   3.7125396390e+01   3.9383269671e+01    0.5575517    0.2831764  46.13 0.0008570502    1.892    0.471
       222 -11.8900    121.4115     87.5413   3.8121587779e+01   4.1113360457e+01    0.5528509    0.3573965 -51.04  0.001690272    1.724    0.420
       223 -12.2396    125.5734     83.6164   3.5882612639e+01   4.0935002090e+01    0.5995027     0.436417 -17.48  0.001552153    1.720    0.419
       224 -10.4951    132.4927     82.5571   3.3799037701e+01   3.9571579239e+01    0.2528612    0.2287809  77.05  0.000491977    1.191    0.160
       225 -12.0582    136.2589     80.8541   3.2384207514e+01   3.9018296179e+01     0.721485    0.4865232  82.24  0.002555095    2.287    0.563
       226 -12.1352     73.2265     97.3443   5.5853949818e+01   4.8311803997e+01    0.4195044    0.3433731 -88.66  0.002148545    1.670    0.401
       227 -10.4424    227.1482    103.1133   2.0632604160e+01   1.4860791457e+01    0.1967024     0.176762 -25.56 0.0004170294    1.229    0.187
       228 -11.8492    226.3354     97.7371   1.9604453889e+01   1.5921696293e+01    0.4223395    0.3270481 -50.95  0.002446719    1.162    0.139
       229 -10.1913    165.4864    101.9885   3.1350286428e+01   2.8367453951e+01    0.2270224    0.1476626 -41.01  0.000608909    1.553    0.356
       230 -12.2485    154.3314     95.6987   3.2183619371e+01   3.2116915348e+01    0.7697025    0.5384356  46.00  0.002679333    1.411    0.291
       231 -11.4677    159.2755     99.2865   3.2011947605e+01   3.0301135304e+01     0.667586    0.2817678  36.49 0.0003922159    3.533    0.717
       232 -11.1418    157.6002     95.8247   3.1486271185e+01   3.1340940336e+01    0.6806422    0.4551705  -0.52 0.0003679186    2.778    0.640
       233 -11.6714     87.0947     98.4504   5.1514745557e+01   4.5739719828e+01    0.4833273    0.3655338  28.74  0.001480149    1.333    0.250
       234 -11.0284     32.9894     99.8597   7.0823578991e+01   5.2840235740e+01    0.2162698     0.142806  52.06  0.001096399    1.978    0.494
       235 -10.7695    170.3992     97.9425   2.9301142347e+01   2.8006255886e+01    0.3870507    0.2618962 -55.10  0.001788624    1.594    0.373
       236  -9.5522    244.5614     97.9945   1.7180821772e+01   1.2375613746e+01    0.1976304     0.110901 -40.21 0.0005504545    1.575    0.365
       237 -11.9897     11.9840     97.2359   7.7950476151e+01   5.5115143965e+01    0.3240066    0.2449044 -41.46  0.001004095    1.168    0.144
       238 -12.3842    177.2343     71.5396   2.1330073918e+01   3.0983751354e+01     1.199888    0.4483181 -51.97  0.003801011    3.534    0.717
       239 -11.6904    166.0507     65.5310   2.1803156052e+01   3.4565908033e+01    0.8925439    0.5571051  52.03  0.004291515    1.537    0.350
       240 -11.2987    113.7677    246.4077   7.1745411482e+01   7.6613419846e+00    0.3443862    0.2628334 -27.36  0.001573491    1.730    0.422
       241 -10.6505     36.5050    249.0012   8.8148324324e+01   1.7687816805e+01    0.1709175    0.1052507 -79.30  0.001042039    1.618    0.382
       242 -13.9648    116.3162     62.9345   3.2169265358e+01   4.6591652103e+01     1.722133    0.9161131  51.55  0.005079836    1.773    0.436
       243 -11.3762    154.0349     62.8545   2.3398044826e+01   3.7836928394e+01     1.095077    0.6150475 -44.94  0.004952402    1.889    0.471
       244 -10.7031    180.7274    243.5701   5.7038636843e+01  -2.1657542901e+00    0.1933549    0.1710194 -80.87   0.00119734    1.766    0.434
       245  -9.6696    218.5329    239.5277   4.8879491683e+01  -6.9619468638e+00    0.1244917   0.09962939   3.67 0.0002024458    1.012    0.012
       246 -10.6408     88.3971    238.8074   7.6388707332e+01   1.2930084805e+01    0.1641059    0.1199935 -52.18 0.0002346871    1.607    0.378
       247 -11.1135    234.3952     36.7525   6.0264612701e+00   2.3272546172e+01    0.8457274    0.6235259  77.72  0.004703858    1.294    0.227
       248 -10.0157     15.8065    238.4216   9.1508899553e+01   2.2073190466e+01    0.1366113    0.1070076  26.66 0.0004669938    1.588    0.370
       249 -13.5870    210.4214     59.4957   1.3440165032e+01   2.5263329165e+01     1.094337    0.6745188 -81.37   0.00323624    1.923    0.480
