#   1 NUMBER                 Running object number                                     
#   2 MAG_AUTO               Kron-like elliptical aperture magnitude                    [mag]
#   3 X_IMAGE                Object position along x                                    [pixel]
#   4 Y_IMAGE                Object position along y                                    [pixel]
#   5 X_WORLD                Barycenter position along world x axis                     [deg]
#   6 Y_WORLD                Barycenter position along world y axis                     [deg]
#   7 A_WORLD                Profile RMS along major axis (world units)                 [deg]
#   8 B_WORLD                Profile RMS along minor axis (world units)                 [deg]
#   9 THETA_WORLD            Position angle (CCW/world-x)                               [deg]
#  10 FWHM_WORLD             FWHM assuming a gaussian core                              [deg]
#  11 ELONGATION             A_IMAGE/B_IMAGE                                           
#  12 ELLIPTICITY            1 - B_IMAGE/A_IMAGE                                       
         1 -12.0413    176.2176     50.4042   5.8754838947e+01   3.4652900613e+01     2.199931      1.21156  31.31  0.006386671    2.716    0.632
         2 -12.3733    195.8847     30.7873   4.9856200580e+01   3.2211988480e+01    0.8825458     0.838897   4.28  0.001643908    1.207    0.171
         3 -12.3817    216.3250      5.3790   4.0705688459e+01   2.9917147447e+01    0.9541895     0.691454  74.79  0.004391629    1.287    0.223
         4 -10.1694     51.2860      8.4301   7.5672421754e+01   6.7834786644e+01    0.2226122     0.105876  37.35  0.001143695    2.066    0.516
         5 -10.8926    166.6592    218.3899   1.0044427485e+02   5.7636307241e+00    0.6012284    0.1319852  39.47  0.001854819    4.363    0.771
         6 -10.6097    140.3856    247.9252   1.0925971688e+02   5.6078531629e+00    0.4538381    0.2048296 -57.51  0.002352867    2.961    0.662
         7 -10.9126    127.7196    249.1055   1.1164816460e+02   7.4197173163e+00    0.3973716    0.2615132  31.32  0.002454116    1.660    0.398
         8 -19.5197     15.9171    145.6942   1.2368665206e+02   4.2977497586e+01     18.72769      2.67403 -74.51   0.05097624    6.698    0.851
         9  -9.2954     96.9278    192.3496   1.1088515705e+02   2.2518917080e+01    0.2902518    0.2208253  10.28  0.001032327    2.193    0.544
        10  -7.8746     78.4480    193.4902   1.1492037518e+02   2.5088736192e+01    0.1282733    0.1057446  74.32  4.35586e-05    1.005    0.005
        11  -8.8710     59.4258    185.6837   1.1805111405e+02   2.9360734180e+01    0.3408026    0.1644215 -85.85  0.001393167    2.324    0.570
        12  -8.8755    115.3228    184.3128   1.0577404580e+02   2.1128593208e+01    0.1280869    0.1102127  -4.79 0.0004989842    1.656    0.396
        13  -9.4476    109.3943    183.8737   1.0700570636e+02   2.2237073697e+01    0.2627301    0.1668489 -45.21    0.0013061    1.916    0.478
        14  -8.9914     99.3101    180.8858   1.0878960903e+02   2.4548514118e+01    0.2352476    0.1878919  40.61 0.0006243777    1.315    0.240
        15  -8.9397    204.0437    175.7097   8.5573775871e+01   5.8302800753e+00    0.2009681    0.1726683  24.86  0.001152131    1.070    0.066
        16 -10.5969     51.3196    150.3319   1.1571943162e+02   3.8321681950e+01    0.6333556    0.5144689 -27.36  0.002708162    1.779    0.438
        17 -11.5673     57.2000    143.8430   1.1335734324e+02   3.9122650633e+01     1.519175    0.4640578 -51.87  0.005518924    3.363    0.703
        18 -11.8140     81.4234    170.9063   1.1139996158e+02   2.9536716895e+01     1.116455    0.8527635  -9.21  0.005727622    2.365    0.577
        19 -10.0317     90.1456    159.9136   1.0771015107e+02   3.0674989941e+01    0.2918077    0.2548687 -68.04 0.0004189848    1.146    0.128
        20 -12.0325     78.8151    154.8870   1.0965497238e+02   3.3575005900e+01    0.5148917    0.4376702 -72.94  0.001187209    1.107    0.097
        21 -12.8423     58.8972    130.9128   1.1089860110e+02   4.1975854897e+01     1.179061     0.725854 -69.13  0.006099031    1.449    0.310
        22  -9.2489    125.9559    172.0000   1.0139358454e+02   2.1806252985e+01    0.2383423   0.07649735  41.88 0.0008038141    2.952    0.661
        23  -8.5217     42.4933    171.4912   1.2021507924e+02   3.4532048235e+01     0.169865    0.1236681  19.73 0.0008172229    2.031    0.508
        24  -7.8314    161.5177    166.5143   9.2452704417e+01   1.6005335856e+01    0.1453483    0.1371651  49.25 -9.114976e-05    1.023    0.022
        25  -9.4008     74.4162    164.8593   1.1217623261e+02   3.1926922167e+01    0.2621462    0.1873437  72.96 0.0004321306    1.365    0.268
        26  -9.9653     94.7681    154.5846   1.0570891726e+02   3.1147587758e+01     0.362386    0.3082365 -47.49 0.0009344079    1.321    0.243
        27 -10.0216     98.0031    151.0017   1.0428698342e+02   3.1433757701e+01    0.4153834    0.2951206  63.00  0.001447283    1.468    0.319
        28 -10.3067    134.3184    147.1245   9.4664490012e+01   2.5572185651e+01     1.016271    0.2267628 -52.31  0.002545604    5.291    0.811
        29  -8.7070    107.6248    146.2862   1.0101965360e+02   3.0847541816e+01    0.1540049     0.107453  73.55 0.0003199991    1.719    0.418
        30 -10.7196    107.8552    138.7924   9.9468798404e+01   3.2534032604e+01    0.5226108    0.3766521 -32.40  0.002472952    1.772    0.436
        31 -10.6690     95.7803    138.5601   1.0252617205e+02   3.4703498890e+01    0.2755447    0.2598163 -71.12 0.0004815272    1.079    0.073
        32 -10.6723    114.2293    196.2166   1.0775486978e+02   1.8896644695e+01    0.4149141    0.2033994 -63.38  0.001894293    2.320    0.569
        33  -9.8026    105.9241    130.9447   9.8319950603e+01   3.4706392820e+01    0.3486819    0.3144102 -72.83  0.001178609    1.057    0.054
        34 -10.0515    114.9368    129.8103   9.5721506095e+01   3.3286533581e+01    0.3657613    0.2885388 -23.34  0.001207674    1.627    0.385
        35  -8.1981    163.6718    129.3175   8.3723773346e+01   2.3110857458e+01    0.1588572    0.1245148 -86.99  0.000247078    1.680    0.405
        36 -10.4042    113.6776    173.1967   1.0437831088e+02   2.3765624376e+01    0.2653917    0.2278905  43.49  0.001519944    1.192    0.161
        37  -9.0659    135.5015    124.9868   8.9361334961e+01   3.0219674508e+01    0.3952052    0.1392715 -56.67  0.001036035    4.503    0.778
        38  -9.3843    102.4593    125.5508   9.8060649638e+01   3.6590060762e+01    0.2793722     0.239885 -25.25 0.0002326714    1.392    0.282
        39  -9.5134    119.7010    123.8715   9.3117240268e+01   3.3716977211e+01    0.2495279    0.1922877 -31.11 0.0008673166    1.506    0.336
        40 -11.4251     69.6856    134.3530   1.0860071337e+02   3.9723822251e+01    0.5567132    0.4168557  86.00   0.00229021    1.378    0.274
        41  -8.8268    110.0669    118.9429   9.4496400378e+01   3.6719074250e+01     0.225718    0.2114633 -57.04  0.000390365    1.040    0.039
        42  -8.7985    125.9673    116.0000   8.9562181447e+01   3.4222038521e+01    0.2545048   0.08818164  44.31 0.0008033431    2.949    0.661
        43  -8.8424    168.1319    113.0042   7.8580724769e+01   2.5422017706e+01    0.3908089    0.2013681 -60.17  0.001247646    3.179    0.685
        44 -13.1801     68.4270    144.2938   1.1057827698e+02   3.7541012269e+01     2.727583     1.185905  65.76  0.002942679    4.957    0.798
        45 -10.5494    119.5032    111.0001   8.9991012328e+01   3.6671824519e+01    0.3643253    0.2822125 -68.17  0.001250237    1.429    0.300
        46  -9.0940    135.0000    106.4437   8.4732685180e+01   3.4391452254e+01     0.353074   0.08793861 -44.21 0.0009356544    3.942    0.746
        47  -8.6826    205.5178    110.0604   7.0183435443e+01   1.7170796559e+01    0.2397251    0.2027469  50.39 0.0006950014    1.228    0.186
        48 -10.1824    113.6719    208.2055   1.0948567436e+02   1.6659097751e+01    0.3345991    0.1985738  63.85  0.001174432    1.796    0.443
        49 -10.5610     57.1840     94.8263   1.0432795635e+02   5.0743067591e+01    0.3353044    0.1989402  56.33  0.001571393    2.259    0.557
        50 -10.3855    107.8399    203.4382   1.1005473230e+02   1.8532343014e+01    0.4788039     0.204524  52.77  0.001768539    2.252    0.556
        51  -8.4811     87.0888    202.9535   1.1422959643e+02   2.1877353434e+01    0.1795811    0.1584721 -19.44  0.001128346    1.775    0.437
        52  -9.7723     97.0967    200.5559   1.1189686986e+02   2.0822221048e+01    0.3396057     0.290456 -26.93   0.00139293    1.756    0.431
        53 -10.1362    161.8924     63.1388   6.5486154272e+01   3.6341376702e+01    0.4408308     0.313821 -82.37 0.0007200395    1.915    0.478
        54 -10.0910    194.8141    198.4816   9.1705220242e+01   3.8729650894e+00    0.4377132    0.2604594 -59.14  0.001956142    2.839    0.648
        55  -8.4566     68.9006     71.8462   9.4311416907e+01   5.4301983252e+01    0.1771999    0.1623961  88.71 0.0004774536    1.325    0.245
        56  -8.6990    103.8015    213.4398   1.1210423387e+02   1.7260336236e+01    0.1745337    0.1117032  34.33 0.0006686253    1.715    0.417
        57 -12.3111    190.6036     37.0189   5.2402076918e+01   3.2779665694e+01    0.9513729     0.771341  -1.63  0.003961959    1.505    0.335
        58  -7.8243    169.2429    234.6682   1.0232128895e+02   2.8519478443e+00    0.1106612   0.08873104  68.95  0.000290625    1.543    0.352
        59  -9.0131    163.0748     56.1088   6.3023453749e+01   3.7182710233e+01    0.2318731    0.2019928  25.77 0.0002815416    1.249    0.199
        60  -8.8591     82.3627    195.5469   1.1434359476e+02   2.4088897176e+01    0.2573376    0.1769285  74.25  0.001485581    1.379    0.275
        61 -11.8665     69.0860    187.0360   1.1615411242e+02   2.7777488208e+01    0.8293113    0.6100777 -68.45  0.005095405    1.351    0.260
        62 -10.6596    162.5638    224.1900   1.0208478709e+02   5.5595880709e+00    0.3102428     0.283096  70.68  0.002105603    1.247    0.198
