#   1 NUMBER                 Running object number                                     
#   2 MAG_AUTO               Kron-like elliptical aperture magnitude                    [mag]
#   3 X_IMAGE                Object position along x                                    [pixel]
#   4 Y_IMAGE                Object position along y                                    [pixel]
#   5 X_WORLD                Barycenter position along world x axis                     [deg]
#   6 Y_WORLD                Barycenter position along world y axis                     [deg]
#   7 A_WORLD                Profile RMS along major axis (world units)                 [deg]
#   8 B_WORLD                Profile RMS along minor axis (world units)                 [deg]
#   9 THETA_WORLD            Position angle (CCW/world-x)                               [deg]
#  10 FWHM_WORLD             FWHM assuming a gaussian core                              [deg]
#  11 ELONGATION             A_IMAGE/B_IMAGE                                           
#  12 ELLIPTICITY            1 - B_IMAGE/A_IMAGE                                       
         1 -12.2121     69.5165    147.2833   8.1333864377e+01   3.6695718278e+01     1.999523    0.8273507 -70.45  0.006364314    3.437    0.709
         2 -10.6118    237.4107     12.9941   1.3232638413e+01   2.5081805341e+01    0.7855963    0.4171689 -53.48  0.004401547    1.624    0.384
         3  -9.9168    231.7388     13.7982   1.3839461154e+01   2.6174262287e+01    0.6112523     0.244397 -44.80  0.003140526    2.222    0.550
         4  -9.2265    120.0073      8.8915   2.6807017548e+01   5.2293852909e+01    0.3453846    0.2789339  89.65  0.002141268    1.413    0.292
         5  -7.8163    179.4778      7.5099   1.7570096139e+01   3.8538326114e+01    0.1264693    0.1012529  83.03 0.0008101923    1.003    0.003
         6  -8.6257    116.6329     12.1711   2.8518621133e+01   5.2774531579e+01    0.2734857        0.195  62.04  0.001627989    1.221    0.181
         7  -7.1910     85.2927      5.6981   3.3560371944e+01   6.0004107502e+01    0.1056923   0.09367445 -87.76 0.0003039582    1.571    0.363
         8  -7.5616    171.6702      1.3210   1.6998929348e+01   4.0928526309e+01    0.1288986   0.07955178 -74.13 0.0002148279    1.692    0.409
         9  -7.6598     71.6155    243.5195   9.4306827900e+01   1.3379963446e+01    0.1921094    0.1167627 -70.81 0.0006828117    1.706    0.414
        10  -8.3963     62.7088    249.3614   9.6664355071e+01   1.3448780124e+01    0.2940012    0.1541581  66.02  0.001481025    1.941    0.485
        11 -13.0102     31.3907    246.6260   1.0245210054e+02   1.8071674262e+01     1.676779     1.214756 -62.71  0.005968551    1.634    0.388
        12 -13.7791      3.6079    187.9227   1.0355211731e+02   3.3944544680e+01     7.750715    0.9176989 -69.17   0.02484869    4.658    0.785
        13 -14.0988     10.3110    207.2114   1.0364719204e+02   2.8903901093e+01     2.619577     2.522686  54.31   0.01954274    1.395    0.283
        14  -9.0351    141.2432    229.1136   7.7293863437e+01   5.0049630026e+00    0.2863659    0.1680635  58.22  0.001242913    2.142    0.533
        15  -7.5488     84.4587    228.3438   8.9888959123e+01   1.4688777832e+01    0.1806304    0.1246319 -83.95 0.0009486483    1.547    0.353
        16  -8.0609    158.7692    227.2566   7.3082629133e+01   2.2835247232e+00    0.2117393    0.1073835 -36.75 0.0004364038    2.400    0.583
        17  -9.8931    128.7559    232.6033   8.0618434855e+01   6.4753868645e+00     0.328122    0.2987084 -54.13 0.0004739662    1.234    0.189
        18  -9.5979    153.6169    217.2549   7.2530769597e+01   5.1956465957e+00     0.581264    0.2433254  46.38  0.002179601    2.431    0.589
        19  -8.4695    146.3292    222.3129   7.5045369280e+01   5.4773918505e+00    0.1446364    0.1105307   0.14 0.0006328228    1.672    0.402
        20 -11.4414    123.7621    228.1840   8.1081312690e+01   8.2451959757e+00     1.098695    0.4535734 -63.97   0.00393149    3.495    0.714
        21  -7.9246     67.2659    214.3652   9.2042889170e+01   2.0408232929e+01    0.3220413    0.1775285 -79.88  0.001320807    1.966    0.491
        22 -11.6182    115.0220    228.4091   8.3082799252e+01   9.6961193818e+00    0.9156985    0.4841194  49.57  0.004117418    1.798    0.444
        23  -9.4873    112.0902    215.2281   8.1811435767e+01   1.3062363720e+01    0.4790892    0.1997794  27.32  0.001544247    3.636    0.725
        24 -10.5002    119.7837    212.1703   7.9528838441e+01   1.2397340539e+01    0.5958335    0.2676622  45.92  0.002348038    2.115    0.527
        25  -8.0964     91.3217    213.3182   8.6383778340e+01   1.6974066630e+01    0.4093605     0.148936  46.44  0.001510367    2.595    0.615
        26  -8.9454    106.9818    211.9672   8.2515513484e+01   1.4675743361e+01    0.2389572    0.1648887  69.48 0.0006578445    1.673    0.402
        27  -7.2297    241.4930    207.5234   5.2349829843e+01  -7.9018844292e+00    0.1330407    0.1084871 -11.04 8.085357e-05    1.030    0.029
        28 -10.5369    124.1128    205.7150   7.7441075452e+01   1.3071017262e+01    0.5850143       0.2773  37.16  0.001740743    2.024    0.506
        29 -10.4926    133.2527    232.9933   7.9675929379e+01   5.6203962067e+00    0.6179258    0.2193878 -48.92  0.002319984    3.134    0.681
        30  -8.2948     73.0139    204.5622   8.9493399827e+01   2.1866712875e+01    0.2433857    0.1743229  89.13 0.0005202621    1.422    0.297
        31  -8.5974    100.9167    202.7668   8.2553172484e+01   1.7839175997e+01     0.308757    0.1840465  53.36  0.001373612    1.705    0.413
        32  -8.5960     68.0918    202.6405   9.0404463287e+01   2.3046057275e+01    0.2749787    0.1775914 -66.35 0.0004713317    1.488    0.328
        33  -7.3926     90.8590    196.4304   8.4029743022e+01   2.1029371349e+01    0.1830679     0.141259  21.98  0.000394328    1.563    0.360
        34  -8.0551     98.9955    195.3435   8.1849180464e+01   1.9932173690e+01    0.2054215    0.1905637  63.95 0.0005003304    1.026    0.025
        35  -7.9730     60.6452    194.3348   9.1108216053e+01   2.6101684333e+01    0.2640575    0.1553385 -56.61  0.001191734    1.686    0.407
        36  -8.3411     56.5788    193.3837   9.1964619886e+01   2.6884613600e+01    0.3963929    0.2311267  29.85  0.001898614    1.963    0.491
        37  -7.6042     50.9487    194.2168   9.3410854853e+01   2.7419489410e+01    0.1896116    0.1633932  87.12 0.0006299448    1.009    0.009
        38  -7.7854     97.0000    189.9106   8.1461927602e+01   2.1587124444e+01    0.2391998   0.08333346 -58.42 0.0007933932    2.880    0.653
        39 -13.8084      5.1653    246.9974   1.0717940440e+02   2.0917636794e+01    0.4340939    0.3898304  71.09  0.002632633    1.390    0.281
        40  -7.8054     70.1632    188.8651   8.8032859540e+01   2.6093749772e+01    0.2134059    0.1662046 -33.11  0.001094178    1.671    0.401
        41  -9.9279     38.9777    177.4674   9.4274251763e+01   3.2982492859e+01     1.245491    0.7143349   7.53  0.005371211    3.131    0.681
        42 -10.9454     56.0127    181.6808   9.0566977391e+01   2.9844780834e+01     1.053835    0.5967407  80.72  0.004504866    2.276    0.561
        43 -14.1547     12.1778    245.2708   1.0585305011e+02   2.0528168311e+01    0.9533961    0.4077809 -80.36  0.002805275    2.063    0.515
        44  -8.4870     13.4923    181.9009   1.0083233136e+02   3.4499065143e+01    0.3401671    0.1743878  86.16  0.001244272    1.940    0.484
        45  -9.6980    141.2240    181.2435   6.8744676847e+01   1.5464864443e+01    0.2773223    0.2583032 -49.31 0.0002130955    1.098    0.090
        46 -10.6603     52.4978    182.4781   9.1553250223e+01   3.0103595672e+01      1.22935    0.5612253  88.14  0.004022664    3.969    0.748
        47  -7.9873    146.8940    178.7810   6.6849971754e+01   1.4908422183e+01    0.2327761    0.2091286  11.76   0.00038015    1.191    0.160
        48  -8.5401     70.7868    178.5081   8.6336788001e+01   2.8582164980e+01    0.3752304    0.2687314  19.06  0.001465982    1.787    0.440
        49  -8.9806     63.3573    176.2512   8.7917562041e+01   3.0210499101e+01    0.3775144    0.2444622 -68.98  0.001173197    1.445    0.308
        50 -15.3572      5.3535    240.9668   1.0680822015e+02   2.2118175829e+01     2.999658      1.58965  19.34  0.008748676    3.625    0.724
        51  -8.0948     89.0194    174.0132   8.0817706020e+01   2.6868737246e+01    0.3557675     0.165308  48.77   0.00133601    2.316    0.568
        52  -7.5829     34.6318    173.1918   9.4831820574e+01   3.4523407448e+01    0.1980996     0.103399 -61.02 0.0009470831    1.673    0.402
        53  -7.7833    147.1648    172.3718   6.5450431858e+01   1.6341634998e+01    0.2306575    0.1425639  50.97 0.0004912333    1.727    0.421
        54  -8.8293     84.9189    170.1830   8.1236090485e+01   2.8504974760e+01    0.2478613    0.2049517 -54.78 0.0004027451    1.195    0.163
        55 -10.3262     81.4168    158.2782   8.0029161056e+01   3.2088680156e+01    0.9192287    0.3847241 -58.46  0.001493625    2.265    0.559
        56  -8.4587    144.9845    249.0500   7.9491733929e+01   5.6193047856e-01    0.2594108    0.1636152  16.40  0.001060637    2.070    0.517
        57  -8.2190     55.3144    163.6756   8.8132164974e+01   3.4466791993e+01    0.2535127    0.1644243 -89.32 0.0009518597    1.739    0.425
        58  -8.6097     66.2933    162.6297   8.4981652586e+01   3.3249518068e+01    0.4807489    0.3067297  58.42  0.002213508    1.783    0.439
        59  -9.0781     50.4228    162.6367   8.9291047825e+01   3.5346150931e+01    0.3773059    0.1790092  60.21  0.001309466    3.040    0.671
        60  -7.2064     35.4174    163.4641   9.3390584992e+01   3.6860090463e+01    0.1362439    0.1148475 -78.28 0.0001805804    1.012    0.012
        61 -12.7747     53.0627    230.0807   9.6803524633e+01   1.8836800851e+01     2.568224     1.561833 -86.60 0.0009054508    1.613    0.380
        62  -7.8642    227.8042    155.7864   4.4371011177e+01   3.6907462208e+00     0.203926    0.1842707 -13.33 0.0008753148    1.111    0.100
        63  -7.7713     49.4880    155.0693   8.8378876079e+01   3.7376097122e+01    0.2044968    0.1252615 -64.59 0.0009831274    1.447    0.309
        64  -8.8615      2.1219    151.7022   1.0057901269e+02   4.2657404246e+01    0.3009232    0.1773688 -66.60  0.001200488    1.339    0.253
        65  -9.2160     87.6788    151.3903   7.6926303284e+01   3.2819781454e+01     0.419513    0.3297268 -14.01 0.0008372283    1.648    0.393
        66  -8.8775     93.1847    146.7489   7.4395112731e+01   3.3055261628e+01    0.5382032    0.2990917 -35.55 0.0008552761    2.294    0.564
        67  -8.4485     76.8944    151.1605   7.9953652833e+01   3.4607331952e+01    0.2826389    0.2034107 -87.69 0.0008434734    1.662    0.398
        68  -9.5657     55.7239    150.5016   8.5876353609e+01   3.7758959684e+01    0.4410534    0.2615787  59.84   0.00138253    2.121    0.529
        69  -9.7972     52.1409    146.8335   8.6272645099e+01   3.9137973685e+01    0.3553629    0.2646184  18.87  0.001441227    1.612    0.380
        70  -9.0218     41.0815    145.9913   8.9300046807e+01   4.0634555249e+01    0.2966937    0.1883072   0.70  0.001383118    2.363    0.577
        71  -7.5233    240.0000    145.0092   3.9968443255e+01   3.4995486126e+00    0.2330183   0.07057268 -41.46 0.0005069116    2.878    0.653
        72  -8.3841     43.6545    142.8463   8.8048595770e+01   4.1140098735e+01    0.1956402    0.1194367 -74.33 0.0003718405    1.619    0.382
        73  -8.0550    133.7844    147.4831   6.3355471588e+01   2.5020353240e+01    0.3479011    0.1932746 -60.01    0.0012757    2.145    0.534
        74 -11.4079     57.9256    132.3102   8.1871293743e+01   4.2060600186e+01    0.7649242      0.63041 -65.52  0.004191463    1.142    0.124
        75  -9.3491     26.0900    138.5995   9.2447106711e+01   4.3967032212e+01    0.3303523    0.2106206  54.06  0.001105507    1.847    0.459
        76  -7.9589    102.2859    137.7204   6.9778898312e+01   3.3671206598e+01    0.3517974    0.2261672 -16.85  0.001296555    2.600    0.615
        77  -9.0655    153.4953    136.1095   5.5614110462e+01   2.3418254235e+01    0.3868611    0.3069709 -32.57  0.001085661    1.336    0.252
        78  -9.8458     90.0031    136.3983   7.3064507643e+01   3.6195667538e+01    0.3063092    0.2996941  78.31 0.0004281166    1.058    0.055
        79  -9.7487     69.0814    168.8774   8.5259373119e+01   3.1262722511e+01    0.3926925    0.3005834 -25.23  0.001949306    1.724    0.420
        80  -9.4103     11.3043    129.0413   9.5333101960e+01   4.7478608643e+01    0.4096908    0.1892537 -58.82  0.002032462    1.675    0.403
        81  -9.6317     43.9159    130.1224   8.5739594743e+01   4.4286033381e+01    0.2771802    0.2210134  84.90  0.001354403    1.422    0.297
        82  -9.1764     38.5653    129.7303   8.7303241481e+01   4.4955329862e+01     0.314095    0.2287016 -85.35 0.0004800464    1.506    0.336
        83 -10.0603     20.9717    126.7830   9.2139866749e+01   4.7294698493e+01    0.4428678     0.225262 -67.46  0.002162162    1.668    0.401
        84  -7.7236    111.4514    129.0028   6.5065890478e+01   3.4033459508e+01    0.2457604    0.1526854 -47.18 0.0007271424    1.578    0.366
        85  -9.3418     76.8583    234.0612   9.2202216652e+01   1.4604310009e+01     0.295105    0.2138441 -87.90 0.0005904014    1.389    0.280
        86 -10.0650     48.9296    124.9865   8.3200839147e+01   4.4982269971e+01    0.5118371    0.3118987  65.28  0.001986729    2.501    0.600
        87  -8.7351     98.9177    124.5049   6.7619133074e+01   3.7514694161e+01    0.2932567    0.2748827   3.52 0.0008213512    1.113    0.102
        88  -8.7919     68.4896    124.4822   7.6950249576e+01   4.2549910753e+01    0.2604432    0.1268429  43.95 0.0007864948    2.324    0.570
        89  -7.2400    234.5099    122.5155   3.6070183929e+01   8.7263174391e+00    0.1422721    0.1240145 -52.58 0.0001427456    1.034    0.033
        90  -7.3768    108.1275    117.8397   6.3211220768e+01   3.7326123377e+01    0.2063507    0.1803828  -9.60 0.0002786969    1.255    0.203
        91  -8.1986     71.0356    117.5784   7.4562484279e+01   4.3850789220e+01    0.2503023    0.1936764 -66.16 0.0004663963    1.372    0.271
        92 -10.3408     59.7874    115.7401   7.7759654976e+01   4.5874843413e+01    0.2553649    0.2336373 -53.25 0.0003254868    1.058    0.055
        93  -8.3573     46.5201    115.0098   8.1922837597e+01   4.7680802732e+01    0.2238687    0.1251015 -59.64  0.001039085    1.620    0.383
        94  -7.8536    234.7448    233.7078   5.8482623506e+01  -1.1081414004e+01    0.1519843    0.1407126   4.62 0.0007264983    1.342    0.255
        95  -9.1819    119.3487    112.1818   5.8491805000e+01   3.6323131589e+01    0.4692719    0.3093308 -69.43  0.001848559    2.194    0.544
        96  -9.5389     74.3691    125.6781   7.5385109833e+01   4.1383464237e+01    0.4649339    0.2431607  27.19  0.001045435    2.211    0.548
        97  -9.5392     73.2934    164.5309   8.3393416660e+01   3.1748068183e+01    0.3700984    0.2414654 -46.74 0.0009506219    1.586    0.369
        98  -7.4436    110.9887    102.9616   5.8377312394e+01   4.0094453146e+01    0.1882419    0.1735918  32.84 0.0004210162    1.079    0.073
        99  -7.5571     53.6870    167.3621   8.9126452565e+01   3.3742086995e+01    0.1803983    0.1417389  19.02 0.0009615858    1.567    0.362
       100  -8.1228    185.7240    229.4347   6.7597323021e+01  -2.7796674428e+00    0.4250286    0.1165391 -43.16  0.001422968    3.875    0.742
       101  -7.1958    137.4285     80.4833   4.4775665890e+01   3.8744987968e+01    0.1495183    0.1447004  49.00 9.746092e-05    1.010    0.010
       102  -8.0778    203.9021     77.7426   3.0837127247e+01   2.3373911967e+01    0.1950696    0.1823177  69.87 0.0003414771    1.150    0.131
       103  -8.1139    130.3424     77.3135   4.5628377780e+01   4.0958673927e+01    0.2374955    0.2110662  16.83 0.0003589914    1.198    0.165
       104  -7.0472     98.7379     77.3436   5.4532801092e+01   4.7755730646e+01    0.1385225    0.1178111 -77.58 0.0005374316    1.597    0.374
       105  -7.7394    216.6881     74.5395   2.8188652756e+01   2.1004721180e+01    0.1761726    0.1269071  80.83 0.0004842806    1.421    0.296
       106  -8.5728    100.9573     65.0176   4.9954604799e+01   4.9499885263e+01    0.2114967    0.1914001  21.65  0.001204684    1.012    0.012
       107  -7.7491    143.8493     59.7975   3.7283661899e+01   4.0693455840e+01    0.1955887    0.1659683 -83.45 0.0004717103    1.325    0.245
       108 -10.2933    189.0806     55.6947   2.7858300881e+01   3.0368278654e+01     0.552187    0.3187574  76.08  0.001769821    1.844    0.458
       109  -7.0450    169.6717     57.6773   3.1582401816e+01   3.4758464199e+01    0.1439426    0.1083699  30.96 0.0007048986    1.693    0.409
       110 -11.2454    200.3759     46.6171   2.4081092413e+01   2.9005705012e+01    0.7960131    0.6975639 -70.85  0.004303156    1.092    0.084
       111 -11.3234    209.3058     38.2902   2.1083116922e+01   2.8077540337e+01    0.6338345     0.541196  76.17  0.001382602    1.166    0.142
       112  -7.0006     98.4028     49.5091   4.5578173725e+01   5.2448767432e+01    0.1371203     0.122166  21.75 6.501249e-05    1.020    0.019
       113  -8.0976    149.3811     41.6677   3.0947851800e+01   4.1922299926e+01    0.2242364    0.1696446  56.00  0.001223154    1.179    0.152
       114  -8.7887    221.5369     40.1700   2.0094761015e+01   2.5079258438e+01    0.2502802    0.1634047 -75.70 0.0008180366    1.451    0.311
       115  -7.7749    100.3404     24.6771   3.6477832538e+01   5.5144116859e+01    0.1231313    0.1012102 -83.88 0.0007050785    1.723    0.420
       116  -8.5722    186.1605     19.6587   1.9625390823e+01   3.5717631949e+01    0.2011616    0.1840446  69.32 0.0002848164    1.221    0.181
       117  -8.8267    140.5852    248.8419   8.0399839723e+01   1.3343205900e+00    0.2342965    0.1438947  42.39  0.001082138    1.400    0.286
       118  -8.8788    138.4191    245.2224   8.0345600220e+01   2.3678016803e+00    0.2265195    0.1361381 -68.90   0.00105148    2.426    0.588
       119  -8.1884     91.4883    247.5758   9.0636252018e+01   9.5668478996e+00    0.4159748    0.1973857  69.68  0.001530845    3.709    0.730
       120 -10.2754    104.5013    244.3451   8.7512461279e+01   8.1574523146e+00      0.28646    0.2343228 -73.09 0.0005783163    1.343    0.255
       121  -8.9560     48.6466    244.0185   9.8955661965e+01   1.6447448769e+01    0.2558253    0.1505194  61.72 0.0005170574    1.471    0.320
       122  -8.5181     79.1314    244.6427   9.2877216929e+01   1.2042131981e+01     0.379688    0.1621388  44.36   0.00174854    1.963    0.491
