#   1 NUMBER                 Running object number                                     
#   2 MAG_AUTO               Kron-like elliptical aperture magnitude                    [mag]
#   3 X_IMAGE                Object position along x                                    [pixel]
#   4 Y_IMAGE                Object position along y                                    [pixel]
#   5 X_WORLD                Barycenter position along world x axis                     [deg]
#   6 Y_WORLD                Barycenter position along world y axis                     [deg]
#   7 A_WORLD                Profile RMS along major axis (world units)                 [deg]
#   8 B_WORLD                Profile RMS along minor axis (world units)                 [deg]
#   9 THETA_WORLD            Position angle (CCW/world-x)                               [deg]
#  10 FWHM_WORLD             FWHM assuming a gaussian core                              [deg]
#  11 ELONGATION             A_IMAGE/B_IMAGE                                           
#  12 ELLIPTICITY            1 - B_IMAGE/A_IMAGE                                       
         1 -10.3657     50.3779     37.0329   6.8357903381e+01   6.3808677693e+01    0.9441451     0.636382 -62.09  0.004648552    2.519    0.603
         2 -10.3858     39.1796      8.5581   6.0527069881e+01   6.9709229836e+01    0.5582487    0.3489749 -27.08  0.002866592    1.490    0.329
         3 -12.3105     44.5624     23.1767   6.5055557386e+01   6.6879965444e+01    0.9610689    0.8072981 -44.48  0.006161194    1.556    0.357
         4 -11.4258     76.5599     23.4722   5.2016733580e+01   6.1491891992e+01    0.7917968    0.4204254 -13.54  0.003509654    2.389    0.581
         5 -11.6400     77.9763     13.6726   4.7156989231e+01   6.2399399677e+01    0.6440869    0.4660497   6.85  0.003381533    1.379    0.275
         6 -11.1096     71.7167      5.8400   4.5630716518e+01   6.4468704435e+01    0.5474207    0.3943863  54.40  0.002567693    1.486    0.327
         7 -11.6945     84.0471      3.9302   4.0835060745e+01   6.2122683868e+01    0.9638502    0.4151518  57.26  0.003533132    2.171    0.539
         8 -11.4565    143.3199      3.9664   2.8178892156e+01   4.8107979826e+01    0.7502856    0.4513256  70.23  0.003825698    1.474    0.322
         9 -13.7574    166.8121     10.9268   2.6975284235e+01   4.1548393202e+01     2.296827     1.626862  84.71   0.01248969    1.349    0.259
        10 -12.0157    154.6774     19.7443   3.1434660032e+01   4.3717627092e+01    0.5295525    0.5062796   7.87  0.003251065    1.179    0.152
        11 -10.5684    128.1776     17.8420   3.5626696100e+01   5.0569843379e+01    0.4184338    0.3561125  28.82  0.001645868    1.194    0.162
        12  -9.9506    129.5071     12.9851   3.3638151155e+01   5.0731737124e+01    0.4240173    0.2279895  46.39  0.001990971    1.699    0.412
        13 -10.2100    116.0285     16.1986   3.7649541031e+01   5.3691068963e+01    0.4946122    0.3066412 -51.02  0.002362045    2.113    0.527
        14  -9.8400     94.1395     17.1844   4.3666118708e+01   5.8614751573e+01      0.46685    0.2820084  77.29  0.001980582    2.873    0.652
        15 -10.0346    227.4178     15.5706   2.1715058969e+01   2.6459582378e+01    0.4469129     0.242779 -87.04  0.002270909    1.909    0.476
        16  -9.9544     69.8611     14.0652   5.0178129908e+01   6.3936794004e+01    0.3750587     0.180507 -28.00   0.00180132    2.123    0.529
        17  -9.7289     20.6819     13.9046   7.3045932878e+01   7.1161720174e+01    0.4221078    0.1715031 -31.18  0.002035616    2.333    0.571
        18  -9.6199    105.1148     12.8217   3.8934977025e+01   5.6600084302e+01    0.3756252    0.2374181  -9.27  0.001910521    1.822    0.451
        19 -11.0940    249.8107      9.3475   1.8669381286e+01   2.2331516512e+01    0.4393975    0.2332914 -42.36  0.002522559    1.604    0.376
        20  -9.5987    231.4068      8.4987   1.9817351470e+01   2.6346188191e+01     0.394413    0.1589225 -59.83  0.001743224    2.574    0.612
        21 -10.9217    130.9554      3.8530   3.0162727365e+01   5.1199423971e+01    0.8244681    0.2735515  55.93  0.003297725    2.333    0.571
        22 -11.8172    121.1056      4.3259   3.2141093366e+01   5.3576388441e+01     1.079802    0.4749877  71.57  0.004464175    2.405    0.584
        23 -10.1417    111.7902      5.4208   3.4464217864e+01   5.5722072039e+01    0.3875874    0.2851186  89.55  0.001534926    1.690    0.408
        24 -11.2329    105.9686      4.6022   3.5438732097e+01   5.7162463596e+01    0.6558146    0.4226432  64.05  0.003300022    1.467    0.318
        25  -8.9462    225.3141      6.6569   1.9881589573e+01   2.7893531407e+01    0.1363396   0.07481078 -62.31 0.0007047392    1.708    0.414
        26  -9.1716    222.5986      4.1283   1.9525692572e+01   2.8764909193e+01    0.2575817    0.1263768 -15.46  0.001141273    3.216    0.689
        27 -10.5706    208.2734      4.2920   2.0741258717e+01   3.2045850466e+01    0.4244137    0.2339038  87.41  0.002186769    1.726    0.421
        28 -10.2138     94.9060      2.7293   3.7339929138e+01   5.9853158447e+01     0.367088    0.2997556  37.06  0.002272789    1.041    0.040
        29 -10.6753     61.0275      2.4127   4.7797065438e+01   6.6842379704e+01    0.5302711    0.2304751  38.02  0.002550569    2.014    0.503
        30  -8.9986    218.2196      2.2200   1.9434820845e+01   2.9950450753e+01    0.2005707   0.08655436  89.46 0.0008790046    2.472    0.595
        31  -8.3209     17.5938      1.7849   6.8675668152e+01   7.3280182642e+01    0.1446561   0.09655652 -37.66 0.0006979349    1.569    0.362
        32 -11.1782     40.1197     29.5133   6.9956084735e+01   6.6445813060e+01     0.542587    0.2893353 -41.74  0.002349147    1.764    0.433
        33  -9.4600     86.9982     48.9914   5.8712934686e+01   5.5617850754e+01    0.3001666    0.2775181  33.76  0.001650117    1.153    0.133
        34  -9.7245     83.2253     48.5742   5.9871799081e+01   5.6411825969e+01    0.3474819    0.2360446  31.26  0.001309538    1.448    0.309
        35  -8.2658     96.3523     47.3188   5.4979884913e+01   5.4012055135e+01     0.153985    0.1060148  13.64 0.0007047248    1.744    0.427
        36 -10.7807      3.3882     40.9642   9.2356882208e+01   6.7415831722e+01    0.4156926    0.3970245 -83.12  0.002777332    1.375    0.273
        37 -10.3275    202.6012    222.2074   7.1635790369e+01  -1.2629089372e+00     0.174972    0.1102983 -21.99  0.000957413    1.710    0.415
        38 -11.3802     10.7797    140.1636   1.0557692459e+02   4.4192954253e+01     0.438735    0.2485632 -87.56  0.002399147    1.573    0.364
        39  -9.2928     39.8938    141.4364   9.7712523642e+01   4.1358225149e+01    0.2912759    0.1400449 -54.07   0.00134126    1.951    0.487
        40  -9.4889      6.0451     35.2204   8.9353407629e+01   6.8433808681e+01    0.2726798    0.2126997  45.06  0.001819796    1.839    0.456
        41  -9.0576     12.0880     32.8296   8.5436294590e+01   6.8532829629e+01    0.2420735    0.1547692 -60.56  0.001084325    1.674    0.403
        42 -10.4438     85.9881     31.4996   5.2173621898e+01   5.8539366127e+01    0.2363438    0.2153932  55.20 0.0009486938    1.304    0.233
        43 -10.9407     90.1713     28.5757   4.9605995188e+01   5.8078199522e+01    0.3894264    0.2852472  27.03  0.001690356    1.296    0.228
        44  -9.6781    226.4797     29.1067   2.4902200455e+01   2.5088147964e+01    0.3741986    0.1824075  70.43  0.001800327    2.019    0.505
        45 -12.2391    248.9971    128.9951   4.4804117192e+01   5.6087961968e+00     1.228633    0.4696448 -41.11   0.00505557    2.358    0.576
        46 -12.1715    238.0371    125.7035   4.5791491662e+01   8.1438941767e+00    0.7528383    0.7172264  67.09  0.004702036    1.264    0.209
        47  -9.0110     23.5755    125.6034   1.0036002930e+02   4.6732041378e+01    0.2273107    0.1166686  -4.94 0.0009563533    3.438    0.709
        48 -10.0072      4.7684    124.8501   1.0575282062e+02   4.8233420390e+01    0.2393131    0.1256716  53.88   0.00125816    2.106    0.525
        49  -8.8189     59.4826    124.4892   8.9238447625e+01   4.3303272826e+01    0.1406561     0.128913 -66.03 0.0005324352    1.008    0.008
        50 -11.1204     10.6119    122.2208   1.0378459515e+02   4.8496181193e+01    0.3787064    0.1872437 -74.20  0.001940586    1.667    0.400
        51  -9.1262    224.4929     22.5023   2.3562402338e+01   2.6326086117e+01    0.1292821    0.1096691 -71.46 0.0008106458    1.005    0.005
        52 -10.2285     84.1600     22.1054   4.8829410933e+01   6.0153794783e+01    0.3144144     0.195893  50.58  0.001609204    1.570    0.363
        53  -8.3221     19.9532     23.0000   7.7501348086e+01   6.9720335313e+01    0.1756188   0.06303556  23.54  0.000796945    2.905    0.656
        54  -9.7686    188.9828    117.0183   5.2608084475e+01   1.9822175661e+01    0.4069911    0.2020725 -18.88  0.001157423    4.390    0.772
        55  -8.3232    148.4968    111.4929   6.0338165392e+01   3.0082350699e+01    0.1557323     0.155234  65.70 0.0008103487    1.038    0.037
        56 -12.0782    242.5784    133.1443   4.6703566077e+01   6.0942199642e+00    0.6753209    0.5603476  46.01  0.003906554    1.384    0.278
        57  -9.8891     17.2141    104.6900   9.9478485044e+01   5.2275519411e+01    0.3051051    0.2400108  43.07  0.001914387    1.468    0.319
        58  -9.3114    111.5085     16.4867   3.8816309560e+01   5.4734037889e+01    0.2603692    0.2167111  43.53 0.0009154048    1.052    0.050
        59  -9.0177     31.0278    101.3046   9.4278154345e+01   5.2025884370e+01    0.1808306    0.1684394 -48.89  0.001166662    1.100    0.091
        60 -11.9081     42.5326     81.1162   8.5824700760e+01   5.5709665236e+01     1.012895    0.6869346  -5.61  0.005286118    1.785    0.440
        61 -10.3426     65.1850     16.2354   5.2953744059e+01   6.4539311723e+01    0.4135323     0.193256  55.50  0.001723713    3.043    0.671
        62  -8.6407    193.6565     87.3029   4.4095968770e+01   2.4175383976e+01     0.154503    0.1151854 -73.77 0.0006621433    1.682    0.405
        63  -8.9731    144.9715     81.0501   5.2644671818e+01   3.7014741800e+01    0.2588427    0.1934712  13.83  0.001140993    1.729    0.422
        64  -9.9548      2.6205     88.0380   1.0203119311e+02   5.7057182885e+01    0.3514425    0.2139186  89.88  0.001973127    1.727    0.421
        65 -11.7004      5.1056     76.6240   9.9324969863e+01   5.9576080907e+01    0.7071902     0.499608  72.42   0.00427306    1.769    0.435
        66 -10.4679     19.0760     73.9690   9.3349081353e+01   5.9375635360e+01     0.485711    0.1974752 -52.07   0.00219193    1.888    0.470
        67 -10.1334     67.1424     29.5760   5.8198249953e+01   6.2373294891e+01    0.3932812     0.173735 -27.05  0.001650235    2.511    0.602
        68 -11.5802     12.7283     72.2184   9.5519337601e+01   6.0175286090e+01     0.660637    0.5082693 -81.47  0.004164337    1.398    0.285
        69  -9.4046     74.4032     69.7332   7.0486231353e+01   5.3941596198e+01    0.3114403    0.2571441  39.28  0.001636119    1.308    0.235
        70  -9.2585     77.5283     66.9729   6.8447249172e+01   5.3985781992e+01    0.3050387    0.2117736 -19.55  0.001467498    1.620    0.383
        71  -9.0800     83.0218     68.9981   6.7155000865e+01   5.2621542586e+01    0.2434946    0.1734236  -9.90  0.001144582    1.704    0.413
        72 -10.0853     25.2955     65.4140   8.8805482836e+01   6.0837364263e+01    0.4640386     0.195302 -53.38  0.002181185    1.879    0.468
        73  -9.0531    103.0660     26.1090   4.4768796811e+01   5.5588041294e+01     0.228252    0.1722856  26.68  0.001228114    1.292    0.226
        74  -9.5261     48.2650     62.1931   7.8263033828e+01   5.9239106907e+01    0.3498899    0.2197763  39.18  0.001796368    1.848    0.459
        75  -9.0096     76.4744     59.9825   6.6457922469e+01   5.5547064074e+01    0.2185776    0.1334235 -40.56 0.0006253746    1.581    0.368
        76  -9.0253    169.8630     76.3615   4.5692312044e+01   3.1811312592e+01    0.3083132    0.1964541 -57.51  0.001294948    1.893    0.472
        77  -9.1399    164.3060     54.3406   4.0358385121e+01   3.6781994732e+01    0.1529917    0.1137185  23.89   0.00054383    1.682    0.406
        78  -8.8502     35.2758     52.9613   8.0908663555e+01   6.2594961470e+01    0.1891008    0.1508521 -32.84 0.0007324289    1.049    0.047
        79 -11.0020     81.8728     39.5468   5.6849953295e+01   5.8153238944e+01    0.9603897    0.4257101 -40.31  0.004005934    2.370    0.578
