#   1 NUMBER                 Running object number                                     
#   2 MAG_AUTO               Kron-like elliptical aperture magnitude                    [mag]
#   3 X_IMAGE                Object position along x                                    [pixel]
#   4 Y_IMAGE                Object position along y                                    [pixel]
#   5 X_WORLD                Barycenter position along world x axis                     [deg]
#   6 Y_WORLD                Barycenter position along world y axis                     [deg]
#   7 A_WORLD                Profile RMS along major axis (world units)                 [deg]
#   8 B_WORLD                Profile RMS along minor axis (world units)                 [deg]
#   9 THETA_WORLD            Position angle (CCW/world-x)                               [deg]
#  10 FWHM_WORLD             FWHM assuming a gaussian core                              [deg]
#  11 ELONGATION             A_IMAGE/B_IMAGE                                           
#  12 ELLIPTICITY            1 - B_IMAGE/A_IMAGE                                       
         1 -12.6320     68.3723    144.0686   8.3789461346e+01   3.7597225709e+01     3.318712         1.78  76.43  0.003737119    5.517    0.819
         2 -12.8754    232.3299     41.0272   2.5061949735e+01   2.5267784042e+01      1.01761    0.8172886  47.37   0.00743902    1.822    0.451
         3  -9.6068    112.2311     20.2551   3.4987585022e+01   5.2964835917e+01    0.3452777    0.2261376 -75.73 0.0007273711    1.975    0.494
         4 -10.8722      3.4524      4.7226   7.2421417088e+01   7.5140879098e+01    0.4470653    0.2942286 -12.88  0.002930542    1.306    0.235
         5  -9.6247    116.4249    245.1502   8.5970634022e+01   7.0951810091e+00    0.2844176    0.1375834 -60.03  0.001279757    2.633    0.620
         6 -10.1023     15.8629    249.1210   1.1007308275e+02   1.7467081874e+01    0.3079411    0.2157942  69.39  0.001625957    1.346    0.257
         7 -14.2610     17.6964    237.6216   1.0903242928e+02   1.9745200630e+01     7.606083     2.843225   8.99   0.02589613    4.937    0.797
         8 -14.5368     26.0026    181.8698   1.0270044663e+02   3.2358726624e+01     8.980388     3.264175  83.97   0.02371673    5.972    0.833
         9  -8.5760     74.5568    237.9418   9.5315931575e+01   1.3716621232e+01    0.1799576    0.1339402 -68.91 0.0003849087    1.547    0.354
        10 -11.4860     42.9972    172.1384   9.6490454900e+01   3.3260329855e+01    0.9064237    0.4768937 -22.15  0.001238201    2.867    0.651
        11  -9.6539     40.7520    211.7484   1.0140383105e+02   2.3467204132e+01    0.2933003    0.2043998  57.29 0.0005154352    1.438    0.304
        12 -10.1547     79.0800    207.2813   9.0547083218e+01   2.0079748676e+01    0.3046004    0.2494715 -82.39 0.0004727634    1.411    0.291
        13 -12.2213      8.3391    196.3217   1.0880612173e+02   3.0140326035e+01    0.5499059    0.4469645  -0.94 0.0008018879    1.437    0.304
        14  -7.9117     62.2158    182.9405   9.2076563091e+01   2.8243245249e+01    0.1918059    0.1201657 -66.67 0.0004835701    1.654    0.395
        15  -9.5320    230.4392    167.7475   4.9115742290e+01   6.3059169432e+00    0.2537536      0.10041 -44.82  0.001162734    2.202    0.546
        16  -8.3713    110.6355    167.2457   7.5187722689e+01   2.5197425396e+01    0.2192967    0.1924344 -74.79 0.0006142432    1.342    0.255
        17 -11.2285     76.3807    137.7809   7.9839286664e+01   3.8057314550e+01    0.4527649    0.3496396 -47.79 0.0004419218    1.273    0.214
        18 -11.5600     71.6372    152.4566   8.4274566960e+01   3.4946079299e+01    0.6681718    0.5469233  40.81 0.0009833626    1.254    0.202
        19  -8.4914    249.6822    249.3135   5.9537375720e+01  -8.1171085350e+00   0.08978678   0.07889143 -15.82  0.000703669    1.647    0.393
        20  -9.9530    235.5906    156.5025   4.6286119152e+01   7.4952436356e+00    0.2176759    0.1894712  60.40   0.00149839    1.619    0.382
        21 -10.5435    114.5374    230.5626   8.4493861657e+01   1.0243041892e+01    0.3741329    0.2432348  61.11  0.001726294    2.380    0.580
        22 -12.4935     48.3458    153.6051   9.2178794109e+01   3.7604710769e+01     0.673862    0.4148676 -24.83  0.001670173    1.995    0.499
        23  -9.3831     89.2844    139.9622   7.6065538869e+01   3.5462775865e+01    0.4254569    0.3017583 -17.72 0.0008051296    1.715    0.417
        24  -8.3071     93.2917    137.3373   7.4218779081e+01   3.5450003776e+01    0.3131839    0.1970224 -28.14 0.0007311167    1.945    0.486
        25  -9.6768    104.9152    130.0457   6.8951649098e+01   3.5177912448e+01    0.4168627    0.3418107  34.08  0.001150186    1.207    0.171
        26 -10.2433     63.0519    157.9898   8.8036213453e+01   3.4652486663e+01    0.3128487    0.2802745 -25.72 0.0003616922    1.130    0.115
        27  -9.9403     90.1316    125.4759   7.2536645817e+01   3.8904543563e+01    0.3201825    0.2653574   2.72 0.0004903477    1.290    0.225
        28 -10.9370     50.3310    166.7486   9.3470115366e+01   3.3881315281e+01    0.3950885    0.2986529 -32.69 0.0007095587    1.421    0.296
        29  -8.6854    102.8204    118.2280   6.6739170859e+01   3.8334129467e+01    0.2105694    0.2051242  35.81 0.0003404172    1.071    0.066
        30  -8.6018    204.4773    110.8812   4.2130709539e+01   2.0033147553e+01    0.2491758    0.1681411  31.32  0.001320723    2.022    0.505
        31  -9.9241     52.0005    106.1587   8.1740674877e+01   4.9539786084e+01    0.4539095    0.1794395 -57.55  0.001632574    2.506    0.601
        32 -10.2638     42.7672    105.6937   8.5352356928e+01   5.0794537557e+01    0.3016456    0.2713158  53.86 0.0005023791    1.294    0.227
        33 -11.3704      2.0953     80.4161   9.8182933618e+01   6.0325844377e+01    0.9391379   0.02359477 -60.56  0.002752675    4.585    0.782
        34 -12.9529      9.9553    207.0508   1.0907949231e+02   2.7403287381e+01     1.323575     1.024801 -31.56  0.004759851    1.563    0.360
        35  -8.4571     45.1553     84.5019   7.9082414855e+01   5.5585284292e+01    0.2153099    0.1996184  60.57  0.000857379    1.341    0.254
        36  -8.8730    161.3277     83.3212   4.3213894010e+01   3.3184962416e+01     0.135649    0.1094764  14.37 0.0006952939    1.688    0.407
        37  -8.8965    184.6266     77.2771   3.7864386546e+01   2.9321036513e+01    0.2245141    0.1614847 -33.08 0.0006698292    1.493    0.330
        38  -9.0642     52.5273     90.5794   7.7592900961e+01   5.3199599873e+01    0.3405367    0.2431305  23.51  0.001682658    1.365    0.267
        39 -13.5975     17.4996    189.6179   1.0581695090e+02   3.1098588318e+01     2.207721     1.354292  56.91  0.007239719    1.647    0.393
        40 -12.1599    217.2699     52.3716   2.8560659202e+01   2.6541314948e+01    0.8112622    0.4461338 -49.87  0.004806039    1.536    0.349
        41  -9.9829     13.3520     60.1779   8.7782166518e+01   6.4277172636e+01    0.2584488    0.2065578   2.64 0.0004601773    1.180    0.153
        42  -9.8840      2.4101     50.3292   9.1192903552e+01   6.7098815445e+01    0.2545866    0.1462081 -37.19  0.001154824    1.442    0.307
        43  -9.7402      4.0730     42.7845   8.7967178926e+01   6.8543542486e+01    0.3530287    0.1328267   1.61  0.001413532    3.087    0.676
        44 -11.8390    211.0193     56.9423   3.0116912978e+01   2.7099901681e+01    0.7060838    0.3936403 -55.68  0.004022629    1.625    0.385
        45  -9.7609      2.0000     26.9741   8.3783382887e+01   7.1686180595e+01    0.3153135   0.06318493 -55.53  0.001061308    5.025    0.801
        46  -9.0949     81.9796    247.7245   9.4524491943e+01   1.0803149982e+01    0.1933288    0.1536982  25.52 0.0006268088    1.081    0.075
        47 -10.0518     11.0976     19.6013   7.4454919656e+01   7.2127840530e+01    0.2600776    0.1833994 -71.44  0.001325985    3.336    0.700
        48  -7.7506    189.4763     15.5063   2.3575372658e+01   3.6306891124e+01    0.1138657   0.09248079 -80.82 0.0001356521    1.032    0.031
