#   1 NUMBER                 Running object number                                     
#   2 MAG_AUTO               Kron-like elliptical aperture magnitude                    [mag]
#   3 X_IMAGE                Object position along x                                    [pixel]
#   4 Y_IMAGE                Object position along y                                    [pixel]
#   5 X_WORLD                Barycenter position along world x axis                     [deg]
#   6 Y_WORLD                Barycenter position along world y axis                     [deg]
#   7 A_WORLD                Profile RMS along major axis (world units)                 [deg]
#   8 B_WORLD                Profile RMS along minor axis (world units)                 [deg]
#   9 THETA_WORLD            Position angle (CCW/world-x)                               [deg]
#  10 FWHM_WORLD             FWHM assuming a gaussian core                              [deg]
#  11 ELONGATION             A_IMAGE/B_IMAGE                                           
#  12 ELLIPTICITY            1 - B_IMAGE/A_IMAGE                                       
         1 -15.8376    160.0658     95.5618   6.3659560102e+01   3.0981377422e+01     6.710456     2.420028  40.61   0.01867496    3.366    0.703
         2 -16.5434    143.3130     46.0315   5.2755196267e+01   4.3168967171e+01     22.63952     8.481967 -47.44   0.07671459    3.544    0.718
         3 -17.5968    250.0707    144.7273   5.8711649512e+01   3.9827898994e+00     17.68192    0.4629402 -38.74    0.0232898   22.782    0.956
         4 -18.7066    229.6942     65.9130   4.4279906667e+01   2.0549437903e+01     6.370789     3.807964 -39.61    0.0333743    1.488    0.328
         5 -13.0485    182.7564     38.1181   4.3682993021e+01   3.4857011717e+01    0.6220821    0.3542601 -26.45  0.001748111    1.966    0.491
         6 -11.1952    169.3305     23.7780   4.1696301334e+01   3.9725755026e+01    0.6508256    0.2449678 -12.79  0.001611968    8.720    0.885
         7 -11.8415    226.0915     17.3682   3.3870702047e+01   2.7616231161e+01    0.3176077    0.1894257 -39.24    0.0018556    1.573    0.364
         8 -13.2085    103.1923     16.3497   5.1558638951e+01   5.5886029938e+01    0.4447676    0.2208907 -11.75  0.001656623    2.565    0.610
         9 -10.0209     71.3727      7.2556   5.6674666915e+01   6.3299446706e+01    0.1526999    0.1099327 -25.07 0.0004846106    1.515    0.340
        10 -12.0191     59.3963      2.9485   5.8706848314e+01   6.5912283729e+01    0.3498105    0.1723769  20.63  0.001688887    2.325    0.570
        11 -15.8859     66.6187    142.5982   1.0063141270e+02   3.7690607609e+01     2.011098     1.588733 -11.90  0.003582058    1.580    0.367
        12 -11.4910    175.1213    115.4027   6.5593959910e+01   2.3768241827e+01    0.5662376    0.3460669 -69.32  0.001238832    3.049    0.672
        13 -12.6306    156.0769    118.1721   7.0576459903e+01   2.7309718908e+01    0.4592498    0.3731372 -25.06  0.002243324    1.270    0.212
        14 -13.4096    160.7908    128.2534   7.2007763604e+01   2.4188925623e+01    0.7005727    0.4870914 -47.40  0.002511535    1.434    0.302
        15 -13.5722    162.6991    120.5819   6.9651467937e+01   2.5390106097e+01    0.7721083    0.5064324 -65.79  0.001429188    2.217    0.549
        16 -12.7781    167.8679    114.1796   6.6857206661e+01   2.5583947556e+01    0.5771388    0.5003904 -11.31  0.001030284    1.228    0.186
        17 -11.3825    183.5857    123.2306   6.5763180915e+01   2.0414684178e+01    0.4364998    0.2726867 -45.11  0.001471125    1.553    0.356
        18 -11.1028    186.4939    120.3166   6.4454084687e+01   2.0373332278e+01    0.4204746    0.3258425 -66.40  0.001507419    1.604    0.376
        19 -10.1852     98.8074    126.8158   8.7975384694e+01   3.6672914346e+01    0.2237743    0.1996592 -15.36 0.0004881092    1.184    0.155
        20 -10.2162    203.7469    123.6105   6.1894524021e+01   1.6176372703e+01    0.1998193    0.1422378  61.81 0.0009512892    1.755    0.430
        21 -11.4374    220.4918    121.1639   5.8352431891e+01   1.3303596616e+01    0.3889096    0.2449155  36.72   0.00124944    1.861    0.463
        22 -10.5102    111.9775    121.7419   8.2969343853e+01   3.5499990167e+01    0.3014409    0.2200727 -43.54   0.00090882    1.317    0.241
        23 -11.5758    115.0327    118.5071   8.1294378399e+01   3.5667855128e+01    0.3055299    0.2084476  42.47  0.001372997    1.525    0.344
        24 -11.5468    151.0285    122.0547   7.2773793057e+01   2.7561733860e+01     0.244267    0.2374982 -12.87 0.0009371294    1.021    0.020
        25 -12.3321    214.2123    116.7336   5.8400738933e+01   1.5332077582e+01    0.3282957    0.2845962 -47.24 0.0007684883    1.124    0.110
        26 -11.4504    213.1843    112.3561   5.7551029690e+01   1.6323583788e+01     0.259827    0.2126435 -48.74 0.0005764607    1.184    0.155
        27 -12.3347    208.5628    111.1282   5.8060215195e+01   1.7487262387e+01    0.7296191    0.5638348  84.30   0.00367264    1.755    0.430
        28 -10.9610    189.7026    148.6869   7.0483779905e+01   1.4133930046e+01    0.6003315    0.4013858 -26.55  0.002577622    1.551    0.355
        29  -9.9417    202.4557    248.4788   8.6850831746e+01  -5.2616301633e+00    0.1218974   0.09671103  11.13 4.371929e-05    1.019    0.019
        30 -12.6783    177.2818    169.8786   7.7762621110e+01   1.2266762678e+01      0.31882    0.2256777 -48.26  0.001057281    1.491    0.329
        31 -11.2532    190.0476    106.6673   6.0366062865e+01   2.2218617329e+01    0.4227196    0.3364193  43.43   0.00216964    1.337    0.252
        32 -11.2524    149.7943    130.5555   7.5193477099e+01   2.5983490534e+01    0.2971322    0.2148674 -43.92 0.0008637827    1.346    0.257
        33 -12.9325    217.3659    130.7102   6.1069612788e+01   1.2190128195e+01    0.4302555    0.3816282  55.40  0.001816184    1.322    0.244
        34 -11.0792    222.4458    105.0779   5.4326041250e+01   1.5736419472e+01    0.2533737    0.2296608  29.94 0.0005016373    1.249    0.199
        35 -10.5579    222.4733    101.1121   5.3401958019e+01   1.6409388113e+01    0.2019704    0.1837249 -85.80 0.0003559442    1.229    0.187
        36 -11.8365    194.8403    166.1959   7.3264807754e+01   9.7618660230e+00    0.2582857     0.239042 -13.96  0.001483141    1.061    0.058
        37 -13.2097    200.9914    100.8527   5.6903156811e+01   2.0923522611e+01    0.3626748    0.3468665  58.74  0.001101331    1.128    0.114
        38 -11.4010    188.0108     98.3645   5.8655377017e+01   2.4196457039e+01    0.4726287    0.2883683 -31.86  0.001470487    1.660    0.398
        39 -10.1937    183.9429     98.4443   5.9456456663e+01   2.5081783690e+01     0.371622    0.2320519 -49.39  0.001164149    1.639    0.390
        40 -10.5901    200.8781     88.4036   5.3838495531e+01   2.3125259923e+01    0.2922989    0.1762764  70.13  0.001275386    2.147    0.534
        41 -11.3928    151.3923    151.0321   7.9606818404e+01   2.1174897732e+01    0.3817431    0.2873902 -72.38  0.001661899    1.804    0.446
        42 -11.0275    172.3652    149.9074   7.4491327486e+01   1.7285156686e+01    0.2528489    0.2162082  52.18 0.0007707053    1.313    0.238
        43 -12.3337    143.7413    145.4004   8.0200583170e+01   2.3922202419e+01    0.9756424    0.4672936 -61.04  0.003088222    3.417    0.707
        44 -12.1547    103.3265     60.3179   6.7464417103e+01   4.9905926559e+01    0.2955222    0.2392621  13.71 0.0009720108    1.269    0.212
        45 -10.8161    216.4225    148.0831   6.5124190170e+01   9.2054340647e+00    0.3010952    0.1962619  37.40  0.001018113    1.665    0.400
        46 -10.7809    176.6125     54.8010   4.9137948114e+01   3.4031278403e+01    0.3071319    0.2285849 -26.68  0.001602342    1.449    0.310
        47 -10.8650    214.8732    134.8551   6.2454447452e+01   1.1910631955e+01    0.2524402    0.2510458 -32.85  0.001081888    1.163    0.140
        48 -11.0046    179.9029     47.9089   4.6731084191e+01   3.4232388899e+01    0.3311134    0.2731837 -69.74  0.001102095    1.246    0.197
        49 -10.9579    185.4072     45.3855   4.5223021204e+01   3.3286130863e+01    0.7131211    0.3870387  25.74  0.002510483    4.121    0.757
        50 -12.3553    181.4289     54.4294   4.8246513434e+01   3.2954370810e+01    0.3413846    0.2637073 -40.62 0.0006426778    1.279    0.218
        51 -10.9862    209.6346    145.1965   6.5749131161e+01   1.0991894284e+01    0.3499887    0.2328721  58.80   0.00117524    2.041    0.510
        52  -9.5976    171.3165     43.2850   4.6825695434e+01   3.6886362853e+01    0.1369808    0.1024828  32.89 0.0002251254    1.585    0.369
        53 -12.8800    178.5136    145.2927   7.2084528580e+01   1.7015673948e+01    0.8684094    0.4730964 -61.11  0.002446247    3.144    0.682
        54 -10.3706    201.4560     25.5817   3.8147764721e+01   3.2064865121e+01    0.2639866     0.132374 -17.03  0.001129204    3.054    0.673
        55 -10.7782    201.2601     20.5309   3.6953124574e+01   3.2680494516e+01    0.2062539    0.1738968   8.63 0.0006806945    1.614    0.380
        56 -12.5741    192.4185     34.5165   4.1441748356e+01   3.3060507254e+01    0.5250905    0.4073278  27.44   0.00204323    1.700    0.412
        57  -9.8798    195.8998     26.1421   3.8915407083e+01   3.3261720381e+01     0.418941    0.3192151  33.89  0.002076612    1.697    0.411
        58 -11.0064    170.0557     32.2292   4.3938967344e+01   3.8582286746e+01    0.2672687    0.1969155 -30.69 0.0006531379    1.450    0.310
        59 -11.6408    211.3216    132.8368   6.2640411018e+01   1.2962924822e+01    0.8614675    0.4852076 -14.31  0.003169069    3.050    0.672
        60 -13.1018    182.7767    206.7812   8.3779633208e+01   4.2999090847e+00    0.7807072    0.4093136   7.55  0.002623466    4.163    0.760
        61 -12.5963    178.2083    133.5057   6.9385609437e+01   1.9476800960e+01    0.5774009    0.4054436  36.05  0.002709679    1.508    0.337
        62 -12.3862    189.0677    138.5191   6.8281768116e+01   1.6267063517e+01    0.5599256    0.3762121  40.85  0.002125172    1.568    0.362
        63 -11.8637    192.3594    153.9470   7.1112217973e+01   1.2591166965e+01    0.6430117    0.4376954  30.69   0.00308893    1.567    0.362
        64  -9.5697    167.2863    139.3120   7.3183381553e+01   2.0515677014e+01    0.1547625    0.1183224  -6.31 0.0001945345    1.578    0.366
        65 -15.7506     20.9908    158.7753   1.1537907878e+02   3.8584652166e+01     2.436934       1.9016  54.83   0.01530725    1.333    0.250
        66 -11.7902    240.4941    132.6759   5.7650395105e+01   7.6127984680e+00    0.2766567    0.2139985  65.04  0.001161865    1.762    0.432
        67 -10.4799    233.0253     10.5408   3.1872667781e+01   2.6919519581e+01    0.1450695    0.1008186  71.03 0.0005355896    1.436    0.304
        68 -13.8659     54.9936    147.6786   1.0479484812e+02   3.7880531355e+01    0.4797296    0.4338915 -46.28 0.0008756783    1.145    0.126
        69 -11.0336    190.5551    131.0152   6.6213031339e+01   1.7441626148e+01    0.3015048    0.2170319  46.02            0    1.489    0.329
