#   1 NUMBER                 Running object number                                     
#   2 MAG_AUTO               Kron-like elliptical aperture magnitude                    [mag]
#   3 X_IMAGE                Object position along x                                    [pixel]
#   4 Y_IMAGE                Object position along y                                    [pixel]
#   5 X_WORLD                Barycenter position along world x axis                     [deg]
#   6 Y_WORLD                Barycenter position along world y axis                     [deg]
#   7 A_WORLD                Profile RMS along major axis (world units)                 [deg]
#   8 B_WORLD                Profile RMS along minor axis (world units)                 [deg]
#   9 THETA_WORLD            Position angle (CCW/world-x)                               [deg]
#  10 FWHM_WORLD             FWHM assuming a gaussian core                              [deg]
#  11 ELONGATION             A_IMAGE/B_IMAGE                                           
#  12 ELLIPTICITY            1 - B_IMAGE/A_IMAGE                                       
         1 -14.6564    174.8823     28.4973   7.6270725958e+01   3.7837137862e+01      1.38182    0.9843219   7.48  0.004523774    1.645    0.392
         2 -13.4083    178.6303     21.4518   7.3295631114e+01   3.7683730381e+01    0.5984656    0.5435838  68.72  0.001095564    1.123    0.109
         3 -10.6145    188.9925    225.3018   1.1782020340e+02   6.9407060041e+00    0.1497847    0.1063375  40.58 0.0004427093    1.052    0.050
         4 -19.3798     51.0075    152.8294   1.3420864673e+02   3.8267705684e+01     16.60137     4.644179 -73.07   0.06814469    3.795    0.736
         5 -10.8525     17.0309    206.0000   1.4398911895e+02   3.2367531027e+01    0.1583426   0.06034759  38.88 0.0009881988    2.362    0.577
         6 -11.7554    227.6492    170.7261   1.0346026495e+02   6.5571189244e+00    0.2576661    0.2012138 -48.28  0.001109504    1.826    0.452
         7 -11.5938    137.4921    170.4236   1.1913087136e+02   2.2556547273e+01    0.2545851    0.1682217  38.33  0.001491977    1.478    0.323
         8 -10.8078    113.0338    169.0461   1.2361391251e+02   2.6770717643e+01    0.1842145    0.1494808  65.23  0.000425934    1.071    0.066
         9 -11.8370    100.1345    165.5874   1.2568428880e+02   2.9352648235e+01    0.2613719    0.2235294 -38.12 0.0008091691    1.632    0.387
        10 -11.2366    130.1453    205.8149   1.2501656553e+02   1.8361703095e+01     0.167007    0.1241892  61.15  0.001198576    1.190    0.160
        11 -13.4900     89.4103    160.4390   1.2717629534e+02   3.1858668048e+01    0.3842406    0.3371073  16.89   0.00127598    1.653    0.395
        12 -11.3580    103.8782    159.1020   1.2407555184e+02   2.9951468916e+01    0.2853599     0.242205 -33.14  0.001066827    1.663    0.399
        13 -11.8833    105.3218    154.6696   1.2315889101e+02   3.0536449888e+01    0.3019804     0.216433  63.22  0.001853431    1.296    0.228
        14 -10.9563     92.3702    211.1894   1.3193087127e+02   2.2954626964e+01     0.210041    0.1161056  52.52  0.001177875    1.388    0.280
        15 -12.3529    199.1942    199.6101   1.1272860473e+02   8.1296632957e+00    0.2673739    0.1767723  34.94  0.001536528    1.240    0.193
        16 -12.1731    192.3600    193.8023   1.1297169459e+02   9.9358191770e+00    0.7802107     0.411094 -62.66  0.002674395    7.623    0.869
        17 -11.7456    111.6057    196.9059   1.2723560027e+02   2.2440179968e+01    0.2931331    0.1859608  22.92  0.001617456    2.746    0.636
        18 -11.6875    134.1080    146.6780   1.1599930442e+02   2.7157061182e+01    0.5844221    0.1771733 -54.96  0.002002135    4.361    0.771
        19 -10.4232    179.9701    147.6966   1.0728963785e+02   1.8390776377e+01    0.1874631    0.1553344  44.38 0.0005532213    1.095    0.086
        20 -10.7679      4.4245    146.2814   1.4328496640e+02   4.4014478646e+01    0.1411406    0.1254541  26.93 0.0009603615    1.659    0.397
        21 -12.4856    114.6981    212.5029   1.2832319978e+02   1.9676830860e+01    0.2288819    0.1470152  50.98  0.001201253    1.196    0.164
        22 -11.5234    113.1920    141.5390   1.1948595016e+02   3.1708716203e+01    0.3600098    0.1929986 -42.09  0.001719856    2.402    0.584
        23 -12.3778    102.4433    142.2652   1.2190613228e+02   3.3317290905e+01    0.2314188     0.196527  59.16 0.0002670909    1.098    0.089
        24 -13.7946    104.0417    208.4751   1.2972000759e+02   2.1768285251e+01    0.5165858    0.2912833  55.17  0.003408087    1.427    0.299
        25 -11.1170    118.4643    131.5413   1.1660550891e+02   3.2704655921e+01    0.2445108     0.228661 -10.02   0.00063428    1.350    0.259
        26 -10.7289    166.1948    209.9030   1.1949510178e+02   1.2232039119e+01    0.1621811    0.1273342  54.43 0.0003958904    1.192    0.161
        27 -11.7500    209.4664    188.8846   1.0943364770e+02   7.6355392654e+00    0.2568839    0.1230114  33.64  0.001340844    1.956    0.489
        28 -11.7699     93.6780    188.0077   1.2949728446e+02   2.6430427721e+01    0.2851044    0.1684925  54.06 0.0005360703    1.390    0.280
        29 -11.9215    106.4655    129.0716   1.1882136132e+02   3.5227823855e+01    0.4126308    0.2374271 -47.40  0.001535683    1.897    0.473
        30 -12.4957    121.6318    206.9258   1.2658280565e+02   1.9472039969e+01    0.3672881    0.1777153  65.88  0.001825286    2.939    0.660
        31 -11.0972     28.9777    184.8775   1.4091216654e+02   3.4732018863e+01    0.1485237    0.1078691  70.03 0.0004116497    1.035    0.034
        32 -10.6675    202.1076    183.2008   1.0971270965e+02   9.5497806507e+00    0.2105774    0.1693906  34.86   0.00129473    1.022    0.021
        33 -10.6684    112.7583    120.1715   1.1572839365e+02   3.5910318227e+01    0.2218978    0.1657216  58.27 0.0003650444    1.318    0.242
        34 -11.0864      2.3125    112.9334   1.4152191191e+02   5.0822022754e+01    0.1543514    0.1075374 -85.51 0.0006527948    1.084    0.078
        35 -10.5739    204.9176    110.2349   9.4701454423e+01   1.8821996412e+01    0.2832226    0.1794587  34.20  0.001356912    1.640    0.390
        36 -11.9946     92.7524    179.8005   1.2879236664e+02   2.7940474568e+01    0.2496112    0.1949843 -47.33  0.001721045    1.754    0.430
        37 -12.2790     95.2246    174.8553   1.2776704953e+02   2.8440707724e+01     0.283614    0.2139594 -50.45  0.001091882    1.695    0.410
        38  -9.9406    123.6669    101.7274   1.0920759879e+02   3.7543334813e+01    0.1335677    0.1112006   7.73 0.0002789506    1.595    0.373
        39 -12.4554     11.1617    205.9529   1.4491975971e+02   3.2917388524e+01    0.3683744    0.1506548  41.69  0.002402325    2.050    0.512
        40 -13.5106    162.4579     43.8738   8.3662720605e+01   3.8985830228e+01    0.5987673    0.4326572 -19.88  0.001032189    1.423    0.297
        41 -12.2486    179.9023    242.7617   1.2123510652e+02   6.4987302418e+00    0.2150029   0.09559258  45.71  0.001352518    1.643    0.391
