#   1 NUMBER                 Running object number                                     
#   2 MAG_AUTO               Kron-like elliptical aperture magnitude                    [mag]
#   3 X_IMAGE                Object position along x                                    [pixel]
#   4 Y_IMAGE                Object position along y                                    [pixel]
#   5 X_WORLD                Barycenter position along world x axis                     [deg]
#   6 Y_WORLD                Barycenter position along world y axis                     [deg]
#   7 A_WORLD                Profile RMS along major axis (world units)                 [deg]
#   8 B_WORLD                Profile RMS along minor axis (world units)                 [deg]
#   9 THETA_WORLD            Position angle (CCW/world-x)                               [deg]
#  10 FWHM_WORLD             FWHM assuming a gaussian core                              [deg]
#  11 ELONGATION             A_IMAGE/B_IMAGE                                           
#  12 ELLIPTICITY            1 - B_IMAGE/A_IMAGE                                       
         1 -13.1732     21.6219     60.3170   7.8285381497e+01   6.6266318920e+01     1.544955     1.323383  28.39  0.005715036    1.223    0.183
         2 -13.0411      5.9145     47.3061   8.5462702729e+01   7.0899391147e+01     3.098489    0.7129698 -69.54   0.00984905    3.705    0.730
         3 -13.8962    240.5166      7.4199   9.1520451034e+00   2.6752991642e+01     2.824872     1.524537  77.59   0.01809143    2.143    0.533
         4 -11.7519    217.2988      3.7259   9.1664816295e+00   3.1436549550e+01    0.6786534    0.4013282  68.16  0.003070957    2.014    0.503
         5 -10.1982    120.2800      9.3097   1.7613770117e+01   5.3582602810e+01    0.4048786    0.3830644  54.30  0.001553075    1.192    0.161
         6 -10.6988    247.6347    224.7115   5.0199931665e+01  -1.1242549103e+00    0.2679788    0.1923724  -1.15  0.001752242    1.161    0.139
         7 -11.0421    247.2646    250.1117   5.3810451113e+01  -3.7393068198e+00    0.4232444    0.1617394  23.58  0.002775365    2.350    0.574
         8 -10.6330    249.7461    243.6044   5.2578942793e+01  -3.2849547957e+00    0.4470316    0.1708262 -21.09  0.002696209    2.394    0.582
         9 -12.2155    220.9160    246.8607   5.7289816488e+01  -1.1959896756e+00    0.4602003    0.2554913  21.02  0.003359058    1.551    0.355
        10 -19.2966    199.5261    147.3267   4.4301582853e+01   1.4894658824e+01     5.390106     4.905628 -22.16   0.01950927    1.150    0.131
        11 -11.8063     67.8862    143.7958   7.5770557819e+01   3.7600710595e+01    0.8310408    0.5873716  78.86  0.002709291    1.654    0.395
        12  -9.6230    249.6838    217.5253   4.8849850222e+01  -5.1463390933e-01    0.1873281    0.1201718 -13.37 0.0008315363    1.094    0.086
        13  -8.6363     24.7679    135.9695   8.9768145175e+01   4.4898874288e+01    0.1982772    0.1708745  84.77            0    1.074    0.069
        14 -10.0121     46.7388    122.7523   7.9734407461e+01   4.6199748906e+01    0.2578288    0.2317375  67.95 0.0002917782    1.075    0.070
        15  -9.0130    250.6725    120.1162   3.1878700727e+01   1.1535730019e+01    0.1634396   0.08075679 -32.25 0.0003102473    1.513    0.339
        16  -8.5896    249.4797    209.5200   4.7663877128e+01   4.0471714895e-01    0.1042482   0.07152534 -12.10 0.0003429177    1.001    0.001
        17 -12.6985     98.7326     99.1788   5.5576851429e+01   4.3529732864e+01     1.219673    0.7057236 -38.18  0.004372521    1.944    0.486
        18 -13.7763     65.3437     84.2104   6.3213673535e+01   5.3761481799e+01      1.88908     1.618294  49.59  0.008746078    1.184    0.155
        19 -13.7516     81.6432     90.4783   5.8796843680e+01   4.9099042536e+01     2.053561    0.8398311  45.74  0.001776085    2.510    0.602
        20 -10.1601    154.4545    205.9717   6.3337682168e+01   1.1551571997e+01    0.3270536    0.1971994 -36.42 0.0009353642    1.678    0.404
        21  -9.1628    235.0627     81.0006   2.5493391586e+01   1.9103641514e+01    0.2042213    0.1376946 -61.05  0.001017507    1.624    0.384
        22  -8.9471    131.1104    206.8999   6.8479863360e+01   1.4436347491e+01    0.1840714    0.1605375  34.34  0.001185326    1.206    0.171
        23 -12.2685     90.0383     99.1423   5.8390615579e+01   4.5309733276e+01    0.7515922    0.6694058  26.10   0.00220756    1.226    0.184
        24  -9.7032     91.2987     75.0197   5.0422071619e+01   5.0651849270e+01    0.2164528    0.1975202 -56.76 0.0004617503    1.078    0.073
        25 -12.6466     45.2195     72.7512   6.8831107257e+01   6.0046623462e+01    0.7159804    0.3659965  49.25   0.00105221    2.281    0.562
        26  -9.1005    120.7575    203.1281   7.0302024352e+01   1.6502183828e+01    0.3400329    0.2216855  87.58  0.001504174    3.258    0.693
        27 -10.8533    229.5473    243.9211   5.5565632791e+01  -1.6330624179e+00    0.1946723     0.140572  -6.03 0.0006240355    1.144    0.126
        28 -10.5744    191.2218     71.0067   2.8013915005e+01   2.8592720963e+01    0.4352652    0.2400003  57.30  0.001354783    2.066    0.516
        29 -10.0104    213.5877     69.9638   2.5173833418e+01   2.4365803027e+01    0.1982092    0.1787555 -85.93 0.0003119763    1.269    0.212
        30 -10.8730    225.3035    217.4377   5.2405558926e+01   1.7913033459e+00    0.4123702    0.1562282  22.35  0.001515513    2.842    0.648
        31  -9.1475    216.6699     65.5656   2.3826515077e+01   2.4393537328e+01    0.2358595    0.1257366  71.17  0.001232435    2.348    0.574
        32  -9.9373    139.8516    203.7495   6.6098514359e+01   1.3841785605e+01    0.2037486    0.1672643  82.32 0.0006411872    1.963    0.491
        33  -9.7197    199.4558     61.5931   2.4651099660e+01   2.8273448950e+01    0.3583814    0.2182831  44.64  0.001712205    2.206    0.547
        34  -9.3625     70.3901    198.7587   8.2266766962e+01   2.3933304215e+01    0.2663252    0.1902172  88.21 0.0009409112    1.657    0.396
        35 -10.6084    133.8528    193.3343   6.5852279639e+01   1.6550828172e+01    0.4112672    0.2610945  61.89  0.001858629    2.807    0.644
        36 -10.5206    248.1930    236.3152   5.1785582797e+01  -2.4100076059e+00    0.2333552     0.152252  22.14  0.001106375    1.642    0.391
        37 -11.1063    161.5108    215.5188   6.3328585218e+01   9.1394720691e+00    0.4635162    0.2525551  25.39  0.002435166    1.629    0.386
        38 -10.2512    181.7611     55.1914   2.5007856308e+01   3.2898979777e+01    0.2706652     0.189156  63.44  0.001068074    1.584    0.369
        39  -9.8707    141.2988     54.9712   3.0902981088e+01   4.2382747103e+01    0.2074359    0.1787254 -46.24 0.0002640126    1.105    0.095
        40 -11.3968    148.7166     51.3242   2.8466574788e+01   4.1129418515e+01    0.7053494    0.3439012  37.25  0.002415739    3.737    0.732
        41 -11.2768    136.3230     51.3274   3.0597022062e+01   4.4181653707e+01    0.6195037    0.3399654  32.69  0.002231247    3.258    0.693
        42 -10.5286    140.4888     47.8257   2.8685246806e+01   4.3676451824e+01    0.4122688     0.256687  39.34  0.001611381    2.129    0.530
        43  -9.2533    117.9789     51.0375   3.4230794538e+01   4.8832166423e+01     0.231636    0.1808383  28.15 0.0006324759    1.646    0.393
        44 -10.5164    180.7101     44.4476   2.2171804502e+01   3.4599810894e+01    0.4322048    0.2009325  59.55  0.001967193    2.336    0.572
        45  -9.1476    152.5048     42.5007   2.5084846920e+01   4.1472758718e+01    0.1410507    0.1288813 -63.90 6.311309e-05    1.049    0.047
        46  -8.5190    162.8766     37.5314   2.2191674692e+01   3.9628516130e+01    0.1902207    0.1306019  72.93  0.000544203    1.490    0.329
        47  -8.9840    179.2658     35.4533   1.9808289524e+01   3.6075345571e+01    0.2169367    0.1222319  67.99 0.0006979282    1.873    0.466
        48 -11.3799    231.0632     24.2279   1.3229436369e+01   2.6739129121e+01    0.5119779    0.2055433 -55.57  0.002652925    2.096    0.523
        49  -8.7126    110.1721    244.4834   7.7593237767e+01   1.0578511526e+01    0.1710919   0.09381404  26.05 0.0005162386    1.444    0.308
        50  -9.4966     68.4729    179.7272   8.0661161518e+01   2.8511907520e+01    0.2926893     0.223239 -70.61  0.001018834    1.407    0.289
        51  -8.4066     35.8305    240.2358   9.3808196691e+01   1.9177436741e+01    0.1425637    0.1250587  10.85 0.0003569093    1.314    0.239
        52  -8.6689    115.7828     12.4231   1.9468388440e+01   5.4470648799e+01    0.2275167    0.1301504  75.73 0.0009693294    1.624    0.384
        53  -9.5055    117.8667    228.1121   7.4147776181e+01   1.2390562190e+01     0.280581    0.1904878 -77.60  0.001573143    2.413    0.586
