#   1 NUMBER                 Running object number                                     
#   2 MAG_AUTO               Kron-like elliptical aperture magnitude                    [mag]
#   3 X_IMAGE                Object position along x                                    [pixel]
#   4 Y_IMAGE                Object position along y                                    [pixel]
#   5 X_WORLD                Barycenter position along world x axis                     [deg]
#   6 Y_WORLD                Barycenter position along world y axis                     [deg]
#   7 A_WORLD                Profile RMS along major axis (world units)                 [deg]
#   8 B_WORLD                Profile RMS along minor axis (world units)                 [deg]
#   9 THETA_WORLD            Position angle (CCW/world-x)                               [deg]
#  10 FWHM_WORLD             FWHM assuming a gaussian core                              [deg]
#  11 ELONGATION             A_IMAGE/B_IMAGE                                           
#  12 ELLIPTICITY            1 - B_IMAGE/A_IMAGE                                       
         1 -12.0913      1.8464     78.4104   7.5010248697e+01   6.2315568073e+01     1.167516    0.2395021 -78.85  0.001839897    5.221    0.808
         2 -14.6407    233.6440      8.2271   3.5288309547e+02   2.8158035666e+01     3.743577     1.706641  80.38   0.02325877    2.318    0.569
         3 -12.7970    202.7662     17.8787   3.5643311699e+02   3.2855643881e+01    0.6958171    0.3603134 -63.91  0.003555373    1.664    0.399
         4 -12.2954    210.8069     13.5817   3.5502962599e+02   3.1751486657e+01     1.187252    0.3870424 -25.41   0.00492532    3.919    0.745
         5 -12.3252    229.2430     29.6646   3.5736063598e+02   2.6646464730e+01    0.3820748    0.2316222 -38.04  0.002544443    1.378    0.274
         6 -12.4693    227.2206     49.3617   1.5028942761e+00   2.4673633796e+01     1.036727    0.3854204 -45.62   0.00539727    1.978    0.494
         7 -10.2418    193.7933    223.7759   3.8880014054e+01   3.5042593920e+00    0.3055409    0.1820913 -17.24   0.00107755    1.504    0.335
         8 -15.2157    193.6739    193.2215   3.4117652019e+01   8.0790209396e+00     7.793299     5.058417  64.38   0.02708612    7.545    0.867
         9 -15.9169    176.9705    165.8014   3.2384179979e+01   1.4837720798e+01     4.259147     3.328182  77.25   0.01414457    2.359    0.576
        10 -11.1910    172.8778    214.9020   4.1464592315e+01   7.1044385659e+00    0.2470272    0.2390804  50.83  0.001767877    1.620    0.383
        11 -11.2461    190.1410    212.9111   3.7902216040e+01   5.4737687141e+00    0.2556254     0.233454  11.82  0.001611848    1.435    0.303
        12 -15.0345    169.4303    114.8071   2.3282088344e+01   2.5324050001e+01     3.167464     2.408464  52.64   0.01342003    1.466    0.318
        13 -15.8037    193.3148    174.0267   3.0880787804e+01   1.1188039113e+01     6.139863     2.627204  51.29   0.02070942    6.183    0.838
        14 -15.9044    236.7225    128.4906   1.6069861173e+01   1.2421077760e+01     1.599919    0.6151263 -31.39  0.007652234    2.450    0.592
        15 -10.0258    179.9998    208.7170   3.9138718679e+01   7.2579230835e+00    0.1741291    0.1380056   0.68  0.001171277    1.059    0.056
        16  -8.6257    169.2900    209.3076   4.1317378994e+01   8.4217351839e+00    0.1262588   0.08069687 -10.61 0.0003720447    1.577    0.366
        17 -10.7338     11.5040    205.9603   8.0834068412e+01   2.7515726846e+01    0.1926281    0.1658389  55.08  0.001207203    1.064    0.060
        18 -14.6559    242.9031     82.7318   6.7995779874e+00   1.7875657435e+01      2.05266     1.307956  18.00   0.01068636    3.743    0.733
        19 -10.0237    228.0979    203.9279   3.0183068276e+01   2.7994951164e+00    0.2064747    0.1300793 -35.21 0.0007337086    1.427    0.299
        20 -15.6718    205.4200    171.5132   2.8376295944e+01   1.0028513958e+01     2.592864     1.692098  46.40   0.01539227    2.118    0.528
        21 -16.2129    246.9701    108.6869   1.1275401255e+01   1.3815527369e+01     4.336006     1.849292 -57.06   0.01399236    4.311    0.768
        22  -9.7727    173.4743    199.9983   3.9015834517e+01   9.4431659930e+00    0.3595593    0.1803852  43.00  0.001720865    2.640    0.621
        23 -10.7631    170.9883    196.4972   3.8937362831e+01   1.0338371244e+01    0.3623277    0.2570961  63.47  0.001781735    3.086    0.676
        24 -10.0278    222.0578    197.9742   3.0169446334e+01   4.2187881586e+00    0.2533087    0.1830686  46.58  0.001664409    2.372    0.578
        25 -10.1101     15.9668    199.3571   7.9285868540e+01   2.8706774535e+01    0.1882333    0.1531203  32.73 0.0004635086    1.105    0.095
        26  -9.9575    230.8582    197.8883   2.8820087706e+01   3.3367642239e+00    0.1833436    0.1312667 -31.98 0.0008017186    1.294    0.227
        27 -10.3277    156.8820    190.0804   4.0778645883e+01   1.3309350652e+01    0.1954054    0.1681372  -5.50 0.0003683942    1.011    0.011
        28 -10.3244    223.6737    223.3497   3.3810034292e+01   6.7097108038e-01    0.1837864    0.1356525 -11.29 0.0005802142    1.074    0.069
        29 -10.2712    165.0006    187.9641   3.8722154048e+01   1.2591912365e+01    0.1953391    0.1670169  -9.05 0.0003403158    1.018    0.018
        30 -10.0091     91.9983    183.5296   5.5726414130e+01   2.3849026500e+01    0.2813738    0.1914365 -36.34 0.0009963637    1.647    0.393
        31 -17.4265    243.5841    137.0394   1.6795527633e+01   1.0341448821e+01     3.274905     2.212684 -21.35   0.01698679    1.383    0.277
        32 -11.1320    154.9001    179.0428   3.9304009833e+01   1.5622001709e+01     0.306208    0.1877212 -47.07 0.0009728319    1.676    0.403
        33  -8.8776     30.6753    178.2845   7.3524679375e+01   3.2617358129e+01    0.1548156   0.09121677  50.96 0.0003725669    1.601    0.375
        34 -12.1744    112.2928    169.7836   4.7948295013e+01   2.3973067400e+01    0.6604633    0.3069385  19.04  0.002316042    2.949    0.661
        35 -11.4629    123.6792    166.7835   4.4435782702e+01   2.2845479811e+01    0.3070665     0.190144  41.20  0.001427097    1.635    0.388
        36 -11.5731     67.8758    143.8796   5.6849726967e+01   3.7211880773e+01    0.7959217    0.4284397  53.63  0.002888926    2.193    0.544
        37 -10.4981    175.6347    222.3661   4.2041354301e+01   5.6378466534e+00    0.1891095    0.1320331  36.52 0.0009415201    1.741    0.426
        38 -10.4354      5.1829    137.1998   7.9144699634e+01   4.5767582748e+01     0.231648    0.2272396  25.96 0.0004177328    1.088    0.081
        39 -12.6301    123.1181    104.2393   3.0789004330e+01   3.6688376862e+01     1.250028     0.963622 -51.69  0.006169512    1.293    0.226
        40 -10.8394    111.3372    104.1229   3.3945149311e+01   3.9190282964e+01     0.549457     0.259989  41.46  0.001834905    2.148    0.534
        41 -11.9799    114.5832    110.7965   3.4766949636e+01   3.7036361615e+01     1.122044    0.6028769 -57.81   0.00434747    2.161    0.537
        42 -11.6157    125.3983    127.7867   3.5973733578e+01   3.1129394248e+01    0.8368762    0.2327766 -46.36  0.002510674    3.534    0.717
        43 -11.9467    126.0567    119.4051   3.3834571975e+01   3.2831884209e+01    0.6476468    0.4065059 -49.59  0.001292125    1.588    0.370
        44 -10.3463    112.6462    123.5060   3.8421128930e+01   3.4543921635e+01     0.477045     0.402092  73.38  0.001972199    1.379    0.275
        45 -10.9344    113.6892    119.4120   3.7151824886e+01   3.5275943882e+01    0.5899769    0.4320202  78.13  0.002227779    1.912    0.477
        46 -10.3143    120.9951    131.2548   3.7918030703e+01   3.1193848262e+01    0.2790195    0.2169015 -39.59 0.0005402499    1.301    0.231
        47 -12.6078     45.1166    101.3517   5.7370315634e+01   5.1979871097e+01    0.5448958      0.53206  34.79 0.0009435699    1.013    0.013
        48 -12.8281     61.4418    107.0151   5.1781715614e+01   4.8016555593e+01    0.9145578    0.6149012  40.18  0.001201116    1.446    0.308
        49 -13.9133     55.1156    102.1240   5.3221502682e+01   5.0311116115e+01     2.698425     1.012305  33.46  0.006893135    2.496    0.599
        50 -10.7098    139.8690    107.5176   2.7576579615e+01   3.2521514147e+01    0.3502647    0.2754841  88.03 0.0008577693    1.611    0.379
        51  -8.9114     94.9801    107.9686   3.9903829786e+01   4.1651881493e+01    0.1878857    0.1825935  51.68  0.000429409    1.010    0.010
        52  -8.7494    200.5605    218.5032   3.6902641509e+01   3.5578812588e+00    0.1142658   0.08623438  -9.41 0.0001340719    1.014    0.014
        53 -13.7155     14.1604     98.8106   7.1415131875e+01   5.5962043729e+01     1.714293     1.249696   3.82  0.005650786    1.458    0.314
        54 -15.2545    190.1398    124.8055   2.1881729670e+01   1.9924408839e+01     5.211217     1.001123 -43.14   0.01570279    4.571    0.781
        55 -11.1887    112.6183     96.8312   3.1611500921e+01   4.0509199276e+01    0.4867996    0.3542852 -30.38  0.002231632    1.609    0.379
        56  -9.9485    112.1796     89.3396   2.9619439052e+01   4.2191777600e+01    0.3971182    0.2848391 -20.94  0.001741783    1.912    0.477
        57  -9.9105    176.1529     89.2611   1.6172160010e+01   2.8476598598e+01    0.2265266        0.169 -31.60 0.0006289181    1.360    0.265
        58 -10.1750    172.2608     88.3529   1.6572411441e+01   2.9404636732e+01    0.2208955    0.1934764 -24.44 0.0003929639    1.259    0.206
        59 -10.9236    173.9599     84.4302   1.5351247113e+01   2.9712011968e+01    0.3720825    0.2555779 -20.85 0.0009808708    1.860    0.462
        60 -12.1853    182.6012     79.6515   1.2924409484e+01   2.8748119923e+01    0.7602391    0.4769635 -38.61   0.00254636    1.436    0.304
        61 -10.6226    249.3919    247.9883   3.3438256982e+01  -4.3319424831e+00    0.2596095    0.1395702 -20.44  0.001225649    1.326    0.246
        62  -9.2803     93.3364     83.0647   3.3391899039e+01   4.7681756290e+01    0.2065463    0.1877446 -54.75 0.0003424374    1.126    0.112
        63 -11.5357    172.4390     65.8742   1.0971167793e+01   3.2959885605e+01    0.4136752    0.2994089 -88.25  0.001603542    1.503    0.335
        64 -10.9720    224.8350    246.3773   3.6888680957e+01  -2.2656040713e+00    0.2358355    0.1621226  35.08  0.001710413    2.334    0.572
        65 -11.2037    231.0353     58.1962   2.9988703453e+00   2.2924689564e+01    0.3965811      0.26746  52.40  0.002351058    2.011    0.503
        66 -11.8221    234.3873     52.1706   1.5357318300e+00   2.3121909364e+01    0.5090284    0.3336664  42.72  0.003033963    2.458    0.593
        67 -10.6947    219.8833     64.6401   5.2830804671e+00   2.3979527694e+01    0.2570632    0.2066847  60.98  0.001803992    1.545    0.353
        68 -10.0304    223.3201    239.5912   3.6192177276e+01  -1.3273293806e+00    0.1753344    0.0824537  26.91  0.001121836    2.118    0.528
        69 -16.0741    205.2656    117.7841   1.8116619990e+01   1.8612484704e+01     4.310528     2.226397 -33.91   0.02215642    1.737    0.424
        70  -9.1864     42.8246     57.6508   4.5864513058e+01   6.3312276363e+01    0.2370899    0.1844846 -39.30 0.0005118163    1.336    0.252
        71 -10.7008    217.7299     55.7713   3.6066947773e+00   2.5522216703e+01    0.2598437    0.2093847 -34.12  0.001005642    1.285    0.222
        72  -9.7022    246.0530     56.3424   1.5092202620e+00   2.0748829109e+01     0.146217    0.1235177  86.66 0.0006131984    1.424    0.298
        73 -10.8210    203.5286     81.7832   1.0694929724e+01   2.4464643096e+01    0.3390279    0.2528433  59.88  0.001570117    1.572    0.364
        74  -8.9212    207.4463     40.5033   1.1562970797e+00   2.9342944951e+01     0.118939   0.09482274 -55.33 0.0001184246    1.038    0.036
        75 -10.9312    249.0477     37.8485   3.5782085648e+02   2.2453554649e+01    0.2749973     0.130528 -41.89  0.001415323    1.476    0.322
        76  -9.7066    212.3868     38.2637   2.8142436324e-01   2.8683837194e+01    0.1826062    0.1334042  63.28 0.0008229676    1.663    0.399
        77 -10.0760    250.0144    234.0857   3.1440707076e+01  -2.8308551338e+00    0.1500858    0.1024522 -13.12 0.0006002034    1.065    0.061
        78  -9.5967     71.0513    225.2406   6.6300145095e+01   1.7355551642e+01    0.1888866    0.1854311  10.24 0.0003177247    1.178    0.151
        79 -11.0284    249.4123     29.3249   3.5620548303e+02   2.3343164275e+01    0.2244414    0.1524948 -39.00 0.0007725815    1.259    0.206
        80 -11.4241    229.0249     64.0570   4.3488027544e+00   2.2506326211e+01    0.3752631    0.2797581  40.51  0.001701286    1.990    0.497
