#   1 NUMBER                 Running object number                                     
#   2 MAG_AUTO               Kron-like elliptical aperture magnitude                    [mag]
#   3 X_IMAGE                Object position along x                                    [pixel]
#   4 Y_IMAGE                Object position along y                                    [pixel]
#   5 X_WORLD                Barycenter position along world x axis                     [deg]
#   6 Y_WORLD                Barycenter position along world y axis                     [deg]
#   7 A_WORLD                Profile RMS along major axis (world units)                 [deg]
#   8 B_WORLD                Profile RMS along minor axis (world units)                 [deg]
#   9 THETA_WORLD            Position angle (CCW/world-x)                               [deg]
#  10 FWHM_WORLD             FWHM assuming a gaussian core                              [deg]
#  11 ELONGATION             A_IMAGE/B_IMAGE                                           
#  12 ELLIPTICITY            1 - B_IMAGE/A_IMAGE                                       
         1 -13.4100     36.5432     56.1701   8.5439235087e+01   6.2114509932e+01    0.8235098    0.7924853 -33.74  0.002724665    1.287    0.223
         2 -12.5570     23.8038     54.4177   9.0652429550e+01   6.3789335421e+01     1.286963    0.8371041 -80.86  0.003708815    3.195    0.687
         3 -10.7073    155.7938     25.8627   4.0442949260e+01   4.2685537739e+01    0.3544841     0.217953 -40.79  0.001894571    1.709    0.415
         4 -11.9717    206.2112     21.2073   3.3313158596e+01   3.1736097647e+01    0.4445308    0.2590868  62.52  0.001503967    1.710    0.415
         5 -12.7061    215.4156     13.0718   3.0782734360e+01   3.0687730927e+01    0.6797261    0.3184485  59.65    0.0011548    2.240    0.554
         6 -11.9027    196.5615      6.5610   3.0971904517e+01   3.5405955702e+01    0.5558516    0.1930595 -49.88  0.002549578    2.682    0.627
         7 -11.0094    199.8056      3.0996   2.9942365846e+01   3.5043755628e+01    0.2232774    0.1806629 -88.67 0.0003488068    1.073    0.068
         8 -12.9070     36.5675     11.1626   6.6989756372e+01   6.9103250141e+01     0.250891    0.1988766  16.91 0.0005034252    1.077    0.072
         9 -12.2401     65.0763     10.5676   5.5442511870e+01   6.4323606100e+01    0.3807036     0.214937  39.42 0.0007051858    1.488    0.328
        10 -11.7970     64.8584      2.5763   5.1995773690e+01   6.5085118657e+01    0.5701724    0.3809736  89.40  0.002814011    3.218    0.689
        11 -10.5007    145.5784     10.8056   3.7718974798e+01   4.6628434380e+01    0.1605312    0.1096619 -48.33 0.0003848842    1.585    0.369
        12 -11.6688    127.7020      5.6089   3.8871036678e+01   5.1247974614e+01    0.3572811    0.1771873  59.04 0.0009664268    1.640    0.390
        13 -11.9222    189.0111      3.9093   3.1044990138e+01   3.7326698832e+01    0.3513821    0.2152852  77.08  0.001087947    1.391    0.281
        14  -9.6740     76.7185      1.3739   4.8001083008e+01   6.2826880201e+01    0.1676972   0.09065911  49.09 0.0004670343    1.474    0.321
        15  -9.1650     46.5413      1.5566   5.8008254913e+01   6.8503493991e+01    0.1185334   0.09153984  23.80 0.0001200555    1.011    0.011
        16 -10.5871     26.0237    220.0317   1.1609943728e+02   2.3977055024e+01    0.1786791    0.1388528 -48.88  0.000470468    1.634    0.388
        17 -11.1630    228.6904    248.4204   7.6481356985e+01  -9.3274295751e+00    0.3935679    0.2058564 -26.50   0.00224024    1.792    0.442
        18 -11.0717     70.3540    248.8731   1.0905343887e+02   1.2543017486e+01    0.3201339    0.2542575   1.24 0.0008746852    1.798    0.444
        19 -12.3833     15.3792    250.0651   1.2014039131e+02   1.8745869545e+01    0.7760079    0.2397829  37.72  0.003784878    2.522    0.604
        20 -12.0408     24.2542    244.7697   1.1812803773e+02   1.8884168942e+01    0.3831247    0.2140993 -76.42  0.001408454    1.734    0.423
        21 -12.9231     17.9747    241.7851   1.1918073444e+02   2.0153172979e+01    0.4711586    0.3152335  52.99  0.001530701    1.229    0.187
        22 -13.3380     19.8173    236.6834   1.1851160367e+02   2.1021984607e+01    0.4740638    0.2295125  45.80 0.0008961189    1.711    0.416
        23 -11.1365    179.5397    217.2603   8.0863657082e+01   2.3716480172e+00    0.2620414    0.2512451 -14.05 0.0004367392    1.193    0.162
        24 -10.8121    233.2959    209.4575   6.9018469913e+01  -4.1071837525e+00    0.4174298     0.240727 -40.95  0.002289408    1.675    0.403
        25 -11.5935    239.0779    215.4818   6.9075119200e+01  -5.7981511708e+00     0.493638    0.2243421 -49.24  0.002179011    3.133    0.681
        26 -10.0853    221.3117    217.6527   7.2654317545e+01  -3.8014628901e+00    0.1103863    0.1034986 -74.83 0.0007045949    1.712    0.416
        27  -9.5876    111.6856    216.3544   9.5984447809e+01   1.3376772509e+01    0.1459838    0.1026504  66.93 0.0007045404    1.738    0.424
        28 -10.2762    155.9703    212.3261   8.5130636514e+01   7.0675201826e+00    0.3248642     0.203985  31.43  0.001401762    1.507    0.336
        29 -11.0672     87.0726    206.9254   1.0056652641e+02   1.9245500091e+01    0.4674974    0.2812504 -47.50  0.001800016    1.862    0.463
        30  -9.8338    124.0033    197.9602   9.0161118509e+01   1.5431803442e+01    0.2309796    0.1732212  67.84 0.0007362995    1.655    0.396
        31 -10.0314     19.5020    204.2570   1.1635676776e+02   2.8235617235e+01    0.2782247    0.1104335  44.39  0.001295873    2.237    0.553
        32 -10.5463     54.6592    196.4886   1.0724734914e+02   2.6173172950e+01    0.2762518    0.1470216  76.32  0.001147359    2.463    0.594
        33 -10.6110    133.1572    195.2365   8.7474880302e+01   1.4485075988e+01    0.3366548    0.2124376 -55.18  0.001354263    1.690    0.408
        34 -11.1997    162.2072    193.7340   8.0410020827e+01   9.7868997231e+00    0.4960621    0.3235819  41.55  0.002384396    1.548    0.354
        35 -10.3146     66.8354    194.7168   1.0398305280e+02   2.5014071998e+01    0.2921104    0.1805934  88.78  0.001344569    1.909    0.476
        36 -11.0599     69.2415    189.5122   1.0268547549e+02   2.5954312510e+01    0.3258473    0.2420817 -31.66  0.001017684    1.733    0.423
        37  -9.7935    230.9926    193.4957   6.6496098353e+01  -1.1835704676e+00    0.1592209    0.1146079  61.87 0.0008105246    2.557    0.609
        38 -10.6664    156.1702    187.3388   8.0580153175e+01   1.2184100732e+01    0.4770699    0.2306343 -40.73  0.001908383    2.152    0.535
        39 -10.6864    121.8380    188.1402   8.9003759932e+01   1.8033985146e+01    0.4185585    0.1807615  44.88    0.0015505    2.368    0.578
        40 -10.6984      2.7399    203.3740   1.2002064665e+02   2.9966565720e+01    0.2138567    0.1706935 -79.63  0.000455539    1.186    0.157
        41 -10.0444     94.5941    186.4037   9.5658410871e+01   2.2955858741e+01    0.2853321    0.1394263 -76.42 0.0009521796    3.352    0.702
        42 -10.4783     34.6818    186.5634   1.1115380798e+02   3.0922652379e+01    0.2573733    0.2257203  75.85   0.00111463    1.044    0.042
        43 -12.1196     44.7246    181.5859   1.0803655232e+02   3.1037294909e+01    0.4813134    0.2895601  81.26  0.002269676    1.861    0.463
        44 -10.2960    248.2389    180.3899   6.1115702678e+01  -1.4343133882e+00    0.2088413    0.1177836  32.43 0.0005479456    2.036    0.509
        45 -10.6970    226.6724    179.8836   6.4663774441e+01   1.7867259457e+00    0.2427039    0.2067722  44.76 0.0007355698    1.462    0.316
        46 -10.2964    147.4072    180.2258   8.1266517949e+01   1.5300112966e+01    0.2143349    0.1440457 -61.12 0.0009549072    1.751    0.429
        47 -11.1463     37.7108    176.0096   1.0922386692e+02   3.3219903929e+01    0.2533516    0.2221184  81.77 0.0008692747    1.041    0.039
        48 -11.5926     34.5304    172.7582   1.0969277376e+02   3.4376559746e+01    0.3858556    0.1967004 -73.71   0.00177544    1.802    0.445
        49 -10.3260    191.8887    178.1538   7.0961705727e+01   7.7796790582e+00    0.2135603    0.2011611 -76.22  0.001237676    1.325    0.246
        50  -9.8888    129.4038    177.1982   8.5094957887e+01   1.9241104656e+01    0.2128284    0.1460245 -65.73 0.0007976096    1.711    0.416
        51 -10.0567    159.8164    175.7458   7.7463183400e+01   1.4015745299e+01    0.2696404    0.2015048 -79.55 0.0009927319    1.990    0.498
        52 -10.4520    100.9937    175.9823   9.2228544013e+01   2.4459754057e+01    0.2078409    0.2025438  72.94  0.001153127    1.003    0.003
        53 -11.6273     11.9390    172.1652   1.1552494743e+02   3.6637568915e+01    0.5112351     0.198555 -68.49  0.001498619    2.114    0.527
        54 -10.3547    175.9780    171.3127   7.2931559552e+01   1.1990279221e+01    0.3565262     0.211975 -44.04  0.001600353    1.626    0.385
        55 -13.5946     50.5372    164.4042   1.0424474017e+02   3.4702112888e+01    0.7349333    0.5267814 -54.34  0.001130011    1.357    0.263
        56 -10.6648     55.4794    159.5437   1.0212761528e+02   3.5342033281e+01    0.2582824    0.2194647  61.74 0.0005724633    1.201    0.167
        57 -10.4217    121.4737    169.4953   8.5631068833e+01   2.2482466481e+01    0.3451681    0.2185739 -86.38  0.001257386    2.851    0.649
        58 -10.1108    139.4094    165.3051   8.0220422369e+01   2.0153544467e+01    0.3524689    0.2279458  71.04  0.001333684    2.631    0.620
        59 -11.0811     98.8939    164.1563   9.0644669908e+01   2.7732741505e+01    0.6462641    0.3340785  30.20  0.002541337    2.108    0.526
        60 -10.4550     93.2451    160.8366   9.1587172988e+01   2.9502656082e+01     0.369791    0.2366925  63.12  0.001541676    2.017    0.504
        61 -10.5613     79.3888    163.2730   9.5921880202e+01   3.1071487004e+01    0.4928319    0.2710221  87.65  0.001642911    3.456    0.711
        62 -10.7808     31.7775    160.8921   1.0903686799e+02   3.7666913511e+01    0.2726234    0.1752122  84.43  0.001358144    1.631    0.387
        63  -9.9833     76.7837    175.6071   9.8670235749e+01   2.8338362179e+01    0.2169565    0.1247805  44.96 0.0009502386    1.739    0.425
        64 -12.8577    120.6817    157.1457   8.3341599975e+01   2.5591202467e+01    0.8105536     0.477275  26.01  0.001344223    2.039    0.510
        65 -10.0998    105.1129    157.8990   8.7717535121e+01   2.8219850051e+01     0.338349    0.2241641  74.44  0.001345982    2.275    0.560
        66 -10.9194    219.1109    156.0265   6.1226200474e+01   7.3092542094e+00    0.2969039      0.27279 -41.35 0.0009660003    1.127    0.113
        67 -10.0675    170.6757    156.5703   7.0977451531e+01   1.6091347990e+01    0.2658198    0.1470372  37.74 0.0006467256    1.904    0.475
        68 -10.2597    234.6329    154.1783   5.8217147131e+01   5.0686421063e+00    0.2267138     0.169686 -19.07   0.00104805    1.365    0.267
        69  -9.7754     81.3215    154.6607   9.3826631771e+01   3.2970918040e+01    0.1587942    0.1142214  72.65 0.0004486091    1.717    0.418
        70 -11.3152    243.9010    150.7938   5.6075086391e+01   4.1877636352e+00    0.3123454    0.2251545 -13.60  0.001766844    1.583    0.368
        71 -10.5140    189.3154    148.8182   6.5327468518e+01   1.4109816411e+01    0.3070504    0.1234462 -49.36  0.001086429    2.608    0.617
        72 -10.0327     38.8017    147.2335   1.0517044302e+02   4.0449887511e+01    0.2440794    0.1262303  65.09 0.0009494927    2.754    0.637
        73 -10.4574     55.3582    145.4281   9.9887322800e+01   3.8999278025e+01    0.3319356    0.1952265  75.51  0.001321052    2.521    0.603
        74 -10.4781    148.6437    145.3105   7.3592810023e+01   2.2923076730e+01    0.2487791    0.1934003  87.51 0.0008548578    1.773    0.436
        75 -10.8694    125.5108    144.3044   7.9264737176e+01   2.7749931733e+01    0.4018986    0.2572458 -85.01  0.001406255    2.979    0.664
        76 -11.5226    108.7092    146.7017   8.4390356212e+01   3.0341540283e+01    0.8426211    0.3928063  58.72  0.002391772    4.268    0.766
        77 -10.5459     87.8319    144.0140   8.9839057643e+01   3.4639350771e+01    0.2549508    0.1774562  88.30 0.0009601137    1.985    0.496
        78 -10.5320     23.7547    138.7631   1.0851868670e+02   4.4067267613e+01    0.4696679    0.2212417  57.10  0.001908859    2.829    0.646
        79  -9.8005     20.0266    139.0487   1.0969055443e+02   4.4308131753e+01    0.2101243    0.1698953  79.42  0.001231696    1.253    0.202
        80  -9.7175      3.9815    144.7492   1.1506317703e+02   4.4052809380e+01    0.1728839    0.1469684 -77.80 0.0002226867    1.032    0.031
        81 -10.5816      1.4030    136.2882   1.1493506632e+02   4.6324311254e+01    0.2442894    0.1048913 -74.49 0.0003923193    1.925    0.481
        82 -11.0085     83.6346    133.0321   8.8779681826e+01   3.8091306121e+01    0.4119497    0.2844917  76.08  0.001738972    2.092    0.522
        83 -10.1042    131.9627    131.7149   7.4622809076e+01   2.9413783541e+01    0.2744428    0.1726061 -84.43 0.0008848775    3.450    0.710
        84  -9.8965    143.2983    131.6665   7.1716169038e+01   2.7090043849e+01    0.1578969    0.1250761 -86.69 0.0003182687    1.648    0.393
        85 -11.4749     98.0701    126.9059   8.2995885890e+01   3.7127184705e+01    0.5510505    0.3746235 -78.57  0.001466604    2.085    0.520
        86  -9.9095     73.3241    129.6732   9.1270074771e+01   4.0551339072e+01    0.1544988    0.1160589  73.67 0.0007049081    1.693    0.409
        87 -10.5776     59.1265    124.2300   9.4706462067e+01   4.3936881979e+01    0.4577012     0.266003 -87.76  0.001708341    2.893    0.654
        88 -11.4053     43.9047    122.7246   9.9458463891e+01   4.6173918192e+01    0.8673882    0.4902222  82.58  0.003292855    3.061    0.673
        89 -10.7182    189.4114    124.0183   5.9715063133e+01   1.9056078194e+01    0.2713248    0.2232719  52.28  0.000729547    1.310    0.237
        90 -10.6544     28.4952    122.8761   1.0462123468e+02   4.7685468818e+01    0.3596154    0.2015436  78.77  0.001494798    2.656    0.624
        91 -10.7512    108.7163    113.1970   7.6422451437e+01   3.8361148115e+01    0.6208997     0.296349 -62.31  0.001968791    3.308    0.698
        92 -10.4865      1.5209    114.5210   1.1234471606e+02   5.1700123524e+01    0.2433726     0.109366 -85.75  0.001041204    2.478    0.596
        93 -10.5254    185.9484    113.4457   5.7899059741e+01   2.1844448590e+01    0.2705013    0.2103526 -32.75  0.001022227    1.309    0.236
        94 -10.8526     92.1635    112.4863   8.1256124419e+01   4.1644861363e+01    0.6063365     0.302763 -63.87  0.002090504    2.858    0.650
        95 -10.5428     91.3795    105.1437   7.9583849290e+01   4.3491650836e+01    0.3575385    0.2541891 -27.61  0.001110196    1.595    0.373
        96 -10.7681     79.0284    113.0402   8.5604831092e+01   4.3762205227e+01    0.4764751    0.3289924  88.12  0.001978092    2.328    0.570
        97 -11.0646     13.8757    109.5815   1.0742415154e+02   5.2156501583e+01    0.5241947    0.2668818 -77.97  0.002419231    2.030    0.507
        98 -11.8482    154.0075    108.4992   6.3366228075e+01   2.9781137796e+01    0.3856999    0.2486246 -70.79  0.001518727    2.326    0.570
        99 -10.8907    140.5068    105.5128   6.5796451669e+01   3.3375355670e+01    0.3559339    0.2221996  76.53  0.001273035    2.881    0.653
       100 -12.4499     64.0332    100.9533   8.7661616547e+01   4.8943559377e+01     0.526382    0.3246759 -57.56 0.0004851771    1.624    0.384
       101 -11.1737     45.1482    102.2331   9.4753441257e+01   5.1096043548e+01    0.4756449    0.2774765  73.38  0.001723057    3.705    0.730
       102 -10.5147      6.8357    102.7754   1.0882504460e+02   5.4259687245e+01    0.3652541    0.2086195  84.66  0.001749361    2.264    0.558
       103 -11.6131    128.3957    102.8073   6.8160915619e+01   3.6582138003e+01    0.3833995    0.2769003  84.85  0.001616495    2.081    0.519
       104 -11.9854    123.5923    100.5963   6.8839776045e+01   3.8080325329e+01    0.3582699     0.257708 -36.00  0.001500575    1.440    0.305
       105 -12.5183    110.2828    100.1070   7.2442138250e+01   4.0965811589e+01    0.8922092    0.4910422  63.08   0.00306874    3.087    0.676
       106 -10.6408     20.9184    100.1694   1.0323984808e+02   5.3930461618e+01    0.4061284    0.2043425  84.67  0.001406379    4.258    0.765
       107 -10.1711     81.7315     99.7678   8.1273251926e+01   4.6418902361e+01    0.3001085    0.1880448 -72.62  0.001175413    2.526    0.604
       108 -10.5094    105.5317     93.8398   7.2074010083e+01   4.3267846380e+01         0.31    0.2516044  68.79 0.0009659273    1.503    0.335
       109  -9.8798    138.4877     92.4844   6.2763763946e+01   3.6464115265e+01    0.1503709    0.1467393 -87.27 0.0001044244    1.030    0.029
       110 -10.0815    124.3172     91.6684   6.6147443438e+01   3.9763761415e+01     0.154909    0.1217295 -85.14 0.0004929552    1.687    0.407
       111 -10.7757     34.3587     89.3070   9.5787755114e+01   5.5304542973e+01    0.4372211    0.2061402 -69.53  0.001742079    2.725    0.633
       112 -10.2586     79.8594     87.9450   7.8571481926e+01   4.9354463900e+01     0.216818    0.2038948 -14.06 0.0003834358    1.001    0.001
       113 -10.5663     85.8955     86.7693   7.6192947021e+01   4.8533604154e+01    0.2807917    0.2017982 -76.10  0.001237199    2.155    0.536
       114 -10.6225    193.6295     85.4479   4.9826280412e+01   2.5315290435e+01    0.2972498    0.2403433  20.14            0    1.717    0.417
       115 -10.7882     48.6001     84.7223   8.9071921182e+01   5.4741455866e+01    0.4195085    0.2628742  73.42  0.001569477    3.791    0.736
       116 -10.8127    104.6017     83.2004   6.9225327628e+01   4.5635589119e+01    0.4547955    0.2313348 -60.14  0.001534963    3.336    0.700
       117  -8.9230    214.4835     81.5357   4.5774665750e+01   2.1526700023e+01    0.1333937    0.1197114 -58.70   0.00080879    1.054    0.051
       118 -10.4392     23.9991     80.3022   9.7760940009e+01   5.8315072209e+01    0.2576144    0.1635809  87.73  0.001176498    2.695    0.629
       119 -11.0367    203.7230     75.3251   4.5883743901e+01   2.4807261578e+01    0.2220219    0.2192479  43.61  0.001402872    1.228    0.185
       120 -10.1123    157.6635     76.3441   5.4041838770e+01   3.5046504229e+01    0.1553483     0.110795 -75.97 0.0007049484    1.769    0.435
       121 -11.2701     62.8366     74.1322   8.0506825784e+01   5.5022268338e+01    0.5829525     0.205331 -53.16  0.001998387    3.348    0.701
       122  -9.9944    103.2838     75.6084   6.7293022931e+01   4.7374500402e+01    0.2884052    0.1382958  49.21  0.001134302    2.136    0.532
       123 -11.0740     82.0481     72.5487   7.3097390733e+01   5.2104596566e+01    0.4461655    0.2782803 -65.43  0.001820644    2.705    0.630
       124 -10.1518     37.5261    248.9388   1.1577543854e+02   1.6570776025e+01    0.1660716    0.1059865 -83.42 0.0005593885    1.542    0.351
       125 -11.8811    220.8456    245.5609   7.7453525194e+01  -7.9760598501e+00    0.4709848    0.2575441  48.99  0.002174056    3.596    0.722
       126 -11.6837     45.6568     62.8310   8.3721008044e+01   5.9706678237e+01    0.7528805    0.2066752 -42.08  0.001833876    3.476    0.712
       127  -9.9407    104.7931     70.1369   6.5126994046e+01   4.8067106932e+01    0.3024896    0.1715405 -59.54  0.001161629    2.749    0.636
       128 -10.8044     50.8520     68.5217   8.3416741191e+01   5.7888381819e+01    0.6088086    0.2190477 -59.67  0.001656567    6.150    0.837
       129 -11.7856      7.7366     65.9183   1.0122986773e+02   6.2654755220e+01    0.3590739    0.2893596  23.47  0.002360121    1.461    0.316
       130 -11.4643     41.8986     67.3393   8.6723822786e+01   5.9273790196e+01    0.3588465    0.2570103 -56.63 0.0003711457    1.534    0.348
       131  -9.0837    174.2942     60.3249   4.6741519350e+01   3.3772183512e+01    0.1330576    0.1091944  23.87 0.0006387183    1.621    0.383
       132  -9.8238    105.6645     52.8138   5.9222123524e+01   5.0768751652e+01    0.2151374    0.1749877  -3.73 0.0008472839    1.391    0.281
       133 -12.9201      9.4777     48.9555   9.5815120368e+01   6.6023556584e+01    0.3975277    0.3324011 -24.19  0.001457694    1.078    0.073
       134  -9.5990    187.2864     51.3494   4.2507289786e+01   3.2101389721e+01    0.1262089     0.105287  24.41 0.0007021763    1.658    0.397
       135 -10.3278     91.6124     48.5659   6.1846874964e+01   5.4379432397e+01    0.3356375    0.1222954 -41.06  0.001262347    2.979    0.664
       136  -9.5919     72.4434     47.4512   6.7792015402e+01   5.8256028218e+01      0.13396    0.1198193  12.20 0.0001369196    1.023    0.022
       137  -9.7937     44.9213     46.7101   7.8408761049e+01   6.2775051996e+01    0.1779776    0.1512246   2.64 0.0004242785    1.055    0.052
       138 -10.3699     57.2396     41.2771   7.1189888765e+01   6.1826053822e+01    0.2098655    0.1732106 -26.23 0.0005583417    1.219    0.180
       139 -10.1970    143.6630     41.6778   4.6979733374e+01   4.3631523112e+01    0.1411447   0.09993937  32.78 0.0007050572    1.713    0.416
       140 -10.9485     73.2384     32.2299   6.1683177461e+01   6.0307105234e+01    0.3935399    0.3270898 -61.16  0.002331495    1.738    0.425
       141 -12.4183     75.5168     39.0081   6.3538876022e+01   5.8950887226e+01    0.4144416    0.2833579  45.19 0.0005472594    1.403    0.287
       142 -11.0551     80.6629     38.3479   6.1571510152e+01   5.8052016459e+01    0.3531444    0.2727863  61.54  0.001982467    1.565    0.361
       143 -10.1036     88.4543     31.4616   5.6563007660e+01   5.7382545645e+01    0.2921853    0.1690629  21.83  0.001337242    2.267    0.559
       144 -10.3079    195.4489     29.6714   3.6314514505e+01   3.3102080758e+01     0.247003     0.224283  19.19 0.0008658908    1.542    0.351
       145 -11.6999      1.9380     28.8720   9.3102901397e+01   7.0245837328e+01    0.3974813    0.1373553 -48.37  0.001972597    2.299    0.565
       146 -11.2433    209.9925    237.0014   7.8095403872e+01  -5.3184572696e+00    0.3093067    0.2839558  57.05  0.002069666    1.724    0.420
       147 -10.1566     36.4332     26.0458   7.3910047453e+01   6.7191503425e+01    0.2476142    0.1439795  17.72  0.001358445    1.717    0.418
       148  -9.5524     28.1908     26.3941   7.8049714451e+01   6.8197310626e+01    0.1498126     0.102795  31.35 0.0001902845    1.527    0.345
       149 -11.0517     38.6108    241.5587   1.1503339667e+02   1.7951717570e+01    0.3168154    0.2020208  88.40  0.001262287    1.515    0.340
       150 -11.3969     34.6617    237.2078   1.1552910794e+02   1.9309479852e+01    0.4797269    0.1799629  42.23  0.002305302    2.153    0.536
       151 -10.4311    192.6381     21.7284   3.4779404374e+01   3.4657905408e+01    0.2085549    0.1470894  78.11  0.000392788    1.260    0.206
       152 -10.5617     31.7113     19.8866   7.3417271220e+01   6.8684452950e+01    0.3265823    0.2030055   6.55  0.001906956    1.616    0.381
       153 -10.3163     42.0300     20.5335   6.8900811317e+01   6.7141242131e+01    0.2195567    0.1022515  34.34 0.0006323644    1.951    0.487
       154 -10.3569     37.9453     18.4878   6.9816799887e+01   6.8006164826e+01    0.2442793     0.189743 -42.06  0.001234511    1.723    0.420
       155  -9.5571    100.7670     19.3557   4.8812918904e+01   5.6106873750e+01    0.1822654    0.1007576  50.41 0.0003649359    1.529    0.346
       156 -11.4005     90.3765     18.7008   5.1200592413e+01   5.8422152411e+01    0.2934782    0.2021594  55.66 0.0006218554    1.319    0.242
       157 -10.7797    178.7353     25.4859   3.7252916470e+01   3.7380535151e+01    0.2247791    0.1888257  89.45 0.0002794627    1.023    0.022
       158 -10.0593    123.5438     17.0203   4.3188549499e+01   5.1178277815e+01    0.2118529     0.147189  63.10 0.0004895883    1.244    0.196
       159  -9.7087    249.4098    218.3161   6.7804308613e+01  -7.4978250070e+00    0.1515545   0.09834781 -37.72 0.0005859452    1.494    0.331
       160 -11.8643     73.2631    229.5005   1.0650722097e+02   1.6161564867e+01    0.4436072    0.3162721  72.69  0.001411028    1.446    0.309
       161 -10.0430    135.6683     14.0886   4.0176024193e+01   4.8637818384e+01    0.1633817    0.1524214  64.73 0.0003251463    1.104    0.094
       162 -10.1167    234.1057    242.3324   7.4523456918e+01  -9.1228409922e+00    0.1636592     0.123501   8.74 0.0005860614    1.136    0.120
       163 -10.2066    126.4620    230.6364   9.4629638739e+01   8.1222200253e+00    0.3381652    0.1228633  30.39  0.001244642    2.830    0.647
       164 -11.3659    150.5291    224.8171   8.8388289222e+01   5.5032434653e+00    0.6294668    0.3853516 -75.02   0.00257574    3.316    0.698
       165 -10.3595    241.2334    225.6014   7.0461168354e+01  -7.5808785633e+00    0.2295071    0.1529426 -16.22 0.0008223187    1.281    0.219
       166 -11.0321     35.9698    223.0670   1.1417529603e+02   2.2218963453e+01    0.3002258    0.1927988 -88.93 0.0008915468    1.474    0.321
       167  -9.7257     97.8206    220.6158   9.9822160531e+01   1.4577466743e+01    0.1984898    0.1127006  43.70 0.0006076947    1.606    0.377
       168 -10.1418     75.1755    219.8429   1.0500546204e+02   1.8014516856e+01    0.2862178    0.1541326  46.50 0.0005991526    1.694    0.410
