#   1 NUMBER                 Running object number                                     
#   2 MAG_AUTO               Kron-like elliptical aperture magnitude                    [mag]
#   3 X_IMAGE                Object position along x                                    [pixel]
#   4 Y_IMAGE                Object position along y                                    [pixel]
#   5 X_WORLD                Barycenter position along world x axis                     [deg]
#   6 Y_WORLD                Barycenter position along world y axis                     [deg]
#   7 A_WORLD                Profile RMS along major axis (world units)                 [deg]
#   8 B_WORLD                Profile RMS along minor axis (world units)                 [deg]
#   9 THETA_WORLD            Position angle (CCW/world-x)                               [deg]
#  10 FWHM_WORLD             FWHM assuming a gaussian core                              [deg]
#  11 ELONGATION             A_IMAGE/B_IMAGE                                           
#  12 ELLIPTICITY            1 - B_IMAGE/A_IMAGE                                       
         1 -14.1181    155.1218     27.9056   7.2815804066e+01   4.2925417643e+01     1.160164    0.8233901  56.69  0.004267647    1.256    0.204
         2 -14.8085    129.8362     10.5790   7.2046526729e+01   5.0628946666e+01     2.707873     1.678539  70.14    0.0144633    1.609    0.378
         3 -11.1361    186.9555    216.1564   1.1266450115e+02   7.9862839434e-01    0.3974556    0.2968189  16.07  0.001173612    1.499    0.333
         4 -12.8134    247.2525    247.4620   1.0680443513e+02  -1.3750798932e+01     0.679861    0.4425991  14.16  0.004262816    1.397    0.284
         5 -16.7632     14.0557     78.6277   1.2990793425e+02   5.8405500464e+01     7.554603     1.055322 -49.68   0.02736646    3.755    0.734
         6 -19.6989     94.9072    214.0269   1.3139659241e+02   1.7746697413e+01     6.137136     4.861038  52.14   0.02515776    1.187    0.157
         7 -13.1790    188.0249    177.1815   1.0492111656e+02   7.9094102789e+00    0.6231353    0.4800512 -50.03  0.001419788    1.365    0.267
         8 -12.1818    185.3975    170.2049   1.0399972445e+02   9.8539775260e+00    0.4400502    0.3417687 -63.05  0.001771303    1.506    0.336
         9 -15.3093     64.7171    140.9974   1.2725054743e+02   3.9211768287e+01     2.007075     1.996989 -30.71   0.01278804    1.190    0.159
        10  -9.7773    165.8910    227.6352   1.1883744754e+02   2.6218371244e+00    0.2020758    0.1803441 -17.13 0.0008111196    1.295    0.228
        11  -9.7487      1.5085    216.1010   1.4940411065e+02   2.9215011156e+01    0.1673037   0.08264624 -82.10  0.001024458    1.567    0.362
        12 -12.6120    176.6952    169.6536   1.0574364939e+02   1.1788289621e+01    0.6866256    0.2822538 -54.28  0.002242042    3.172    0.685
        13 -11.6001    194.4157    173.0210   1.0271769243e+02   7.4249912336e+00    0.4875364     0.295514 -49.05   0.00121854    1.744    0.427
        14 -13.2412    190.0390    158.9757   1.0056969966e+02   1.1161131933e+01     1.135139    0.5728971 -48.12  0.003351924    2.045    0.511
        15 -10.0361    207.8339    218.6820   1.0900570551e+02  -3.3808102569e+00    0.2146317    0.1663361 -22.92 0.0006185045    1.346    0.257
        16 -12.0482    173.5828    175.7055   1.0769031155e+02   1.1180080242e+01    0.3818959     0.299814  10.84 0.0009690536    1.597    0.374
        17 -11.3187    203.1852    174.6513   1.0127943549e+02   5.3273404239e+00    0.5085234    0.2456308 -58.85  0.001637873    3.844    0.740
        18 -14.2332    134.2229    149.3506   1.1109303299e+02   2.5199736431e+01     1.840078    0.6227075 -51.38  0.005809623    3.007    0.667
        19 -13.0100    136.0639    132.4176   1.0671975477e+02   2.8695966920e+01     1.420922    0.2748312 -51.46  0.002832908    7.359    0.864
        20 -10.3685    176.7330    156.0706   1.0276143762e+02   1.4632005390e+01     0.243587    0.2124827  71.57 0.0005500175    1.261    0.207
        21 -13.4845    143.7789    147.3512   1.0833217242e+02   2.3664276346e+01      1.00612    0.4614505 -58.16  0.003400431    2.730    0.634
        22 -10.9936    187.4657    207.8348   1.1105698108e+02   2.1837505074e+00    0.2753173    0.2375602 -38.92 0.0008632446    1.240    0.194
        23 -11.2146    153.4431    152.9688   1.0731591602e+02   2.0340994191e+01    0.2861432    0.2165388  64.62 0.0004307226    1.480    0.325
        24 -12.8396    106.8322    143.0344   1.1659975639e+02   3.2015788932e+01    0.4356955    0.3872624 -66.73  0.001097227    1.069    0.064
        25 -10.1509    226.4465    140.2848   8.9244867939e+01   7.1107834832e+00    0.2301594    0.1964016  49.12 0.0003373234    1.262    0.207
        26 -11.2957     31.4528    207.8856   1.4339535620e+02   2.7830303522e+01    0.2308077    0.1679048 -82.31 0.0004189158    1.158    0.137
        27 -11.3200    182.3795    205.8778   1.1173389807e+02   3.5019839057e+00     0.370851    0.2261932 -37.28 0.0008919392    1.803    0.445
        28 -12.2729    160.6007    129.2969   1.0006581425e+02   2.3986434029e+01    0.4382831    0.3781257 -76.65   0.00170765    1.272    0.214
        29 -10.0788    108.2003    129.1018   1.1311624282e+02   3.5044195644e+01    0.2203627    0.2007731 -31.59 0.0003398554    1.170    0.145
        30 -12.5687     11.4710    206.9410   1.4703509990e+02   3.0147577206e+01    0.4425521    0.2840362  35.65  0.001748317    1.922    0.480
        31 -10.8836     30.8061    249.3629   1.4666299313e+02   1.9552726034e+01    0.2001044    0.1438223 -82.95 0.0008784721    1.309    0.236
        32 -10.5625    143.0461    123.0300   1.0267133671e+02   2.9288142363e+01    0.3543263    0.2135608  68.91   0.00123767    2.540    0.606
        33  -9.9566    100.2991    122.1266   1.1360145691e+02   3.8111778021e+01    0.2479605    0.2021525  28.27 0.0007928864    1.379    0.275
        34  -9.3974    244.6893    121.7244   8.1992496163e+01   6.7629310937e+00     0.133963    0.1095979   2.88 0.0002369113    1.556    0.357
        35 -10.9079     35.0084    118.5117   1.3132207293e+02   4.7949376802e+01    0.2636073    0.1429681 -49.36  0.001003345    1.617    0.382
        36  -9.7369     41.7720    115.7807   1.2888209779e+02   4.7898708989e+01    0.1686318    0.1400611 -88.70 0.0003723237    1.295    0.228
        37 -11.8562    134.7634    113.8563   1.0237081602e+02   3.3111448627e+01    0.4404293    0.2027324 -46.28  0.001614081    2.136    0.532
        38 -11.1377     24.0294    204.6852   1.4453069491e+02   2.9335631026e+01    0.2564968    0.2083441  87.69 0.0008604121    1.136    0.120
        39 -10.8415     73.9246    108.7494   1.1790611932e+02   4.5486734045e+01     0.297538     0.238844  23.10 0.0006698927    1.424    0.298
        40 -11.0205    134.1346    107.2685   1.0077814850e+02   3.4666760192e+01    0.3578415    0.2147468 -44.68  0.001504468    1.638    0.389
        41 -10.0155    138.3395     84.9494   9.3458805775e+01   3.8231366671e+01    0.2161696    0.1967424 -35.95 0.0007016008    1.105    0.095
        42 -11.0109    205.4648    200.8501   1.0613083604e+02   6.2740058727e-02    0.2565971    0.2225144  69.07 0.0009583951    1.469    0.319
        43 -13.6064    139.9243     68.5760   8.8218855308e+01   4.0804444720e+01    0.9938424    0.8528637  69.24  0.002614502    1.243    0.195
        44 -14.3654    148.6852     54.7666   8.2090578242e+01   4.0936203025e+01      1.17168     1.069959   2.28  0.004026373    1.200    0.167
        45 -13.4476    151.8150     46.0982   7.8844149753e+01   4.1430498489e+01    0.6523342     0.595073 -15.06 0.0007164209    1.205    0.170
        46 -10.8649    239.0528     65.9973   7.0214478199e+01   1.7444794888e+01    0.2060528    0.1824163 -69.66 0.0003780386    1.036    0.035
        47 -11.9623    136.1677     39.7271   8.0114027840e+01   4.5991133652e+01    0.2456176    0.2273446  29.46 0.0001843077    1.072    0.067
        48 -10.5171     27.6432    197.0618   1.4316939323e+02   3.0599439794e+01    0.1819469    0.1578163  75.79 0.0004212681    1.221    0.181
