#   1 NUMBER                 Running object number                                     
#   2 MAG_AUTO               Kron-like elliptical aperture magnitude                    [mag]
#   3 X_IMAGE                Object position along x                                    [pixel]
#   4 Y_IMAGE                Object position along y                                    [pixel]
#   5 X_WORLD                Barycenter position along world x axis                     [deg]
#   6 Y_WORLD                Barycenter position along world y axis                     [deg]
#   7 A_WORLD                Profile RMS along major axis (world units)                 [deg]
#   8 B_WORLD                Profile RMS along minor axis (world units)                 [deg]
#   9 THETA_WORLD            Position angle (CCW/world-x)                               [deg]
#  10 FWHM_WORLD             FWHM assuming a gaussian core                              [deg]
#  11 ELONGATION             A_IMAGE/B_IMAGE                                           
#  12 ELLIPTICITY            1 - B_IMAGE/A_IMAGE                                       
         1 -10.8541     78.4893     21.5708   7.3481166637e+01   6.2467127149e+01    0.3562917    0.2363947 -36.14  0.001058075    1.456    0.313
         2 -11.4912     75.4874     21.5350   7.4548378965e+01   6.3100529732e+01    0.4983311    0.2931161 -28.92  0.002140602    1.672    0.402
         3 -10.3831     41.2704     20.1383   8.9062318698e+01   6.9400720135e+01    0.4008867    0.2221883  14.12  0.001337146    2.967    0.663
         4 -11.3981     34.7661     12.6786   8.8642959233e+01   7.1695711681e+01    0.3681831    0.2726006 -59.20  0.001075546    1.657    0.397
         5 -11.5693     30.1438      7.2672   8.8223751256e+01   7.3289465877e+01    0.3716548    0.3028116  34.77   0.00152513    1.412    0.292
         6 -11.5478    234.6540     14.9903   4.4550330737e+01   2.4073717034e+01    0.2437796    0.2241784 -72.27 0.0001456189    1.127    0.113
         7 -11.2281     89.3210     14.1091   6.6159010992e+01   6.1122708386e+01    0.4942779    0.3158521 -45.93  0.001464583    1.758    0.431
         8 -10.8907     93.0536      8.4436   6.2194793249e+01   6.0935009239e+01      0.43759    0.2468175 -12.45  0.001298057    1.974    0.493
         9  -9.9791     88.6830      7.4685   6.2905302124e+01   6.2087154803e+01    0.3180076    0.1824943 -31.40  0.001050078    1.710    0.415
        10 -10.0169     91.3165      3.0614   5.9847001098e+01   6.1941283971e+01    0.3091342    0.2078191 -76.21  0.001413998    2.178    0.541
        11 -10.5491    155.1687     14.7288   5.2625041055e+01   4.4112322457e+01     0.347834    0.2232094  48.00  0.001608281    1.578    0.366
        12  -9.9061    203.0437     11.9872   4.6261298591e+01   3.1862326198e+01    0.1643171    0.1526569 -54.91 0.0003596754    1.014    0.014
        13  -9.6973    117.2455     11.9767   5.8105554014e+01   5.4486247293e+01    0.2580424    0.1509553  64.37 0.0009553665    1.691    0.409
        14 -11.1334     40.4163      8.0839   8.2737691368e+01   7.1661668554e+01    0.4870581    0.2255731 -29.44  0.001536202    2.302    0.566
        15 -10.0375     22.4776      9.4815   9.4449850933e+01   7.3824111221e+01    0.3673312     0.231301 -20.89  0.001773218    1.765    0.433
        16 -10.6803     23.8935      4.9214   9.0804981385e+01   7.4502544543e+01    0.3281595    0.1367379 -38.83   0.00121763    2.145    0.534
        17 -11.4237     17.0258      3.4376   9.4689777238e+01   7.5551464810e+01    0.2914832    0.1960639 -46.30  0.001041252    1.298    0.230
        18 -10.6476     20.4642      2.4712   9.1615496135e+01   7.5347804145e+01    0.2271524    0.1947518 -12.00 0.0006913235    1.108    0.098
        19  -9.8151      4.0900     10.1237   1.0778994992e+02   7.5301553733e+01    0.1819049    0.1249375 -43.51 0.0003770563    1.192    0.161
        20 -11.8859    152.8331      9.3863   5.0969308224e+01   4.5277815804e+01    0.5236689    0.3509664 -67.07  0.002439267    1.692    0.409
        21 -10.3862    156.2966      7.7111   4.9883637490e+01   4.4503804969e+01     0.211364    0.1611443  42.90 0.0001986863    1.359    0.264
        22 -10.0267     15.0818      8.7720   9.9133915577e+01   7.4720479353e+01    0.1842052    0.1314885 -27.42 0.0004076626    1.313    0.238
        23 -10.8582     70.8367      5.9402   6.7776642063e+01   6.6290431958e+01    0.3836864    0.2736228 -30.32  0.002060215    1.366    0.268
        24 -10.2261    210.5027      7.5002   4.4323024776e+01   3.0439982290e+01    0.1356866    0.1227665 -49.70 -5.856216e-05    1.006    0.006
        25 -10.0151     64.9878      6.9605   7.0574457686e+01   6.7379602843e+01    0.2076142    0.1863018  -4.66 0.0005240492    1.018    0.018
        26 -11.7185     57.3824      3.1968   7.1382402781e+01   6.9395623656e+01      0.47554     0.303083 -15.45  0.002450136    1.598    0.374
        27  -9.9338     11.1621      6.9560   1.0101386805e+02   7.5430331184e+01    0.2405529    0.1622411 -70.61  0.001387384    1.819    0.450
        28  -9.7640      7.6596      5.2965   1.0279306090e+02   7.6045941332e+01    0.2111247   0.09487879  31.01 0.0007832225    2.566    0.610
        29 -10.1105      2.4073      6.4783   1.0745668457e+02   7.6167926819e+01    0.2022442    0.1153419  12.81 0.0008080155    2.046    0.511
        30 -10.3507    194.3078      4.6707   4.4818587294e+01   3.4743602580e+01    0.1518534   0.09085692 -53.94 0.0002739714    1.660    0.398
        31 -11.4183    130.5926      3.3847   5.1891014086e+01   5.1826261532e+01    0.3149106    0.2593928  78.60 0.0008325067    1.225    0.184
        32  -9.9227    120.8486      4.1582   5.3900184585e+01   5.4342802174e+01    0.2006276    0.1591634  31.76 0.0003942825    1.282    0.220
        33  -8.7577    107.6767      4.7401   5.6791404424e+01   5.7704578837e+01    0.1495364   0.09860006  35.85  0.000694706    1.553    0.356
        34 -11.4471     79.9053      1.9255   6.2450565125e+01   6.4748419182e+01    0.3965686    0.2351596  44.37  0.001922025    1.615    0.381
        35 -10.1524    230.8059      3.4304   4.1772268298e+01   2.6005471182e+01    0.1695637    0.1153947  61.77 0.0006405066    1.612    0.379
        36 -10.7853    173.7791      2.8485   4.6153974142e+01   4.0257393753e+01    0.4273587    0.1779118  66.45  0.001235813    2.231    0.552
        37 -10.6999    203.8319      1.6435   4.3135164923e+01   3.2605932903e+01    0.2095844    0.1610195  52.72 0.0007657222    1.411    0.291
        38  -9.9238    100.8013      2.0270   5.6985108221e+01   5.9709412984e+01    0.2029451    0.1567247 -78.82 0.0008630626    1.587    0.370
        39 -10.2177     10.4183      1.7421   9.8660674619e+01   7.6514126951e+01    0.1903524    0.1564906   3.14 0.0006989934    1.298    0.230
        40 -10.1208    235.5817      4.2568   4.1691729918e+01   2.4852849746e+01    0.1762249      0.11706  -9.24 0.0009500848    1.629    0.386
        41  -9.9417    187.0415      1.3497   4.4412652229e+01   3.6903209101e+01     0.197211    0.1278273  80.23 0.0002941721    1.544    0.352
        42  -9.9054    153.8168      1.2969   4.7812771864e+01   4.5746331599e+01    0.2041281      0.11712  63.46 0.0003910166    1.637    0.389
        43  -9.6420     67.0960      1.4964   6.6473366801e+01   6.7627519035e+01    0.1850152    0.1300621  52.30 0.0003418765    1.456    0.313
        44 -10.4628    213.5870    134.4786   7.7231918029e+01   1.3723428441e+01    0.3773339    0.2345586  66.73  0.001701003    2.892    0.654
        45 -11.2410      1.8464    248.1976   1.3152826846e+02   2.5808076239e+01    0.2548234    0.1239028 -84.32  0.001952655    2.150    0.535
        46 -11.9953     11.0230    244.5855   1.2995515891e+02   2.5541556145e+01    0.2198168    0.1444168  27.22   0.00171932    1.800    0.445
        47 -12.1859      6.3816    241.1709   1.3063680171e+02   2.6463347911e+01    0.3647104    0.2227574 -48.88  0.002580667    3.173    0.685
        48 -11.1509      1.8864    239.3527   1.3133945933e+02   2.7126023314e+01    0.2518502   0.08968941  58.72  0.001678382    1.893    0.472
        49 -10.4661      2.9135    133.0707   1.2751262255e+02   4.6917908380e+01    0.3152818    0.1162703  45.51   0.00161513    2.285    0.562
        50  -9.7007     35.2422    130.8301   1.1852365545e+02   4.4689734949e+01    0.1610239    0.1329395 -58.79 0.0005186128    1.345    0.256
        51 -10.9068     12.0416    129.6159   1.2483939562e+02   4.7022425243e+01    0.3502696    0.1540668  58.22  0.001739084    2.097    0.523
        52 -10.6286    248.5007    129.4865   7.0811496746e+01   8.1733395620e+00    0.1254329     0.101556  -1.64 0.0001397378    1.015    0.015
        53  -9.2592     28.6747    128.2819   1.2010434674e+02   4.5909131711e+01    0.1292994   0.07629777  62.64 0.0002678848    1.597    0.374
        54  -9.3086     20.4696    125.4332   1.2215976347e+02   4.7290606482e+01    0.1237063   0.09745072  74.92 -9.97456e-05    1.073    0.068
        55 -11.9656     23.0961    120.7320   1.2097186568e+02   4.8145583566e+01    0.6058162    0.2447563  64.01  0.002174648    2.835    0.647
        56 -10.7149     17.9866    121.9951   1.2257165216e+02   4.8283614856e+01    0.1762888    0.1478244  85.52            0    1.042    0.040
        57 -10.1376      8.0239    121.2517   1.2537584272e+02   4.9209877249e+01    0.1622293    0.1304974  69.89 0.0003863295    1.090    0.082
        58 -10.3784     72.1287    112.9930   1.0523156691e+02   4.4274554053e+01    0.1996988    0.1824457  87.44 0.0003713858    1.009    0.009
        59 -10.7267     65.5764    110.6655   1.0677321779e+02   4.5746750089e+01    0.2924436     0.217732  80.59 0.0008344172    1.428    0.300
        60 -11.7854      3.9856    108.7240   1.2566941831e+02   5.2358252341e+01    0.3989986    0.2440546  15.98  0.002377957    2.061    0.515
        61 -11.6210     56.9313    108.2843   1.0901362923e+02   4.7458037722e+01     0.323676     0.239207  18.78  0.001623152    1.701    0.412
        62  -9.7160     78.5123    107.2832   1.0220065143e+02   4.4621946177e+01    0.2444333     0.122379  37.20  0.001022154    2.049    0.512
        63 -10.8832     41.0460    106.6102   1.1376108296e+02   4.9726854637e+01     0.314783    0.1713603  14.22  0.001435221    2.729    0.634
        64  -9.5276    187.1477    103.2129   7.4601605226e+01   2.3616242017e+01    0.1830292    0.1690415 -87.00 0.0005308125    1.317    0.241
        65 -10.7553     13.0943    108.8393   1.2286720755e+02   5.1712758580e+01     0.194321     0.139169  65.33  0.001220287    1.280    0.219
        66 -10.3586     61.6349     98.1526   1.0561529354e+02   4.9223427062e+01    0.2091773    0.1112307 -52.50 0.0009542576    1.811    0.448
        67  -9.9287    100.8686     96.5468   9.3103280411e+01   4.3184696442e+01     0.249416    0.2029838 -77.29  0.001286408    1.369    0.269
        68 -11.7878     78.8407     95.0421   9.9403205191e+01   4.7378935828e+01    0.2549914    0.2217778 -62.27            0    1.099    0.090
        69 -10.4449      3.5259     95.4272   1.2475718769e+02   5.5495821947e+01    0.2125038    0.1726026 -67.50 0.0007235862    1.200    0.167
        70 -11.3677     17.6699     94.8647   1.1991016664e+02   5.4681081758e+01    0.2263429    0.1690189  43.78 0.0007445019    1.414    0.293
        71 -11.4745     10.8704     91.3028   1.2184890173e+02   5.6016322550e+01    0.4632497    0.1888523 -73.91  0.001441211    1.999    0.500
        72 -10.3896     43.7004     91.2528   1.1032758604e+02   5.3106800549e+01    0.4007367    0.2192125 -72.46  0.001930976    1.736    0.424
        73 -10.0989     29.2156     92.1677   1.1554733184e+02   5.4362968386e+01    0.2073577     0.186041  47.97 0.0008079102    1.221    0.181
        74 -10.6111     25.0169     90.0229   1.1670847476e+02   5.5250812106e+01    0.3129398    0.2132102  84.06  0.001612984    1.420    0.296
        75 -11.1320     57.4859     91.8935   1.0570588555e+02   5.1263357107e+01     0.290359     0.221318   5.05  0.001243689    1.794    0.443
        76 -10.5666     18.4839     87.5406   1.1869603669e+02   5.6375862946e+01     0.363864    0.2224415 -58.98  0.001654056    1.483    0.326
        77 -10.7840     76.5526     89.3083   9.8757915242e+01   4.9064911335e+01     0.268106    0.2461048  39.29 0.0005958281    1.163    0.140
        78  -9.8336     64.8973     88.5111   1.0244292617e+02   5.1033543321e+01    0.2182833    0.1734165 -62.65 0.0006001153    1.172    0.147
        79  -8.9820    150.2802     88.2721   7.8104884164e+01   3.4396760180e+01    0.1456305    0.1159882  12.98 0.0002189646    1.495    0.331
        80 -10.9451    124.5180     83.6073   8.3005976110e+01   4.1062883472e+01    0.5120418    0.2762688 -41.59  0.001512258    1.846    0.458
        81 -10.6885     54.7430     84.6198   1.0508100212e+02   5.3350797384e+01    0.2924266    0.1943506 -75.83 0.0009652923    1.552    0.356
        82  -9.9244     38.9139     85.8268   1.1101910042e+02   5.4934211355e+01    0.2753891    0.1549562  80.35  0.001228102    2.344    0.573
        83  -9.4412    114.1461     85.5592   8.6364608928e+01   4.2885317578e+01     0.188293    0.1425696  32.45 0.0004537781    1.454    0.312
        84 -10.8108      4.1443     82.4856   1.2330931639e+02   5.8530854408e+01    0.3676274     0.149052 -77.36  0.001759268    2.004    0.501
        85 -11.3017     64.4233     79.4445   1.0039845860e+02   5.3221947513e+01    0.4475365    0.2818142 -66.78  0.001531904    1.621    0.383
        86 -10.2094     89.6451     80.8196   9.2283619139e+01   4.8719168265e+01    0.2639001    0.2065256 -83.70 0.0003809045    1.549    0.354
        87  -9.5780     24.0324     79.0000   1.1535434575e+02   5.7992719385e+01    0.2066189    0.1336152 -31.32  0.001098627    1.959    0.489
        88 -10.6070     28.0749     77.0752   1.1346055976e+02   5.8106671811e+01    0.1924007    0.1782337 -53.87 0.0003712757    1.155    0.134
        89 -10.4926     18.3863     75.3002   1.1694140029e+02   5.9332491155e+01    0.3167829    0.1591097 -64.13  0.001041262    1.636    0.389
        90 -10.2716     15.4663     75.5077   1.1812037675e+02   5.9494424212e+01    0.4782335    0.2141783  56.08  0.002148256    2.705    0.630
        91 -10.3837    176.8213     77.0791   6.9474205194e+01   3.0078076946e+01    0.2334209    0.2052097 -61.28  0.001235924    1.264    0.209
        92 -10.8486     55.4939     75.2287   1.0256954387e+02   5.5470003454e+01    0.3307683    0.2790983 -65.47 0.0009786809    1.087    0.080
        93 -10.1966      6.6435     75.4837   1.2156519514e+02   6.0063628986e+01    0.3443357    0.1004511 -48.73  0.001333938    3.511    0.715
        94  -9.5660    160.6143     75.2053   7.2079981454e+01   3.4247639054e+01    0.2015893    0.1430891 -20.74 0.0001394941    1.530    0.346
        95 -10.4906     72.4715     75.2018   9.6418596143e+01   5.2951280070e+01     0.504356     0.197781  33.79  0.001834917    3.010    0.668
        96 -10.8110     36.9734     75.0000   1.0959078244e+02   5.7741967652e+01    0.5776084    0.1621248  38.57  0.002136653    3.542    0.718
        97 -10.4377     36.4640     72.0016   1.0914424287e+02   5.8513788368e+01    0.3915881    0.2497802 -24.09  0.001931639    2.193    0.544
        98  -9.3444    136.5484     74.4625   7.7214320096e+01   4.0086018410e+01    0.1505521    0.1466595   0.41 8.340851e-05    1.034    0.033
        99 -10.0742     92.2117     71.5243   8.8690504752e+01   5.0249208009e+01    0.4854432    0.2764222 -69.88  0.001739572    3.069    0.674
       100  -9.4597     81.4437     73.2291   9.2757643447e+01   5.1872031698e+01    0.2037828    0.1348401 -62.40 0.0009412204    1.626    0.385
       101  -9.0452    216.7542     72.3544   6.1766312244e+01   2.1552705220e+01    0.1421358   0.09665646 -48.72 0.0003363125    1.591    0.371
       102 -10.4436    106.2382     71.9998   8.4532825116e+01   4.7320376342e+01    0.2941419    0.2083057  46.19  0.001204079    1.443    0.307
       103 -10.1225     46.5538     69.4624   1.0453888549e+02   5.7977137644e+01    0.2457081    0.1368803  28.95  0.001169708    2.046    0.511
       104 -10.1042     10.7445     67.4971   1.1880712539e+02   6.1734455639e+01     0.358857     0.175331 -81.57  0.001571195    1.867    0.464
       105 -11.6790      8.7025     61.7809   1.1877351717e+02   6.3227580193e+01    0.5561347    0.1906844 -52.33  0.002450135    2.487    0.598
       106 -13.8280     19.9658     57.6362   1.1298754824e+02   6.3450767421e+01    0.4415002    0.3091346 -72.67  0.001171298    1.249    0.199
       107 -10.6549     34.4249     64.9562   1.0836682838e+02   6.0405505374e+01    0.2822024    0.2380542 -48.26 0.0007026345    1.153    0.132
       108 -10.5496     39.0534     62.1076   1.0571017085e+02   6.0585512440e+01    0.4004898    0.2065417 -64.61  0.001878117    1.777    0.437
       109 -11.5105     14.3703     63.9793   1.1669354507e+02   6.2342304531e+01    0.4258119    0.2668954  87.32 0.0004488327    1.626    0.385
       110 -10.0907    133.5019     65.5328   7.5100358929e+01   4.2420361006e+01    0.1524094    0.1465894   7.80 3.849574e-05    1.060    0.057
       111 -10.1187     75.9225     64.8031   9.2064789066e+01   5.4691628188e+01    0.2007536    0.1841154 -20.18 0.0002710366    1.165    0.142
       112 -10.6522     63.8127     61.6285   9.5539659456e+01   5.7388159695e+01    0.4302916    0.3020264  -2.85   0.00200715    2.170    0.539
       113  -9.2834    193.3200     62.2507   6.2393341993e+01   2.8324954433e+01    0.2249481      0.13538 -18.88 0.0002585459    1.760    0.432
       114  -9.6706    192.7726     58.6324   6.1424477427e+01   2.8955392621e+01    0.2036326    0.1655833 -55.37 0.0003351521    1.313    0.239
       115 -10.0848    100.9506     61.3746   8.2595162476e+01   5.0569989990e+01    0.2487505    0.2030288 -57.40 0.0007098898    1.291    0.225
       116  -9.2505     53.6692     62.2845   9.9730873961e+01   5.8726202954e+01    0.1356085     0.104385  76.09 0.0005097113    1.613    0.380
       117  -9.6414    130.0290     57.8274   7.3349105905e+01   4.4608897495e+01    0.2552238    0.1824151 -87.95 0.0009573486    2.022    0.505
       118 -10.7280     91.8133     55.1942   8.3293742463e+01   5.3693122219e+01    0.3115124    0.2090773  39.55 0.0002996318    1.580    0.367
       119 -11.2033     83.6153     56.8648   8.6662957250e+01   5.4975425363e+01    0.2667257    0.2299392 -64.35 0.0004429206    1.239    0.193
       120 -11.5864     87.5149     53.7293   8.4188922700e+01   5.4850629517e+01    0.4545017    0.3491559  11.85  0.001875428    1.664    0.399
       121  -9.2024     48.3386     58.2620   1.0071825131e+02   6.0360841099e+01    0.1337071    0.0998862 -24.66 0.0002553065    1.587    0.370
       122  -9.4722     71.6302     56.8176   9.0971002180e+01   5.7161533815e+01    0.1990983     0.128421 -57.87 0.0006151645    1.610    0.379
       123  -9.7348     33.1635     55.8745   1.0661809918e+02   6.2677994950e+01     0.330713      0.15688 -54.11  0.001551081    1.776    0.437
       124 -12.0729    114.6342     53.9802   7.5980055613e+01   4.8932748960e+01    0.3597181    0.3273093  51.41 0.0007703846    1.121    0.108
       125  -9.9122     96.8348     55.1631   8.1665810183e+01   5.2657630783e+01    0.2032952    0.1732426 -11.02 0.0004985785    1.306    0.234
       126  -9.6732    226.3231     54.6485   5.5856427879e+01   2.1657170808e+01    0.1472999   0.09295497 -53.13 0.0007048087    1.753    0.430
       127  -9.8841    164.2720     54.1547   6.4808137852e+01   3.6673321076e+01    0.3297858   0.08232716  53.72 0.0005918743    3.604    0.723
       128 -11.3647     17.4066     33.3253   1.0784748959e+02   6.9297881472e+01    0.8875208    0.3840625 -17.86   0.00292473    5.342    0.813
       129 -11.4776     26.7388     43.5008   1.0611298541e+02   6.6175414913e+01    0.4800887    0.3586056  55.91   0.00280325    1.639    0.390
       130 -10.2691     25.8045     29.5854   1.0181763904e+02   6.9366961163e+01    0.2048285      0.14802 -70.76 0.0003407669    1.506    0.336
       131 -10.6243     18.5515     44.9566   1.1063218546e+02   6.6545501767e+01    0.4745427    0.3274899  34.98  0.001685768    1.676    0.403
       132 -10.6728     13.0150     41.0703   1.1246279160e+02   6.7850943057e+01    0.2376643    0.2222332  74.97 0.0004101898    1.220    0.180
       133 -10.4520     22.7173     38.5535   1.0663824079e+02   6.7670190822e+01    0.2171883    0.1585032  49.72  0.000582792    1.671    0.402
       134 -11.4096     26.6935     35.1267   1.0338569220e+02   6.8065285723e+01    0.3923183    0.2214148 -35.98 0.0009848154    1.838    0.456
       135 -13.2651      5.6615     50.7812   1.1827325796e+02   6.6014781493e+01    0.3911804    0.2441161 -52.42 0.0005578942    1.405    0.288
       136 -11.1456     12.7505     48.5862   1.1439235017e+02   6.6112229504e+01    0.3997159    0.2203869  35.99 0.0008628261    2.075    0.518
       137  -9.7737    105.8103     53.3803   7.8270789874e+01   5.1048769904e+01    0.2832022    0.1458969  54.26  0.001123035    2.085    0.520
       138 -12.2391     66.0443     52.5649   9.1617423641e+01   5.9013185553e+01    0.5603403    0.2576461  36.21   0.00229942    2.425    0.588
       139 -10.0860    122.6617     51.6664   7.3007524857e+01   4.7444852423e+01    0.3024861    0.1902749  79.98  0.001161783    2.510    0.602
       140 -11.2048     77.2291     47.4893   8.5456564135e+01   5.8086938283e+01    0.5216259    0.3557156  -9.87  0.002306605    2.179    0.541
       141  -9.1076     54.4165     55.4818   9.7313822189e+01   6.0163779753e+01    0.1377518    0.1237031 -53.84 7.266828e-05    1.023    0.022
       142  -9.1176    211.7090     48.7443   5.5991747854e+01   2.5709143216e+01    0.1345283    0.1034958  25.38            0    1.487    0.328
       143 -10.6774     57.5972     47.2709   9.3131079145e+01   6.1492097042e+01    0.3628301    0.2232503 -63.63 0.0009491398    1.899    0.473
       144  -9.4128    154.5862     47.5522   6.4438631457e+01   4.0115345326e+01    0.1487296    0.1453663 -24.07 7.877727e-05    1.010    0.010
       145  -9.4823    135.5424     46.4536   6.8013542641e+01   4.5128549622e+01    0.1495424    0.1478221 -34.69 0.0001113637    1.017    0.017
       146 -10.1271     69.9957     42.5122   8.6224416310e+01   6.0406965157e+01    0.2786318    0.2317265  82.90  0.001483466    1.585    0.369
       147  -9.6802    159.5797     41.7865   6.1546636025e+01   3.9648899043e+01    0.2165312    0.1331502 -39.35 0.0004616651    1.590    0.371
       148 -10.4859      3.3913     42.0523   1.1772492815e+02   6.8183674068e+01    0.3023858    0.1563614 -10.72  0.001542001    2.607    0.616
       149 -11.0908    139.8563     40.6370   6.4950615632e+01   4.4913443754e+01    0.3595448    0.2586288  79.57 0.0009174534    1.646    0.392
       150 -10.0444     35.4961     41.5011   1.0112324270e+02   6.5714052086e+01    0.2591749     0.130979  29.58  0.001230761    2.237    0.553
       151  -8.8617    181.6502     40.3184   5.7507318036e+01   3.4150330960e+01    0.1590855    0.1061512 -60.66 0.0007048039    1.736    0.424
       152  -9.4452     51.5136     39.9126   9.2966613402e+01   6.3965409040e+01    0.1992863     0.123086 -48.52 0.0004355307    1.462    0.316
       153 -12.0863    121.5805     37.2339   6.7789822640e+01   5.0049363140e+01    0.4894952    0.4442717  74.43  0.001485346    1.175    0.149
       154 -10.2205    127.8060     38.6167   6.6849256333e+01   4.8281183933e+01    0.3221759    0.2466442  84.29 0.0003801584    1.578    0.366
       155 -10.2471    131.4641     38.5619   6.5994442503e+01   4.7363533618e+01    0.2452438    0.2121521 -55.89 6.735877e-05    1.229    0.186
       156  -9.7313     99.9253     39.2681   7.4508343208e+01   5.4885709225e+01    0.2032661    0.1933056  37.87 0.0004569508    1.070    0.065
       157  -9.6524     42.8137     40.8173   9.7346297972e+01   6.4975447033e+01    0.1644643    0.1507365 -89.81  0.000425637    1.264    0.209
       158 -10.5506     38.8535     35.7203   9.7323574056e+01   6.6576009629e+01    0.2590594    0.2051869   2.18  0.001266626    1.465    0.317
       159 -12.0855     41.0276     30.0180   9.3864748047e+01   6.7489419322e+01    0.7018559    0.4296576   5.27  0.003234275    2.532    0.605
       160 -10.8567      2.8886     34.9042   1.1644081710e+02   6.9867993114e+01    0.3294517    0.2118482 -50.70  0.002007614    1.317    0.241
       161  -9.6354    112.2969     35.6582   6.9513998447e+01   5.2570929444e+01    0.1540961    0.1146368 -63.42 0.0004587334    1.664    0.399
       162 -10.5376     96.6901     33.0848   7.2862969411e+01   5.6646528584e+01    0.3754216     0.223835 -39.71  0.001680981    1.649    0.394
       163  -9.4083    134.2026     34.2253   6.3736406019e+01   4.7288571116e+01    0.2092718    0.1815633  31.24 0.0003349163    1.196    0.164
       164  -8.7461    145.2780     33.2975   6.1158842955e+01   4.4535508459e+01    0.1513209    0.1131395  25.28 0.0002044632    1.535    0.349
       165  -9.5883     50.4443     33.5021   9.0797269723e+01   6.5442895567e+01     0.134969    0.1217772 -40.74 8.755219e-05    1.052    0.049
       166  -9.7488    205.5100     31.0095   5.1630904533e+01   2.9276961054e+01    0.2188925   0.08565474 -44.88 0.0008102948    2.529    0.605
       167 -10.3192    166.2579     30.9285   5.6723313042e+01   3.9317465471e+01    0.2264378     0.190443 -50.57 0.0004845404    1.199    0.166
       168 -10.0570    128.9241     31.0156   6.3621270248e+01   4.9094468623e+01    0.3515561     0.192849  60.46  0.001463512    1.822    0.451
       169  -9.4077    186.7396     30.0196   5.3555872288e+01   3.4097291670e+01    0.1920867    0.1208655 -25.80 0.0008837637    1.530    0.346
       170 -10.8687      8.0354     28.5300   1.1176737046e+02   7.1039567633e+01    0.2896633    0.2161259  69.51  0.001785226    1.679    0.404
       171  -9.5917    149.9877     30.0000   5.9080244885e+01   4.3727110131e+01     0.251985   0.08477693  64.25 0.0008074206    2.977    0.664
       172 -10.7701     77.1423     26.5796   7.6421261486e+01   6.1945321521e+01     0.415875    0.2355333 -19.82   0.00174273    2.218    0.549
       173 -11.3043     17.4996    249.2783   1.2902054229e+02   2.4262490590e+01    0.1749938    0.1025862  25.23  0.001286122    2.091    0.522
       174  -9.7939    229.5046    247.9892   9.3716316343e+01  -1.1210671480e+00    0.1221432    0.0853708 -12.07 0.0005910771    1.513    0.339
       175  -9.5377    146.9726     26.4676   5.8305949510e+01   4.4967464626e+01    0.2123834    0.1458697  65.02 -2.756449e-05    1.454    0.312
       176  -9.7048    140.0023     26.7869   5.9704427214e+01   4.6769428080e+01    0.2042721    0.1198704  63.72 0.0005843151    1.700    0.412
       177 -10.6817    113.9619     24.9344   6.4563151730e+01   5.3726031256e+01    0.3730157    0.2550411  43.67  0.001139447    1.470    0.320
       178  -9.3563     18.3079     26.3146   1.0488333484e+02   7.0776139701e+01    0.1319909   0.07940454 -35.50 0.0007028074    1.628    0.386
       179  -9.4918    153.7629     25.5957   5.6826530701e+01   4.3270765915e+01    0.2074773    0.1429369  84.28 0.0009408699    1.644    0.392
       180 -10.0621    121.3202     24.4109   6.2612337260e+01   5.1934355506e+01    0.4218338    0.1573408  47.75  0.001462632    2.668    0.625
       181 -10.4361     58.6775     24.2651   8.2728146737e+01   6.5861757185e+01     0.275527    0.2230195  11.11  0.001554279    1.340    0.254
       182 -10.4023      1.9344     21.8879   1.1355358697e+02   7.2868529656e+01    0.2483886    0.1477149 -71.01 0.0008251678    1.484    0.326
       183 -11.4443     30.6401     21.2085   9.5463442235e+01   7.0588825556e+01    0.2691227    0.1983832 -43.08 0.0005966256    1.164    0.141
       184 -11.1216     14.4536     21.4114   1.0535177835e+02   7.2157777988e+01     0.301761    0.2032544  41.11  0.001780046    1.841    0.457
       185  -9.2519    165.2182     20.9771   5.3435808671e+01   4.0753191741e+01    0.1958879    0.1177001 -24.15 0.0005878923    1.652    0.395
       186  -9.6653     84.7265     21.3850   7.1249762565e+01   6.1147850792e+01    0.1979917    0.1272219  41.75 0.0005637116    1.581    0.368
       187  -9.6809     57.5635    248.1800   1.2226949622e+02   2.0393874918e+01    0.1990175   0.04835471  37.66  0.001007297    2.694    0.629
       188 -10.0295    100.5662     19.2874   6.5475061316e+01   5.7779542343e+01     0.349286    0.1775827 -50.16   0.00134262    2.553    0.608
       189  -9.3892     58.3715     19.2115   8.0264756794e+01   6.6793059089e+01    0.1973741    0.1171367 -46.16 0.0009416644    1.748    0.428
       190  -9.4931     36.5012     18.4893   9.0798714483e+01   7.0378056193e+01    0.2167055    0.1147395 -46.47 0.0006032881    1.686    0.407
       191  -9.6785    225.1089    246.7911   9.4218789042e+01  -4.8595941361e-01    0.1426176   0.08415876  17.93  0.001054443    1.338    0.253
       192  -9.4426    136.3651    245.7088   1.0847207956e+02   1.1129380891e+01    0.1068904   0.06315285  52.77 0.0007026735    1.706    0.414
       193  -9.5176    199.5390     17.4821   4.8236989198e+01   3.2199705952e+01    0.1403507    0.1285885 -49.44 0.0001297388    1.023    0.023
       194 -10.4685    108.3745     16.4907   6.2162627023e+01   5.6219014306e+01    0.2310262    0.2008603 -21.00   0.00125036    1.146    0.127
       195  -9.6498     82.4508     17.4757   7.0047202422e+01   6.2219615422e+01    0.1420996    0.1303807   3.66 4.049805e-05    1.032    0.031
       196  -9.8384     26.7176     16.7870   9.5629034439e+01   7.1927434776e+01    0.1564864    0.1427168 -68.72  0.000464328    1.317    0.241
       197 -10.3123     20.0829     16.8517   9.9802308845e+01   7.2616614933e+01    0.1853173    0.1703706  50.03  0.000721771    1.374    0.272
       198 -10.9926     13.6993     16.1762   1.0366245444e+02   7.3331625212e+01    0.3016527    0.1849711  25.25  0.001225615    1.874    0.466
       199  -9.3233     45.2985    244.7274   1.2419734927e+02   2.2201536115e+01    0.1021508   0.04926994  54.91 0.0001802607    1.528    0.345
       200  -9.6466    202.3520    240.4894   9.6929526102e+01   2.9630793132e+00    0.1393253   0.09270572 -25.05 0.0009629793    1.794    0.443
       201  -9.8374     60.5368    240.9223   1.2136051131e+02   2.1118923913e+01    0.2455469   0.08537164  33.66   0.00132821    2.448    0.591
       202  -9.9639     50.0252    241.1758   1.2321105880e+02   2.2227496334e+01    0.1501377   0.08082012  65.40  0.001055941    1.652    0.395
       203  -9.4857    148.7707    238.9961   1.0565357526e+02   1.0291348858e+01    0.1113687   0.09082165 -43.36  0.000881122    1.657    0.397
       204  -8.8669     30.2951     16.2881   9.3223051420e+01   7.1601270831e+01    0.1280798   0.08767257 -21.85 0.0002044466    1.549    0.354
       205 -10.0205    175.5150     15.0316   5.0067763702e+01   3.8651288101e+01    0.2268191    0.1917853  75.42 0.0005490724    1.183    0.155
       206 -11.1251     14.1527    238.6863   1.2927317375e+02   2.6150075068e+01    0.1601401   0.09219726  66.10 0.0005495041    1.331    0.248
       207  -9.6635     43.3100     15.1211   8.5308533882e+01   7.0013211254e+01    0.2749527    0.1622103 -62.40  0.001166841    2.981    0.665
       208 -10.4252    190.6496     13.8474   4.8014955687e+01   3.4822239041e+01    0.2416878    0.1873841  59.63 0.0007836384    1.324    0.245
       209  -9.7519    162.4500     13.4431   5.1155220517e+01   4.2290266056e+01     0.142377    0.1396687 -84.75 7.038046e-05    1.008    0.008
       210  -9.3220     95.2335     13.6018   6.4198622766e+01   5.9794276229e+01    0.1466694    0.1021171 -49.74 0.0006904943    1.660    0.397
       211 -11.9415     26.1652    235.7098   1.2712070840e+02   2.5484059590e+01    0.3183011     0.248707  42.89  0.002759946    1.306    0.235
       212 -12.0601      4.2017    232.5814   1.3079921945e+02   2.7973342708e+01    0.2660843    0.1203623  51.04 0.0004865323    1.444    0.307
       213 -12.3897      9.7590    228.5162   1.2973823733e+02   2.8131366551e+01    0.3409025    0.2112674  58.62  0.001193942    1.112    0.101
       214  -9.9464    249.2133    234.0616   8.8962911302e+01  -2.3615304660e+00    0.1513506    0.0945974  14.02 0.0004249427    1.176    0.150
       215  -8.9349     80.3360    231.6720   1.1721534094e+02   2.0191501336e+01    0.1138427   0.05937051  57.22  0.000705187    1.725    0.420
       216  -9.2633    209.5354    229.4988   9.4351420727e+01   3.0863842341e+00    0.1076067    0.0778098  22.56 0.0002187621    1.010    0.010
       217 -10.3670    140.4998    228.0421   1.0591977970e+02   1.2799004419e+01    0.1931292    0.1739259 -81.69  0.001136904    1.509    0.337
       218 -10.0217     57.4765    229.4881   1.2124594178e+02   2.3192624905e+01    0.1060795   0.07554676  53.00 0.0008100432    1.017    0.017
       219  -9.1218     42.6238    236.2669   1.2426816430e+02   2.3748368874e+01    0.1102038   0.04821249  53.72 0.0006989969    1.677    0.404
       220 -11.1742      8.5840    218.3510   1.2965566767e+02   2.9889428641e+01    0.2418532    0.1649742  10.14  0.001715165    2.445    0.591
       221  -9.1771      3.6696    211.6878   1.3036253669e+02   3.1432363653e+01   0.08133689   0.07501718 -55.68 0.0007043515    1.673    0.402
       222 -10.1135     20.1451    209.6794   1.2721537361e+02   3.0313778692e+01    0.1718247   0.08495636  50.22   0.00114589    1.452    0.311
       223 -10.1367      2.9799    205.6788   1.3032484647e+02   3.2525330299e+01    0.1342997    0.0802101  -2.53 0.0007050267    4.345    0.770
       224 -10.6204     10.0092    203.6396   1.2892683807e+02   3.2283775657e+01    0.1472798    0.1018331  53.80 0.0005691341    1.098    0.089
       225  -9.9377     23.1206    197.2066   1.2609643536e+02   3.2242924678e+01    0.1472022    0.1273544  64.36 0.0005283703    1.222    0.182
       226 -10.5239     13.9926    192.8831   1.2774507721e+02   3.3871893898e+01    0.1650431      0.11156  60.75 0.0005232143    1.093    0.085
       227  -9.2366     19.3260    192.6598   1.2665490125e+02   3.3430733867e+01    0.1198541   0.05465326  59.30 -3.561845e-05    1.731    0.422
       228 -10.6204      6.4504    191.5011   1.2921077444e+02   3.4776873217e+01    0.1797929    0.1405757  66.20  0.001444747    1.100    0.091
       229  -9.7858     15.3088    186.2515   1.2719662590e+02   3.4991958846e+01    0.3361865   0.08635123 -81.84  0.001479024    3.791    0.736
       230 -10.8944      5.4079    167.5826   1.2853318328e+02   3.9461754994e+01    0.2291613    0.1322512  75.43  0.001499843    1.402    0.287
       231  -9.5759    226.5235    164.0345   8.1051305688e+01   7.7326987944e+00    0.1713965    0.1080974 -22.36 0.0005933022    1.530    0.346
       232  -9.6693    247.4945    155.5037   7.6207615348e+01   5.3882655379e+00    0.1213396   0.09402068   4.63 -2.213648e-05    1.031    0.031
       233 -10.6581      2.5057    153.5068   1.2860580090e+02   4.2561780784e+01     0.205406     0.100944  27.80  0.001203242    2.138    0.532
       234  -9.8846     14.6549    163.6836   1.2625491269e+02   3.9488868400e+01    0.1022644   0.08126379 -48.46 0.0007048345    1.719    0.418
       235 -10.5445     23.8424    150.8326   1.2326443225e+02   4.1365698772e+01    0.1667403    0.1487187 -82.93 0.0006878009    1.235    0.190
       236  -9.8536      2.4949    148.5002   1.2838552874e+02   4.3614210898e+01    0.1147835   0.08622327  71.51 0.0008105173    1.028    0.027
       237 -10.2255     22.7068    142.9876   1.2297747056e+02   4.3167417254e+01    0.1706821    0.1297403  86.05 0.0005849672    1.117    0.105
       238  -9.5410      6.6842    142.3145   1.2703690288e+02   4.4628642089e+01    0.1242455   0.06415827  61.66 0.0002412588    1.645    0.392
       239 -10.2053     11.8805    141.1977   1.2564575508e+02   4.4471458017e+01    0.1502454    0.1213553 -71.41 0.0008939452    1.312    0.238
       240  -9.1023     41.7244    138.6933   1.1758015911e+02   4.2242252034e+01    0.1142204   0.09071772 -47.44 0.0003154764    1.548    0.354
       241 -10.3796      8.9951    135.5178   1.2604686896e+02   4.5940131611e+01    0.1773759     0.129481  84.25 0.0003841172    1.116    0.104
