#   1 NUMBER                 Running object number                                     
#   2 MAG_AUTO               Kron-like elliptical aperture magnitude                    [mag]
#   3 X_IMAGE                Object position along x                                    [pixel]
#   4 Y_IMAGE                Object position along y                                    [pixel]
#   5 X_WORLD                Barycenter position along world x axis                     [deg]
#   6 Y_WORLD                Barycenter position along world y axis                     [deg]
#   7 A_WORLD                Profile RMS along major axis (world units)                 [deg]
#   8 B_WORLD                Profile RMS along minor axis (world units)                 [deg]
#   9 THETA_WORLD            Position angle (CCW/world-x)                               [deg]
#  10 FWHM_WORLD             FWHM assuming a gaussian core                              [deg]
#  11 ELONGATION             A_IMAGE/B_IMAGE                                           
#  12 ELLIPTICITY            1 - B_IMAGE/A_IMAGE                                       
         1  -9.6408    237.4159      3.0721   3.5136394386e+01   2.5875337543e+01    0.4641241    0.2511498  88.31  0.000886226    1.790    0.441
         2  -7.1034    124.4745      3.5172   4.8613647659e+01   5.3086631821e+01    0.1322931      0.11779  51.39 7.384494e-05    1.029    0.028
         3  -8.5594    127.0221    249.0000   1.0834561751e+02   6.5835228292e+00    0.2060257    0.0558885  39.36 0.0008073056    2.976    0.664
         4 -10.5147    241.6062    249.4072   8.7465710478e+01  -1.0466584604e+01    0.4987395    0.3092013  37.28  0.003238596    1.622    0.384
         5 -10.4640    250.4558    236.9300   8.3939017332e+01  -1.0233066107e+01    0.4962311    0.2628155 -40.28  0.001074839    2.502    0.600
         6 -11.2805    248.2472    247.6846   8.6066936895e+01  -1.1147787636e+01     0.907373    0.5239564 -40.62  0.005483209    2.459    0.593
         7 -10.2047    109.5848    249.5337   1.1165404259e+02   9.0887011580e+00     0.242789    0.1786454  44.81 0.0005215947    1.119    0.106
         8  -9.0850     81.8906    250.2212   1.1677898880e+02   1.2874923877e+01    0.2445804    0.1359577  34.89  0.001038218    1.810    0.448
         9 -10.5842     89.2571    245.2400   1.1499778181e+02   1.2721241952e+01    0.5688213    0.3141892  75.36  0.003072539    2.260    0.558
        10 -10.5289     53.7865    231.8837   1.2041710005e+02   1.9817842776e+01    0.8035553    0.2088303 -76.49  0.002813859    5.524    0.819
        11 -12.1430     67.9215    247.1750   1.1903205672e+02   1.5249525822e+01      1.81471    0.5666351  33.40  0.007416191    3.874    0.742
        12 -10.8925     58.6760    244.2080   1.2045189911e+02   1.6948278373e+01    0.5375928     0.359129  58.77  0.000482883    1.158    0.136
        13  -9.8342     39.1634    248.8938   1.2413273794e+02   1.8444871807e+01    0.4112936    0.2387124 -69.43  0.002793273    1.853    0.460
        14  -9.3029     30.5456    248.1035   1.2552644918e+02   1.9547361372e+01    0.3599357    0.1789063  73.04  0.001763717    1.750    0.429
        15 -11.8907     21.6987    244.4666   1.2679712302e+02   2.1139811923e+01     1.597276    0.5511202 -66.02  0.008032327    2.976    0.664
        16 -11.4608     10.2038    207.3127   1.2682433584e+02   2.9365940519e+01    0.5804773    0.5632438  14.89  0.003880356    1.604    0.377
        17 -12.3824      3.7265    195.5455   1.2737526978e+02   3.2354717884e+01        2.798   0.07521363 -69.25  0.008889009    6.338    0.842
        18  -8.5375    125.5047    232.9909   1.0675388919e+02   9.4768424206e+00    0.1680337    0.1240998 -62.26 0.0009642193    1.593    0.372
        19  -9.6546     84.7485    230.6571   1.1446494272e+02   1.5976239880e+01    0.4361262    0.2249259 -84.18  0.002173085    2.547    0.607
        20  -8.9694     60.7365    234.1892   1.1931584387e+02   1.8519618931e+01     0.236402    0.1382623  75.93   0.00111257    1.663    0.399
        21  -7.4046    142.2977    250.3500   1.0564018696e+02   4.0503969789e+00    0.1139528   0.08721746   8.52 0.0007035362    1.685    0.407
        22 -10.7440    248.3860    219.2460   8.1252886876e+01  -7.8218018380e+00     0.471278    0.2358933 -27.20  0.002568952    1.916    0.478
        23  -8.3837    222.3714    227.1355   8.7217937077e+01  -5.0463062430e+00    0.2085451    0.1495636  33.82  0.000356255    1.312    0.238
        24  -8.7998     45.8293    225.9010   1.2143971116e+02   2.1917680423e+01    0.3645772   0.09305372  51.34  0.001513441    3.299    0.697
        25  -9.9712     43.7591    220.5874   1.2143334756e+02   2.3198254187e+01    0.3362566     0.220899 -50.09  0.002061942    2.150    0.535
        26  -8.2228     55.8492    223.2957   1.1935364588e+02   2.1212981480e+01    0.2124756    0.1221439 -62.22  0.001254362    1.887    0.470
        27  -9.6700     37.4570    229.0592   1.2319029931e+02   2.2275478999e+01    0.2677077     0.159241  59.31  0.001043067    1.338    0.252
        28 -11.1177      5.3657    232.0929   1.2890689630e+02   2.5015930780e+01      1.15551    0.3613505  84.80   0.00535479    3.436    0.709
        29  -9.0833    220.8240    209.5554   8.4432117005e+01  -2.3683212888e+00    0.2803636    0.2520974  83.64  0.001439756    1.884    0.469
        30  -7.7305     57.5139    211.5229   1.1801630800e+02   2.3359487915e+01    0.1221554   0.09780687  71.50 0.0003085663    1.007    0.007
        31  -8.0133     55.9596    208.8573   1.1808719199e+02   2.4101303920e+01    0.1764514    0.1492683 -39.90  0.001159721    1.710    0.415
        32 -11.2683     10.9811    248.0394   1.2869453968e+02   2.1598388741e+01    0.6419151    0.4154799 -72.60  0.003572908    1.688    0.408
        33  -9.4863    249.5541    207.7581   7.8976706690e+01  -6.5067222136e+00    0.2836012     0.107082 -35.43  0.001297824    2.577    0.612
        34 -10.4720     42.9592    204.6429   1.2033422908e+02   2.6531622692e+01     0.394267    0.2898256 -41.83  0.001488923    2.042    0.510
        35  -9.0075    209.1871    204.1460   8.5639030118e+01   3.4070101839e-01     0.245452    0.1844362  42.58 0.0003442387    1.415    0.293
        36 -10.3150    240.4376    202.4893   7.9582527386e+01  -4.4319254094e+00    0.2386947    0.2043884  -8.17  9.95126e-05    1.161    0.139
        37  -9.4247    244.9730    200.0750   7.8334548690e+01  -4.7871196547e+00    0.2705134    0.1626659   3.14  0.001206989    1.877    0.467
        38  -9.1698     24.5609    202.8697   1.2383034782e+02   2.8888415190e+01    0.2447947    0.1071392  52.57  0.001331052    1.968    0.492
        39  -7.3461    132.5635    202.5348   1.0111262065e+02   1.3936490372e+01    0.1340071    0.1218735  46.43 5.870514e-05    1.017    0.017
        40  -9.0267    210.1372    199.4573   8.4590712519e+01   9.1000027667e-01    0.2300839    0.1990671   5.34 0.0003075914    1.029    0.028
        41  -8.0895    210.7709    194.8083   8.3592589465e+01   1.5365883228e+00    0.1963086    0.1584744   5.74 0.0004094004    1.141    0.124
        42  -9.7685     54.0509    192.3127   1.1690312864e+02   2.7853815481e+01     0.485971    0.4221818 -86.82  0.003286278    1.136    0.120
        43  -7.1034    220.3158    194.7240   8.1766084455e+01  -6.8439716212e-02    0.1150736    0.1072384  68.37 0.0001835559    1.567    0.362
        44  -9.7864     18.4282    192.7290   1.2433483397e+02   3.1625499884e+01    0.3576287    0.1286184 -80.88  0.001689642    2.491    0.599
        45  -8.6868    236.8188    190.2436   7.7882306549e+01  -2.1045088891e+00    0.2068692     0.194753 -45.22 0.0006047147    1.492    0.330
        46 -10.1424    178.3421    190.3027   8.9242985396e+01   8.0758792759e+00    0.2416269    0.2322191  21.51 0.0002761159    1.102    0.093
        47 -11.1241      3.3754    247.0928   1.2985162095e+02   2.2502253323e+01    0.8345226    0.2712475 -84.96  0.004009296    2.777    0.640
        48  -8.2665    130.6986    189.7647   9.9496868053e+01   1.6818298424e+01    0.2117684    0.1955142  13.58 0.0004958818    1.200    0.166
        49  -7.4081     71.2285    184.9548   1.1229370807e+02   2.7259499668e+01      0.16447    0.1006196 -70.61 0.0004561179    1.570    0.363
        50  -9.2082     63.2400    184.2016   1.1400641232e+02   2.8491271210e+01    0.2071595    0.1933295 -87.87 0.0003570015    1.177    0.150
        51  -9.0719     21.8306    182.5007   1.2288358940e+02   3.3517205602e+01    0.2887922    0.1335689  57.04  0.001521022    2.034    0.508
        52  -8.0714     67.9851    177.5376   1.1211601639e+02   2.9373573740e+01    0.2277438    0.1680593 -54.93 0.0005268182    1.450    0.311
        53  -8.5464    199.3395    174.6254   8.1848665739e+01   6.9879920930e+00    0.2303537    0.2068045  14.51 0.0002613899    1.036    0.035
        54 -12.7159     11.5372    224.5391   1.2750500170e+02   2.5850155135e+01     1.735723     1.019207  49.28   0.01211232    1.459    0.315
        55  -7.1726    185.4846    172.5033   8.4256971608e+01   1.0008241220e+01    0.1421564     0.135606  16.39 1.404199e-05    1.071    0.066
        56  -8.1695     72.8829    172.0500   1.1024191113e+02   2.9967934042e+01    0.1973317    0.1795372 -78.62 0.0005169525    1.107    0.097
        57  -7.3844     36.4025    170.6951   1.1863280068e+02   3.4716725737e+01    0.1378631   0.07610813  65.60 0.0001264528    1.846    0.458
        58  -7.4637    108.8775    168.9084   1.0106698091e+02   2.5122711561e+01    0.1924989     0.157742  70.40 0.0003028715    1.263    0.208
        59  -8.7732     63.9520    168.8157   1.1194705112e+02   3.1919506383e+01    0.2065647    0.1683199 -72.83 0.0003425787    1.138    0.122
        60  -9.8994     18.9923    170.2809   1.2250738883e+02   3.6502488675e+01    0.3602304    0.1616333  66.49  0.001743202    2.373    0.579
        61  -7.9491    127.0155    166.5632   9.6271334612e+01   2.2439350759e+01    0.2156014    0.1920929 -57.61 0.0003521717    1.146    0.127
        62  -7.5979     30.5107    166.5016   1.1956724568e+02   3.6280111405e+01    0.1270033   0.09935661  83.98 0.0001986125    1.069    0.065
        63  -7.3113    227.4207    164.1777   7.4264311233e+01   3.5926189548e+00    0.1811249    0.1230738 -43.26 0.0001157519    1.570    0.363
        64  -8.4706     81.5033    163.1680   1.0684969543e+02   3.0809862245e+01    0.2852235    0.2083234 -52.35 0.0007182023    1.410    0.291
        65  -7.6858    131.9732    162.5286   9.4307572944e+01   2.2410958340e+01    0.2181018    0.1420552  41.67 0.0004214252    1.500    0.334
        66  -7.0908     49.6704    162.2820   1.1456612499e+02   3.5210594310e+01    0.1347305   0.08644764  68.72 0.0003700934    1.606    0.377
        67  -8.2565    188.4852    244.9536   9.6270865258e+01  -2.2875101710e+00    0.1534345    0.1172042 -31.06 0.0004382202    1.522    0.343
        68  -9.7807     69.5272    158.4207   1.0912598373e+02   3.3629678392e+01    0.4313942    0.2606825 -46.11  0.001245663    1.870    0.465
        69  -7.3433    227.3155    243.2906   8.8975141021e+01  -7.8073160004e+00    0.1200808    0.0736484  10.00 0.0003284367    1.594    0.373
        70  -7.1999     87.2456    156.6631   1.0435428650e+02   3.1483010859e+01    0.1418183    0.1030544  83.50 0.0003668779    1.556    0.357
        71  -9.1546    234.9364    239.1453   8.6971901509e+01  -8.3791702787e+00    0.1673915    0.1397442  21.66 0.0004951354    1.281    0.220
        72  -7.5412      2.3709    151.2826   1.2471553349e+02   4.2145652538e+01    0.1135878   0.07541256 -50.55 0.0004413305    1.700    0.412
        73  -7.2060     26.6689    149.6682   1.1874485900e+02   4.0572935049e+01    0.1263987   0.08292567 -47.45 0.0007052062    1.722    0.419
        74  -7.2723    157.3811    146.4961   8.4868860356e+01   2.0866500830e+01    0.1500495    0.1455182 -28.52 0.0007982951    1.030    0.029
        75  -8.9759     69.1254    144.5818   1.0706186335e+02   3.7013353315e+01    0.3927771    0.2435236  75.21  0.001783693    2.089    0.521
        76  -9.2739    112.2514    235.3783   1.0962844786e+02   1.1100425109e+01    0.2155776    0.1816668  61.10 0.0007674998    1.080    0.074
        77  -9.2404      4.6373    142.9993   1.2349007439e+02   4.3889919782e+01    0.2173027    0.1372846  63.72   0.00133404    1.568    0.362
        78  -8.6715     89.7132    140.7233   1.0083308808e+02   3.4914857819e+01    0.2436995    0.2253483  89.18 0.0003036186    1.054    0.051
        79  -8.8039      3.7397    129.3088   1.2244243730e+02   4.7130399231e+01    0.2928688    0.1100922  64.63  0.001141722    3.935    0.746
        80  -7.7720     98.9680    127.3030   9.5505574707e+01   3.6607024126e+01    0.2095101     0.196129  33.23  0.001146982    1.143    0.125
        81  -8.5622    145.9607    122.6858   8.1925433782e+01   2.8438178259e+01    0.2428627    0.2159092 -35.69  0.000425439    1.116    0.104
        82  -9.5982    202.2750    120.5600   6.8981091369e+01   1.6391339806e+01    0.2623288    0.2419166 -37.24 0.0002720264    1.060    0.057
        83  -7.7696    207.7229    117.2140   6.7121555171e+01   1.5819990205e+01    0.2087417    0.1709197  12.56 0.0005897389    1.391    0.281
        84  -8.1200      2.3177    112.3173   1.2102411809e+02   5.1185930638e+01    0.1246929   0.07016914 -50.13 0.0003522557    1.655    0.396
        85  -7.6240    108.7549    117.3928   9.0440592203e+01   3.7190983118e+01    0.1995714    0.1477986  26.89 0.0003486018    1.541    0.351
        86  -8.1497      2.8687    106.6475   1.2019313211e+02   5.2479201544e+01    0.2748784   0.06129067  32.25  0.001101707    4.428    0.774
        87  -6.9464    230.2881    105.6979   6.0400436947e+01   1.3004983495e+01    0.1420574    0.1066311 -61.56 0.0002295972    1.562    0.360
        88  -8.3517     91.8712     97.0382   9.0147210557e+01   4.4939972379e+01    0.2162944     0.198451 -40.04 0.0003204466    1.015    0.015
        89  -7.1374    149.0141     96.5094   7.4131943313e+01   3.3303270440e+01    0.2145228    0.1560078  46.41 0.0002652975    1.398    0.285
        90  -7.3322      1.5980     84.2121   1.1750235024e+02   5.7726347464e+01    0.1678475   0.08197998 -60.22 0.0003683265    1.491    0.329
        91  -7.6996    124.2595     83.0995   7.6558492009e+01   4.1589456408e+01    0.2748055    0.1624085  30.02  0.001080587    2.101    0.524
        92 -10.2038    107.7738     77.0457   7.9376830758e+01   4.6271819403e+01    0.2481744    0.2373965 -19.99 0.0002320786    1.029    0.028
        93  -7.5506    119.3315     75.1629   7.5435733960e+01   4.4229961660e+01    0.2102953    0.1360304 -46.67 0.0004227047    1.591    0.371
        94  -8.7217    203.9676     72.8883   5.6332181564e+01   2.4447196419e+01    0.3598262    0.2456027 -22.44  0.001126806    1.638    0.389
        95  -7.1373    178.7956     63.1233   5.7965525865e+01   3.2180931331e+01    0.1979399    0.1684555  28.26 0.0003547863    1.317    0.241
        96  -7.4708    153.4155     50.7508   5.9140538807e+01   4.0437355956e+01    0.1957393     0.145291 -15.87 0.0005195632    1.525    0.344
        97  -7.5176    134.2497     29.8384   5.6155697214e+01   4.8021836347e+01    0.1944146    0.1513399  32.29 0.0004202057    1.295    0.228
        98  -9.0834    213.8916     28.4003   4.3288322619e+01   2.8421761428e+01     0.305827    0.1842874 -47.20 0.0008755409    1.557    0.358
        99  -9.7216    209.4361     27.7024   4.3614659958e+01   2.9573844492e+01      0.45524    0.2975977 -16.70  0.001694551    1.909    0.476
       100  -8.6544    173.0751     21.6625   4.6621581446e+01   3.9284311312e+01    0.1950835     0.166921  69.78 0.0003742801    1.085    0.078
       101  -8.6091    165.0204     20.9214   4.7596002674e+01   4.1396478337e+01    0.2024726    0.1863216  57.09  0.001199335    1.061    0.058
       102  -8.7744    132.4208     17.4600   5.2139893791e+01   4.9871978358e+01     0.231353    0.2122248  41.71 0.0004536321    1.022    0.022
       103 -10.1843     57.6614    249.1426   1.2098348200e+02   1.6201444826e+01    0.7676564    0.2216344  38.82  0.003593301    2.868    0.651
