#   1 NUMBER                 Running object number                                     
#   2 MAG_AUTO               Kron-like elliptical aperture magnitude                    [mag]
#   3 X_IMAGE                Object position along x                                    [pixel]
#   4 Y_IMAGE                Object position along y                                    [pixel]
#   5 X_WORLD                Barycenter position along world x axis                     [deg]
#   6 Y_WORLD                Barycenter position along world y axis                     [deg]
#   7 A_WORLD                Profile RMS along major axis (world units)                 [deg]
#   8 B_WORLD                Profile RMS along minor axis (world units)                 [deg]
#   9 THETA_WORLD            Position angle (CCW/world-x)                               [deg]
#  10 FWHM_WORLD             FWHM assuming a gaussian core                              [deg]
#  11 ELONGATION             A_IMAGE/B_IMAGE                                           
#  12 ELLIPTICITY            1 - B_IMAGE/A_IMAGE                                       
         1 -14.3562     68.3078    144.3773   9.8605336569e+01   3.7510976860e+01     4.696783     2.475415  73.90  0.004935345    3.902    0.744
         2 -14.4130    206.9374     40.2160   4.0101078931e+01   2.9183928947e+01     1.940782      1.46162  31.87  0.007880406    1.984    0.496
         3 -13.9204    223.1194     25.6072   3.5189669020e+01   2.7509941416e+01    0.8764662    0.8113565  73.32  0.002686395    1.321    0.243
         4 -13.0961    246.2977      4.5533   2.9231738445e+01   2.5193852786e+01    0.6466303    0.4133569 -83.07   0.00435506    1.311    0.237
         5 -10.1203     49.4147      3.1407   6.1561681628e+01   6.8118251258e+01    0.1920754    0.1245438  44.59 0.0006296274    1.462    0.316
         6  -9.1779     43.9560      1.0000   6.2748383877e+01   6.9225575653e+01    0.1848477   0.05692286  45.94 0.0007974057    2.908    0.656
         7 -10.6548    111.7098    204.5283   9.6920827185e+01   1.6300090388e+01    0.3218088    0.2254328 -85.91 0.0005385943    1.832    0.454
         8 -11.0051    139.6810    249.1364   9.6914597938e+01   3.1915758230e+00    0.2756529    0.2073307 -74.33  0.001633429    1.841    0.457
         9 -14.1060      3.7548    184.7978   1.2049299139e+02   3.4443554511e+01     2.014171    0.6429207 -80.50  0.001641772    2.767    0.639
        10 -13.0230     83.6639    217.1983   1.0513966235e+02   1.7823758149e+01    0.8180674     0.550805  83.95 0.0009762663    1.703    0.413
        11 -16.9975     20.3101    242.9633   1.2063186234e+02   2.0275523650e+01     8.468205       3.6819  27.32   0.02614207    2.753    0.637
        12  -9.0476    121.1180    196.1468   9.3377285543e+01   1.6589960326e+01    0.1902557     0.161587  69.75 0.0003515221    1.270    0.213
        13  -8.9901     82.3656    195.2896   1.0269397155e+02   2.2951549721e+01    0.1359964    0.1095928 -17.21 0.0005712248    1.704    0.413
        14 -10.3354     57.8270    194.8458   1.0862922901e+02   2.6436127014e+01    0.2439443    0.1811375  69.05 0.0003688604    1.280    0.219
        15 -11.6283    193.7431    196.1125   7.7116588118e+01   4.1069677028e+00     1.095153     0.588801 -65.21  0.003304149    5.898    0.830
        16 -10.8923     80.9255    182.0826   1.0120540454e+02   2.6301283446e+01    0.3208511    0.2947812 -69.87 0.0009909646    1.105    0.095
        17  -9.6016     99.4795    180.9208   9.6266493932e+01   2.3691354955e+01    0.2168123    0.1906449  42.12 0.0005559904    1.116    0.104
        18 -10.2176    188.8562    177.0948   7.4458500707e+01   8.5330338265e+00    0.3822362    0.2981853 -84.82  0.001865477    2.042    0.510
        19 -12.1239     61.8261    174.4754   1.0509737584e+02   3.0838292012e+01    0.4644976    0.3127501 -30.63  0.001890877    2.103    0.525
        20 -11.9581     66.8312    169.5668   1.0307917067e+02   3.1382382536e+01    0.3734496    0.2692375 -50.84  0.001185303    1.441    0.306
        21  -9.3630    147.8405    173.8983   8.2963470437e+01   1.6753494396e+01    0.1977742    0.1766605  79.95 0.0003676355    1.294    0.227
        22 -11.2024    119.4705    173.4912   8.9873031742e+01   2.2038432900e+01    0.4821176    0.1433803  37.50  0.001493985    3.269    0.694
        23 -12.3825     83.9100    154.1453   9.5860480018e+01   3.2739240986e+01    0.7841349    0.5323328 -30.86  0.001479921    1.912    0.477
        24 -13.5424     63.7870    156.1734   1.0188702728e+02   3.5150071125e+01    0.5277559    0.4117599 -47.66  0.001322439    1.334    0.250
        25 -13.1725     76.3213    159.3572   9.8890810033e+01   3.2584916906e+01     1.517597    0.7159132  54.92   0.00409819    2.730    0.634
        26 -16.1194     10.5707    209.5580   1.2060682259e+02   2.8248497499e+01     8.806126     1.390343 -77.85   0.02574721    6.334    0.842
        27 -10.1615     45.8533    166.7654   1.0832293784e+02   3.4724005537e+01    0.2478363    0.1832276  67.26 0.0005991554    1.352    0.260
        28  -9.4516     54.3121    161.6802   1.0534998941e+02   3.4985132343e+01    0.1437491    0.1312404 -75.96 0.0004432727    1.054    0.051
        29  -8.7643    102.9389    164.9779   9.2614074002e+01   2.6951975244e+01     0.170677    0.1645258 -84.80 0.0009365055    1.020    0.020
        30 -10.9525    133.7289    144.4936   8.0317638988e+01   2.6142985229e+01     1.144199    0.2824104 -54.75  0.002532166    6.268    0.840
        31 -10.3337    174.3735    148.8516   7.1623654722e+01   1.6996257889e+01    0.3124508    0.2710271 -89.17  0.001031886    1.410    0.291
        32 -10.7317     32.5945    143.6562   1.0901236627e+02   4.1929021736e+01     0.522006    0.2923942  16.09  0.002479577    2.280    0.561
        33 -15.3559     42.8479    191.1160   1.1184646751e+02   2.9139409106e+01     3.167371      1.72513  69.63   0.01504505    2.011    0.503
        34 -10.6864     99.6333    139.2526   8.8449129279e+01   3.3828115586e+01    0.6174399     0.388956 -17.05  0.002271629    2.855    0.650
        35 -12.3884     86.2397    139.1820   9.2324514754e+01   3.6108739164e+01    0.3153816    0.2701476 -44.61 0.0005180583    1.178    0.151
        36 -10.9364     74.9191    135.5762   9.4979563942e+01   3.8771952009e+01    0.2837881    0.2498917  71.71 0.0004090946    1.203    0.169
        37 -10.2587     24.4607    133.6355   1.1007288331e+02   4.5183092527e+01     0.333781    0.2069103  66.28  0.001314937    1.879    0.468
        38 -10.8284     16.7100    132.3902   1.1224167790e+02   4.6120758221e+01    0.3450174    0.1534244  41.98  0.001439087    2.451    0.592
        39 -10.9469    107.3930    130.5820   8.4308137400e+01   3.4527431269e+01    0.5672722    0.3460009  30.18  0.002373691    1.839    0.456
        40 -10.3510    134.8781    128.4153   7.6303563827e+01   2.9601344702e+01    0.4010932    0.3185676 -61.79  0.001914152    1.348    0.258
        41 -11.0226     66.8694    127.0688   9.5762736114e+01   4.2067048684e+01     0.545267    0.3309441 -70.73  0.002416202    1.799    0.444
        42  -8.6943    194.3109    171.6732   7.2249611762e+01   8.6055384672e+00    0.1364748    0.1152236 -84.53 0.0005871255    1.661    0.398
        43 -10.8463    204.7193    200.0005   7.5646234023e+01   1.6357676274e+00    0.1945955    0.1655482 -18.96  0.001176018    1.087    0.080
        44  -9.9250     97.0745    125.5267   8.6150159129e+01   3.7625751861e+01    0.2951508    0.2356721  -7.46  0.001405628    1.573    0.364
        45  -9.2044    115.8123    124.4053   8.0470321462e+01   3.4379599389e+01    0.2203198    0.1490528  27.01 0.0009408209    1.721    0.419
        46  -9.9810    106.4311    118.9418   8.1821184157e+01   3.7473025587e+01    0.2261233    0.2052115  51.55  0.001171555    1.135    0.119
        47  -8.9989     80.3689    115.1905   8.8882455226e+01   4.2956214468e+01    0.2091983    0.1382565 -66.96 0.0003744308    1.695    0.410
        48 -12.8623    246.6991    102.7843   4.8843654550e+01   1.1474021035e+01    0.7152304    0.4775847 -69.39  0.003834349    1.822    0.451
        49 -10.0640    205.3914    110.2361   5.6699603543e+01   1.8250483759e+01    0.3128599    0.2202037  37.17  0.001157863    1.696    0.411
        50  -9.4159    134.5270    105.5196   7.0607128139e+01   3.4726334879e+01    0.2885271    0.1437328 -54.76  0.001038774    2.370    0.578
        51 -13.2352     33.9881    200.6373   1.1482157562e+02   2.7904075443e+01    0.4699464    0.3639957 -40.92  0.001427845    1.714    0.416
        52 -10.6293     52.9930     90.9827   9.2329169601e+01   5.2606374301e+01    0.2201565    0.1976466 -37.31 0.0006450065    1.009    0.009
        53  -9.4920    185.4167    169.2008   7.3582331260e+01   1.0710058875e+01    0.2031333    0.1351306 -52.92  0.000948348    1.658    0.397
        54  -9.3848    160.6163     83.1651   5.8460886122e+01   3.3226042927e+01     0.206698    0.1424711 -27.84 0.0004418884    1.680    0.405
        55  -9.5888     45.9333     61.2110   8.6629489035e+01   5.9861164720e+01    0.1771889    0.1693847   1.42 0.0003622039    1.183    0.155
        56 -11.1212     13.4889     59.9878   1.0033915907e+02   6.3237477337e+01    0.2497017    0.2017278 -58.78 0.0004234784    1.248    0.199
        57 -12.1101    184.7141    213.5432   8.2094389710e+01   2.4394578549e+00    0.4416073    0.3455994 -45.27  0.002557785    1.423    0.297
        58 -12.6049    171.4632    220.0363   8.5950950270e+01   3.3957234730e+00    0.7227632    0.3439343  31.80  0.003239325    1.998    0.499
        59 -12.0487    198.4416     46.1429   4.2542075202e+01   3.0296717685e+01    0.5292955    0.4180793  71.13  0.001224634    1.223    0.183
        60 -10.5421    134.4852     41.0969   5.1764582338e+01   4.6127624078e+01    0.2800954     0.232306 -73.86  0.000605428    1.358    0.263
        61  -9.5479    133.0954     32.3719   4.9316939993e+01   4.7579024556e+01    0.1884162    0.1549705  65.52 0.0004639689    1.118    0.106
        62 -12.3123    216.9676     31.5281   3.7057477636e+01   2.8099473442e+01    0.3638994    0.2733514  56.71  0.001081223    1.533    0.348
        63 -10.6436    198.0270     23.9394   3.7312129560e+01   3.3234420238e+01    0.2604983    0.1894304 -24.36 0.0009541491    1.725    0.420
        64  -9.8927    189.6384     15.0807   3.6110787070e+01   3.6151364068e+01    0.2154732    0.1528006 -87.49 0.0006864524    1.259    0.206
        65 -12.0138    163.3408    217.0150   8.7183806959e+01   5.2553969904e+00    0.4540658    0.2646491  19.44  0.002076506    2.043    0.510
        66  -9.5252     89.6859    211.7036   1.0308388166e+02   1.8143824930e+01    0.2081509    0.1613451 -70.15 0.0006034301    1.350    0.259
