#   1 NUMBER                 Running object number                                     
#   2 MAG_AUTO               Kron-like elliptical aperture magnitude                    [mag]
#   3 X_IMAGE                Object position along x                                    [pixel]
#   4 Y_IMAGE                Object position along y                                    [pixel]
#   5 X_WORLD                Barycenter position along world x axis                     [deg]
#   6 Y_WORLD                Barycenter position along world y axis                     [deg]
#   7 A_WORLD                Profile RMS along major axis (world units)                 [deg]
#   8 B_WORLD                Profile RMS along minor axis (world units)                 [deg]
#   9 THETA_WORLD            Position angle (CCW/world-x)                               [deg]
#  10 FWHM_WORLD             FWHM assuming a gaussian core                              [deg]
#  11 ELONGATION             A_IMAGE/B_IMAGE                                           
#  12 ELLIPTICITY            1 - B_IMAGE/A_IMAGE                                       
         1 -12.6012    198.5501     33.5050   5.1176163769e+01   3.1182398099e+01     1.241049     1.036954  23.29  0.004727868    1.394    0.283
         2 -12.5261    210.4174     20.0155   4.5816780494e+01   2.9747915513e+01     1.186826    0.8460354  23.07  0.005871294    1.839    0.456
         3 -10.5178     32.7126      5.7451   8.3697550219e+01   7.2116561691e+01    0.7963265    0.1206717 -38.60  0.002339434    5.712    0.825
         4 -11.7903    125.4802    229.6238   1.0994097290e+02   1.2098807393e+01    0.7087748    0.4154997  63.33   0.00405706    1.944    0.486
         5 -12.9412    104.7881    247.3740   1.1534680274e+02   1.2395774825e+01     2.483944    0.6505585  34.94  0.008706824    5.216    0.808
         6  -9.7481     70.8817    242.9756   1.2078951893e+02   1.7557868257e+01    0.3719479    0.1711337  66.12  0.002133339    2.198    0.545
         7 -10.6503     65.4093    241.1080   1.2159034238e+02   1.8539748746e+01    0.3475143    0.2557964 -67.41  0.001331333    1.684    0.406
         8 -11.2833     18.2261    191.8751   1.2705085787e+02   3.2748833848e+01    0.3557246    0.2536053  48.88 0.0004469663    1.356    0.262
         9 -12.6304     44.5133    208.9997   1.2314154267e+02   2.6661891346e+01     1.020147    0.8298232 -49.49   0.00738805    1.861    0.463
        10 -13.3282     54.6949    197.9737   1.2036093165e+02   2.7579471002e+01     2.405895     1.331036  73.41   0.01393752    1.718    0.418
        11 -15.5632      6.2634    210.6297   1.3011356091e+02   3.0279681747e+01     16.77811      1.17078 -78.98   0.04559421   10.822    0.908
        12  -9.1067    193.8122    193.0470   9.1918470955e+01   6.4496611859e+00    0.3145907    0.2032456  39.67  0.001757674    1.371    0.270
        13 -11.6095    112.2865    228.6744   1.1225033513e+02   1.4207529476e+01    0.8950274    0.3357281  49.52  0.004343695    2.256    0.557
        14 -10.3494     69.4554    180.3899   1.1564663555e+02   2.9261773700e+01    0.3719634    0.2552022 -38.56  0.002037825    2.308    0.567
        15 -10.2643     73.8096    174.9519   1.1408377119e+02   2.9815932543e+01    0.2923299    0.2500166 -34.21  0.000829913    1.672    0.402
        16  -7.7186     99.4454    180.5192   1.0916141399e+02   2.4891005291e+01    0.1305302    0.1115815  68.04 0.0003329664    1.024    0.023
        17  -9.8374    103.1151    171.8390   1.0713708826e+02   2.6092294782e+01    0.4176761    0.1819834  49.89  0.001795491    2.215    0.548
        18  -8.7653    195.3992    169.0047   8.7152889923e+01   9.8457821325e+00    0.2990864    0.1856479  40.35 0.0009040027    1.501    0.334
        19 -14.8262      7.7480    244.8009   1.3109085904e+02   2.4241795891e+01     2.950947     1.487911  32.84   0.01728442    2.337    0.572
        20 -10.8541     82.8036    164.6181   1.1074083151e+02   3.0762312838e+01    0.5147355    0.3999068  81.34 0.0007523512    1.210    0.174
        21 -10.7297     88.9088    158.3440   1.0841377017e+02   3.1224151358e+01    0.5236658     0.397389 -21.34  0.001144546    2.133    0.531
        22 -11.8790     70.3869    160.9940   1.1315456815e+02   3.3317143034e+01     0.609938    0.4301315 -37.33  0.001157208    2.082    0.520
        23 -12.0023     68.5420    144.4794   1.1134613786e+02   3.7318924336e+01    0.9894239     0.576079  85.25  0.004644474    2.063    0.515
        24  -8.8794    134.0000    146.6192   9.5647161966e+01   2.5933651686e+01    0.5787841   0.08211223 -49.24  0.001281513    7.252    0.862
        25  -8.5192     86.4701    145.5047   1.0699640342e+02   3.4485886812e+01    0.2683918    0.1974467  75.25 0.0006053116    1.415    0.293
        26 -10.5959     90.2997    142.2868   1.0549137410e+02   3.4624731045e+01    0.2624825    0.2523942 -54.38 0.0005357991    1.198    0.166
        27  -9.4629     32.5821    164.8736   1.2222507587e+02   3.6958789933e+01    0.2884856    0.1008351 -77.62  0.001287532    2.598    0.615
        28  -9.0205    104.2122    140.1867   1.0160422764e+02   3.2800183554e+01    0.3509555    0.2318824 -26.36  0.001512971    2.483    0.597
        29 -10.9155     59.3552    134.1659   1.1219875141e+02   4.0939564202e+01     0.633627    0.2570382 -76.09  0.002416572    2.911    0.657
        30 -10.9787     97.7574    226.1106   1.1465977466e+02   1.6720592657e+01    0.7705116    0.2329251  49.17  0.002733927    2.760    0.638
        31  -8.3257    106.0475    131.0338   9.9332710794e+01   3.4558204480e+01    0.2413062    0.1727356  78.20  0.001138185    1.719    0.418
        32  -9.4955     98.9951    128.1443   1.0058309610e+02   3.6454285740e+01    0.2873463    0.2499862 -11.47 0.0007128816    1.496    0.331
        33  -8.1110     77.3609    235.2704   1.1911056041e+02   1.7975484700e+01    0.1333725   0.08948599  85.91 0.0004017095    1.503    0.335
        34  -8.0351    108.0537    120.2143   9.6474187669e+01   3.6672381681e+01    0.1948782    0.1816613  57.85 0.0003678901    1.096    0.087
        35 -11.4910    145.4991    230.1742   1.0636362622e+02   8.9620874491e+00    0.4597521    0.3350331  15.71  0.002913104    1.755    0.430
        36  -8.4286    167.8005    112.3068   7.9905748837e+01   2.5810130452e+01    0.3020116    0.2036148 -60.10  0.001136506    1.864    0.463
        37  -8.0250    206.2155    110.1883   7.1710861832e+01   1.7465755967e+01    0.2530323    0.1529077  13.68 0.0007793852    2.748    0.636
        38 -10.1222     43.8821    108.7337   1.1254533291e+02   4.8852753881e+01    0.3371181    0.2236876  66.43  0.001810155    1.679    0.404
        39 -10.4110     33.0671    107.1219   1.1554298934e+02   5.0324132852e+01    0.5111238    0.1684581 -74.04  0.001917247    2.990    0.666
        40  -8.8294    111.5980    131.7210   9.8050662654e+01   3.3401925358e+01    0.2505102    0.1813486  29.45 0.0008720299    1.627    0.385
        41  -8.7112    134.8072    103.4446   8.5289954487e+01   3.5016797941e+01    0.3765271    0.2093893 -27.78  0.001366792    2.504    0.601
        42  -8.8779    238.4904     98.9612   6.3586082089e+01   1.2227190937e+01    0.2167886   0.09861991 -48.18  0.000188657    2.671    0.626
        43  -7.6875     86.1783     99.3685   9.7725301525e+01   4.5366931477e+01    0.1934764    0.1329073  52.45 0.0003913175    1.615    0.381
        44  -9.4024     32.7818     87.4909   1.1229808715e+02   5.5076548667e+01    0.3176247    0.1348495 -69.03  0.001408365    2.044    0.511
        45  -9.0852     83.5679    232.5481   1.1779755533e+02   1.7605097260e+01    0.2170016    0.1488134  60.37  0.000621517    1.156    0.135
        46  -8.7375    151.4584     54.9886   6.6205223420e+01   4.0383184987e+01    0.2744722      0.21885  84.45 0.0005603725    1.490    0.329
        47  -8.1899     71.6693    230.1255   1.1972169674e+02   1.9568471211e+01    0.1474713    0.1145991  71.86 0.0005491442    1.116    0.104
        48  -9.8665    164.9956    223.4958   1.0196399898e+02   6.8605572836e+00    0.1716439    0.1644738  11.15  0.001280018    1.212    0.175
        49 -11.2059    185.8083     47.9661   5.7481427617e+01   3.2544863260e+01    0.5202763    0.4423645  77.55  0.002681092    1.233    0.189
        50  -9.3414    152.6045     47.9918   6.3541031200e+01   4.1202373978e+01    0.3692973    0.2553135 -68.33  0.001126737    1.905    0.475
        51  -9.9523     91.9604    234.2728   1.1644987004e+02   1.6188327703e+01    0.2070855    0.1563844  88.03 0.0003982456    1.383    0.277
        52 -11.0458    189.5155     40.1572   5.4469894243e+01   3.2664852790e+01     0.459253    0.4205744  13.49  0.001203392    1.198    0.165
        53 -11.9146     78.6122    248.5365   1.1987724558e+02   1.5706046494e+01     1.485142     0.506869  34.32  0.006871367    3.381    0.704
        54 -11.5393    134.3010    240.9549   1.0959188354e+02   9.1025807741e+00     0.324219    0.3022568 -37.20   0.00257795    1.424    0.298
        55 -10.1213     32.4901     29.6828   9.5847121147e+01   6.7983812424e+01    0.3717501     0.124873 -47.86   0.00158315    2.373    0.579
        56  -9.1937     73.1660    204.8589   1.1732707307e+02   2.3897619021e+01    0.2993726    0.1908093 -89.65  0.001566748    1.576    0.366
