#   1 NUMBER                 Running object number                                     
#   2 MAG_AUTO               Kron-like elliptical aperture magnitude                    [mag]
#   3 X_IMAGE                Object position along x                                    [pixel]
#   4 Y_IMAGE                Object position along y                                    [pixel]
#   5 X_WORLD                Barycenter position along world x axis                     [deg]
#   6 Y_WORLD                Barycenter position along world y axis                     [deg]
#   7 A_WORLD                Profile RMS along major axis (world units)                 [deg]
#   8 B_WORLD                Profile RMS along minor axis (world units)                 [deg]
#   9 THETA_WORLD            Position angle (CCW/world-x)                               [deg]
#  10 FWHM_WORLD             FWHM assuming a gaussian core                              [deg]
#  11 ELONGATION             A_IMAGE/B_IMAGE                                           
#  12 ELLIPTICITY            1 - B_IMAGE/A_IMAGE                                       
         1 -15.7935    137.3179     73.2771   9.2741503189e+01   4.0931258292e+01     3.873669     2.472191  14.64   0.01443754    2.696    0.629
         2 -14.5374     21.1760     80.8208   1.3229155972e+02   5.7989243273e+01     2.942226     1.128211 -61.29   0.01396027    1.994    0.498
         3 -15.5218     65.7722     46.9618   1.0569506249e+02   6.0100778100e+01       2.4061     1.855487  33.25    0.0140586    1.372    0.271
         4 -16.8342    143.5696    104.1746   1.0024775298e+02   3.3350259562e+01     4.381702     3.303382  81.99   0.01947243    1.743    0.426
         5 -14.0010     82.8423     49.8911   1.0065084928e+02   5.6727878277e+01     1.353219    0.7714591 -35.32  0.006412502    1.694    0.410
         6 -14.0400     13.7159      8.3965   1.1311851913e+02   7.2746952981e+01     1.087966    0.5349563 -20.05  0.005968919    2.201    0.546
         7 -14.2486     57.2460      6.9375   9.1355493851e+01   6.7440230488e+01    0.9464278    0.6694573  12.66  0.005872528    1.298    0.229
         8 -12.9923    192.3094     12.8625   6.3948051335e+01   3.5395589455e+01    0.4289399    0.1911707  65.17   0.00184399    1.985    0.496
         9 -12.9572    158.8537      5.9167   6.6108149501e+01   4.4749548014e+01    0.8014931    0.3851051 -63.00  0.003071458    3.020    0.669
        10 -12.4302     88.2934      3.3394   7.9202764733e+01   6.1937987308e+01    0.5657393    0.2644834  54.37  0.002702031    1.933    0.483
        11 -12.5412    176.8348    138.9565   1.0129103364e+02   1.8687190640e+01    0.4039936    0.3517711  48.48  0.001300659    1.132    0.117
        12 -11.3793    151.6169    220.5605   1.2178577606e+02   8.5298979940e+00    0.3368121    0.2349886 -68.78  0.001895316    1.941    0.485
        13 -12.3642     79.2351    222.1523   1.3622548333e+02   1.9826955253e+01    0.2549629    0.2218136  42.28  0.001550814    1.366    0.268
        14 -11.4880    129.7725    220.2555   1.2606622015e+02   1.2299461566e+01    0.3034165    0.1671827 -46.79  0.001562976    2.276    0.561
        15 -13.4844    120.6740    211.6310   1.2677503393e+02   1.5376394889e+01    0.7858982    0.4219859 -37.18  0.003449475    3.234    0.691
        16 -12.5884    109.0227    215.7230   1.2965244274e+02   1.6524135821e+01    0.4705412    0.2701466  51.49  0.002542219    1.480    0.324
        17 -11.0209    134.0261    215.6862   1.2460902958e+02   1.2384828986e+01    0.1932183    0.1474815  44.91 0.0008064542    1.114    0.103
        18 -16.7182     72.5310    193.6610   1.3467908393e+02   2.6443828121e+01      2.86084      1.84344  60.51   0.01591647    1.377    0.274
        19 -11.4425    218.5788    205.3619   1.0649816901e+02  -8.1375149161e-01     0.344328     0.229223  37.16  0.001977172    1.338    0.253
        20 -12.4520    180.6545    203.9283   1.1345378221e+02   6.1035860385e+00    0.4224121    0.2982427   8.10  0.002212306    1.825    0.452
        21 -12.8120    175.2248    202.7499   1.1433284129e+02   7.2856238362e+00    0.4613218    0.3614474 -80.98  0.002533252    1.892    0.471
        22 -12.6825    170.5172    201.6906   1.1509948525e+02   8.3248638777e+00    0.3949249     0.302845 -34.37  0.002263247    1.505    0.336
        23 -11.8605    140.0821    201.0620   1.2125890345e+02   1.3976342477e+01     0.233235    0.1914627 -69.78   0.00137278    1.397    0.284
        24 -12.6488    188.9661    198.4902   1.1087750265e+02   5.4655519250e+00    0.3968204    0.3276657 -38.26  0.002347827    1.366    0.268
        25 -13.0776    192.7232    191.6263   1.0890297725e+02   5.8836889015e+00    0.5057443    0.3943853  -7.42  0.002839808    1.450    0.310
        26 -12.2686    153.1685    199.2377   1.1824538265e+02   1.1938523239e+01    0.3254911    0.2109456  32.99  0.001661688    1.534    0.348
        27 -11.9323    118.6652    199.0177   1.2548048469e+02   1.8119793337e+01    0.3318065    0.2107493  87.35   0.00159154    2.192    0.544
        28 -12.1356    108.9354    198.7163   1.2751187587e+02   1.9815212341e+01    0.2993288    0.2005583  33.14  0.001269893    1.629    0.386
        29 -15.3917     96.1750    192.2879   1.2941003032e+02   2.3191920845e+01     1.573869    0.8926624 -74.58  0.007758394    2.004    0.501
        30 -11.3712    204.3726    195.9327   1.0744024710e+02   3.0617767275e+00    0.2988866    0.2388467  -7.14  0.001377779    1.309    0.236
        31 -11.4979    164.1426    195.9848   1.1543739412e+02   1.0490768095e+01    0.2807685    0.2679155 -42.28  0.001760025    1.189    0.159
        32 -12.5909    153.3413    191.2570   1.1689074025e+02   1.3367619470e+01    0.4263241    0.3075807  -2.42  0.002052797    2.183    0.542
        33 -13.1267    160.6084    186.0688   1.1445322892e+02   1.2954042314e+01    0.5309148    0.3867124 -25.97  0.002729173    1.738    0.425
        34 -13.9068    164.6824    166.1860   1.0982400978e+02   1.5930906454e+01    0.8964813     0.645402 -86.19  0.004039752    2.165    0.538
        35 -14.9216    143.4579    189.2204   1.1865813301e+02   1.5597366079e+01      1.31099    0.7168059  34.07  0.005901957    1.921    0.479
        36 -14.6908    149.0378    168.7860   1.1379076204e+02   1.8560002510e+01     1.401469    0.7713293  26.93  0.005444942    2.588    0.614
        37 -12.4973    151.9456    161.5502   1.1172154786e+02   1.9445055537e+01    0.4685791    0.3036438  54.12  0.001681175    1.571    0.364
        38 -14.0571    166.8704    179.0050   1.1183665724e+02   1.3052966426e+01    0.6585574    0.6433627 -62.83  0.002847737    1.131    0.116
        39 -12.1751    171.2087    170.7906   1.0933429470e+02   1.3729110522e+01    0.4806085    0.3374811 -16.21  0.002247451    1.949    0.487
        40 -13.0669    156.5568    158.3174   1.1002508341e+02   1.9158473909e+01    0.6909049    0.4002867  58.68  0.002861109    2.050    0.512
        41 -13.5226    154.4256    152.4259   1.0927727090e+02   2.0804619356e+01    0.9053878    0.4324615  51.38  0.003479769    2.170    0.539
        42 -14.2483    148.4368    178.9502   1.1580388097e+02   1.6652400981e+01     1.388178     0.458768  39.30  0.004725899    3.011    0.668
        43 -12.3844    130.5280    202.1565   1.2342365406e+02   1.5463399891e+01    0.4786804    0.1987213 -55.40  0.002036445    2.763    0.638
        44 -13.3204    204.6084    186.0318   1.0554486955e+02   4.5699911526e+00    0.6193179    0.4777516 -26.52  0.003526311    1.356    0.263
        45 -13.2913     42.3800    186.9151   1.4041348212e+02   3.1737724223e+01    0.7207129    0.2494291  43.49  0.003399692    2.477    0.596
        46 -12.5448      9.6974    186.9301   1.4708764082e+02   3.5078114953e+01    0.3924905    0.3013501  64.63  0.002718391    1.175    0.149
        47 -11.6393    181.8647    188.4064   1.1047615474e+02   8.4695881254e+00    0.2674131    0.1827777 -18.06  0.001315699    1.909    0.476
        48 -12.0320    121.8915    187.6667   1.2310919478e+02   1.9821921963e+01    0.3585073    0.1850758  57.37  0.001544945    2.137    0.532
        49 -12.6612    129.6050    184.3817   1.2088604977e+02   1.9102473188e+01    0.5413883    0.2908817  53.09  0.002344128    1.840    0.456
        50 -13.0035    131.4504    178.6444   1.1952111451e+02   1.9929938705e+01    0.4641781     0.367353 -25.73  0.001775703    1.690    0.408
        51 -12.1059    196.7982    183.4883   1.0657419109e+02   6.4545490965e+00    0.2975769    0.1970865 -43.50  0.001523892    1.679    0.404
        52 -12.7005    120.8443    181.1814   1.2232358419e+02   2.1338469829e+01    0.3574119    0.2949089  32.16  0.001400236    1.323    0.244
        53 -10.7344     26.1626    180.8377   1.4331795497e+02   3.4793361936e+01    0.1899996    0.1260365  73.24 0.0007252833    1.242    0.195
        54 -11.7082    102.8012    177.2909   1.2582125677e+02   2.5286965572e+01    0.3325393    0.2323005 -39.54  0.001688689    1.902    0.474
        55 -11.5419    178.9833    177.3116   1.0897636912e+02   1.0978987151e+01    0.2081284    0.1747093  39.51  0.001046082    1.096    0.087
        56 -12.2053    181.7475    173.7300   1.0770554482e+02   1.1076403341e+01    0.4649194    0.2635012 -48.61  0.002093134    2.005    0.501
        57 -13.2662     97.1505    173.8970   1.2661751362e+02   2.6959388801e+01    0.4591016    0.3341554 -69.82  0.001734828    1.381    0.276
        58 -12.2956    109.5811    209.0713   1.2872192886e+02   1.7688275991e+01    0.2673083    0.2123385  82.00  0.001221519    1.270    0.212
        59 -11.8234    191.6044    208.1648   1.1203810001e+02   3.4705438957e+00    0.2747523    0.2492589 -72.80  0.001743703    1.490    0.329
        60 -12.4862    109.0140    173.4886   1.2379571719e+02   2.5051579784e+01    0.4252983    0.2340674  44.60  0.001320548    1.685    0.407
        61 -12.0582    106.4917    170.5140   1.2390698495e+02   2.6133757523e+01    0.3005621     0.264408 -40.06  0.001571667    1.380    0.275
        62 -11.7527    109.6637    169.6989   1.2302895417e+02   2.5762075233e+01    0.2363822    0.2053202  74.38    0.0006782    1.080    0.074
        63 -12.5551    192.7197    171.9013   1.0510638172e+02   9.2186580635e+00    0.4048284    0.3404711  52.32  0.002252879    1.257    0.204
        64 -13.4354    131.6450    163.1146   1.1670057378e+02   2.3142541991e+01    0.5269105    0.3566635 -43.45  0.002538475    1.644    0.392
        65 -13.5482    116.9694    171.1151   1.2155628512e+02   2.4160325120e+01      0.62791    0.4790757 -21.03  0.002700971    1.982    0.495
        66 -12.3602    118.9601    161.5077   1.1940561822e+02   2.5884819891e+01    0.3883358     0.280248 -65.50  0.001916681    1.462    0.316
        67 -13.7184    125.3016    167.1688   1.1892751256e+02   2.3479840475e+01    0.5822257    0.4793603 -48.36  0.002323593    1.326    0.246
        68 -12.2435    122.3465    163.3183   1.1892825036e+02   2.4861476817e+01    0.4005739    0.2806696 -21.47  0.001778172    2.335    0.572
        69 -11.5487    158.0059    212.7539   1.1937470363e+02   8.7140484553e+00    0.3979026    0.2845886  86.88  0.002069839    2.178    0.541
        70 -12.2590    134.7835    169.2085   1.1710228034e+02   2.1253370603e+01    0.3080271    0.1971012 -52.00  0.001467717    1.664    0.399
        71 -12.2147    215.2404    168.3664   1.0001155101e+02   5.4027629514e+00    0.3737062    0.3201465  66.84  0.002111497    1.513    0.339
        72 -12.7322     49.0788    167.8496   1.3704159017e+02   3.5132054593e+01    0.3925821    0.2470271  76.77   0.00219012    1.532    0.347
        73 -12.6375    204.6170    160.2816   1.0034421059e+02   8.8522591141e+00    0.4569759    0.2867257 -21.50  0.002087735    1.895    0.472
        74 -11.8028    193.8091    163.3877   1.0313855100e+02   1.0500073577e+01    0.3216788    0.2446496  30.73   0.00142193    1.293    0.227
        75 -13.7929    198.6658    159.9265   1.0143715582e+02   1.0122947578e+01    0.7269702     0.529331  -4.69  0.003542524    1.705    0.413
        76 -14.0635    178.4913    152.0146   1.0387592720e+02   1.5794873921e+01     1.043751    0.7108068 -77.62  0.004257407    2.564    0.610
        77 -11.9213    172.6399    154.2468   1.0561577099e+02   1.6604618212e+01    0.4048892    0.2702751  57.09  0.001783423    1.640    0.390
        78 -12.3608    176.0856    163.1873   1.0676186293e+02   1.4170417725e+01    0.7577601    0.4124393 -65.24  0.002549262    3.838    0.739
        79 -13.0382    180.3397    159.7497   1.0514538435e+02   1.3937782248e+01    0.6265699    0.3888742  35.45   0.00229608    1.637    0.389
        80 -13.6281     91.4209    157.0312   1.2534543924e+02   3.1673033893e+01    0.5550433    0.3992789  87.03  0.002862282    1.512    0.339
        81 -13.4577    150.0939    210.1606   1.2057424754e+02   1.0558260823e+01    0.6072288    0.4908089  44.61  0.003291831    1.053    0.051
        82 -13.1880    143.7558    208.1694   1.2156714253e+02   1.2030397995e+01    0.5835953    0.3042652 -45.72  0.002813913    2.288    0.563
        83 -11.1730     29.9967    213.9893   1.4490223218e+02   2.7605556772e+01    0.1942215   0.09570449  65.57  0.001138412    1.698    0.411
        84 -11.4816    221.2550    159.8423   9.7111134263e+01   5.6238002599e+00    0.3135295    0.2358678 -39.59  0.001689074    1.385    0.278
        85 -13.2591    141.8709    157.9757   1.1331655120e+02   2.2220826289e+01    0.5304042    0.3612744 -38.16  0.001750843    1.681    0.405
        86 -11.6366     59.6767    159.6530   1.3354589368e+02   3.5681377276e+01    0.3281347    0.2195721  88.43  0.001799429    1.455    0.313
        87 -11.6168    113.1285    159.9002   1.2051832044e+02   2.7304687093e+01    0.2305647    0.1877911  77.35 0.0008730486    1.263    0.208
        88 -11.0137    228.1396    159.2403   9.5739597793e+01   4.3931687028e+00    0.2500749    0.2003409  63.94  0.001359224    1.649    0.394
        89 -12.0320    101.2917    157.8617   1.2304772430e+02   2.9843226234e+01    0.2566501    0.1822306  55.99   0.00110488    1.372    0.271
        90 -13.9692    126.7185    150.8618   1.1549939312e+02   2.6755190191e+01    0.8548955    0.6385271 -21.30   0.00399721    1.910    0.477
        91 -13.5171    114.4161    147.3881   1.1785084712e+02   2.9874376069e+01    0.7138807     0.492761 -51.39  0.003091742    1.478    0.323
        92 -13.6763    105.1825    148.4666   1.2038519404e+02   3.1305355388e+01    0.7611013    0.4902922  33.40  0.003565805    1.734    0.423
        93 -15.3031    105.7509    140.9946   1.1879401742e+02   3.2919213080e+01     1.542315     1.052245 -51.96  0.007504883    1.469    0.319
        94 -12.6016     19.4921    154.0571   1.4254687391e+02   4.1314700128e+01    0.5627834    0.3773547  80.38  0.003575486    1.274    0.215
        95 -12.9760    118.3397    153.8638   1.1813313377e+02   2.7689396437e+01    0.5398787    0.3529693 -65.87  0.002206736    1.678    0.404
        96 -12.4465     84.3046    150.0932   1.2598502916e+02   3.4401157812e+01    0.3653674    0.2809907 -87.10  0.001195896    1.296    0.229
        97 -11.9816     81.4862    145.9874   1.2601974091e+02   3.5792670762e+01    0.3640704    0.2302812  79.89   0.00108023    1.990    0.498
        98 -12.0985     82.8868    141.6797   1.2490786246e+02   3.6587529733e+01    0.3572276    0.2806229 -16.69  0.001785256    1.882    0.469
        99 -13.5717    152.3203     88.5027   9.3709812815e+01   3.4440219003e+01     1.131826    0.4723099 -45.45  0.003898572    2.484    0.597
       100 -11.1918     73.6395    244.2717   1.3916671454e+02   1.6632002377e+01    0.2395382    0.1243881  86.38  0.001342146    2.259    0.557
       101 -16.0150    149.4857    131.5606   1.0575875520e+02   2.6235629954e+01     2.646482      1.64192  55.90   0.01124893    1.727    0.421
       102 -11.8195     89.4914    144.7271   1.2372221274e+02   3.4829376052e+01    0.3649726    0.1778272  49.04  0.001538254    2.103    0.524
       103 -12.7529    125.9800    129.0402   1.1098903187e+02   3.1760725068e+01      0.37117    0.3144273  33.48  0.001767529    1.263    0.208
       104 -13.1252    112.4893    130.5861   1.1485081592e+02   3.4066315320e+01    0.5511861     0.429631 -70.95  0.002750498    1.359    0.264
       105 -11.3168    245.3413    128.6303   8.6107119100e+01   5.9023790392e+00    0.3533193    0.3092236 -37.13  0.002094782    1.132    0.117
       106 -11.2286    232.5201    127.5088   8.7934482932e+01   8.6641176135e+00     0.387751    0.2892627  77.26  0.001916639    1.918    0.479
       107 -10.8536     51.0280    156.5365   1.3525682379e+02   3.7473628251e+01    0.2559784    0.1582757  87.65  0.001356793    1.610    0.379
       108 -10.8117    220.9255    127.1628   8.9848225461e+01   1.1159490458e+01    0.3227215    0.1811794  34.49   0.00135887    2.105    0.525
       109 -12.3129    198.5357    123.5993   9.3155769056e+01   1.6733489740e+01      0.42089    0.3075036   8.52  0.001894759    1.831    0.454
       110 -13.7354    137.6759    144.2189   1.1145809761e+02   2.6017202541e+01    0.6544124    0.6368389  65.37  0.003278594    1.027    0.026
       111 -15.1973    185.0459    113.3241   9.3289822118e+01   2.1773889496e+01     1.773699     1.337842  32.93  0.008340107    1.457    0.314
       112 -10.8767    217.6144    117.8410   8.8211345421e+01   1.3477990166e+01    0.3297509    0.2270076  22.44   0.00149666    1.865    0.464
       113 -11.7655    105.1872    116.9774   1.1372208201e+02   3.8565916763e+01    0.3233576    0.2488273 -45.60  0.001157195    1.302    0.232
       114 -13.9625     49.3281     83.9195   1.2310511692e+02   5.4661154368e+01     1.035059    0.6804395 -69.42  0.005417165    1.575    0.365
       115 -14.0630     37.6964    110.6493   1.3229088244e+02   4.9700551981e+01     1.518555     1.418682  -9.26   0.01025581    1.316    0.240
       116 -13.5833     51.8025     97.5399   1.2538293404e+02   5.1258417140e+01     1.106285    0.5916143 -60.14  0.005383991    1.632    0.387
       117 -11.7295    242.2831    108.6493   8.1984242465e+01   9.6841134151e+00    0.3112547    0.2436148 -48.18   0.00169461    1.277    0.217
       118 -12.6386    189.6861    144.8349   9.9935779183e+01   1.4752764001e+01    0.5474432    0.3360318 -65.11  0.002104879    2.741    0.635
       119 -12.7508    122.4125    238.4422   1.2967967228e+02   1.0417901730e+01    0.4849711    0.4467335 -12.40  0.003463179    1.529    0.346
       120 -14.0576    188.6884    132.1565   9.7194985594e+01   1.7358367661e+01    0.9160718    0.6973168 -19.07  0.004392892    1.496    0.332
       121 -10.2179    199.5261    144.0669   9.7779580026e+01   1.2778126699e+01    0.2296298    0.1433979 -36.85  0.001038488    1.612    0.380
       122 -10.6155     97.2454    121.3181   1.1693499674e+02   3.8999540866e+01    0.2741579    0.2318763   0.64   0.00141931    1.530    0.347
       123 -11.8368    118.7177    142.7247   1.1582868500e+02   3.0115991295e+01    0.3123752    0.2550357 -71.90 0.0009508934    1.273    0.214
       124 -12.6861    211.6795     95.3535   8.3639617636e+01   1.8701310083e+01    0.7764359    0.4754361 -51.80  0.003385427    1.770    0.435
       125 -12.8124    197.0701     93.7839   8.5827076352e+01   2.2474720967e+01     0.665775    0.5332365 -51.57  0.003301527    1.269    0.212
       126 -11.2882    169.7287     91.4672   9.0645201866e+01   2.9617632903e+01    0.3476885    0.2459573  22.59  0.001468423    1.896    0.472
       127 -10.3956    246.3377     91.3188   7.7313669224e+01   1.1544935702e+01    0.1393932    0.1066374  12.52 0.0007049359    1.706    0.414
       128 -12.9088    104.2485     86.1393   1.0581845609e+02   4.5602981683e+01    0.6623525    0.5613192  25.01  0.003419457    1.281    0.219
       129 -12.1059    168.4370    117.7888   9.7987714083e+01   2.4797846989e+01    0.4949291    0.3474463  30.66   0.00213293    1.656    0.396
       130 -12.2072    172.4880     97.4678   9.1720214419e+01   2.7807663395e+01    0.4005514    0.2974304  21.47  0.001767889    1.729    0.422
       131 -10.6969    186.1718     80.8564   8.4341447827e+01   2.7431763228e+01    0.2138091    0.1879093   9.44   0.00107403    1.317    0.241
       132 -10.9745    112.6273     80.4284   1.0164082784e+02   4.5088630959e+01    0.3400957    0.1820993 -36.59   0.00136936    1.951    0.488
       133 -10.7795    233.1756     79.0912   7.6188293523e+01   1.6343281814e+01    0.2214075     0.200551   4.66  0.001255111    1.271    0.213
       134 -10.8068    210.7958     78.3871   7.9371543992e+01   2.1739653623e+01    0.2131448       0.1346  49.21 0.0009540324    1.662    0.398
       135 -11.9251    116.4171    137.8472   1.1539516161e+02   3.1660696526e+01    0.3632021    0.2964122 -17.48  0.001800545    1.626    0.385
       136 -12.9414    104.1292     75.5933   1.0263420804e+02   4.7806365143e+01    0.7217615    0.4737319  43.98  0.003191756    1.564    0.361
       137 -13.4249    101.8722     69.2530   1.0127447990e+02   4.9512748725e+01     1.493059    0.8699854  32.51  0.006423085    1.977    0.494
       138 -12.5519    175.9981     70.9748   8.3464073765e+01   3.1698232384e+01    0.4238904    0.3078305 -74.18  0.001803978    1.724    0.420
       139 -13.0068    176.6999     64.9376   8.1552788032e+01   3.2516724752e+01    0.6596329    0.5699782  78.48  0.002975743    1.184    0.155
       140 -10.7201    215.9916     72.9733   7.7140249694e+01   2.1343652005e+01    0.2467416    0.1693591 -64.89  0.001139199    1.676    0.403
       141 -10.9693    165.5469     71.8627   8.5834368256e+01   3.4207420925e+01    0.3235581    0.2119575  77.47  0.001326133    1.970    0.492
       142 -11.7053    235.4149     70.0350   7.3647097115e+01   1.7211415826e+01    0.4607714    0.2823779 -87.33  0.002018388    2.281    0.562
       143 -11.1189    117.0499     69.5983   9.6937520081e+01   4.6263386135e+01    0.3704572    0.1800399  47.98   0.00145366    2.066    0.516
       144 -10.2285    201.4672     68.4712   7.8216935154e+01   2.5637870833e+01    0.1491076    0.1419971 -69.23 0.0001424527    1.005    0.005
       145 -12.4143    169.0071     61.2110   8.1913683394e+01   3.5098352959e+01    0.5976229     0.329826 -30.28  0.002439632    1.923    0.480
       146 -12.2610    164.1019     61.1054   8.2857569722e+01   3.6376324045e+01    0.7129233    0.4409484  18.34   0.00263675    2.765    0.638
       147 -11.1493    130.5122    240.6942   1.2841853592e+02   8.7690460921e+00    0.2400171    0.1797036  64.31  0.001565924    1.313    0.239
       148 -10.8570    214.2720     56.7391   7.3122207576e+01   2.4232982403e+01    0.2857959    0.1834403  -2.96  0.001178458    2.518    0.603
       149 -10.6551    194.9640     57.0095   7.6081528437e+01   2.9058382246e+01    0.2426661    0.1811623  27.26  0.001140093    1.709    0.415
       150 -12.3747    220.8634     50.8023   7.0686562624e+01   2.3466081217e+01    0.6223943    0.1649649 -31.44  0.001961539    3.630    0.724
       151 -10.9903    205.9753     50.2580   7.2550811572e+01   2.7243218430e+01    0.2616124    0.1979463 -11.90  0.001291038    1.632    0.387
       152 -10.7397    200.6956     48.7994   7.2908853533e+01   2.8791146456e+01    0.3440693    0.1661543 -36.06  0.001412583    1.990    0.497
       153 -11.9647     84.9895    237.1894   1.3652405699e+02   1.6280429088e+01    0.1982819    0.1558694  86.62  0.001399338    1.262    0.207
       154 -11.9427    171.2134     46.4127   7.6963930805e+01   3.6772478349e+01    0.3254063    0.3086488 -18.69  0.001802114    1.138    0.121
       155  -9.9149     53.7538    141.9715   1.3262807826e+02   4.0537103954e+01    0.1733127   0.09913787 -67.72 0.0006173681    1.549    0.355
       156 -12.5439    205.4030    139.6548   9.5625570567e+01   1.2311273203e+01    0.5415775    0.4039405  85.16  0.002478192    2.078    0.519
       157 -12.7551    124.8663     41.8932   8.5240324757e+01   4.9131496633e+01    0.5797665    0.4516102  62.78  0.002980055    1.339    0.253
       158 -12.1825      5.4604     48.9753   1.3146847043e+02   6.5824489696e+01    0.5895041    0.2450875 -35.18  0.003034601    2.344    0.573
       159 -10.9585    194.5016     35.8130   7.0148520789e+01   3.2144212028e+01    0.2797092    0.2034627  71.04  0.001418156    1.314    0.239
       160 -11.0479    160.5215     34.6386   7.5158604200e+01   4.1163925948e+01    0.3497289    0.2616836 -52.01  0.001749786    1.435    0.303
       161 -11.2800    153.6148     34.2453   7.6301993040e+01   4.3005861298e+01    0.2916033    0.2734718 -83.65  0.001644214    1.096    0.088
       162 -11.1683    144.2307    235.6245   1.2522735993e+02   7.3470915684e+00    0.2542163    0.1906622  49.43  0.001631462    1.106    0.096
       163 -11.3886    113.4698     42.6330   8.8486119908e+01   5.1664536658e+01    0.3229866    0.2666513  -0.56   0.00172721    1.288    0.223
       164 -11.3899    136.2183     29.5083   7.8154356198e+01   4.8031542688e+01     0.272596    0.2107089 -25.01  0.001423619    1.376    0.273
       165 -12.0873    249.8691     58.1088   6.9016369218e+01   1.5689074068e+01    0.8002314    0.1540351 -35.89  0.002510736    3.854    0.741
       166 -11.5684     73.6648    233.1154   1.3825555303e+02   1.8588584991e+01    0.2475639    0.1255185 -62.75  0.001416101    2.216    0.549
       167 -12.9813     13.0221    228.7338   1.4870061745e+02   2.6602125799e+01    0.6271884    0.2863778  52.42  0.004073193    1.639    0.390
       168 -11.6048    205.8753    229.4380   1.1284339223e+02  -1.9748367766e+00    0.3945607    0.2005204  24.50  0.001926154    2.192    0.544
       169 -12.4769    123.2065    228.6545   1.2839871716e+02   1.1927135514e+01    0.3051693    0.2539994  63.83   0.00196142    1.116    0.104
       170 -12.3214    249.6926     47.3351   6.6510638978e+01   1.7208337046e+01    0.6778078    0.2048996 -35.46  0.002569562    2.748    0.636
       171 -12.5212     55.6290    226.8726   1.4107717885e+02   2.2115686917e+01    0.3612196    0.2151509  57.62  0.002312196    1.312    0.238
