#   1 NUMBER                 Running object number                                     
#   2 MAG_AUTO               Kron-like elliptical aperture magnitude                    [mag]
#   3 X_IMAGE                Object position along x                                    [pixel]
#   4 Y_IMAGE                Object position along y                                    [pixel]
#   5 X_WORLD                Barycenter position along world x axis                     [deg]
#   6 Y_WORLD                Barycenter position along world y axis                     [deg]
#   7 A_WORLD                Profile RMS along major axis (world units)                 [deg]
#   8 B_WORLD                Profile RMS along minor axis (world units)                 [deg]
#   9 THETA_WORLD            Position angle (CCW/world-x)                               [deg]
#  10 FWHM_WORLD             FWHM assuming a gaussian core                              [deg]
#  11 ELONGATION             A_IMAGE/B_IMAGE                                           
#  12 ELLIPTICITY            1 - B_IMAGE/A_IMAGE                                       
         1 -14.9153    164.9261     42.9845   7.7259889574e+01   3.8749924414e+01     1.286958     1.052826 -14.69  0.004052333    1.428    0.300
         2 -14.8769    182.5678      9.5729   6.5295650142e+01   3.8343023519e+01     1.996121     0.946909  64.73  0.006902931    1.782    0.439
         3 -10.2104    133.8863    245.5417   1.2909236408e+02   5.4133971482e+00    0.1578874    0.1434014 -79.01 0.0005404926    1.248    0.199
         4 -20.2102     69.1437    178.4165   1.3347377664e+02   2.9608331582e+01     17.53196     6.314449 -65.10   0.07014346    2.595    0.615
         5 -12.6287    176.0236    186.0562   1.1096352579e+02   8.7252904272e+00    0.3993694    0.3157158 -78.21  0.001203898    1.638    0.390
         6 -12.2705    153.4911    186.2132   1.1583933697e+02   1.3193513868e+01    0.3081847     0.271295 -84.27 0.0006653416    1.226    0.185
         7 -11.6649    153.2457    193.7307   1.1727221043e+02   1.1691564370e+01    0.3216604    0.2643878  61.63 0.0007233216    1.219    0.180
         8 -13.5650    204.5997    176.5392   1.0314495392e+02   4.8093628131e+00    0.8536507    0.5443278 -61.27  0.003069124    2.239    0.553
         9 -11.5348    201.6880    169.3504   1.0221294829e+02   6.7614457417e+00    0.3931665    0.2779966 -82.58  0.001551788    2.471    0.595
        10 -12.5335    204.6721    166.4942   1.0100108714e+02   6.6961202907e+00    0.6163499    0.4693762 -59.61  0.003046751    1.561    0.359
        11 -10.3278    150.9082    243.0954   1.2554670850e+02   2.9241473841e+00    0.1750503    0.1464184   7.72 0.0005214526    1.557    0.358
        12 -12.2013     21.8212    239.1438   1.4834972318e+02   2.2670904316e+01    0.2155718    0.1347713 -80.24 0.0008092803    1.389    0.280
        13 -11.6362    150.9790    180.9747   1.1540102036e+02   1.4794233847e+01    0.2258617    0.2112672  78.63 0.0005022613    1.064    0.060
        14 -11.2723    131.2254    236.6744   1.2845199577e+02   7.4257096359e+00    0.2137548    0.1575243 -63.86 0.0004046473    1.536    0.349
        15 -11.1952    198.8879    178.0975   1.0461750580e+02   5.6617644377e+00    0.3135979    0.2529023 -80.72  0.001031246    1.709    0.415
        16 -13.4197    194.1262    167.5142   1.0336188677e+02   8.6809116600e+00     0.798247    0.4645704 -55.49  0.001918039    2.096    0.523
        17 -11.3163    166.9989    175.0009   1.1069816777e+02   1.2801928761e+01    0.2388391    0.1846205  86.20 0.0008421854    1.697    0.411
        18 -11.0725     11.1547    174.2375   1.4541815854e+02   3.7127321182e+01    0.1819487    0.1226779 -67.22 0.0004833554    1.327    0.247
        19 -12.1522    176.9553    169.2986   1.0736021312e+02   1.1912355919e+01    0.3449701    0.2149022 -59.55  0.001460315    1.973    0.493
        20 -11.0446    163.7892    169.8041   1.1033857064e+02   1.4555283098e+01    0.2119162    0.1784272  77.69  0.001065889    1.347    0.258
        21 -11.7217    230.2080    166.5469   9.6109442334e+01   1.5889872071e+00     0.352652    0.1844997 -53.63  0.001402951    2.595    0.615
        22 -11.5336      7.2028    237.1344   1.5054810732e+02   2.4603529896e+01    0.1953919    0.1075412  51.76  0.001353834    1.581    0.368
        23 -11.8437     13.3790    233.7452   1.4937390664e+02   2.4609033382e+01    0.1917412    0.1201534 -80.79  0.001363261    1.353    0.261
        24 -11.3747    188.4688    158.3692   1.0254735992e+02   1.1702761521e+01     0.420089    0.3144314  22.21  0.001042124    1.595    0.373
        25 -10.9541    189.0136    154.3241   1.0153176181e+02   1.2406503008e+01     0.246594    0.2091536 -40.97 0.0008619016    1.175    0.149
        26 -14.5474    143.8392    143.4118   1.0920079160e+02   2.4539548035e+01     1.312847    0.7100974 -66.17  0.004558336    2.824    0.646
        27 -12.2823    134.7070    109.9728   1.0325009937e+02   3.3904730977e+01     1.217554    0.1835952 -45.59  0.002575579    6.577    0.848
        28 -15.0657    132.6136    145.3531   1.1234876340e+02   2.6424248974e+01     1.673181    0.8642861 -59.04  0.004170101    2.197    0.545
        29  -9.9397    176.8414    154.8278   1.0424552798e+02   1.4939479947e+01    0.2079138    0.1807305 -89.28 0.0004602694    1.325    0.245
        30  -9.7999     19.0605    232.0612   1.4834689074e+02   2.4328055763e+01    0.1646548    0.1131238  54.71  0.001193514    1.366    0.268
        31 -12.2400    161.4532    152.7874   1.0720940548e+02   1.8702356314e+01    0.3274671    0.2596343  24.28  0.001547861    1.478    0.323
        32 -13.9399    135.7395    126.9013   1.0728638889e+02   2.9962322276e+01      1.95115    0.3600761 -49.54  0.004278677    6.138    0.837
        33 -11.4549    152.9099    151.1550   1.0880583422e+02   2.0888864151e+01    0.2371301    0.2075393  88.05 0.0003307213    1.245    0.197
        34 -11.8938    174.1235    148.5021   1.0341113335e+02   1.6864247721e+01    0.4161632    0.3443783 -64.33  0.001332017    1.317    0.241
        35 -10.6459    139.0360    250.2559   1.2872687261e+02   3.7507773128e+00    0.2261466    0.1703198  39.37  0.001304305    1.240    0.193
        36 -10.6880     23.4516    137.8062   1.3868690045e+02   4.4254930037e+01    0.2035794     0.154987 -22.02   0.00127676    1.835    0.455
        37 -10.6673      5.0006    137.7905   1.4313273288e+02   4.5710630714e+01    0.2021627    0.1293254 -72.85 0.0005610202    1.177    0.150
        38 -10.3297    133.4575    229.1031   1.2699255416e+02   8.4247714968e+00    0.1946217    0.1518976  52.05 0.0004385583    1.101    0.092
        39 -10.2694     16.3940    226.9639   1.4845769320e+02   2.5604678284e+01    0.1428205   0.09763954 -86.77 0.0003968101    1.186    0.157
        40 -12.6198    160.4227    127.8057   1.0158531801e+02   2.4353802445e+01    0.5020405     0.380685 -59.37  0.001866736    1.410    0.291
        41 -10.4901    138.3035    244.2452   1.2809283147e+02   4.8884177412e+00    0.3414829    0.1894071 -62.85  0.001554988    2.259    0.557
        42  -9.9960    115.1333    209.4926   1.2793304359e+02   1.5464390334e+01    0.1972916    0.1236026  43.69 0.0009986574    1.497    0.332
        43 -11.0378    139.5658    199.9184   1.2128176417e+02   1.3036289937e+01    0.3901359    0.2746303  35.78  0.001359774    1.471    0.320
        44 -10.9032    167.6968    112.6320   9.6095196674e+01   2.5882010775e+01    0.3912166    0.2578581 -88.93  0.001420894    2.624    0.619
        45 -12.4892    125.0919    243.2154   1.3045568038e+02   7.2939678991e+00    0.4001661    0.1678918 -55.02  0.001448217    2.741    0.635
        46 -10.8364    121.8775    198.6661   1.2487502710e+02   1.6546704378e+01    0.2239904    0.1833774 -47.08 0.0004508709    1.400    0.286
        47 -14.1674    180.4356    193.3869   1.1145595918e+02   6.4255196263e+00     1.117864    0.5780386  38.21  0.004515119    1.904    0.475
        48 -10.8544    205.3240    110.2488   8.7783903384e+01   1.7502595983e+01    0.3158084    0.2132017  47.47 0.0009603127    1.549    0.355
        49 -11.1267      9.0780    102.0710   1.3728520097e+02   5.3351569325e+01    0.2404641    0.2025338  83.10  0.001015003    1.335    0.251
        50 -10.5855    145.1273     80.8854   9.2582555059e+01   3.7417819112e+01      0.22905     0.209007 -83.84 0.0004884914    1.201    0.167
        51 -14.4884    165.7494    187.2625   1.1338454691e+02   1.0541168541e+01     1.025752    0.7056605 -74.26  0.004616915    2.069    0.517
        52 -13.5531    170.2670    182.8676   1.1156312535e+02   1.0522116387e+01    0.5799704    0.4346666  36.06  0.001904156    1.333    0.250
        53 -14.4524    153.3869     57.5483   8.3825909909e+01   3.9438442930e+01     1.238545     1.100293  43.47 0.0009264858    1.105    0.095
        54 -12.9898    172.8209    188.8235   1.1217755350e+02   8.8189358096e+00    0.4410477    0.4216292 -39.09  0.001516257    1.103    0.093
        55 -13.0461    169.3804     34.8683   7.4147384829e+01   3.8720552902e+01    0.4139073    0.3637432 -24.74 0.0008578276    1.278    0.218
        56 -11.2021     13.5551     59.8143   1.2726091069e+02   6.1794816832e+01    0.1828859    0.1687753 -47.49 0.0004086141    1.258    0.205
        57 -10.4198    139.6406     32.0573   7.8857279307e+01   4.6230826434e+01    0.2655317    0.1823013  75.75 0.0008327283    1.694    0.410
