#   1 NUMBER                 Running object number                                     
#   2 MAG_AUTO               Kron-like elliptical aperture magnitude                    [mag]
#   3 X_IMAGE                Object position along x                                    [pixel]
#   4 Y_IMAGE                Object position along y                                    [pixel]
#   5 X_WORLD                Barycenter position along world x axis                     [deg]
#   6 Y_WORLD                Barycenter position along world y axis                     [deg]
#   7 A_WORLD                Profile RMS along major axis (world units)                 [deg]
#   8 B_WORLD                Profile RMS along minor axis (world units)                 [deg]
#   9 THETA_WORLD            Position angle (CCW/world-x)                               [deg]
#  10 FWHM_WORLD             FWHM assuming a gaussian core                              [deg]
#  11 ELONGATION             A_IMAGE/B_IMAGE                                           
#  12 ELLIPTICITY            1 - B_IMAGE/A_IMAGE                                       
         1 -15.0916     68.4698    144.4763   9.0032027494e+01   3.7497015601e+01     4.453619     2.162542  79.22  0.006012131    3.648    0.726
         2 -14.1199    221.6863     32.0731   2.7992900338e+01   2.5175260005e+01     1.282156    0.8881198  26.21  0.006321487    1.825    0.452
         3 -14.2263    208.0222     43.5241   3.2845778069e+01   2.7134845018e+01     2.189036     1.508207  20.98  0.007944625    1.845    0.458
         4 -12.6175    247.3275     10.9304   2.0204218408e+01   2.1475595283e+01    0.6064758    0.4637352 -77.35  0.003657927    1.354    0.261
         5 -12.6384    246.1606      4.0794   1.8534355495e+01   2.2388008301e+01    0.6144355    0.4641975  70.51   0.00371782    1.475    0.322
         6  -9.3197     44.6495      1.3284   5.2652270486e+01   7.1640787464e+01    0.1210372   0.09821886 -55.17 0.0007048307    1.765    0.433
         7 -11.9160    192.9810    194.8703   7.1574738882e+01   7.9247651085e+00    0.8690678    0.4923584 -61.39  0.003308519    5.536    0.819
         8 -11.6223    139.6293    249.7413   8.8016674795e+01   8.8955141906e+00    0.3717772     0.143889  40.20  0.002103083    1.897    0.473
         9 -12.7738    116.2478    245.4752   9.1526067092e+01   1.2611399100e+01    0.4450627    0.3728779 -78.37   0.00368526    1.507    0.336
        10 -16.0101      6.3038    186.8952   1.0759765626e+02   3.5331336114e+01     8.679819     1.173158 -79.30   0.02123029    6.111    0.836
        11 -15.2134     35.1316    195.0733   1.0239270171e+02   3.0987105094e+01     3.144793      0.80596  53.69  0.009983506    3.252    0.692
        12 -14.5969     44.0186    186.2600   9.9996933001e+01   3.1713706729e+01     1.964319    0.8017091  54.79   0.01026028    2.106    0.525
        13 -13.6782     15.9854    248.7503   1.0818493291e+02   2.3812759965e+01    0.2503535    0.1542017  64.61 0.0009756467    1.126    0.112
        14 -17.0806      8.6387    244.9597   1.0921095637e+02   2.5080696590e+01     7.478807     2.422693  26.72  0.009291172    7.185    0.861
        15  -9.6371    157.9955    192.9560   7.7683632953e+01   1.3960896947e+01    0.1765675    0.1427565  72.05 0.0005115573    1.592    0.372
        16 -16.0954      9.2680    207.7742   1.0788063664e+02   3.1190907136e+01     2.098118     1.145077  87.32   0.01283971    1.545    0.353
        17 -10.4177    116.1952    186.7094   8.5056523792e+01   2.1791813672e+01    0.2068619    0.1612613 -83.82  0.001283017    1.473    0.321
        18 -10.0702    145.3300    183.9287   7.8754927381e+01   1.7513649090e+01    0.1649302    0.1612508  40.35 0.0005451395    1.118    0.105
        19 -10.0227     99.3896    180.8994   8.7798952719e+01   2.5452063051e+01    0.2229325    0.1652958  39.71 0.0005597088    1.296    0.229
        20 -12.8044    236.0942    174.0791   6.0627409418e+01   3.5153366190e+00    0.6314657    0.2794347  29.32  0.002984304    2.376    0.579
        21 -12.5693    242.1994    170.5110   5.8991544551e+01   2.9585122679e+00    0.5077063    0.3865872  56.46  0.003127184    1.969    0.492
        22 -11.7582    202.7605    199.8428   7.0692072119e+01   5.7261504793e+00    0.3151198    0.1448255  35.51  0.001631609    1.874    0.466
        23 -12.5600     83.6933    151.8246   8.7352921559e+01   3.3711978178e+01     1.338004    0.6075802 -61.64  0.004581251    2.183    0.542
        24 -12.7363     75.9623    157.8563   9.0034252800e+01   3.3534745389e+01    0.6770308    0.4627543  70.33 0.0005089536    1.456    0.313
        25 -13.6188     63.2225    153.7511   9.2540884807e+01   3.6144999654e+01    0.4186992    0.3744037 -32.50  0.001480415    1.532    0.347
        26 -10.5839    139.5162    244.4801   8.7504839707e+01   9.5663133945e+00    0.1530733    0.1031336 -73.37  0.001036644    2.331    0.571
        27 -12.4031    230.5627    170.3581   6.0801424806e+01   4.8589913360e+00    0.6388413    0.2805433  26.65  0.002769719    2.784    0.641
        28 -11.3414     47.4046    169.0288   9.7835823351e+01   3.4814577888e+01    0.3545101    0.2191018 -81.43  0.002135812    1.488    0.328
        29 -10.1057    191.8517    167.9059   6.7004618703e+01   1.1872777644e+01    0.3130015    0.1757318 -43.04  0.001565973    2.036    0.509
        30  -9.5309    110.9387    167.8756   8.3485310920e+01   2.6148228193e+01    0.2041564    0.1441813  73.62 0.0006026908    1.634    0.388
        31  -9.6212    186.8211    165.1536   6.7410346237e+01   1.3191779230e+01    0.1875434    0.1454137   8.30  0.001076162    1.346    0.257
        32  -8.7117     99.5743    160.5174   8.4923542018e+01   2.9443365801e+01    0.1320894    0.1148192  70.94 0.0001521135    1.056    0.053
        33 -11.7916     32.7362    156.4522   1.0006265390e+02   3.9093344197e+01    0.4115133    0.2627966  67.63  0.000770992    1.355    0.262
        34  -9.0999    125.7600    151.3959   7.7419391731e+01   2.6856496393e+01    0.1981241    0.1252969  32.38 0.0009500356    1.736    0.424
        35 -11.2663    133.7848    144.6665   7.4321692179e+01   2.6714058303e+01    0.9960905    0.2839442 -54.35  0.002850302    5.000    0.800
        36 -10.3100    174.7746    148.9729   6.6496105459e+01   1.8039606553e+01    0.2455374    0.1960993 -57.66 0.0008993396    1.546    0.353
        37 -10.0618     48.0710    145.8426   9.5306249830e+01   3.9763551629e+01    0.2070077    0.1843556  -6.49  0.001348321    1.628    0.386
        38 -10.9232     29.2687    143.0264   9.9697007140e+01   4.2408267198e+01    0.3470904    0.2885092  42.77  0.001943974    1.357    0.263
        39 -10.8212     99.1360    138.1819   8.1326241409e+01   3.4242178860e+01     0.502448    0.3581935 -11.76  0.002292351    2.550    0.608
        40 -12.4656     85.9022    137.5067   8.4541281953e+01   3.6520628491e+01    0.2732051    0.2382061 -68.03 0.0003535998    1.132    0.117
        41 -11.0474    107.2966    130.2052   7.7750697078e+01   3.4577099582e+01      0.49609    0.3379579  24.88  0.002354039    1.916    0.478
        42  -9.5938     82.0875    128.8793   8.4026351480e+01   3.9057301980e+01    0.2163815     0.166976  74.28 0.0005895339    1.331    0.249
        43 -12.2194     61.2611    171.4550   9.4991812001e+01   3.2637710391e+01    0.3434699    0.2731456 -28.69  0.002115583    2.003    0.501
        44 -10.0221     96.9193    124.5502   7.9276011984e+01   3.7634823590e+01    0.2380099    0.2064603 -26.63 0.0009327556    1.417    0.294
        45 -10.8715    135.5717    129.3482   7.0700169186e+01   2.9427619921e+01    0.4348676    0.1403421 -47.93  0.001443153    3.194    0.687
        46 -12.1956     66.2046    166.8356   9.3385178192e+01   3.2960709361e+01    0.4029456    0.2612144 -49.71 0.0005537134    1.918    0.479
        47  -9.8840    162.3553    119.6995   6.2445493406e+01   2.5759775725e+01    0.3136585     0.227183 -70.62  0.001417264    1.975    0.494
        48  -9.9180    159.3341    115.6483   6.2091014515e+01   2.7165411688e+01    0.2975378    0.2191465 -67.83   0.00088761    1.808    0.447
        49  -9.8619    106.2186    118.1886   7.5476961307e+01   3.7413672850e+01    0.1946952    0.1895056 -38.97 0.0004210435    1.122    0.109
        50 -10.7979    231.2013    113.8612   4.8494968321e+01   1.2203090501e+01    0.2849263    0.2511035 -19.09 0.0007571809    1.085    0.078
        51 -10.2006    248.3371    112.3181   4.5644847476e+01   9.1117370804e+00     0.139155   0.09186144  10.54 0.0007048995    1.703    0.413
        52  -9.1584     77.1648    112.2137   8.2188935957e+01   4.3674893169e+01    0.1896029    0.1508738  83.52 0.0004167002    1.311    0.237
        53 -10.2153    205.3616    110.4265   5.1833722697e+01   1.8037155839e+01    0.3371427    0.2296982  32.47  0.001089882    1.567    0.362
        54  -9.3632    114.9673    109.2152   7.1073034404e+01   3.7732239975e+01    0.2433275    0.1794186   8.10  0.001084587    2.065    0.516
        55 -11.3791    113.3210    172.8729   8.3712273968e+01   2.4800184798e+01    0.4527536    0.1735392  42.00  0.001930672    2.325    0.570
        56 -11.1419     53.1542     91.4970   8.5225392437e+01   5.1976022727e+01    0.4211316    0.1945953 -58.17   0.00116206    1.844    0.458
        57 -10.8315     85.0875    171.1493   8.9662982562e+01   2.9473647716e+01    0.3764772     0.258996 -45.86   0.00214012    1.848    0.459
        58 -10.6407    249.6210     92.1902   4.0666477059e+01   1.1464818135e+01      0.20103    0.1138583 -16.83 0.0004608502    1.709    0.415
        59  -9.4362    161.4633     84.4582   5.3083815094e+01   3.2446813770e+01    0.1537627    0.1479484 -20.87 0.0001273223    1.008    0.008
        60 -10.8369    109.1220    199.1244   8.8049492261e+01   2.0698888649e+01    0.1723724     0.154422  31.50 0.0005805191    1.260    0.206
        61 -12.5669    198.8047     49.8704   3.5961228213e+01   2.8604204437e+01    0.6857967    0.5659488  31.93 0.0009721764    1.340    0.253
        62 -15.0930     55.6874    233.9354   1.0101737609e+02   2.1935995867e+01     1.898968    0.8418077  86.04  0.008845483    2.792    0.642
        63  -9.1681     25.1032     58.1277   8.7875064743e+01   6.2950840431e+01    0.1628649    0.1384155  85.81 0.0003520956    1.292    0.226
        64 -11.3640     13.5308     60.2340   9.3280379399e+01   6.3353415080e+01    0.3020758    0.1876805 -68.48 0.0005056294    1.281    0.219
        65  -9.9804    197.9784     23.7460   2.8016785771e+01   3.2024805269e+01     0.313154    0.2018667   0.28  0.001076381    1.912    0.477
        66  -9.6108    189.6785     15.0250   2.6158478271e+01   3.5105968734e+01    0.2072423    0.1803019 -26.72 0.0006257264    1.127    0.112
        67 -10.4750     87.2026    205.9158   9.3075793266e+01   2.2649836071e+01    0.2630247    0.1539128 -65.62  0.001114936    1.912    0.477
        68  -8.7805    224.2582    206.6815   6.8243505237e+01   1.6486894196e+00   0.09232414   0.08904061  23.03 0.0002282231    1.541    0.351
