#   1 NUMBER                 Running object number                                     
#   2 MAG_AUTO               Kron-like elliptical aperture magnitude                    [mag]
#   3 X_IMAGE                Object position along x                                    [pixel]
#   4 Y_IMAGE                Object position along y                                    [pixel]
#   5 X_WORLD                Barycenter position along world x axis                     [deg]
#   6 Y_WORLD                Barycenter position along world y axis                     [deg]
#   7 A_WORLD                Profile RMS along major axis (world units)                 [deg]
#   8 B_WORLD                Profile RMS along minor axis (world units)                 [deg]
#   9 THETA_WORLD            Position angle (CCW/world-x)                               [deg]
#  10 FWHM_WORLD             FWHM assuming a gaussian core                              [deg]
#  11 ELONGATION             A_IMAGE/B_IMAGE                                           
#  12 ELLIPTICITY            1 - B_IMAGE/A_IMAGE                                       
         1 -12.0282     20.6108     17.1017   6.2036483159e+01   7.2858126996e+01    0.3452293    0.2454236   3.84   0.00212332    1.538    0.350
         2 -13.1905    162.3165     11.3552   1.4185071011e+01   4.3038459306e+01     0.959688    0.3084009 -30.11  0.003460774    2.771    0.639
         3 -14.4077    175.8347      4.6507   1.0443870722e+01   4.0127135044e+01     1.708735     0.845202  83.73  0.007316161    2.084    0.520
         4 -10.6739     45.3139     11.9353   4.5084540875e+01   7.0450751483e+01     0.221668    0.1926955  -9.57 0.0007696206    1.029    0.028
         5 -11.1061     34.9917     13.3021   5.1355430182e+01   7.1795106838e+01    0.2128036    0.1583547 -40.67 0.0006439413    1.309    0.236
         6 -10.0392    204.0712     13.5070   1.0480041470e+01   3.2029655463e+01    0.1902976    0.1301825  81.43 0.0003654884    1.463    0.316
         7 -12.0083    120.0021      8.9517   1.9761575266e+01   5.4437924268e+01    0.4091804     0.226246 -21.19 0.0004744967    1.876    0.467
         8 -12.2430    123.7197      6.5810   1.8071509050e+01   5.3704941280e+01    0.3800393    0.2704914 -80.73   0.00113843    1.624    0.384
         9 -11.0214    104.3660     10.3891   2.3687109460e+01   5.8234694656e+01    0.3207192    0.2819186 -50.98  0.001827129    1.249    0.199
        10 -11.7808     56.2308      9.0115   3.8275388676e+01   6.8959069560e+01    0.3543435    0.2683288  22.35  0.001241235    1.293    0.226
        11 -11.1229     49.4100     13.3584   4.3934194757e+01   6.9557811181e+01    0.2746269    0.2154837 -16.95   0.00165046    1.150    0.131
        12 -11.2097     98.5075      7.9003   2.3887103624e+01   5.9921938798e+01    0.3200334    0.2384096 -66.26    0.0016428    1.701    0.412
        13 -11.1645     69.8488      8.2178   3.2492120473e+01   6.6371323365e+01     0.364576    0.1694065 -12.64  0.001437033    2.832    0.647
        14 -11.6574      3.3542      8.2621   6.9358761050e+01   7.6018577645e+01    0.2286479     0.179691 -54.23 0.0008356784    1.245    0.197
        15  -9.5163    213.3334      8.3004   8.2695072026e+00   3.0305839624e+01    0.1300053   0.09925073  38.77 0.0007033733    1.653    0.395
        16 -11.9300     85.8812      7.2235   2.6855804728e+01   6.2969380186e+01    0.3355994    0.2582466  33.88 0.0006298579    1.243    0.196
        17 -10.4127     78.0100      7.7845   2.9514609225e+01   6.4675465263e+01    0.2099633    0.1901239  15.32 0.0004507831    1.002    0.002
        18 -11.4477     74.7581      7.0165   3.0139139047e+01   6.5468889449e+01    0.2901826    0.1774504 -40.23  0.001312732    1.803    0.445
        19 -11.0597     22.9742      5.0113   5.3506074670e+01   7.4724650120e+01     0.179122    0.1493948 -20.98  0.001217972    1.064    0.060
        20 -10.3572    203.9493      4.2367   7.8596658408e+00   3.3001414935e+01    0.2232545    0.1326996  47.46  0.001072716    2.022    0.505
        21 -11.7356    134.5192      4.4464   1.5435384564e+01   5.1074123369e+01    0.2435075    0.1961929  40.44 0.0006937211    1.269    0.212
        22 -11.7578    131.4844      3.0803   1.5347898574e+01   5.1993141371e+01    0.2715943    0.2469177  39.33 0.0007496167    1.113    0.101
        23 -11.9848    114.3267      1.8189   1.7687927818e+01   5.6549317713e+01    0.4853237    0.1957928  69.17  0.001403967    2.411    0.585
        24 -10.8145     38.2720      2.1124   4.2462652187e+01   7.2985831714e+01    0.2259311    0.1805799  39.27  0.001408193    1.395    0.283
        25 -10.9215    143.2528      1.6009   1.3099224056e+01   4.9013670633e+01    0.2034849    0.1171977  60.15 0.0006275353    1.604    0.377
        26 -12.8060    243.8639    180.5445   4.5658717125e+01   5.6825539693e-01    0.3334031    0.2098736 -45.58   0.00186836    2.272    0.560
        27 -16.3993     51.2341    234.1548   8.9003975527e+01   2.0936432434e+01     4.033453     1.790032  82.27   0.02169802    2.674    0.626
        28 -15.5860      2.3385    242.2866   9.7928537797e+01   2.4625406803e+01     1.765303    0.4595793 -81.41  0.009185673    3.629    0.724
        29 -15.1156      6.9825    224.7778   9.6618201483e+01   2.7233518395e+01     1.120062    0.5882694 -70.69  0.006196603    2.109    0.526
        30 -13.0525     86.0057    184.7308   7.7598598556e+01   2.5791003305e+01    0.3637175    0.2807936 -40.64  0.002130696    1.738    0.425
        31 -11.3820     53.6794    184.5672   8.4873396916e+01   3.0167070058e+01     0.216244    0.1241723  77.59  0.000836977    1.738    0.425
        32 -10.5347     77.6514    182.3177   7.9211519087e+01   2.7489873601e+01    0.1404906   0.08272133  64.47 0.0007048151    1.731    0.422
        33 -12.6556     36.6014    175.8589   8.8019328886e+01   3.4020899211e+01    0.5046766    0.1769117  53.33  0.002242219    2.548    0.608
        34 -10.7570     57.6664    174.3089   8.2976093057e+01   3.1886694103e+01    0.1381576   0.07935126  64.43 0.0007042158    1.673    0.402
        35 -15.1844      5.6022    202.8142   9.6110902256e+01   3.1480069265e+01     1.493445     1.051623 -83.60    0.0110222    1.386    0.279
        36 -12.3852     28.5156    170.8093   8.9505493390e+01   3.5982942770e+01    0.4454814    0.1686462  58.26  0.002027898    2.474    0.596
        37 -12.3993     55.8249    168.7098   8.2835233175e+01   3.3360566969e+01    0.3082753    0.1929525  88.47 0.0006893264    1.558    0.358
        38 -15.6515     20.4949    214.7274   9.3736626079e+01   2.7783538776e+01     1.629673    0.9821547 -83.90   0.01116551    1.565    0.361
        39 -11.4708     44.9547    166.8078   8.5267688191e+01   3.5096461350e+01    0.2171688    0.1960565  58.31 0.0007769296    1.210    0.174
        40 -15.7337     22.5624    248.3602   9.4734664612e+01   2.1668527941e+01     2.075219     0.809315  41.59   0.01307963    1.827    0.453
        41 -13.6251     25.5588    160.5208   8.9434953975e+01   3.8590680688e+01    0.6239385    0.3254803  48.24  0.003436517    1.699    0.411
        42 -11.7997     55.6515    158.3656   8.1741401661e+01   3.5737229009e+01     0.232423    0.2093728 -80.33 0.0005321768    1.179    0.152
        43 -11.1476     41.4788    157.2708   8.5200833818e+01   3.7673946946e+01    0.2283882    0.1613472 -83.09 0.0005034904    1.252    0.201
        44 -11.4038      5.5089    157.0123   9.4050475185e+01   4.1153666113e+01    0.1974891    0.1260772  63.01 0.0003361695    1.294    0.227
        45 -11.8673      4.4902    153.5424   9.4103248541e+01   4.2018844518e+01    0.2797223    0.1402594 -60.36  0.001523949    2.096    0.523
        46 -13.6634    248.7394    146.8292   3.8292474764e+01   4.1583535849e+00    0.7047457    0.2356646 -35.08  0.002961319    2.634    0.620
        47 -10.1138     74.7262    159.3275   7.7055424365e+01   3.2950843197e+01    0.1395626   0.09203325  72.29  0.000386581    1.586    0.369
        48 -11.3890     63.4674    155.0336   7.9347459139e+01   3.5498507388e+01     0.248175      0.18742  44.53  0.000530388    1.303    0.233
        49 -10.0048     12.6788    150.6881   9.1904139288e+01   4.2016104362e+01    0.1147819   0.08320235 -54.18 0.0007037881    1.651    0.394
        50 -11.3805     24.0413    146.2648   8.8652863000e+01   4.2045824875e+01     0.178492    0.1419124  77.21 0.0006986241    1.040    0.038
        51 -11.6480      2.0355    139.9418   9.3928266550e+01   4.5333833838e+01     0.201898    0.1709738  83.71 0.0003356702    1.134    0.118
        52  -9.6865    104.5189    138.4700   6.5956552653e+01   3.2986350275e+01    0.1456048    0.1348839  79.35 7.085844e-05    1.019    0.018
        53 -10.3953    108.5050    131.7778   6.3567018614e+01   3.3803908731e+01    0.3961728    0.1451117 -55.48  0.001364993    2.805    0.643
        54 -11.5714     11.0686    132.6425   9.1001712156e+01   4.6394792884e+01    0.2230775    0.1386805  85.33 0.0006141533    1.335    0.251
        55 -10.2835     81.2110    131.7946   7.1008898621e+01   3.8455780622e+01    0.2123352    0.1807083  79.91 0.0006650274    1.128    0.114
        56 -13.3323    248.2484    127.4357   3.4232410921e+01   6.8882927979e+00    0.4844722    0.3622929 -54.23  0.002774657    1.760    0.432
        57 -10.1044      1.2086    129.0600   9.3457407183e+01   4.7953357939e+01    0.1596134   0.07807497 -80.78 0.0003197998    1.625    0.385
        58  -9.8640     41.2202    128.4036   8.1971316083e+01   4.4627856807e+01    0.1803734    0.1095006  48.68 0.0002737889    1.636    0.389
        59  -9.8607     50.4593    124.5021   7.8692646574e+01   4.4527124260e+01    0.1372836    0.1192752 -82.41 -0.0004135401    1.036    0.035
        60 -12.0894      6.4869    121.6613   9.1415264847e+01   4.9372626567e+01    0.3663834     0.171963  63.42  0.001326426    2.097    0.523
        61 -13.1799    248.6412    114.6395   3.1333391763e+01   8.6056892135e+00    0.5596184     0.246803 -40.08  0.002519144    2.090    0.522
        62 -10.7001     20.9979    115.5734   8.6462817434e+01   4.9762095324e+01    0.2633381    0.1423067 -61.87  0.001328735    1.632    0.387
        63  -9.9752     14.3157    117.3142   8.8695315520e+01   4.9866069328e+01    0.1261575   0.08274995 -51.34 0.0007035495    1.644    0.392
        64 -11.4950      2.3249    111.6155   9.1828663433e+01   5.2079633759e+01    0.2275861    0.1687088 -75.19 0.0002497036    1.143    0.125
        65 -10.1598     97.0091    110.4831   6.2017985442e+01   4.0896019233e+01    0.3361473    0.1669545 -40.13  0.001253156    2.437    0.590
        66  -9.6950     79.5683    110.4885   6.7234241854e+01   4.3898402310e+01    0.1462602    0.1342718 -66.59  0.000155775    1.053    0.051
        67 -10.3912     18.0072    108.3335   8.6561428261e+01   5.1799438201e+01    0.1677684    0.1529287  84.87 0.0005660509    1.146    0.127
        68 -10.5576     13.6174    106.2934   8.7743663794e+01   5.2635879525e+01    0.1354987   0.07893749  63.69 0.0007017918    1.756    0.431
        69 -11.4222      2.0368    104.6871   9.1316273322e+01   5.3785431515e+01    0.2504895    0.1454151 -70.43  0.001426778    1.393    0.282
        70  -9.4964     66.3011    103.2794   6.9844448247e+01   4.7709966110e+01    0.1382322    0.1082953 -32.03 0.0006961389    1.545    0.353
        71 -11.7479    249.6066    100.1869   2.7899269928e+01   1.0455773209e+01    0.1895416    0.1690716   2.16  0.001198565    1.169    0.145
        72  -9.8883     91.6094    116.1784   6.4897857528e+01   4.0499829211e+01    0.2040246    0.1314208 -47.41 0.0004601135    1.577    0.366
        73  -9.3430    103.3087     96.6308   5.6629266988e+01   4.2941700882e+01    0.1608757    0.1192337 -87.80 5.668599e-05    1.762    0.432
        74 -10.4250     63.9984     96.0668   6.8988279692e+01   4.9826787081e+01    0.2218049    0.2057194 -55.57  0.001282248    1.097    0.088
        75 -11.4219     39.5310     95.4888   7.7334187106e+01   5.3037298125e+01    0.2230106    0.1375914   5.57  0.001035819    2.475    0.596
        76  -9.7650     20.0035     95.0028   8.4137461593e+01   5.4963395955e+01    0.1650768    0.1259152 -75.87 0.0007335927    1.077    0.071
        77 -11.9112      3.8101     96.6303   8.9947591176e+01   5.5656868466e+01    0.3003532    0.1986608 -52.47 0.0003605814    1.510    0.338
        78 -11.2750    132.3635     92.6984   4.7519253584e+01   3.7630668581e+01     0.263592    0.2559914 -26.50 0.0004022003    1.063    0.060
        79  -9.9654     13.2978     90.2891   8.5859337714e+01   5.6627601553e+01    0.1274635    0.0812787 -49.40 0.0002405775    1.556    0.357
        80 -11.5100      8.4858     96.0132   8.8280586191e+01   5.5526631455e+01    0.2414768    0.1787348  61.24 0.0005282739    1.388    0.280
        81 -10.8977     28.6497     87.0263   7.9700739030e+01   5.6226122120e+01    0.1912237    0.1503891 -68.29  0.000419653    1.067    0.063
        82 -10.6996     12.2411     85.2139   8.5530833771e+01   5.7955264448e+01    0.1963492    0.1510784 -61.34 0.0008311113    1.159    0.137
        83 -11.0158      5.7028     80.0390   8.7278471896e+01   5.9626572269e+01    0.1810546    0.1337242 -74.75 0.0004136963    1.075    0.070
        84 -11.7522      2.7352     75.5976   8.7827353816e+01   6.0869643223e+01    0.4362955    0.1589415 -67.13  0.002014341    2.013    0.503
        85 -11.3059     53.1800     77.6437   6.8300913767e+01   5.5827508381e+01    0.5264738    0.2665698  47.96  0.002257166    2.365    0.577
        86  -9.8636    216.4097     78.3820   2.7019037691e+01   2.0478003881e+01    0.1402911     0.128045 -33.37 9.346595e-05    1.020    0.019
        87 -11.1529      7.7896     68.3717   8.4655681897e+01   6.2357235446e+01    0.2345709    0.1438946 -73.67 0.0006802956    1.329    0.248
        88 -10.4339    192.0764     65.6577   2.7158925819e+01   2.8148308477e+01    0.2341131    0.1875056 -45.12 0.0002867535    1.173    0.147
        89  -9.6500    151.5008     66.4806   3.4889317446e+01   3.8145737982e+01    0.1560267    0.1493732 -57.34 0.0008102651    1.023    0.023
        90 -10.1479    250.4622     65.4847   1.9569942501e+01   1.5053696180e+01    0.1345755    0.1113892 -37.32 0.0001084046    1.010    0.009
        91 -10.0509    204.5085     65.5092   2.5243103610e+01   2.5173849720e+01    0.1492151    0.1326016 -48.56 8.062736e-05    1.054    0.051
        92 -11.1230      4.3244     64.1503   8.5423411208e+01   6.3563953214e+01    0.2190998    0.1523634 -54.44 0.0006124239    1.243    0.196
        93 -11.9027      3.3720     59.2982   8.4999216255e+01   6.4774606107e+01    0.3348574    0.2594351 -68.66  0.001327119    1.028    0.027
        94  -9.6327    126.3566     64.7327   4.0213792811e+01   4.4644580287e+01    0.1570428    0.1220114 -82.21  0.000699066    1.634    0.388
        95 -10.0241     43.5294     62.5043   6.7912195154e+01   6.0645070537e+01    0.1371886    0.1207504 -59.13 0.0008093786    1.053    0.050
        96  -9.9075    117.4883     61.4546   4.1418677078e+01   4.7361169030e+01    0.1541119    0.1473622  -3.25 5.573048e-05    1.089    0.082
        97 -10.1271     98.9064     60.7468   4.6611896853e+01   5.1658650828e+01    0.2508648    0.1819088  87.91  0.001078303    2.097    0.523
        98 -10.6547    231.3430     60.6896   2.0484687591e+01   1.9724565440e+01    0.1473598   0.09345257 -58.04 0.0007045268    1.699    0.411
        99  -9.9268     35.1135     60.6787   7.1017749776e+01   6.2020637427e+01    0.1705428    0.1229362   2.85 0.0004132692    1.756    0.431
       100  -9.7734     57.5318     59.5937   6.1141943976e+01   5.9438948939e+01    0.1395142    0.1261951 -42.13 0.0001297082    1.022    0.022
       101 -10.6681     22.4332     58.3166   7.6074646619e+01   6.3765387251e+01    0.2987515    0.1475297 -44.02  0.001087192    1.890    0.471
       102 -10.9678     96.6636     55.3823   4.5327192875e+01   5.3194565260e+01    0.2504334    0.2103838 -43.84 0.0003351547    1.152    0.132
       103  -9.5100     78.0007     55.5284   5.1750951998e+01   5.6899487451e+01    0.1824672    0.1289461  73.52 0.0004188879    2.179    0.541
       104  -9.7018     82.9538     53.9694   4.9380542930e+01   5.6274836470e+01    0.1687666    0.1553275 -34.38 0.0009294436    1.020    0.019
       105  -9.4702    111.4602     51.4858   3.9414391280e+01   5.0608427091e+01    0.1524645    0.1441731  -0.84 0.0008076642    1.087    0.080
       106 -10.3570     23.1783     50.7779   7.3674196413e+01   6.5466260374e+01    0.2296628    0.1134078 -36.82  0.001066335    2.154    0.536
       107 -10.7541      6.9320     45.7265   8.0423368545e+01   6.7781264746e+01     0.219014    0.1285287 -56.18 0.0002650192    1.327    0.246
       108 -10.2947     20.9642     44.5280   7.2890737448e+01   6.7080746159e+01    0.1930089    0.1453062 -54.28 0.0003503881    1.095    0.087
       109 -10.6424     39.2329     43.5645   6.3470927466e+01   6.5422485148e+01    0.2366805    0.2143294   7.57  0.001020429    1.211    0.175
       110  -9.8418    119.6008     41.8407   3.3507409355e+01   5.0284852317e+01    0.2228612    0.1314443 -44.19 0.0009396098    1.734    0.423
       111 -10.3006     44.9674     42.3313   6.0269701020e+01   6.4952371422e+01     0.183305    0.1647977 -12.72 0.0007770773    1.130    0.115
       112  -9.5151    112.7276     38.6471   3.3998967702e+01   5.2465920751e+01    0.1527243    0.1148059  12.18 0.0005681172    1.636    0.389
       113 -10.7208     40.4039     35.7986   5.9769031809e+01   6.6900329142e+01    0.2194416     0.184372  23.95 0.0006469099    1.315    0.240
       114  -9.4369     81.7281     35.7022   4.2198704908e+01   5.9920668034e+01    0.1408317    0.1079756   3.04 0.0002056421    1.525    0.344
       115 -10.2888     92.6285     33.9000   3.7764812037e+01   5.7886554098e+01    0.1964864    0.1702532 -28.59 0.0003701958    1.119    0.106
       116 -10.8114     50.4697     32.6833   5.3530120251e+01   6.6093056668e+01    0.3640208    0.2024699  46.40  0.001535501    2.174    0.540
       117 -10.4857    153.9775     31.8675   2.2602472920e+01   4.2871702250e+01    0.2254644    0.1948092  34.68 0.0004414369    1.261    0.207
       118 -10.8467     17.5232     31.3901   7.0224827799e+01   7.0254435677e+01    0.2101374    0.1733451 -44.20  0.000474538    1.017    0.016
       119 -11.4528      3.6808     31.3660   7.8285006387e+01   7.1200571335e+01    0.2175509    0.1990155 -64.70 0.0005296262    1.186    0.157
       120 -10.6508    175.2369     28.5264   1.8241973552e+01   3.7692487908e+01    0.2738766     0.194301 -32.30 0.0007845454    1.367    0.269
       121 -11.0390    160.7035     27.0936   1.9850178640e+01   4.1699874634e+01     0.258195    0.2215676 -70.67 0.0004579878    1.170    0.145
       122 -11.6882    138.8857     22.1086   2.1634769258e+01   4.8079334010e+01    0.4649019    0.1942706  58.76  0.001520674    2.202    0.546
       123 -11.0708    131.2704     23.4471   2.3585273088e+01   4.9911380701e+01    0.4818657    0.2392712  67.87   0.00136354    2.082    0.520
       124 -10.0994    111.0286     24.5258   2.8480273119e+01   5.4918624273e+01    0.2255154    0.1431333  62.92   0.00103285    1.616    0.381
       125 -12.4356     96.5315     21.9684   3.1142908859e+01   5.8741548420e+01    0.3426857    0.2921191  87.95 0.0006198896    1.414    0.293
       126 -10.7514     85.8522     21.7892   3.4262924107e+01   6.1193862916e+01    0.4425635    0.2200018 -57.19  0.001440701    4.250    0.765
       127 -11.0571     38.2272     22.6541   5.4718762967e+01   6.9722935250e+01     0.236974    0.2011269 -26.66 0.0004975206    1.019    0.019
       128 -10.5975     34.7187     19.7699   5.5111981036e+01   7.0714400545e+01    0.3246906    0.1475125  23.53  0.001387118    2.992    0.666
       129  -9.6418     72.5655     22.4396   3.9167969131e+01   6.3906561502e+01    0.1369525    0.1249358  -4.15 0.0001186474    1.003    0.003
       130  -9.9607     48.8617     19.1758   4.7484655618e+01   6.8736301676e+01    0.1807102    0.1402737  -6.57 0.0004896721    1.283    0.221
       131 -11.5909     11.2732     18.1995   6.8581135382e+01   7.3486900469e+01    0.3263956    0.1512837 -26.50  0.001525775    2.601    0.615
       132 -10.7078    105.5183    249.5026   8.0242664691e+01   1.1625618172e+01    0.1113275   0.08298042  46.77 -3.954601e-05    1.001    0.001
       133 -10.4974     66.1860     16.1844   3.8302799522e+01   6.6080598504e+01    0.2044945    0.1688799   8.00 0.0004340936    1.175    0.149
       134  -9.8586     84.4614    249.4522   8.4005944665e+01   1.4377166914e+01    0.1093135   0.08079576  50.16 0.0002358339    1.022    0.021
       135 -12.6265     77.5478    242.3981   8.4732798880e+01   1.6361794731e+01    0.4355405       0.2017  42.26  0.002593242    1.609    0.379
       136 -12.1387     82.1908    238.4310   8.3580072363e+01   1.6409843734e+01    0.3386394    0.2132926  31.30   0.00127188    1.634    0.388
       137 -10.2290    189.5461    241.6954   6.4504608698e+01   1.0045587752e+00    0.1127523    0.1060371  -9.76 0.0003508583    1.386    0.279
       138 -11.5698     73.4544    238.2027   8.5177069208e+01   1.7561118845e+01    0.1932402    0.1620378  28.89  0.001074706    1.472    0.321
       139 -11.7014    116.2325     13.4189   2.2449200308e+01   5.4941370327e+01    0.4779879    0.1746096  66.65  0.001694069    2.802    0.643
       140 -12.0911     73.9685    232.5236   8.4659521822e+01   1.8445693320e+01    0.2371514    0.1584936 -72.96   0.00161994    1.704    0.413
       141 -11.9032     76.0435    227.3004   8.3857474261e+01   1.9074572049e+01    0.2572737    0.1856091  29.58 0.0009237221    1.557    0.358
       142 -11.1415    128.1519     14.1257   2.0414786344e+01   5.1795047756e+01    0.2025455    0.1665684 -70.14 0.0005254769    1.326    0.246
       143 -15.4949     10.7166    178.3805   9.3991376846e+01   3.6021508854e+01      2.42146    0.9220284  42.87   0.01291297    2.119    0.528
       144 -10.6355     27.7771     11.4182   5.4454316682e+01   7.3066995691e+01    0.1635516    0.1103061  13.30 0.0009447642    1.627    0.385
       145 -13.6563     90.0841    229.6104   8.1360804708e+01   1.6825728623e+01    0.5717754    0.3696254 -87.54  0.003643333    1.838    0.456
       146 -12.2417     95.1968    228.5395   8.0284112848e+01   1.6310481059e+01    0.3107615    0.2060204 -40.03  0.001641787    2.337    0.572
       147 -13.1532    248.5443    210.4411   5.0160952367e+01  -3.5280921284e+00    0.3996787    0.2317748  -9.80  0.002518491    1.654    0.396
       148 -15.2421     30.5591    238.1762   9.2942754891e+01   2.2540068369e+01        1.284    0.5819349  56.55  0.008184519    1.607    0.378
       149 -11.2273     74.0123    209.6980   8.2769104784e+01   2.2523454230e+01    0.1762075    0.1273879  50.73 0.0007714254    1.126    0.112
       150  -9.9480     98.3041    209.3077   7.7743798444e+01   1.9228258681e+01    0.1095135   0.09483895   1.73 0.0006186429    1.605    0.377
       151  -9.6132    123.7264    206.3111   7.2181038330e+01   1.5946255528e+01    0.1217237    0.0867841  65.30 0.0002016238    1.553    0.356
       152 -11.1585    108.5262    202.5034   7.4846724604e+01   1.8960080594e+01    0.1259874    0.1060832  52.08 0.0008101022    1.002    0.002
       153 -13.3308    249.1108    196.5906   4.7726187644e+01  -2.0785089284e+00    0.5553677    0.2287413 -35.21  0.002887441    2.491    0.599
       154 -11.5163     95.6193    202.1996   7.7520845245e+01   2.0935827038e+01    0.1622743    0.1121437 -53.41 0.0007841386    1.726    0.421
       155 -10.0546     41.6943    193.5692   8.8227847150e+01   2.9697810956e+01    0.2109213    0.1127081  74.53  0.001161613    1.768    0.434
       156 -10.0287    122.5076    190.0828   7.0249228726e+01   1.9074924378e+01    0.1708394    0.1293575 -57.62 0.0003837878    1.483    0.326
       157 -11.7577     74.4269    188.3776   8.0604427576e+01   2.6675127240e+01    0.2283666    0.1971572  -0.61  0.001092106    1.699    0.412
       158 -12.0113     95.7697    186.6388   7.5643451183e+01   2.3952114455e+01    0.2484069    0.1875535  73.24 0.0006094426    1.328    0.247
       159 -13.5860    247.7552    184.1180   4.5711295354e+01  -4.3419708006e-01    0.5526655    0.2957623 -16.09  0.003048937    1.873    0.466
