#   1 NUMBER                 Running object number                                     
#   2 MAG_AUTO               Kron-like elliptical aperture magnitude                    [mag]
#   3 X_IMAGE                Object position along x                                    [pixel]
#   4 Y_IMAGE                Object position along y                                    [pixel]
#   5 X_WORLD                Barycenter position along world x axis                     [deg]
#   6 Y_WORLD                Barycenter position along world y axis                     [deg]
#   7 A_WORLD                Profile RMS along major axis (world units)                 [deg]
#   8 B_WORLD                Profile RMS along minor axis (world units)                 [deg]
#   9 THETA_WORLD            Position angle (CCW/world-x)                               [deg]
#  10 FWHM_WORLD             FWHM assuming a gaussian core                              [deg]
#  11 ELONGATION             A_IMAGE/B_IMAGE                                           
#  12 ELLIPTICITY            1 - B_IMAGE/A_IMAGE                                       
         1 -14.8049    176.9872     28.0193   7.4451278043e+01   3.7225529893e+01     1.423958    0.8993159   4.68  0.004916778    2.134    0.531
         2 -14.3970    180.9211     20.9962   7.1697580559e+01   3.7015499013e+01     1.152292    0.8003701  32.71  0.001478406    1.606    0.377
         3 -11.2693    189.1212    225.8515   1.1933579210e+02   2.6157800838e+00    0.1735375    0.1497173  45.95 0.0006118211    1.246    0.197
         4 -19.6160     45.1207    158.8508   1.3924540631e+02   3.6837997854e+01     18.22039     4.707547 -70.17   0.06736404    3.799    0.737
         5  99.0000     21.5778    214.5141   1.4835194534e+02   2.8280866650e+01    0.3884075     0.147419  36.48  0.001713255    2.642    0.622
         6 -11.2903    111.5333    197.0402   1.2998429274e+02   2.0076319594e+01    0.3130502     0.204351  14.25   0.00148219    2.847    0.649
         7 -10.2395    135.0068    195.8945   1.2510884991e+02   1.6447468557e+01    0.2050579    0.1471088  74.79 0.0009749966    1.740    0.425
         8 -12.2322      6.2968    206.6486   1.5046277716e+02   3.1128516622e+01    0.1846268    0.1042472  77.35 0.0006143585    1.373    0.272
         9 -13.8321     11.5003    206.4660   1.4958327959e+02   3.0694756064e+01    0.5581365    0.3330151  48.70  0.003868221    1.512    0.339
        10 -11.8015    209.7825    188.3504   1.0921625854e+02   4.2995739685e+00    0.2262673    0.1891404  -8.77  0.001390676    1.184    0.155
        11 -11.5138     91.1076    186.8749   1.3281074350e+02   2.5123672286e+01    0.3174528    0.1930529  44.33  0.001416884    1.525    0.344
        12 -11.0171    201.6264    182.7331   1.0968184918e+02   6.6245009710e+00    0.2449882     0.225216  35.79 0.0009553041    1.176    0.150
        13 -12.1184     91.1454    179.9038   1.3189306448e+02   2.6506872684e+01    0.3562343    0.2281752 -43.69  0.001916095    1.986    0.496
        14 -12.1295     93.5878    175.1991   1.3072654210e+02   2.7097804308e+01     0.294022    0.2450859 -37.92  0.001315894    1.520    0.342
        15  -9.9461     99.5071    180.5286   1.3020918274e+02   2.5125382265e+01    0.1273423    0.1127759  70.10 0.0001056087    1.004    0.004
        16 -11.5717    137.6643    170.9660   1.2050378948e+02   2.0614398015e+01    0.4385226    0.3247565  78.08  0.002263335    1.748    0.428
        17 -10.8310    112.9847    169.1493   1.2557967614e+02   2.5265754952e+01    0.2196479    0.1786096 -79.81 0.0004333768    1.297    0.229
        18 -11.4281    139.8055    217.5223   1.2722703629e+02   1.1981865567e+01    0.2199935    0.1578917 -83.89  0.001286402    1.932    0.482
        19 -10.2101     98.9928    213.6839   1.3444541450e+02   1.8959844808e+01    0.1714051    0.1263083  51.52   0.00112036    1.150    0.131
        20 -11.7446    227.4475    170.4194   1.0247440889e+02   3.6939896025e+00    0.3648192    0.2182584 -49.58  0.001460065    2.412    0.585
        21 -10.5535     10.4679    213.6902   1.5013973401e+02   2.9484950282e+01    0.1462154   0.09137263  17.45 0.0009283394    3.073    0.675
        22 -12.3964     99.3001    166.8385   1.2824484080e+02   2.7945096878e+01    0.6347661    0.4145139  83.33  0.003167673    1.984    0.496
        23 -12.3463    114.0506    211.6842   1.3136058260e+02   1.7051435720e+01    0.4725878    0.1867997  48.23  0.002195674    2.219    0.549
        24 -10.3292      5.6671    161.6060   1.4782785998e+02   3.9907943063e+01    0.1249426   0.08760124  57.19 0.0003291373    1.374    0.272
        25 -12.2686    103.1746    157.8578   1.2592462390e+02   2.9211659590e+01    0.5937571    0.3059427 -42.88  0.002625772    2.339    0.573
        26 -10.6533    166.1710    209.8764   1.2114138041e+02   8.7761264170e+00    0.1850213    0.1577153  52.46 0.0004298983    1.183    0.155
        27 -12.5647    102.9903    208.2675   1.3306688220e+02   1.9334733103e+01     0.435862    0.2559693  61.26  0.001923959    1.720    0.419
        28 -11.6947    133.6288    145.3696   1.1653136280e+02   2.6475926191e+01    0.8400124    0.2304316 -53.13  0.002387482    4.614    0.783
        29 -10.2627    179.8089    147.7979   1.0686602786e+02   1.6756535945e+01    0.1905986    0.1752285  82.07 0.0005146792    1.312    0.238
        30 -11.5645    121.3404    206.5379   1.2930391643e+02   1.6808951450e+01    0.3474396    0.1687046  63.66  0.001429625    3.221    0.690
        31 -11.0915    102.0773    216.9593   1.3423169868e+02   1.7935582666e+01    0.2821546    0.1487562 -56.06  0.001580563    2.155    0.536
        32 -11.7100    112.4183    141.7048   1.2081159188e+02   3.1107769664e+01    0.4462221    0.2174359 -40.48  0.001801818    2.449    0.592
        33 -12.2786    101.6037    142.4741   1.2357462650e+02   3.2766270861e+01    0.2550982    0.2375728  43.55 0.0005573263    1.132    0.116
        34 -10.9813    117.9879    131.5927   1.1737659986e+02   3.2287229654e+01    0.2712965    0.1957815 -33.39 0.0007075527    1.582    0.368
        35 -13.4442    173.4219    219.5673   1.2124908355e+02   6.0951326836e+00    0.5120209    0.2382113  36.67  0.002522379    1.891    0.471
        36 -11.8324    106.1513    129.3151   1.1984583162e+02   3.4875669665e+01    0.4756311    0.2716052 -48.90  0.001805555    1.702    0.412
        37 -11.8996    101.0552    201.4838   1.3262969256e+02   2.0860372287e+01    0.2733372    0.1769266 -79.59  0.001561998    1.778    0.437
        38 -11.8068    107.4735    206.4976   1.3199018781e+02   1.8977035315e+01    0.1693821    0.1528661   0.79 0.0009246453    1.529    0.346
        39 -10.3094    112.2022    120.1874   1.1630647772e+02   3.5798324084e+01    0.2051469    0.1935117 -12.89 0.0004005056    1.142    0.124
        40 -12.7406    194.3840    195.9280   1.1347815176e+02   5.9447793884e+00     1.035497    0.7122814 -80.46  0.004376382    3.820    0.738
        41 -10.5978    204.9015    110.2540   9.2892652584e+01   1.7942063541e+01    0.2974825    0.2001094  31.65  0.001356832    1.630    0.386
        42 -13.5248    164.2067     42.8896   8.1377668555e+01   3.8581117889e+01    0.5770385    0.4674679  -5.70 0.0009111895    1.332    0.249
        43 -11.6267    196.0164    246.0570   1.2104060349e+02  -1.0105110516e+00     0.178649    0.1371458  28.29 0.0006606849    1.047    0.045
