#   1 NUMBER                 Running object number                                     
#   2 MAG_AUTO               Kron-like elliptical aperture magnitude                    [mag]
#   3 X_IMAGE                Object position along x                                    [pixel]
#   4 Y_IMAGE                Object position along y                                    [pixel]
#   5 X_WORLD                Barycenter position along world x axis                     [deg]
#   6 Y_WORLD                Barycenter position along world y axis                     [deg]
#   7 A_WORLD                Profile RMS along major axis (world units)                 [deg]
#   8 B_WORLD                Profile RMS along minor axis (world units)                 [deg]
#   9 THETA_WORLD            Position angle (CCW/world-x)                               [deg]
#  10 FWHM_WORLD             FWHM assuming a gaussian core                              [deg]
#  11 ELONGATION             A_IMAGE/B_IMAGE                                           
#  12 ELLIPTICITY            1 - B_IMAGE/A_IMAGE                                       
         1 -13.6372    244.6532    109.6521   3.1820350050e+01   1.2832266596e+01     1.908894    0.7860569 -41.21  0.009554016    1.911    0.477
         2 -13.2689     44.6597     23.3838   4.9603632097e+01   6.9268942696e+01      1.73211    0.9220101 -51.94  0.007504386    2.727    0.633
         3 -12.3737     77.9568     14.1820   3.1810028192e+01   6.3231465344e+01    0.5359693    0.3441485 -11.40  0.002708224    1.872    0.466
         4 -11.3244     75.7940     25.1117   3.7769936804e+01   6.2453856990e+01    0.4691643    0.3427645  -4.08  0.002433249    1.666    0.400
         5 -10.5115    128.3830     18.1199   2.3112443855e+01   5.0286352969e+01    0.3453807    0.2277856  63.98  0.001469533    1.400    0.286
         6 -12.5464    156.1555     11.8224   1.7665394296e+01   4.4036330939e+01    0.7029176    0.5694822  41.64  0.004234738    1.516    0.340
         7 -12.3610    157.9025      3.9954   1.5169179608e+01   4.4344801874e+01     0.930954    0.3227808  66.39  0.003972585    2.549    0.608
         8 -12.2683    177.3322      3.7069   1.3598187344e+01   3.9811169957e+01    0.7886775    0.3081187 -43.19  0.003760685    2.115    0.527
         9 -12.8938    169.6505      5.8325   1.4742355423e+01   4.1392252692e+01    0.8979347    0.5363539 -40.05  0.005023314    1.535    0.349
        10 -11.0940    227.4545     16.0231   1.3448690116e+01   2.7980455964e+01    0.4033056    0.2425151 -75.03  0.002527921    1.542    0.352
        11 -11.0792    232.1597      9.3449   1.1778522532e+01   2.7774824495e+01    0.3898911     0.210782 -69.08  0.002390602    1.634    0.388
        12 -10.7990    223.6310      5.3908   1.1341261304e+01   2.9808108686e+01    0.2923072   0.08559201 -56.51  0.001292881    2.860    0.650
        13 -11.9956    164.9839     12.6232   1.7058886756e+01   4.1839290749e+01    0.4905151     0.288115 -67.46  0.002444963    1.632    0.387
        14 -11.4303    146.2133      5.0323   1.6553055459e+01   4.7093038442e+01    0.3482649    0.2512259  87.04  0.002024109    1.234    0.190
        15 -11.2872    141.5090      1.7379   1.5958835784e+01   4.8532702937e+01    0.4709454    0.2970852 -59.72  0.002565974    1.511    0.338
        16 -10.9338    121.3545      4.3618   1.9138221476e+01   5.3347899254e+01    0.4796048    0.3703876 -87.46  0.002810975    1.190    0.159
        17 -11.0263    107.3390      5.6779   2.1677849481e+01   5.6771156646e+01    0.6564367    0.2082261  77.50  0.002214182    3.531    0.717
        18 -11.2535     70.9594      5.7893   2.9500459398e+01   6.5708658078e+01    0.4036523    0.2367705  69.83  0.001914302    1.687    0.407
        19 -10.5953    208.4830      4.4913   1.1902696385e+01   3.2942104679e+01    0.1996457    0.1600196 -89.03 0.0009563382    1.238    0.192
        20 -11.1475    131.3367      3.7931   1.7717665415e+01   5.0889310033e+01    0.7204162    0.1998511  61.51   0.00272116    2.935    0.659
        21 -12.0440     83.5151      3.6276   2.5267434093e+01   6.2872270531e+01    0.9176252    0.3230987  68.42  0.003609895    2.573    0.611
        22 -10.8226     61.7049      2.0659   3.0194444476e+01   6.8188352849e+01    0.4733265    0.1715576  53.49  0.002018906    2.217    0.549
        23 -10.1178    192.7186      5.9895   1.3172328390e+01   3.6152049091e+01    0.1795256    0.1381799 -52.08  0.000904108    1.117    0.105
        24 -10.7934    191.4569     37.9325   2.1362512699e+01   3.2899581587e+01    0.4148657    0.1040638 -45.02  0.001497532    3.217    0.689
        25  -9.4505     20.4133    155.7560   9.4691448916e+01   4.0088097568e+01    0.1966926    0.1153673 -65.35  0.000948147    1.625    0.385
        26 -10.4664    162.4973    151.5124   5.4070542470e+01   1.9649273064e+01    0.2651246    0.2144218 -29.13  0.001448922    1.184    0.156
        27  -9.8102     53.8548    143.6843   8.2451751045e+01   3.9680119665e+01    0.2643843    0.1936477 -58.15  0.001305364    1.347    0.258
        28  -9.7625     40.3322    140.8746   8.6550805710e+01   4.2053804265e+01    0.3973724    0.1601825 -62.69  0.001528187    2.249    0.555
        29 -12.1556     10.8930    139.7045   9.6381075853e+01   4.5085508670e+01    0.5910091    0.2811113  67.88   0.00247918    2.270    0.560
        30  -8.9663     23.6843    141.3157   9.2229944898e+01   4.3614187072e+01    0.1518561   0.09388459  60.45 0.0004470956    1.647    0.393
        31 -13.3474    241.3279    125.3515   3.5366320957e+01   1.1058221905e+01     1.031794    0.9351021  73.64  0.007482709    1.507    0.336
        32 -11.2716    159.6126    231.7497   6.8558935961e+01   5.7505778896e+00    0.1976551    0.1699231 -17.25  0.001375779    1.204    0.169
        33  -9.5498     23.8041    125.8043   9.0373918452e+01   4.7780836485e+01     0.257911    0.1160096 -38.87 0.0009520855    2.853    0.649
        34 -10.8751      4.4870    124.6362   9.7316216257e+01   4.9539340530e+01    0.3207042     0.170927  60.99  0.001465051    1.942    0.485
        35 -11.9597     10.6712    121.9000   9.4781500706e+01   4.9873767006e+01     0.483609    0.2731043  46.42  0.002292291    1.803    0.446
        36 -11.0204    212.6264    112.8772   3.6637146739e+01   1.7600534323e+01    0.5538277    0.2546448 -36.79   0.00257911    1.847    0.459
        37 -11.5655    189.5877    115.4884   4.0836539502e+01   2.1364132685e+01    0.7556748    0.4115468 -18.70  0.002925411    3.002    0.667
        38 -10.0140    224.5182    111.5125   3.4697467904e+01   1.5779670205e+01    0.2690289    0.1345088 -39.70  0.001360435    1.633    0.388
        39 -11.1558    222.6749    107.1467   3.4006924348e+01   1.6761309276e+01    0.4107288    0.3265171  29.49  0.002568449    1.572    0.364
        40 -10.3532    148.3017    110.8171   4.7756826003e+01   3.0539187339e+01    0.3458805    0.1984112 -47.16  0.001367932    1.695    0.410
        41 -10.9593     17.8512    104.6279   8.9793366321e+01   5.4008983082e+01    0.6954113    0.2958716  47.11  0.002707416    2.645    0.622
        42 -10.0083     30.6940    101.8308   8.3938139126e+01   5.3602281954e+01    0.2979025    0.1958196 -42.45  0.001415411    1.558    0.358
        43  -9.7031     47.3238     99.3319   7.6494561665e+01   5.2312375497e+01    0.1587524    0.1090201 -30.39 0.0007050416    1.704    0.413
        44  -9.5318    208.9677     94.2759   3.2982404580e+01   2.1215608539e+01     0.182201      0.16091 -42.89 0.0007363419    1.040    0.039
        45  -9.8227    179.0588     92.6732   3.7118006633e+01   2.7424276405e+01    0.2570496    0.1790313 -49.24 0.0008837832    1.347    0.257
        46 -10.5715     12.8580     89.6894   8.9645210427e+01   5.8367803429e+01    0.2531503    0.1709111 -57.89 0.0008219001    1.316    0.240
        47 -12.4766      5.0307     75.9232   9.1123730595e+01   6.2448008606e+01    0.7845074    0.4857106  79.47  0.003833891    1.879    0.468
        48 -12.9695     15.1176     73.1285   8.5380653878e+01   6.2503515210e+01     1.028204    0.6491844  36.32  0.005181562    1.724    0.420
        49 -11.0192      2.3721     88.5503   9.4314813305e+01   5.9293720636e+01     0.413707    0.2814177  77.30  0.002165847    1.551    0.355
        50 -11.0260      2.8854     83.1126   9.3320007651e+01   6.0694640401e+01    0.4576073    0.2191327 -77.29  0.002037399    1.925    0.481
        51 -10.4814    192.1883     87.0135   3.3641308449e+01   2.5653931899e+01    0.5250151    0.2046155  55.38  0.002133391    2.823    0.646
        52 -12.3100     42.8751     80.6668   7.3700348897e+01   5.7672568919e+01     1.123362    0.8288551  -6.71  0.005479882    1.636    0.389
        53  -9.3517    100.6177     83.8034   5.2582584300e+01   4.6517031556e+01    0.2257162     0.143102 -55.08 0.0009530562    1.700    0.412
        54  -9.2580    145.4784     81.4643   4.0399529852e+01   3.6814228685e+01    0.1473151    0.1407867 -61.73 0.0003045682    1.014    0.013
        55  -9.8865    215.2204     79.7015   2.8849821870e+01   2.2251367088e+01    0.2921917    0.1624082 -54.94   0.00147097    1.823    0.452
        56  -9.9798    169.4455     76.1705   3.4428631775e+01   3.2286142784e+01     0.258121    0.2059212  61.08  0.001228808    1.328    0.247
        57 -10.1761    220.9599     77.9177   2.7781183394e+01   2.1436059825e+01    0.2927218    0.1596964 -68.18  0.001347894    2.646    0.622
        58  -9.6844    227.0262     71.9926   2.5807995328e+01   2.1159025006e+01    0.2129062    0.1245423 -59.53  0.001147345    1.779    0.438
        59 -10.3515     75.2703     69.1086   5.6325133771e+01   5.4930703251e+01    0.4791194    0.3359053  15.38  0.002113609    1.924    0.480
        60 -11.5727    214.7580     67.6541   2.6133831736e+01   2.4078093286e+01    0.4038974    0.1445162 -42.81  0.001744198    2.240    0.554
        61  -9.6404     83.5111     69.0060   5.3287794042e+01   5.3270547376e+01    0.2347242    0.1480752 -44.05  0.001034457    1.595    0.373
        62 -10.8678     25.5866     65.0280   7.7788525577e+01   6.3575080120e+01    0.4270706    0.2635627 -66.18  0.002056528    1.648    0.393
        63  -9.8028    179.3025     66.2617   3.0247906563e+01   3.1664659492e+01    0.2366873    0.1986911  81.50  0.001367435    1.239    0.193
        64 -10.3594    233.5894     64.1125   2.3445124063e+01   2.1042882071e+01    0.2164995    0.1508767  45.66  0.001321789    1.949    0.487
        65  -9.5322    200.0129     63.4881   2.6826323948e+01   2.7630808633e+01    0.1796299    0.1282487  70.67 0.0005900496    1.537    0.350
        66  -8.9377    132.2969     63.6724   3.7824824724e+01   4.3047971991e+01    0.1537503    0.1106723 -70.33 0.0007025744    1.632    0.387
        67 -10.9731    209.6815     59.9761   2.4889229639e+01   2.6152036276e+01    0.3790396     0.160615 -42.25  0.001763657    1.914    0.478
        68 -10.1063    218.7718     61.4245   2.4280417436e+01   2.4165169479e+01    0.1554811    0.1159403  55.12 0.0008665632    1.630    0.386
        69 -10.5832     18.0181    127.7184   9.2714053080e+01   4.7753733134e+01    0.1959156    0.1840719  63.94 0.0009243438    1.084    0.078
        70 -11.4922    215.1023     50.8340   2.2201365374e+01   2.6296976845e+01    0.3113502    0.2715265 -16.56  0.002056664    1.406    0.289
        71  -9.7211    164.7426     53.6161   2.8908642172e+01   3.6871353586e+01    0.2469665    0.1756786 -21.56  0.001248969    1.656    0.396
        72 -11.1685    198.8795     51.9943   2.4124778997e+01   2.9468809470e+01    0.4505134    0.3649524  -0.93  0.002644936    1.710    0.415
        73  -9.6970     35.3317     52.7839   6.8426460895e+01   6.5245004365e+01     0.194103    0.1788714  20.02  0.001145833    1.114    0.102
        74 -11.0447     85.4104     48.0451   4.4703643187e+01   5.6806729520e+01    0.5442468     0.367625  54.39  0.002613546    1.457    0.314
        75  -9.2313    138.0292     56.0000   3.4196390102e+01   4.2910823248e+01    0.2377723   0.08094517  60.06 0.0007995805    2.923    0.658
        76 -11.7404     81.5372     39.6247   4.2468075022e+01   5.9058395593e+01    0.7750126    0.4403814 -43.96  0.003484511    1.887    0.470
        77 -11.4230      3.4803     41.4407   8.4146667259e+01   7.0970128679e+01    0.4746423    0.4349487  55.88  0.002936156    1.323    0.244
        78 -10.9643      6.0647     35.3907   8.0284117160e+01   7.2153844771e+01    0.5910216    0.2139884  23.99  0.002541235    2.719    0.632
        79  -9.5100    196.6689     43.7008   2.2293801753e+01   3.1035293446e+01     0.118936   0.09985714  28.81 0.0003973641    1.645    0.392
        80 -10.5958    186.9903     41.8268   2.2836759404e+01   3.3392875301e+01    0.2111925    0.1185065 -53.41 0.0007327677    1.635    0.388
        81  -9.0607    181.1887     39.7974   2.2942483208e+01   3.4956582452e+01    0.2494086    0.1078333 -61.66 0.0009610956    2.905    0.656
        82 -11.6808     39.8841     29.5417   5.5465342100e+01   6.9126054898e+01    0.4932388    0.3671533 -41.70  0.002028026    1.405    0.288
        83 -11.2578      3.6579    230.2634   1.0315664579e+02   2.4124245895e+01    0.2590054    0.1839347  39.04  0.001747221    1.197    0.165
        84 -10.0881     97.3976     36.2582   3.6343611431e+01   5.5822376684e+01    0.2017394    0.1292304 -44.05 0.0009516578    1.649    0.394
        85  -9.6664     66.0129     35.4961   4.6225009935e+01   6.3122970317e+01    0.2220664    0.1328442  49.91  0.001038735    1.613    0.380
        86  -9.3894     33.3311     35.2921   6.2093069199e+01   6.9127609343e+01    0.1385543   0.09810347  -7.53 0.0004902271    1.630    0.386
        87 -10.8380     86.3855     31.5925   3.7457154391e+01   5.9111351128e+01     0.355199    0.2277416  39.25  0.001700247    1.633    0.387
        88 -10.0300     90.3611     28.4332   3.4950628252e+01   5.8582822472e+01    0.2488015     0.233623   0.25  0.001137534    1.153    0.132
        89 -11.6041    248.5523    224.7436   5.1938155455e+01  -3.3142415545e+00    0.4855507    0.2534886 -22.67  0.003223511    1.538    0.350
        90  -9.2042    111.4908    228.5377   7.8397244111e+01   1.2497148898e+01     0.127295    0.1073169  25.25 0.0001699065    1.008    0.008
        91  -9.7244    168.5128     26.5118   2.0677257105e+01   3.9511082219e+01    0.1334633    0.1148089 -69.94 -1.584408e-05    1.005    0.005
        92  -9.5564    157.0071     26.2195   2.1909449735e+01   4.2298688940e+01     0.182977    0.1025982  72.98 0.0008803571    1.707    0.414
        93  -9.3627    102.8136     26.1329   3.0886001289e+01   5.5818066775e+01    0.1975213    0.1578776  39.24  0.001071045    1.320    0.242
        94 -11.4064    178.1613     23.8416   1.8955221242e+01   3.7565513254e+01    0.3948023    0.3535368 -65.14  0.002577317    1.085    0.078
        95 -11.3655    173.4283     20.7517   1.8560414109e+01   3.9003112105e+01    0.3831286    0.2169183  64.54  0.001705343    1.765    0.433
        96  -9.6837    246.3303     24.3338   1.4149644245e+01   2.3595608810e+01   0.09669334   0.08577953  12.19 0.0007052098    1.725    0.420
        97 -10.0156    224.6952     22.9584   1.5127885717e+01   2.7764695195e+01    0.2306672    0.1544313 -49.36   0.00149482    1.161    0.139
        98 -10.1614     84.3162     22.2790   3.3872272177e+01   6.0801985301e+01    0.4699037   0.05199597  54.59   0.00122765    5.145    0.806
        99  -9.7536    187.2701     19.4495   1.6984324425e+01   3.5983146137e+01     0.228495     0.109787  70.56  0.001130884    2.041    0.510
       100  -9.9152     31.9783    227.4538   9.6667380347e+01   2.2094084283e+01    0.1876224    0.1029514  29.80  0.001017566    1.587    0.370
       101 -11.1447    158.8579    225.3085   6.7797278853e+01   6.8628821841e+00    0.1922296    0.1718006 -38.58  0.001160361    1.367    0.268
       102 -12.7447    206.9117    218.2003   5.7619850816e+01   1.9743724192e+00    0.9094571    0.4802285  -4.66   0.00463468    2.441    0.590
       103 -13.3768    183.9400    217.2422   6.1648113086e+01   4.9132625045e+00    0.7321951    0.5049853  -9.05  0.004540119    1.378    0.274
       104 -11.1094     50.5441    218.2140   9.1657913717e+01   2.2059859826e+01    0.3810042    0.2266747  29.41  0.002065378    1.501    0.334
       105 -10.3024    116.8507     17.5205   2.4731119748e+01   5.3258323847e+01    0.2355862    0.1795039 -59.74  0.001295434    1.352    0.260
       106  -9.6935     94.2118     17.0817   2.9028337233e+01   5.8976636731e+01    0.2657202    0.1671022 -81.02  0.001180976    2.087    0.521
       107  -9.9787    247.5090     16.0186   1.2413598900e+01   2.4280309246e+01    0.1776216   0.04288799 -47.65 0.0008105221    2.646    0.622
       108  -9.7965     64.6354     16.3155   3.7124838367e+01   6.6078609698e+01    0.1348393    0.1039688 -76.41 0.0007039993    1.768    0.434
       109  -9.9050     20.2557     15.4063   5.9759284861e+01   7.4551762446e+01     0.351608    0.1851734   4.24  0.001353764    3.645    0.726
       110 -10.5425     67.6804    217.0357   8.7406083019e+01   2.0313486159e+01    0.2581158    0.1499031  48.76  0.001341527    1.581    0.367
       111 -11.4679    240.4775    229.4920   5.3879864438e+01  -3.0912414428e+00     0.231568    0.1738556  21.66  0.001800346    1.511    0.338
       112  -9.9601    141.3013    206.9762   6.8795507142e+01   1.2385509803e+01    0.1834189    0.1644266 -14.78 0.0008107504    1.119    0.107
       113 -12.3531    248.3083    185.8320   4.5646442059e+01   1.6042332594e+00     1.093683     0.392569 -42.69  0.005172837    2.946    0.661
       114 -12.3852    244.1088    200.5321   4.8737691669e+01   1.4034657243e-01    0.7080875    0.4972047 -25.05  0.004451192    1.181    0.153
       115 -11.3863    247.0326    192.7090   4.7000801391e+01   8.3950966643e-01    0.3884617    0.3048471  -7.25  0.001953231    1.119    0.106
       116  -9.7418     23.6847    198.3275   9.6927072792e+01   2.9270104339e+01    0.1424008   0.07668247  56.70 0.0005074455    1.673    0.402
       117 -10.0141    202.9599    197.0235   5.4830460624e+01   5.5471535565e+00    0.2207981    0.1554803 -28.63 0.0008693964    1.267    0.211
       118 -10.3237    204.9761    192.8853   5.3759474113e+01   5.9135867481e+00    0.3488822    0.1601849  25.82  0.001687151    2.406    0.584
       119 -10.9217    195.9236    184.9881   5.3982287998e+01   8.3824746945e+00    0.3618082    0.2486262 -47.52  0.002076301    1.691    0.409
       120 -10.1125     37.0211    185.4905   9.2430495752e+01   3.0974673230e+01    0.2064655    0.1252738  27.76  0.001035412    1.598    0.374
       121  -9.9411     26.4798    180.4960   9.4935322369e+01   3.3255318795e+01    0.1356506    0.1164146  63.80 0.0008102593    1.019    0.019
       122 -10.0016     14.6330    159.8197   9.6799635689e+01   3.9523072799e+01    0.2027239    0.1132298  84.84 0.0009542087    1.739    0.425
       123 -10.6724    219.7743    155.7788   4.4428327017e+01   9.6168874421e+00    0.3045883    0.2458426 -87.64  0.001775738    2.278    0.561
