#   1 NUMBER                 Running object number                                     
#   2 MAG_AUTO               Kron-like elliptical aperture magnitude                    [mag]
#   3 X_IMAGE                Object position along x                                    [pixel]
#   4 Y_IMAGE                Object position along y                                    [pixel]
#   5 X_WORLD                Barycenter position along world x axis                     [deg]
#   6 Y_WORLD                Barycenter position along world y axis                     [deg]
#   7 A_WORLD                Profile RMS along major axis (world units)                 [deg]
#   8 B_WORLD                Profile RMS along minor axis (world units)                 [deg]
#   9 THETA_WORLD            Position angle (CCW/world-x)                               [deg]
#  10 FWHM_WORLD             FWHM assuming a gaussian core                              [deg]
#  11 ELONGATION             A_IMAGE/B_IMAGE                                           
#  12 ELLIPTICITY            1 - B_IMAGE/A_IMAGE                                       
         1 -16.2945    244.8715    132.0381   5.3641212368e+01   7.2516091095e+00     14.19559     1.162463 -39.45   0.02703011   10.856    0.908
         2 -15.3016    230.2323    198.1703   6.9276290506e+01  -1.6934362421e+00     3.117577     2.243204 -43.26   0.01818001    1.524    0.344
         3 -11.7915     24.7150     77.9266   9.9076022330e+01   5.8634167780e+01    0.9431234    0.2507645 -53.15  0.003598403    2.733    0.634
         4 -10.7095      4.8413     40.1917   9.7803505329e+01   6.7884620317e+01    0.4023487    0.1473558 -62.86  0.001695347    3.336    0.700
         5 -12.6290    174.7162    180.8283   7.7044562645e+01   1.0494237581e+01    0.8147053    0.4364852 -25.28    0.0031288    2.575    0.612
         6  -9.9589     72.2307    227.2668   1.0825984115e+02   1.7083945588e+01    0.1950836    0.1023044 -82.79 0.0008879686    2.397    0.583
         7 -10.3265    162.6904    225.2577   8.7734468081e+01   3.8925584563e+00    0.2950696    0.1915924 -15.74  0.001444374    1.960    0.490
         8 -10.1470     99.5115    225.5616   1.0192692172e+02   1.3610049002e+01    0.2240841    0.1974704 -74.67  0.000985885    1.230    0.187
         9 -10.1811    182.9693    222.4562   8.2956848367e+01   1.2530453479e+00    0.2090765    0.1679551 -30.23  0.001239944    1.265    0.210
        10 -10.1701    148.7274    222.2041   9.0310446613e+01   6.6642696129e+00    0.3017649    0.1171836 -47.85  0.001203193    2.767    0.639
        11  -9.9151    114.4929    222.9633   9.8167743090e+01   1.1893251575e+01    0.1944022    0.1359565 -58.91  0.001031301    1.586    0.370
        12 -10.5296    154.6464    240.0678   9.1743524831e+01   2.4852963638e+00    0.2637862     0.123602 -48.44  0.001226313    2.426    0.588
        13 -11.2160    170.3831    177.3947   7.7319900686e+01   1.1978296996e+01      0.46928    0.2754765 -27.29   0.00196695    2.047    0.511
        14 -11.9237    204.1141    217.8663   7.7854784711e+01  -1.1415361131e+00    0.3279416    0.2096379 -16.87  0.001634301    1.634    0.388
        15 -11.5081    203.0799    196.9117   7.4215548167e+01   2.6283938504e+00    0.3161646    0.1940556 -41.76  0.001026536    1.618    0.382
        16 -10.7870    124.3360    196.2354   9.1754065049e+01   1.6041089287e+01    0.3621565    0.3114456 -80.78  0.001960773    1.343    0.256
        17 -10.4448    193.3100    195.2496   7.5886723776e+01   4.5069402231e+00    0.3058376    0.1758736 -35.47  0.001252878    1.691    0.409
        18 -10.4873    186.4904    192.2303   7.6735012817e+01   6.2069248069e+00    0.3446669    0.1301907 -41.14  0.001298549    2.604    0.616
        19 -10.7125    199.9247    189.9800   7.3516338376e+01   4.3937692496e+00    0.3454516    0.1760538 -30.97  0.001499498    2.052    0.513
        20 -10.0538    179.4784    189.9849   7.7804094257e+01   7.8336844222e+00    0.2158623    0.1359676 -41.46 0.0009033273    1.573    0.364
        21 -10.7869    210.3664    188.5252   7.1160165243e+01   2.9661633804e+00    0.2572694    0.1587493 -41.22 0.0008568622    1.567    0.362
        22 -10.6538    138.8552    187.1619   8.6617481959e+01   1.5554191549e+01    0.4509897    0.1793725 -45.01  0.001631373    2.608    0.617
        23 -12.1593    210.8509    217.2652   7.6425902022e+01  -2.0231526130e+00    0.2528997    0.2076104 -20.58  0.001426464    1.147    0.128
        24 -10.4544    129.0309    186.2886   8.8865043826e+01   1.7467431319e+01    0.4271439    0.1668497 -44.98  0.001512124    2.719    0.632
        25 -10.2386    192.5280    186.7268   7.4395867658e+01   6.2342009507e+00    0.2686272     0.128326 -37.80  0.001128657    2.041    0.510
        26 -11.2553    165.2957    184.8236   7.9949611054e+01   1.1356405378e+01    0.4696359    0.2616623 -44.18  0.002059196    1.799    0.444
        27 -10.5926     95.4193    187.1452   9.7512516043e+01   2.2840408444e+01    0.2956833    0.1729869  63.59  0.001203079    2.315    0.568
        28 -10.0269    156.2851    183.5886   8.1786003186e+01   1.3226338835e+01    0.5731471    0.1030903 -43.66  0.001352027    6.031    0.834
        29 -10.5555    120.3328    185.1471   9.0832373672e+01   1.9227306151e+01    0.3802885    0.1452421 -63.88  0.001094185    4.366    0.771
        30 -10.6785    183.0253    182.4978   7.5565787883e+01   8.6895591973e+00    0.3764656    0.1955037 -42.52  0.001626896    1.882    0.469
        31  -9.5491      6.3365    184.6662   1.1949899509e+02   3.3998790943e+01    0.1347381   0.07390846  64.72 0.0005610509    1.742    0.426
        32 -10.0717    197.2850    181.9270   7.2463250184e+01   6.3359460480e+00    0.2098453    0.1667356 -27.07  0.001145993    1.166    0.143
        33 -11.3877    147.8273    177.2743   8.2555008784e+01   1.6124540267e+01    0.5384299    0.2919488 -35.56  0.002163017    2.102    0.524
        34 -10.9753    137.9857    177.3777   8.4977863036e+01   1.7891083062e+01    0.4087625    0.2166467 -45.88  0.001679402    1.909    0.476
        35 -11.1281    192.2245    176.0713   7.2321811467e+01   8.3324255706e+00    0.4089136    0.2274714 -33.77  0.001659981    1.791    0.442
        36 -11.6319    183.1595    174.4111   7.3898365556e+01   1.0273013435e+01    0.5140507    0.2976878 -31.22  0.001622755    1.829    0.453
        37 -11.1154    185.0847    166.0469   7.1740689634e+01   1.1602256579e+01    0.4599366    0.2533324 -37.59  0.001447612    1.765    0.433
        38 -11.6389    218.3164    175.3554   6.7031003570e+01   4.0410859695e+00    0.3035994    0.1668682 -35.56  0.001040645    1.648    0.393
        39 -10.1277     77.3476    175.6541   1.0046458906e+02   2.8350249622e+01    0.1575988    0.1044865  67.94  0.000704274    1.806    0.446
        40 -10.1556    143.8667    215.9241   9.0401321659e+01   8.6683139428e+00    0.2142847    0.1816063  -3.33  0.001194766    1.244    0.196
        41  -9.6141    142.2835    171.3488   8.2723004952e+01   1.8464197148e+01    0.1565094    0.1168266 -14.85 0.0007017432    1.651    0.394
        42 -10.6699    199.1527    168.7779   6.9398984604e+01   8.5198916758e+00    0.3188784    0.1885124 -34.41  0.001095106    1.616    0.381
        43 -10.1376    111.5740    215.7707   9.7834905357e+01   1.3847958648e+01    0.2458202    0.1310074 -52.91  0.001123474    2.006    0.501
        44 -10.3828    167.8233    166.9110   7.5731894414e+01   1.4647402409e+01    0.4067707     0.183313 -37.62  0.001501803    2.360    0.576
        45 -10.7336    149.5519    167.7182   8.0201454032e+01   1.7920060315e+01    0.2995119    0.1425412 -42.92  0.001137446    2.120    0.528
        46 -11.2096    198.9805    214.2401   7.8236530636e+01   2.3355184638e-01    0.2359281    0.1786472 -28.28 0.0008625328    1.262    0.208
        47 -11.9431    192.3102    163.2713   6.9635163054e+01   1.0826474555e+01    0.6151199    0.2526292 -40.83  0.002241367    2.307    0.567
        48 -10.8940    138.6458    162.1990   8.1746808401e+01   2.1227809718e+01    0.6461558    0.2369806 -51.08  0.002131975    2.811    0.644
        49 -10.1948     79.9891    163.9891   9.7859882038e+01   3.0880600275e+01    0.3077447    0.1574598  68.38 0.0009471475    4.036    0.752
        50 -10.3292    193.4185    220.3233   8.0435549077e+01   3.5775272527e-02    0.2417921    0.1180176 -36.85  0.001124247    2.064    0.515
        51 -10.2203    159.5343    162.1844   7.6646426422e+01   1.7239434933e+01    0.3807236    0.1436188 -43.61  0.001296719    2.621    0.618
        52 -10.7494    151.5746    159.4494   7.7959831133e+01   1.9375607307e+01    0.4340772    0.1476185 -47.19   0.00139283    2.911    0.656
        53 -10.8784    177.5678    158.0817   7.1654982383e+01   1.4645675666e+01    0.5066155    0.2341804 -37.16  0.001920962    2.225    0.551
        54 -11.2330    197.8950    135.4447   6.2379214074e+01   1.5245008638e+01    0.5882422    0.2167318 -38.83  0.002075697    2.594    0.615
        55 -11.6249    196.6278    156.1735   6.7231316813e+01   1.1427187405e+01    0.5504087    0.3426062 -29.51  0.002525702    1.649    0.394
        56 -11.0291    203.3059    140.5397   6.2486859407e+01   1.3207605530e+01    0.8258728    0.3565679 -24.16  0.002054338    6.283    0.841
        57 -11.6061    200.1779    146.5559   6.4424123239e+01   1.2639844362e+01    0.7132965     0.361345 -38.40   0.00301665    1.845    0.458
        58 -11.3113    196.1846    142.6751   6.4346198196e+01   1.4164433315e+01    0.3869554    0.2799115  32.46  0.001010534    1.518    0.341
        59 -11.9695    189.6626    147.9347   6.6840130450e+01   1.4383956247e+01    0.7350837    0.3030877 -38.27  0.002152631    2.382    0.580
        60 -10.9763    192.7603    138.0292   6.3977701665e+01   1.5752439665e+01    0.6252015    0.2691762 -43.25  0.002339083    2.174    0.540
        61  -9.6998    128.0000    157.9956   8.3598268117e+01   2.4211725952e+01     0.259401   0.08753069 -50.77 0.0008045222    2.957    0.662
        62 -10.6956    188.2906    156.2302   6.8954206324e+01   1.2979714737e+01    0.3334318    0.1910165 -37.32  0.001354987    1.678    0.404
        63 -11.3994    204.5879    153.7646   6.5140261556e+01   1.0425996282e+01    0.4431934    0.2471257 -29.38  0.001292604    1.909    0.476
        64 -14.2439    212.4528    164.3030   6.5869851955e+01   7.0395500955e+00     1.872702    0.5152965 -35.47  0.005504184    4.253    0.765
        65 -10.5950    167.7578    154.3944   7.3039513088e+01   1.7324885830e+01    0.5019464    0.1901006 -38.47  0.001655465    2.844    0.648
        66 -11.5415    223.5740    152.0991   6.1284571344e+01   7.3573907040e+00    0.5830362    0.1443602 -43.16  0.001836203    3.680    0.728
        67 -12.3459    223.3810    145.3092   5.9881854245e+01   8.6215530423e+00    0.6779531    0.2956439 -27.00  0.002373317    3.300    0.697
        68 -10.0353    157.4917    154.5056   7.5456940246e+01   1.9316675361e+01    0.3281522    0.1485631 -45.49  0.001210895    2.167    0.538
        69 -10.1338     82.1932    154.8085   9.5616838485e+01   3.2867475930e+01    0.2649448    0.1528524  69.61 0.0009537499    2.880    0.653
        70 -10.4068     49.8355    155.2515   1.0502562964e+02   3.7095607495e+01    0.2492449    0.1286298  64.89 0.0009518643    2.798    0.643
        71 -10.1823     68.6424    154.3101   9.9442164231e+01   3.4955255743e+01    0.1552637    0.1072317  66.95   0.00070426    1.735    0.424
        72 -10.1778    144.4919    153.0007   7.8294128034e+01   2.2205947928e+01    0.2466347    0.1505555 -45.41 0.0009869427    1.616    0.381
        73 -10.4611    132.8412    151.0422   8.0834443151e+01   2.4924470485e+01     0.543442     0.210708 -55.66   0.00170559    3.091    0.676
        74 -10.6976     39.9015    147.8435   1.0683553833e+02   4.0079215663e+01    0.4160468    0.1945507  60.77  0.001542597    3.182    0.686
        75 -10.3633    215.3679    147.4927   6.1769094320e+01   9.6499203593e+00    0.2899643    0.1531935 -42.05  0.001103331    1.711    0.416
        76 -10.2616    206.2148    146.7187   6.3298182465e+01   1.1473791575e+01    0.3890312    0.1392867 -34.35 0.0008465765    3.135    0.681
        77 -10.1944    208.4905    143.4972   6.2164812413e+01   1.1662395437e+01     0.280678    0.1922306 -38.94  0.001087183    1.324    0.244
        78 -11.2724     56.2387    145.6475   1.0163847630e+02   3.8789277802e+01    0.4735651      0.26305  72.61  0.001791521    2.899    0.655
        79 -11.3622    148.1319    143.8168   7.5312291593e+01   2.3559751084e+01    0.4990433    0.2546763 -61.02  0.001681716    2.906    0.656
        80 -10.0919    165.5482    142.2124   7.0785022474e+01   2.0376646457e+01    0.3960005    0.1455921 -41.94  0.001310485    2.674    0.626
        81 -10.6282    124.7251    142.7005   8.1119659905e+01   2.8456472975e+01    0.3187763    0.1985174 -73.04  0.001174004    2.526    0.604
        82 -10.3747    182.0461    140.0611   6.6647996714e+01   1.7484026036e+01    0.3269755    0.2116636 -34.64  0.001475804    1.528    0.346
        83 -11.1603    219.5853    135.6805   5.8464928149e+01   1.1060627725e+01    0.4822617    0.2443299 -20.43  0.001653776    3.640    0.725
        84 -10.7694     23.3687    138.2619   1.1042801458e+02   4.4056845348e+01    0.3579587    0.1809406  70.66  0.001466453    2.801    0.643
        85 -10.0975    209.2188    137.0240   6.0602097600e+01   1.2749891755e+01    0.3338289    0.1561584 -29.53  0.001247956    2.585    0.613
        86  -9.7920    171.8163    136.6304   6.8067475760e+01   2.0277788952e+01    0.3083247    0.1127611 -41.30   0.00101783    2.669    0.625
        87 -10.0511     39.3098    136.6346   1.0533294280e+02   4.3003236761e+01    0.1463533   0.09963224  71.89 0.0007038453    1.754    0.430
        88 -10.1401    126.0852    220.7562   9.5201104490e+01   1.0540736279e+01    0.2072651    0.1687441  50.96 0.0005478949    1.238    0.192
        89 -10.0645    187.6252    134.2789   6.4153074062e+01   1.7528030900e+01    0.2891572    0.1344101 -44.57   0.00111783    2.046    0.511
        90 -12.0108    225.7950    132.6762   5.6765234677e+01   1.0470377064e+01    0.4136731    0.2302095 -21.47  0.001721553    2.492    0.599
        91 -10.8746    159.9504    238.6311   9.0404373039e+01   1.9386822039e+00    0.2271612    0.2005879 -53.60  0.001102116    1.411    0.291
        92 -10.3485    179.5077    132.2341   6.5363680581e+01   1.9601902657e+01    0.3885329    0.1435203 -40.09  0.001310767    2.641    0.621
        93 -10.7439     83.6648    132.0834   9.0636228346e+01   3.8374164061e+01    0.3472218    0.2051098  50.22  0.001361661    1.972    0.493
        94 -10.3839    106.7747    145.1566   8.6640320810e+01   3.1207382637e+01    0.2701908    0.1710857  76.48 0.0009554211    2.899    0.655
        95 -10.1500    182.1001    149.3032   6.8733219736e+01   1.5579246503e+01    0.2831674    0.1919104 -32.24  0.001310254    1.478    0.323
        96 -10.4485    204.5192    129.5342   5.9784442781e+01   1.5076924088e+01    0.3053903    0.1318616 -41.32  0.001193132    2.110    0.526
        97 -10.3923    192.9515    128.6841   6.1788470009e+01   1.7555529869e+01    0.3369455    0.1949003 -32.57  0.001445489    1.786    0.440
        98 -10.7199    221.1922    128.2897   5.6576938931e+01   1.2108068318e+01    0.3404537    0.1746159 -26.53   0.00137096    2.447    0.591
        99 -10.4892    152.3765    127.7643   7.0441502952e+01   2.6240255641e+01    0.4745207    0.1392657 -50.73  0.001248824    4.231    0.764
       100 -10.6921     99.1222    128.0242   8.5010845399e+01   3.6769282410e+01    0.3745057    0.2449955  88.20   0.00136883    2.817    0.645
       101 -10.6182     12.6106    128.8941   1.1248906037e+02   4.7220688783e+01     0.272396    0.1488375 -88.99  0.001299925    1.945    0.486
       102  -9.5957    186.4803    128.5049   6.3037697351e+01   1.8915740570e+01    0.1500372    0.1398382 -26.16 -1.829382e-05    1.040    0.038
       103 -10.3148    168.3945    127.4448   6.6636709952e+01   2.2915779545e+01    0.3567545    0.1440637 -41.32  0.001239568    2.412    0.585
       104 -11.7812    185.8564    213.6638   8.0829028705e+01   2.3534262421e+00    0.4819166    0.2490561 -45.77  0.002241233    2.080    0.519
       105 -10.8515     59.6970    124.7093   9.6689065085e+01   4.3691687159e+01    0.4586509    0.2633249  77.60  0.001602881    3.489    0.713
       106  -9.9223    211.7056    128.5207   5.8259238974e+01   1.3867019772e+01    0.2653578     0.117174 -40.68  0.001066488    2.036    0.509
       107 -11.3979     44.0579    123.0685   1.0150510349e+02   4.5955679845e+01    0.5696952    0.3177204  78.09  0.002139205    3.195    0.687
       108 -11.2990     29.2481    123.5072   1.0644075553e+02   4.7286181627e+01     0.441489    0.2288955  75.28  0.001681444    3.265    0.694
       109 -10.5188    179.8231    122.8174   6.3051087931e+01   2.1444410961e+01    0.4014655    0.1998946 -31.91  0.001498697    2.322    0.569
       110  -9.9340    188.4799    122.9550   6.1324400410e+01   1.9599566279e+01    0.2364534    0.1393718 -41.69  0.001032122    1.591    0.372
       111  -9.8207    194.6328    120.8547   5.9631393776e+01   1.8731388309e+01    0.2252989    0.1261403 -49.50 0.0009531539    1.798    0.444
       112  -9.9730    172.5145    119.7260   6.3845844643e+01   2.3627816003e+01    0.3027713    0.1458582 -37.54  0.001142952    2.097    0.523
       113 -10.9395    141.9020    119.4205   7.0946580310e+01   3.0288125782e+01    0.4204944    0.2138205 -62.21  0.001319203    3.358    0.702
       114 -10.4833      2.7308    116.3912   1.1402577220e+02   5.0910617337e+01    0.4513061     0.163993 -88.69  0.001527497    4.139    0.758
       115 -11.9347    188.2775    208.9794   7.9485741301e+01   2.8110601184e+00    0.3210834    0.2607875 -20.46  0.001560441    1.166    0.142
       116 -10.0514    185.6897    114.4552   5.9836010753e+01   2.1847765817e+01      0.28033    0.1302536 -40.35  0.001083987    2.040    0.510
       117  -9.9045    192.6949    113.5598   5.8267681577e+01   2.0531685102e+01    0.2738933    0.1261063 -41.08  0.001073973    2.024    0.506
       118 -10.8440     79.4216    112.9317   8.7560058743e+01   4.3764721361e+01    0.3968389    0.2540455 -89.14  0.001463825    2.987    0.665
       119 -10.4135     92.8214    112.9984   8.3265786543e+01   4.1497986325e+01    0.2493395    0.1824723 -83.55 0.0006670408    1.979    0.495
       120 -10.3969     66.4935    110.9834   9.1409476329e+01   4.6180461063e+01    0.2067004    0.1308552 -83.96 0.0008104434    2.561    0.609
       121 -10.8486     14.1508    109.8695   1.0932507095e+02   5.1834583746e+01    0.4005822     0.214284 -85.05  0.001861154    2.132    0.531
       122  -9.9708    174.5379    109.7282   6.0930069888e+01   2.5187449548e+01    0.3043019     0.145282 -36.23  0.001148387    2.159    0.537
       123  -9.5739    182.6119    108.2058   5.8912415658e+01   2.3717449787e+01    0.2156558    0.1381083 -31.97 0.0009545941    1.639    0.390
       124 -12.1012    193.0391    209.7953   7.8647243610e+01   1.9177922931e+00    0.3142908    0.2590688 -39.61  0.001852934    1.325    0.245
       125 -12.1638     45.7885    102.3501   9.6676603111e+01   5.0896871480e+01    0.7556927    0.4221698  70.68  0.002560798    4.304    0.768
       126 -11.6686     22.2162    100.9215   1.0495382135e+02   5.3447458750e+01    0.8617203    0.4340841  88.49  0.003228126    3.589    0.721
       127 -10.5116    150.0000    102.9978   6.4647812488e+01   3.1985062502e+01    0.2616683   0.08676142 -41.83 0.0008075473    2.978    0.664
       128 -12.0471    185.8971    203.4621   7.8977737147e+01   4.1975101443e+00    0.4767113    0.2957496 -40.19  0.001482496    1.610    0.379
       129  -9.9718     82.3267    100.6446   8.3428659447e+01   4.6187148827e+01    0.1517912    0.1205239  81.42 0.0007045791    1.773    0.436
       130 -10.8641    108.7382     98.8622   7.4551252065e+01   4.1707686643e+01    0.2934357    0.2051464  68.66   0.00122967    2.090    0.521
       131 -11.4374     64.0733     96.3015   8.8594800022e+01   5.0016550379e+01    0.4258042    0.2895774  71.31  0.001815697    2.530    0.605
       132  -9.8165    154.4861    213.9855   8.7688501046e+01   7.3244767048e+00     0.205985    0.1363782 -45.30    0.0010384    1.609    0.379
       133 -10.1725     43.6498     92.6806   9.5203178696e+01   5.3433201770e+01    0.1507654   0.09357354 -28.01 0.0007048122    1.740    0.425
       134 -10.4172    124.5076     91.0142   6.7794683499e+01   4.0052217888e+01    0.2173743    0.1329376 -64.49 0.0008101594    2.513    0.602
       135 -11.1050     34.7200     88.1290   9.7530660413e+01   5.5414319704e+01    0.7160717    0.2292923 -61.61  0.002553059    3.088    0.676
       136 -10.3639      4.4885     90.0254   1.0957313888e+02   5.7162145003e+01    0.3535376    0.1057732 -68.45  0.001382685    2.809    0.644
       137 -11.4133     49.0507     84.9185   9.1148740728e+01   5.4593722298e+01    0.4583478    0.2840432  69.13  0.001752649    3.618    0.724
       138 -10.4050     86.4622     86.9427   7.8146897396e+01   4.8508402311e+01     0.201328    0.1334167 -71.30 0.0008082957    2.473    0.596
       139 -10.3093    104.5193     83.0234   7.1172465747e+01   4.5865611580e+01    0.2124305     0.132295 -65.29 0.0008103419    2.593    0.614
       140  -9.7923     92.0000    236.9736   1.0495520586e+02   1.2359871869e+01    0.1943569   0.07353473 -62.21 0.0008041988    2.955    0.662
       141 -10.5788     76.5604    212.2573   1.0560454980e+02   1.9778545513e+01    0.2542441    0.1312529 -71.50  0.001152126    2.129    0.530
       142 -10.5212     82.4783     72.9723   7.5167494271e+01   5.2080682701e+01     0.197834    0.1293012 -66.92  0.000810178    2.571    0.611
       143 -10.2671    177.0048    209.0161   8.1879250948e+01   4.6082823418e+00     0.284741    0.1855375 -41.63  0.001452129    1.578    0.366
       144 -11.1054     51.4893     69.6557   8.5746105884e+01   5.7583186782e+01    0.4227585    0.2314317 -66.80  0.001640151    3.264    0.694
       145 -10.7463     16.5439     69.2793   1.0039684041e+02   6.1169086328e+01    0.3223208    0.0999217 -58.20   0.00130836    2.597    0.615
       146 -10.7565     37.0337     63.5570   8.9887529797e+01   6.0565649305e+01    0.2501568    0.1855805 -64.52  0.001388286    1.680    0.405
       147 -10.9057    116.4017    208.4764   9.5624400710e+01   1.4653515912e+01    0.4274993    0.2210587 -48.85  0.001886188    2.064    0.516
       148 -10.6982     73.4259     59.7632   7.3947134291e+01   5.6161289212e+01    0.2629377    0.1315254 -45.76   0.00113392    2.128    0.530
       149 -12.1177    205.8789    207.0203   7.5549087220e+01   4.2436554455e-01    0.3789648    0.2039802 -39.21  0.001494372    1.800    0.444
       150 -10.9166      7.0000     56.0044   1.0129807751e+02   6.4602564243e+01    0.3205307    0.1590298 -64.98  0.001625173    2.060    0.514
       151 -10.5507     63.0000     54.9665   7.6193988749e+01   5.8748102652e+01    0.2192239   0.07359178 -42.95 0.0008016019    2.937    0.659
       152 -10.7017     54.4075     54.1381   7.9350447376e+01   6.0198788742e+01     0.299594    0.1256651 -52.66  0.001138227    3.203    0.688
       153 -10.1993     44.3095     54.8949   8.3889008077e+01   6.1422903417e+01    0.2570984    0.1169371 -53.46  0.001090916    2.568    0.611
       154 -10.5292     30.8225     50.7534   8.8510689308e+01   6.3754386782e+01    0.4216988    0.1799297 -60.81  0.001584277    3.858    0.741
       155 -13.6783    205.1826    175.8882   6.9659698792e+01   6.1278613078e+00     2.881052    0.3429163 -40.57  0.005918818    8.687    0.885
       156 -10.5479     45.0701     49.4733   8.1628681556e+01   6.2327371159e+01    0.2013033    0.1573875 -26.34 0.0004837837    1.138    0.121
       157 -10.4299     17.0000     41.0181   9.1843950177e+01   6.6867613904e+01    0.3640437   0.07160747 -43.00  0.001298263    3.761    0.734
       158 -10.2921     58.3168     42.6587   7.3446950573e+01   6.1578628433e+01    0.1188367    0.1089223  88.72 0.0007048673    1.710    0.415
       159 -10.0227    144.5785    231.7883   9.2693694329e+01   5.5076626384e+00    0.2343583    0.1278734 -46.27  0.001135496    2.024    0.506
       160 -10.1183     69.3232     41.6512   6.8772574923e+01   5.9896350096e+01    0.1235705    0.1099083 -85.28 0.0007049115    1.746    0.427
       161 -12.3566    198.6202    203.4425   7.6342301957e+01   2.1696080850e+00    0.4660014    0.2461891 -42.58  0.001655596    1.900    0.474
       162 -11.1235    162.4017    192.2913   8.2041132419e+01   1.0329831953e+01    0.4136067    0.2696959 -40.74  0.001800211    1.551    0.355
       163 -11.7991    177.2127    169.7181   7.4218760937e+01   1.2309551676e+01    0.5031102    0.3030745 -32.41  0.001719475    1.733    0.423
       164 -10.6314     27.7131     29.5800   8.2011683088e+01   6.7816262730e+01    0.3874985   0.09840489 -33.84  0.001187449    5.479    0.817
       165 -10.7640    172.0826    195.4975   8.0475076610e+01   8.0171343759e+00    0.2160939    0.1343339  35.10 0.0008791701    1.557    0.358
       166 -12.3960    165.2640    199.6310   8.2757856792e+01   8.3586660021e+00    0.9812211     0.448837 -31.37  0.003592883    2.988    0.665
       167  -9.3907     40.7430     21.6076   7.2178687754e+01   6.7342813191e+01    0.1284133    0.0797748  -4.41 0.0006964649    1.693    0.409
       168 -11.6602    172.4407    190.0672   7.9362870744e+01   9.0336405791e+00    0.4031848    0.3140096 -33.24  0.001453881    1.265    0.210
       169 -10.0310     40.9253     14.2915   6.8672911662e+01   6.8262006970e+01    0.1708274    0.1248415  18.22 0.0003372376    1.134    0.118
