#   1 NUMBER                 Running object number                                     
#   2 MAG_AUTO               Kron-like elliptical aperture magnitude                    [mag]
#   3 X_IMAGE                Object position along x                                    [pixel]
#   4 Y_IMAGE                Object position along y                                    [pixel]
#   5 X_WORLD                Barycenter position along world x axis                     [deg]
#   6 Y_WORLD                Barycenter position along world y axis                     [deg]
#   7 A_WORLD                Profile RMS along major axis (world units)                 [deg]
#   8 B_WORLD                Profile RMS along minor axis (world units)                 [deg]
#   9 THETA_WORLD            Position angle (CCW/world-x)                               [deg]
#  10 FWHM_WORLD             FWHM assuming a gaussian core                              [deg]
#  11 ELONGATION             A_IMAGE/B_IMAGE                                           
#  12 ELLIPTICITY            1 - B_IMAGE/A_IMAGE                                       
         1 -14.7106     67.7950     42.6465   6.7771164290e+01   5.9900239451e+01     1.986839      1.12697  40.39     0.009954    1.676    0.403
         2 -14.3469     30.4224     11.8203   7.0296660253e+01   6.9967386221e+01     1.773827    0.9459981  12.95   0.00940585    2.083    0.520
         3 -11.6532     25.6133      4.4475   6.8962664013e+01   7.1488752057e+01    0.4893342    0.2290825  12.41  0.001671218    3.037    0.671
         4 -14.3829      6.7839     23.4243   8.8524962275e+01   7.0842772040e+01     1.861204    0.7455881 -37.28  0.009687794    2.049    0.512
         5 -10.9261     64.0332     17.6220   5.8813448483e+01   6.3863130088e+01     1.021386    0.4329968  37.12  0.004728878    2.167    0.538
         6 -11.6221     73.4805      1.4781   4.8766330859e+01   6.3538539971e+01     0.564823    0.1582101  58.38  0.002114829    3.233    0.691
         7 -13.4677     75.5611     13.7909   5.3367830089e+01   6.2041374094e+01    0.6098474    0.5333504  72.43  0.003993876    1.455    0.313
         8 -14.7998     85.5457     11.2725   4.9479626692e+01   6.0230842896e+01     2.723799    0.9576015  46.27   0.01187957    2.314    0.568
         9 -11.9693    115.4573     11.6094   4.2770683375e+01   5.3608810584e+01    0.4315957     0.217777 -29.28  0.002175945    2.219    0.549
        10 -12.0154    124.2768     11.4366   4.1081455187e+01   5.1595580829e+01    0.4074142     0.250975  63.17  0.001127217    1.380    0.276
        11 -11.4170    120.0676      7.6352   4.0593425203e+01   5.2894949943e+01    0.2403608    0.1884691 -20.99 0.0006892965    1.498    0.333
        12 -11.6110    242.2258     10.3600   2.8085713053e+01   2.5693178387e+01    0.2169247    0.1337309 -57.89 0.0004940919    1.284    0.221
        13 -10.6263    150.8316      8.8736   3.6241568161e+01   4.5637518695e+01    0.1929492    0.1499728  54.35 0.0008919017    1.256    0.204
        14  -9.9425     56.3777      8.7891   5.7612221098e+01   6.6172313576e+01    0.1628161     0.102485  -3.66 0.0009347232    1.698    0.411
        15 -11.5010    137.5547      5.2388   3.7037965892e+01   4.9046439657e+01    0.3823091    0.1951356  71.43  0.001409034    1.715    0.417
        16 -11.1031      6.4916      2.9813   7.9074769124e+01   7.3896027260e+01    0.3098014    0.1616278  -7.42  0.001626291    1.997    0.499
        17  -9.7007    212.2873      1.3341   2.8369831356e+01   3.2627381105e+01    0.1023687   0.08398055  50.11 0.0003544202    1.626    0.385
        18 -13.0142     41.0321     81.6090   9.1550260794e+01   5.6309763184e+01    0.4377852    0.2816574  20.25  0.002128038    1.660    0.398
        19 -14.4356    117.9827     71.7142   6.2023063686e+01   4.5024814141e+01     1.344748    0.8267125  -9.68  0.005144693    2.812    0.644
        20 -14.3177    108.6677     71.8189   6.4650733328e+01   4.7022370358e+01    0.8066453    0.7272922 -21.83  0.004462645    1.122    0.109
        21 -13.7929     83.2881     74.7831   7.3593961991e+01   5.1496626739e+01    0.9504044    0.4723335  28.20  0.003707265    2.438    0.590
        22 -14.7067     95.8501     72.6085   6.8768108603e+01   4.9517537144e+01     1.270486    0.7577081  50.90  0.005651062    1.829    0.453
        23 -13.4637    150.8180     73.1783   5.4594434654e+01   3.7282552490e+01    0.5772344    0.3891308 -20.87  0.002633559    1.880    0.468
        24 -13.8895    135.9521     74.8353   5.8416216570e+01   4.0428960587e+01     0.611033    0.4862752  -8.58  0.002212293    1.541    0.351
        25 -12.9397    165.2061     73.4003   5.1762992727e+01   3.3901795635e+01    0.5847774    0.4233871  75.44  0.002891427    1.537    0.350
        26 -13.8655     81.0629     67.2971   7.1900459431e+01   5.3336680581e+01    0.6226078    0.3479349  33.27   0.00278856    1.821    0.451
        27 -14.2177     85.8353     61.2109   6.8209990562e+01   5.3542075104e+01    0.7766749    0.5756607  15.47  0.003999611    1.464    0.317
        28 -11.3361     84.8281     56.6808   6.6966779108e+01   5.4511163340e+01    0.2689453    0.2192474 -27.76  0.000464442    1.233    0.189
        29 -14.6367     62.6144     72.2763   8.0270286303e+01   5.5460793073e+01     1.245027    0.7980622   7.11   0.00579045    1.950    0.487
        30 -12.8238      8.9445     64.1486   1.0063711420e+02   6.2908015788e+01    0.4500734    0.2784905 -38.68  0.002103508    1.317    0.241
        31 -13.8446     21.4899     57.9144   9.3150116575e+01   6.3293773401e+01    0.8016963    0.4297361  -0.81  0.003956636    2.190    0.543
        32 -14.1007     27.8925     54.8677   8.9224222771e+01   6.3310139692e+01     1.220815    0.3063016 -47.99  0.004561319    3.168    0.684
        33 -11.8493    103.5837     63.3630   6.3387433250e+01   4.9588726983e+01    0.2883207    0.2828823 -83.74  0.001050782    1.158    0.136
        34 -10.9442    170.1323     62.6716   4.7992879159e+01   3.4484311020e+01    0.2649792    0.2014725 -68.67 0.0005020061    1.408    0.290
        35 -11.1666    165.9733     62.9624   4.8804278567e+01   3.5408416023e+01    0.2450972    0.1993726  47.76 0.0003586942    1.289    0.224
        36 -10.9641    214.7171     60.9207   4.1034495410e+01   2.4802927014e+01    0.2534795    0.1790262 -33.76  0.001161266    1.494    0.331
        37 -14.2231    141.9550     76.2331   5.7421714571e+01   3.8804075051e+01    0.7583348    0.5696377  29.62  0.002755487    1.550    0.355
        38 -12.6732     92.8360     56.6990   6.4386063304e+01   5.2926657914e+01    0.4273002    0.2943821 -43.54 0.0007492914    1.584    0.369
        39 -11.1506    147.4930     58.4771   5.1070009255e+01   4.0436962816e+01    0.1408457    0.1338177  69.32 0.0001262065    1.009    0.009
        40 -11.9724    124.5224     57.6616   5.5927945048e+01   4.5902335636e+01    0.3592553    0.1751874  44.91  0.001292513    2.002    0.501
        41 -11.1172    174.5543     56.5159   4.5629023260e+01   3.4385679450e+01    0.2465835    0.2114147 -68.48  0.001427983    1.127    0.113
        42 -12.4253    132.6720     53.6123   5.2763161570e+01   4.4638790898e+01    0.5443009    0.2508947  60.74  0.002175911    2.255    0.557
        43 -12.9024     68.4175     54.8286   7.2105785803e+01   5.7809515563e+01    0.3594515    0.2950004  58.89  0.001517346    1.645    0.392
        44 -11.2918    224.4948    199.5126   6.9028937718e+01  -1.1859814419e+00    0.1330811    0.1081553 -13.56 1.639585e-05    1.022    0.021
        45 -12.2925     78.2245     30.5889   5.9374306624e+01   5.9633969191e+01    0.6616291    0.4364725  71.57  0.003131561    2.574    0.612
        46 -14.5218     42.1144     47.7956   8.0269839197e+01   6.3002033240e+01     1.405043     0.752659   5.48  0.004960551    2.656    0.623
        47 -13.9601     42.0755     42.9509   7.8447447370e+01   6.3845806283e+01     1.145984    0.4043202  25.85  0.003893802    3.416    0.707
        48 -10.0241    208.8494     55.3407   4.0495222355e+01   2.6862481893e+01    0.1759775    0.1105448  56.33 0.0004304321    1.711    0.416
        49 -11.2838    246.8061    183.1630   6.2037960952e+01  -1.5924770532e+00    0.1894573    0.1513769 -34.11 0.0006868661    1.184    0.155
        50 -12.9832    232.9207    163.7258   6.0552636505e+01   3.7610840965e+00    0.4525595    0.4102784  37.70  0.002209143    1.336    0.251
        51 -13.2362      2.9634     46.4265   9.8668228703e+01   6.6912969668e+01    0.6236656    0.5033228  67.66  0.003506626    1.995    0.499
        52 -12.6090    248.4599    153.6723   5.6038751302e+01   3.1095092936e+00    0.4280969    0.3502483 -35.27  0.002728387    1.059    0.056
        53  -9.7249    213.2682     50.6826   3.8915551934e+01   2.6576527004e+01    0.1325193   0.08354107 -64.21  0.000208262    1.556    0.357
        54 -11.9423     98.0130     46.8763   5.9375032945e+01   5.3380603409e+01    0.4282794    0.1866165  45.89  0.001558508    2.105    0.525
        55 -11.0539    116.0390     45.3106   5.4002390755e+01   4.9651268322e+01    0.1965833    0.1672496  50.39 0.0003596943    1.089    0.082
        56 -11.0173    157.1806     43.5558   4.5000597563e+01   4.0277557314e+01    0.2707509    0.2033265  56.81 0.0006359389    1.265    0.209
        57 -12.2013    141.6446     43.6589   4.7859744643e+01   4.3935706988e+01    0.2826816    0.2065891  30.45 0.0007956605    1.631    0.387
        58 -10.8658     90.3770     43.5010   6.0443870062e+01   5.5458405584e+01    0.2315483    0.2073099 -23.28  0.001017733    1.184    0.155
        59 -10.3724    204.5165     43.2343   3.8243874502e+01   2.9474463582e+01    0.1820829    0.1601489  62.31 0.0004085639    1.282    0.220
        60 -10.6283    197.2278     40.8286   3.8547412963e+01   3.1396404480e+01    0.1912096    0.1521653 -69.68 0.0005057614    1.136    0.120
        61 -10.2981    225.8888     39.4520   3.5150592594e+01   2.5456890728e+01     0.165647    0.1099086  78.38 0.0003866498    1.475    0.322
        62 -11.5460    217.9130     38.2312   3.5677668476e+01   2.7263874706e+01    0.2344146    0.1813495  74.74 0.0003782664    1.284    0.221
        63 -10.9469    122.1700     43.4144   5.1915605782e+01   4.8513242178e+01    0.2342691     0.193892  20.74 0.0004952224    1.330    0.248
        64 -11.0305    130.0723     38.2962   4.8540686222e+01   4.7350950431e+01    0.2478356     0.196038 -44.42  0.001395453    1.376    0.273
        65  -9.9273    159.9301     36.4411   4.2571597646e+01   4.0542783553e+01     0.186758    0.1206683  66.00 -1.093817e-05    1.422    0.297
        66 -10.7645    140.1832     35.2055   4.5596650364e+01   4.5360409838e+01    0.1813944     0.149374 -81.78 0.0002557308    1.307    0.235
        67 -10.3571    176.7768     33.7713   3.9414041207e+01   3.6933816987e+01     0.186224     0.137095 -77.01  0.001054102    1.352    0.260
        68 -10.5110    250.0746     32.3523   3.1657698591e+01   2.1633610246e+01    0.2180376     0.116157 -61.17  0.001274292    1.617    0.382
        69 -12.7252     27.6628     29.2562   7.9727877389e+01   6.7870911731e+01    0.4200006    0.3576794 -38.90  0.002858573    1.465    0.318
        70 -10.1102    108.4749     28.4716   5.0092487749e+01   5.3486442108e+01    0.1347113    0.1163638  41.67 0.0001683322    1.044    0.042
        71 -11.3216    241.8881     22.5715   3.0414122405e+01   2.4370749907e+01    0.2676894    0.1609992 -59.75  0.001026455    1.354    0.261
        72 -11.9973     84.2464     22.5136   5.4304677557e+01   5.9374939483e+01    0.3903921    0.2376342  38.50  0.001922163    1.463    0.317
        73 -12.8369    241.8463    153.0141   5.6935295933e+01   4.2386342295e+00    0.3906388    0.3078239  45.27  0.001984512    1.557    0.358
        74 -12.0510     18.5946    153.6746   1.1228829262e+02   4.0506539367e+01    0.2433637    0.1708292  30.56  0.001363567    1.602    0.376
        75 -10.3744    138.6666    152.3383   7.7942358449e+01   2.3325448264e+01    0.1604013    0.1259843  83.38 0.0007051814    1.745    0.427
        76 -13.1163    247.8818    144.3403   5.4266583390e+01   4.7879035494e+00    0.6651191    0.6071136 -73.00  0.004398588    1.376    0.274
        77 -10.8291    153.9262     19.9890   3.8912182341e+01   4.3833130329e+01    0.1899805     0.167234  80.00 0.0003458953    1.014    0.013
        78 -10.2499    175.4126     14.8003   3.4789907081e+01   3.9375184931e+01    0.1479806    0.1233189 -11.37 0.0006270388    1.587    0.370
        79 -11.9530    214.9572    141.7895   5.9088264033e+01   1.0796388210e+01    0.4426095    0.3536425  51.30  0.002462091    1.465    0.317
        80 -12.5163     47.1689    142.0742   1.0224138282e+02   4.0721440233e+01    0.4278202    0.2309394  22.40  0.001882537    2.147    0.534
        81 -10.6745     28.0248    126.0073   1.0569677048e+02   4.6790864086e+01     0.174354    0.1481342 -62.61   0.00101899    1.017    0.017
        82 -11.8942     74.3663    109.8191   8.6690582382e+01   4.5262246915e+01    0.3691504    0.2409148 -77.78  0.001514676    2.286    0.563
        83 -10.4251    185.9946     10.5052   3.2625556006e+01   3.7412555078e+01    0.1851549   0.08609246 -80.33 0.0008105517    2.645    0.622
        84 -12.9715     62.6040    106.9396   9.0010886555e+01   4.7690969018e+01    0.4537951    0.2775244 -65.63  0.001999791    1.837    0.456
        85 -10.2328    173.3072    100.3420   5.7231188701e+01   2.7216213215e+01    0.1498105      0.11912   2.39 0.0007042938    1.688    0.408
        86 -12.3503    139.8392     97.3969   6.3912639075e+01   3.5271721385e+01    0.4605132    0.2827325  48.20  0.001989722    1.646    0.392
        87 -12.1404     34.8948     89.4145   9.5984318025e+01   5.5170915468e+01    0.3075002    0.1405718 -43.77  0.001341129    1.933    0.483
