#   1 NUMBER                 Running object number                                     
#   2 MAG_AUTO               Kron-like elliptical aperture magnitude                    [mag]
#   3 X_IMAGE                Object position along x                                    [pixel]
#   4 Y_IMAGE                Object position along y                                    [pixel]
#   5 X_WORLD                Barycenter position along world x axis                     [deg]
#   6 Y_WORLD                Barycenter position along world y axis                     [deg]
#   7 A_WORLD                Profile RMS along major axis (world units)                 [deg]
#   8 B_WORLD                Profile RMS along minor axis (world units)                 [deg]
#   9 THETA_WORLD            Position angle (CCW/world-x)                               [deg]
#  10 FWHM_WORLD             FWHM assuming a gaussian core                              [deg]
#  11 ELONGATION             A_IMAGE/B_IMAGE                                           
#  12 ELLIPTICITY            1 - B_IMAGE/A_IMAGE                                       
         1 -13.6651     12.6038     48.0951   6.9218980389e+01   6.7603698456e+01    0.8757829    0.4777061 -35.00 0.0006128866    1.763    0.433
         2 -11.7266      7.2043     29.2311   6.6600805788e+01   7.2080889879e+01    0.5433183    0.2682526 -76.60  0.002047262    3.089    0.676
         3 -11.7432     14.8132     18.2080   5.6620315390e+01   7.3652618444e+01     0.359118     0.297693   0.39 0.0008742308    1.138    0.121
         4 -11.7252     10.3335     11.2213   5.6340994468e+01   7.5343089191e+01    0.4260931    0.3545177 -75.47  0.002777196    1.819    0.450
         5 -11.1032      7.9213     14.9215   6.0094944870e+01   7.4872771452e+01    0.2385112    0.2091685  52.90 0.0007191593    1.616    0.381
         6 -12.5989      3.3393     13.1904   6.2844265752e+01   7.5540035623e+01    0.6439481    0.2757018 -56.23  0.001803607    2.153    0.535
         7 -11.2099    131.8060     16.4832   1.0585538900e+01   4.9911974823e+01    0.3055367    0.2463283 -61.48 0.0002380373    1.277    0.217
         8 -10.2668    101.5673     17.7867   1.7227411577e+01   5.7467338479e+01    0.3341776    0.1729688  53.71  0.001440017    1.707    0.414
         9 -11.6966    240.3897     15.0641   3.5913467832e+02   2.4158605665e+01    0.2353722    0.1684539 -55.48 0.0003688857    1.083    0.077
        10 -12.6080     76.0742     10.7013   2.1086543733e+01   6.4303223811e+01    0.6102805     0.373596  20.57  0.002040574    2.015    0.504
        11 -10.5473     59.8014     12.5050   2.7974797780e+01   6.7593345922e+01    0.3820348    0.1351421 -33.61  0.001535115    2.902    0.655
        12  -9.8331     54.2146     14.4098   3.1432691460e+01   6.8451105921e+01    0.1781871    0.1211498  55.88 0.0009445468    1.663    0.399
        13  -9.4510     24.2773      8.6292   4.4675254091e+01   7.4198401328e+01    0.1592886    0.1239792 -49.31 0.0008025745    1.640    0.390
        14 -10.5892    145.6715     12.2137   7.0144909053e+00   4.6764477550e+01    0.2874253   0.09705868 -35.16  0.001103196    2.773    0.639
        15 -10.5913    177.3377     12.1661   3.3178129402e+00   3.8724373447e+01    0.3140239    0.1647073  68.61 0.0005027994    1.760    0.432
        16 -11.1866     65.2718     11.8471   2.5455258013e+01   6.6539761021e+01    0.2500601    0.2178857  27.12 0.0003280012    1.032    0.031
        17 -10.8876    139.6314     10.8652   7.4033928142e+00   4.8463343227e+01    0.2942595    0.1838467  83.55 0.0002754684    1.544    0.352
        18  -9.3508    119.6734     10.8886   1.0618727964e+01   5.3619392811e+01    0.2540872    0.1351837 -10.61  0.001087967    2.536    0.606
        19 -10.4289     99.5756     10.5874   1.4606947760e+01   5.8728102481e+01    0.2847497    0.1645167  26.08 0.0007363045    2.245    0.555
        20 -10.5208    249.4849      9.9776   3.5754930741e+02   2.2919197232e+01    0.1820866    0.0509598 -49.10 0.0008102003    2.538    0.606
        21 -11.0502    234.7328      9.3578   3.5823993863e+02   2.5935096101e+01    0.2351192    0.1045999 -43.81 0.0009594569    1.735    0.424
        22 -10.6374     26.8603     12.6702   4.5381116762e+01   7.3217392853e+01    0.3671919    0.1822399 -37.26  0.001276814    1.927    0.481
        23 -10.4214    160.3189      8.5967   4.0567909647e+00   4.3364806986e+01    0.2072696    0.1630417  21.22 0.0006615522    1.699    0.411
        24 -10.3941    154.5388      8.1434   4.5762416153e+00   4.4885541185e+01    0.2946386    0.1557776  69.11  0.001264724    1.677    0.404
        25 -10.8635    146.4159      7.4631   5.3468946309e+00   4.7039794777e+01    0.3694134    0.1882466  58.74  0.001479726    1.802    0.445
        26 -11.3896    179.6957      4.3134   9.1196556489e-01   3.8937488299e+01    0.4409476    0.2962079  39.98  0.002204306    1.986    0.497
        27 -10.1057     82.1099      6.9583   1.7404523927e+01   6.3299361810e+01    0.1986674    0.1690538  41.95 0.0004014338    1.060    0.057
        28 -10.3284     68.3997      5.5108   2.0930939217e+01   6.6559582887e+01    0.2233354    0.1926647  36.79 0.0005698006    1.015    0.015
        29  -9.9112     36.3841      5.9880   3.5485121368e+01   7.2756308844e+01    0.3158206    0.1339799  28.85  0.001295791    2.963    0.663
        30  -9.7536    223.0339      5.3252   3.5803927000e+02   2.8825682922e+01    0.1668213    0.1293701 -68.99 0.0005501609    1.049    0.047
        31 -10.6128    164.2448      4.4070   2.3766995959e+00   4.2774009701e+01    0.2648568    0.1820964 -45.54 0.0004920003    1.412    0.292
        32 -11.3232    241.4975      3.5667   3.5663222785e+02   2.5172957725e+01    0.2509754    0.1279119  70.92  0.001112818    2.069    0.517
        33 -10.1049     18.7995      3.7933   4.5458662668e+01   7.5646933012e+01    0.1501182    0.1423399  10.23 0.0004834127    1.365    0.268
        34 -10.3432    126.0147      2.2483   6.3183795924e+00   5.2778840079e+01    0.2111805    0.1928811 -44.99 0.0006330202    1.200    0.167
        35 -10.5631     97.9962      3.0005   1.1626865337e+01   5.9825373901e+01    0.2037168    0.1820288  55.42 0.0004954876    1.027    0.027
        36  -9.8711     90.9954      2.4766   1.2963888403e+01   6.1588491643e+01    0.1874318    0.1723742  30.06 0.0004845075    1.117    0.105
        37 -12.2125     31.5877      1.9888   3.5692504172e+01   7.4058141511e+01    0.4638064    0.1710181  41.06 0.0003545979    2.529    0.605
        38 -10.4298     22.4903      1.5465   4.1310629080e+01   7.5483171897e+01     0.221637    0.1329275  23.40 0.0008237492    1.604    0.377
        39  -9.2806     14.2323      1.9790   4.7719958855e+01   7.6476167250e+01    0.1416081   0.08837472 -37.44            0    1.516    0.340
        40  -9.5423    121.0139      1.5305   6.8072935995e+00   5.4125704591e+01    0.2070366    0.1177249  69.10 0.0007171702    1.523    0.343
        41 -10.2953     73.6331      1.4463   1.7082295355e+01   6.5775091521e+01    0.2504393    0.1144537  59.58  0.000704226    1.936    0.484
        42  -9.2750    120.4229    200.4565   6.1342248505e+01   1.6107279331e+01    0.1354382     0.120456  35.83 0.0002551337    1.017    0.016
        43 -11.2346     22.2507    248.9266   8.7240423704e+01   1.9472177199e+01    0.4125157    0.1322167  45.62  0.002165608    2.037    0.509
        44 -10.0207    134.8282    196.3278   5.7391402545e+01   1.4599566248e+01    0.2046363    0.1839321 -72.72 0.0004854929    1.323    0.244
        45  -9.5987     40.4785    197.4439   8.0366243133e+01   2.7939250771e+01    0.1330473    0.1031815  60.57 4.221085e-06    1.070    0.066
        46 -12.2650     15.6034    192.1287   8.6012567463e+01   3.1707534658e+01    0.3675161    0.3372556 -32.09  0.001932191    1.501    0.334
        47 -10.5861    186.1955    192.3801   4.5718692126e+01   6.9634406706e+00    0.4003267     0.167226 -34.73  0.001696873    2.619    0.618
        48  -9.8487      2.3271    187.3168   8.8940931689e+01   3.3951096258e+01    0.1122455   0.08664304 -50.92 0.0005675231    1.676    0.403
        49 -10.3903    155.8214    185.6323   5.0886835619e+01   1.3147443215e+01     0.257445    0.1019687 -44.81  0.001010132    2.684    0.627
        50  -9.5822     61.7309    184.6622   7.3850322400e+01   2.8262308256e+01    0.1275527    0.1032578 -37.15 0.0004682109    1.598    0.374
        51 -12.4932     15.1114    182.0611   8.5563302865e+01   3.4060180353e+01    0.4903947    0.2213906  47.62  0.002454826    1.850    0.459
        52 -11.2264     23.3864    180.5311   8.3378015827e+01   3.3639897657e+01    0.3318008     0.162604  53.57  0.001644469    1.784    0.439
        53  -9.8966    174.5033    179.9966   4.5859535816e+01   1.1010035707e+01    0.1953826    0.1106434 -20.22 0.0008104159    2.536    0.606
        54 -11.1068      2.8396    179.8439   8.8486146035e+01   3.5617391845e+01    0.3220182    0.1792053 -15.19  0.001464646    3.603    0.722
        55 -11.3316     17.3045    172.4553   8.4402139671e+01   3.6129482682e+01    0.3534635    0.1183644  53.55  0.001429786    2.732    0.634
        56 -10.2812    176.7979    168.6074   4.3218784289e+01   1.2681096054e+01    0.2958254    0.1536151 -17.05 0.0009520601    4.242    0.764
        57 -12.2577      4.8939    167.3586   8.7343339515e+01   3.8391537062e+01    0.4861645    0.1648376  51.73  0.002105297    2.535    0.606
        58 -10.6781    216.4256    154.6021   3.2893940204e+01   8.2695264474e+00    0.2271208    0.1992006 -12.89 0.0001575088    1.015    0.015
        59 -10.9618     10.9674    152.7112   8.4778985645e+01   4.1490202626e+01     0.344413     0.149757  32.14  0.001623372    2.194    0.544
        60 -12.2760     13.7989    147.8652   8.3599587348e+01   4.2475958686e+01    0.2961911    0.2170195  84.04 0.0003585639    1.184    0.155
        61 -11.5627      5.8571    145.0985   8.5726516565e+01   4.3771027357e+01      0.58459    0.1544728  22.40  0.002196013    3.813    0.738
        62 -12.7140     15.4848    141.3203   8.2556565205e+01   4.3995548360e+01    0.6061439    0.3458386  71.83  0.002021811    1.708    0.415
        63  -9.9804    158.3824    153.7246   4.4211050400e+01   1.8946542448e+01    0.2516991    0.1793751  17.17  0.001177416    1.689    0.408
        64 -10.1415    234.1695    146.7902   2.8431603004e+01   6.6163734809e+00    0.1783205    0.1309881 -13.92 0.0006392152    1.327    0.246
        65 -10.4929    217.1871    144.9813   3.0792973809e+01   9.7105785324e+00     0.351934    0.1635012  23.14  0.001100409    5.195    0.808
        66  -9.5592     30.3251    145.3263   7.8416860042e+01   4.1638992682e+01    0.1381371    0.0971763 -42.63 0.0007049301    1.694    0.410
        67 -11.4514    239.9327    140.0503   2.6205245815e+01   6.7292080548e+00    0.1980549    0.1626768 -22.28 0.0006665139    1.032    0.031
        68  -9.2482    188.7308    139.6639   3.4796507910e+01   1.5815128334e+01     0.142824    0.1069106  -6.73 0.0002822437    1.595    0.373
        69 -11.0580      2.6556    137.1629   8.6138454175e+01   4.5978298620e+01    0.4079122   0.08085772 -65.93  0.001402175    3.655    0.726
        70 -10.1215    235.3424    138.0256   2.6473563330e+01   7.7770517394e+00    0.1849455    0.1394621 -30.91 0.0003837462    1.129    0.114
        71 -12.9546     37.5821    135.4063   7.4977096082e+01   4.3452110239e+01    0.2941011    0.2574945  79.38 0.0006531767    1.046    0.044
        72 -10.7736    241.5171    134.8851   2.4926937891e+01   7.2586683112e+00    0.1916901    0.1061539 -35.23  0.000506976    1.519    0.342
        73 -10.7920     20.6478    134.7922   8.0336024640e+01   4.5239448682e+01    0.2764745    0.1540189 -82.30  0.001134136    1.640    0.390
        74 -11.2739     17.2584    131.1939   8.1061981901e+01   4.6446822653e+01    0.3142785    0.2083361  24.13  0.001164941    1.677    0.404
        75 -10.9805     57.7404    132.4241   6.8003258824e+01   4.1793999449e+01    0.3765323    0.2639373 -25.33 0.0006820536    1.965    0.491
        76 -10.6339     53.0574    132.9970   6.9617035312e+01   4.2259622261e+01    0.2290939    0.2048788  35.95 0.0002902989    1.183    0.155
        77 -11.1438      4.8185    130.1341   8.4953725768e+01   4.7616058791e+01    0.2126005    0.1782925  85.68 0.0003225859    1.015    0.015
        78 -12.0112     81.6243    125.1552   5.8917953542e+01   4.0054892678e+01     0.685766    0.4626035 -58.38  0.002205065    1.460    0.315
        79 -10.7853     73.7724    128.7210   6.2151227901e+01   4.0418394957e+01    0.2979533     0.287009 -80.70 0.0007219608    1.043    0.041
        80 -11.4996     24.6669    127.2486   7.8202845449e+01   4.6842943312e+01    0.4505721    0.1690695 -64.76  0.001598658    2.258    0.557
        81 -10.2143    217.0490    129.2573   2.7476181625e+01   1.2330846262e+01    0.1803637    0.1676899 -23.15  0.000428009    1.061    0.058
        82 -10.8625     46.6278    124.3671   7.0380993247e+01   4.5309296376e+01    0.2958114    0.2564872  -2.08 0.0006350463    1.389    0.280
        83 -10.0117      1.4847    125.0287   8.5630290245e+01   4.9118112391e+01    0.2032254    0.1098287 -81.39 0.0005377146    1.571    0.364
        84 -11.9663      9.3836    121.2439   8.2694914759e+01   4.9589410630e+01    0.5181471    0.2378503  65.57  0.001343727    2.423    0.587
        85  -9.2217     68.2975    121.6730   6.2562326383e+01   4.3071985665e+01    0.1561769     0.111656  71.94  0.000702609    1.632    0.387
        86 -10.0362     61.1066    121.4812   6.4947645698e+01   4.4173343399e+01    0.2125505    0.1467755  31.24 0.0006560965    1.517    0.341
        87 -10.7164     25.3332    118.6691   7.6914617403e+01   4.9019546010e+01    0.2874972    0.1590868  69.25  0.001279961    2.072    0.517
        88 -10.4751     24.9963    114.9714   7.6543494230e+01   5.0014099715e+01    0.2589168    0.2217598 -61.10  0.001524071    1.129    0.114
        89 -11.6038    248.9279    117.3849   2.0323205976e+01   8.6817164938e+00    0.3068574    0.2008593  -3.99  0.001608897    2.155    0.536
        90 -10.8316     15.9813    115.4573   7.9809783045e+01   5.0617345666e+01     0.302203    0.1902676 -89.40 0.0004405941    1.497    0.332
        91 -11.8498     13.3375    110.1853   8.0144591929e+01   5.2172957319e+01    0.4067478    0.3035733  55.41  0.001498592    1.381    0.276
        92  -9.6540    181.9346    114.8036   3.0387229427e+01   2.1813556435e+01    0.1962882    0.1680888 -67.29 0.0005920215    1.298    0.230
        93 -10.3553     40.3948    114.6854   7.0974624791e+01   4.8562970592e+01    0.2275674    0.1519642  68.98 0.0007155001    1.686    0.407
        94 -11.0917     55.2149    109.8384   6.4730301252e+01   4.8006654480e+01    0.2889735    0.2303484 -52.89 0.0005672651    1.221    0.181
        95 -11.4937     31.3319    108.1737   7.3227324497e+01   5.1205701446e+01    0.4410134    0.2714996  82.51  0.002050743    1.856    0.461
        96 -10.5175     20.5224    108.2790   7.7265956014e+01   5.2131224688e+01      0.23637     0.184081  22.92 0.0008789325    1.444    0.307
        97 -10.8159      2.1445    117.2254   8.4787002063e+01   5.1066260071e+01    0.3517671    0.1453872 -49.94  0.001538308    2.463    0.594
        98 -11.5378     75.2182    103.4975   5.6156631805e+01   4.6591146824e+01    0.6027507    0.2474249 -51.63 0.0004583725    2.326    0.570
        99 -10.1052     50.1919    103.8453   6.5352613106e+01   5.0216029321e+01    0.2239319    0.1911509  75.99   0.00081295    1.231    0.188
       100 -10.0572      3.5329    105.2842   8.3196351811e+01   5.4039967453e+01    0.2106725    0.1190472  13.32 0.0009410494    2.101    0.524
       101 -10.3691     23.5277    100.1098   7.4926385314e+01   5.4004939682e+01    0.4341186    0.1525186 -57.13  0.001533349    2.358    0.576
       102 -10.0039     66.9560     97.9648   5.7759054796e+01   4.9319094324e+01    0.2149246    0.2096843 -64.44            0    1.017    0.017
       103  -9.3386     52.2407     96.9892   6.3085779711e+01   5.1706103069e+01    0.1819322    0.1173772 -61.98 0.0002054101    1.466    0.318
       104  -9.8330    226.2574     93.4168   1.8119460276e+01   1.6396401427e+01    0.1647322    0.1278432  82.64 0.0004571176    1.586    0.370
       105 -11.5825     57.2588     90.8660   5.9667870820e+01   5.2553806790e+01    0.3408905    0.2784248 -41.27 0.0005889883    1.229    0.186
       106  -9.8221     31.5300     92.5208   7.0396469770e+01   5.5237484960e+01    0.1778618    0.1369542  -3.33  0.000495738    1.539    0.350
       107 -10.6498     35.5203     90.4265   6.8336973722e+01   5.5369269332e+01    0.2345928    0.2161195 -64.69 0.0001531744    1.010    0.010
       108 -10.5589     62.1793     98.6386   5.9694607122e+01   4.9883253152e+01    0.3493088    0.2248931 -43.92  0.001478062    1.597    0.374
       109 -10.2525     96.0432     89.0982   4.5154728004e+01   4.6156960544e+01    0.4408869    0.2136586  47.68    0.0016506    2.128    0.530
       110 -10.6216    184.8951     85.2323   2.2403285281e+01   2.6507505660e+01    0.2289537    0.1906489 -45.06 0.0003181854    1.124    0.111
       111 -11.3064    239.2830     84.8578   1.4574694783e+01   1.5213283459e+01      0.22758    0.1614918  25.82  0.001134486    2.085    0.520
       112 -10.5372     64.3937     83.7016   5.4956124100e+01   5.3225758560e+01    0.3547377    0.2418728 -83.10  0.000719921    2.052    0.513
       113 -10.3867     64.0315     80.4654   5.4170434086e+01   5.4056425120e+01    0.2846467    0.2093984 -40.21 0.0009500989    1.371    0.271
       114  -9.9582      8.3621     84.9920   7.8816042686e+01   5.8937974419e+01    0.1924379    0.1510126 -76.90  0.001142462    1.134    0.118
       115  -9.2688     34.2793     84.6470   6.7620109868e+01   5.6961166638e+01    0.1415457    0.1032417  73.35 0.0007011824    1.651    0.394
       116  -9.3642     42.4933     83.4744   6.3851215719e+01   5.6340369858e+01    0.1422139    0.1307116 -49.44 0.0001246285    1.025    0.024
       117  -9.6073     76.7718     82.1994   4.9801158186e+01   5.1469912853e+01    0.3466961    0.1033997  44.28  0.001031925    3.553    0.719
       118  -9.8295     68.7016     82.0286   5.2799551089e+01   5.2919084185e+01    0.2055406    0.1810241 -55.26  0.000218607    1.114    0.102
       119  -9.4878    119.6637     80.6744   3.5450254148e+01   4.2805664936e+01    0.1601418    0.1257841   8.88 -0.0001501369    1.720    0.419
       120  -9.6177      8.0039     80.4967   7.8296931092e+01   6.0088128886e+01    0.1715469    0.1307663  10.14 0.0004840832    1.511    0.338
       121  -9.3776      1.6301     80.7217   8.1117703111e+01   6.0351981858e+01     0.136771   0.07891383 -42.11 0.0007009824    1.688    0.407
       122 -12.4579     88.3435     77.2858   4.4125590036e+01   5.0365851557e+01    0.3263628    0.3206041  31.51  0.000305753    1.021    0.021
       123  -9.4268     40.9963     80.0000   6.3634267236e+01   5.7378015113e+01    0.2282237   0.08110055  26.69  0.000814062    3.024    0.669
       124  -9.3734    165.2624     78.3293   2.4118535359e+01   3.2322418590e+01    0.1445955    0.1199069   5.97 0.0004364823    1.569    0.363
       125 -10.1257     50.0246     77.9788   5.9223452375e+01   5.6729076497e+01    0.2157077    0.1966133 -46.76  0.000330895    1.033    0.032
       126 -11.3032     22.7634     76.1242   7.0860537451e+01   6.0163239933e+01    0.3558619     0.274561  73.36    0.0016283    1.505    0.336
       127 -10.0343     73.9572     75.6066   4.8825904141e+01   5.3491256671e+01    0.3372907    0.2224173 -16.68 0.0009342014    2.305    0.566
       128  -9.2408     36.5808     76.4997   6.4698121970e+01   5.8740490217e+01     0.138285    0.1269717 -58.14 0.0002174626    1.036    0.035
       129  -9.2149     44.4651     74.4497   6.0656414340e+01   5.8307905608e+01    0.1386411    0.1326502 -66.39 0.0001334018    1.076    0.071
       130  -9.6321     61.5470     73.0484   5.2941134354e+01   5.6190665668e+01    0.2202708    0.1389533 -52.20 0.0005519871    1.534    0.348
       131  -9.9536      6.7098     73.3151   7.7730693180e+01   6.1944392665e+01    0.2556704    0.1569246  -2.66  0.001351887    1.928    0.481
       132 -10.9582    103.0148     69.7285   3.6809195213e+01   4.8831770823e+01    0.3706369    0.2181102 -46.41 0.0008592716    1.736    0.424
       133 -13.8017     16.4649     67.3931   7.1948647234e+01   6.2792325373e+01    0.4862508    0.4041422 -78.78 0.0008128992    1.217    0.178
       134 -11.1258      6.3287     67.7827   7.6954276017e+01   6.3321906465e+01    0.2428408    0.1996197 -65.56 0.0002775124    1.063    0.059
       135 -11.6347      3.5236     62.3216   7.7346529666e+01   6.4782231970e+01    0.6375991    0.3423726 -28.15  0.003243878    1.986    0.496
       136  -9.7674     44.9977     70.7134   5.9361344739e+01   5.9131439716e+01    0.1841399    0.1760179   9.67 0.0002313387    1.093    0.085
       137 -10.2964    244.3192     69.3094   1.0617066747e+01   1.6505434552e+01    0.1158376   0.09620391   3.38 0.0001957958    1.641    0.391
       138 -11.1501     92.8145     67.6981   3.9417007924e+01   5.1475393001e+01    0.3317941    0.2835651 -14.50 0.0006809168    1.322    0.243
       139 -11.5041     50.3891     68.1680   5.6191265475e+01   5.8998998525e+01    0.3060803       0.2414 -43.71 0.0004487316    1.199    0.166
       140 -12.6154     30.1349     63.3234   6.4229431496e+01   6.2589296394e+01    0.4220622    0.3560835  57.31 0.0006781645    1.404    0.288
       141  -9.4059    130.7888     65.0032   2.7570963897e+01   4.3158160742e+01    0.1984402    0.1235299 -38.61 0.0003815783    1.636    0.389
       142 -10.1510    110.5324     64.9254   3.2925117155e+01   4.8050116125e+01    0.3216002    0.2068364  69.69  0.001322362    2.001    0.500
       143 -10.4635     81.9473     65.0733   4.2317670304e+01   5.4262492133e+01    0.2244053    0.2186465  -1.82 0.0004931127    1.015    0.015
       144 -11.1693    209.7776     63.0179   1.3063988782e+01   2.4468698159e+01    0.2230428    0.1875985 -66.34 0.0002928894    1.112    0.100
       145 -10.4229    159.9485     64.1177   2.1042463323e+01   3.6065681426e+01    0.2142038    0.2076805  54.75 0.0005052632    1.116    0.104
       146 -10.0536    155.2655     63.6625   2.1805721162e+01   3.7305302976e+01    0.2409527    0.2093113 -41.14 0.0005856874    1.162    0.140
       147 -10.4886    123.1473     62.6389   2.8704394796e+01   4.5456507402e+01    0.3030719    0.2206055 -26.40  0.001318489    1.567    0.362
       148 -11.1645     89.0126     54.8968   3.6105438266e+01   5.4804709798e+01    0.5186825    0.2633382 -40.22  0.001905088    2.014    0.503
       149 -11.0019     91.4619     61.5703   3.7722900019e+01   5.2994638358e+01    0.3359682    0.2558467  66.41 0.0007093136    1.545    0.353
       150  -9.9971     92.8816     57.8401   3.5893066935e+01   5.3406626172e+01    0.2265631     0.217588  65.85 0.0004860149    1.076    0.070
       151 -10.0237    246.3099     61.3715   8.6966409523e+00   1.7226319922e+01    0.1178235    0.0947701   1.51 0.0007033917    1.771    0.435
       152 -11.3036     46.9038     60.1289   5.5186406988e+01   6.1313509979e+01    0.3874223     0.272946 -12.23 0.0008481829    1.736    0.424
       153  -9.2067    189.3020     60.2438   1.5103995878e+01   2.9554107592e+01    0.1296894    0.1088163  33.16  0.000194676    1.489    0.329
       154 -12.0534    231.2384     56.6162   9.1185867339e+00   2.0836863314e+01    0.5517054    0.1183818 -44.17  0.001873853    3.602    0.722
       155 -10.1409    135.6195     58.6446   2.4368095747e+01   4.3068328104e+01    0.3613345     0.223099  82.85  0.001419892    2.294    0.564
       156  -9.6464    129.4660     58.4996   2.5752615072e+01   4.4628697715e+01    0.1509753    0.1455471  75.76  0.000104744    1.013    0.013
       157  -9.6920     15.6480     58.3972   7.0267778630e+01   6.5004592015e+01    0.1601532    0.1191698  -9.55 0.0005110698    1.448    0.310
       158  -9.6542     68.4731     57.0072   4.4608524542e+01   5.8505386226e+01    0.2119752    0.1400178 -45.18  0.000638501    1.505    0.336
       159  -9.5328    177.5125     56.5282   1.5849769630e+01   3.2947845878e+01    0.1481592    0.1293654 -69.07 4.560186e-05    1.073    0.068
       160 -10.9231    115.9742     55.3335   2.8079747385e+01   4.8495483061e+01    0.3284258     0.247987  72.52 0.0007010308    1.462    0.316
       161 -10.3780    247.4885    249.5019   4.4047749340e+01  -8.5556275768e+00    0.1050995    0.0734638   2.74 8.505986e-05    1.013    0.013
       162 -11.7327      8.1481     51.6556   7.2643112740e+01   6.7065890233e+01    0.4903892    0.3486697  -2.22   0.00249541    1.528    0.346
       163 -12.1103      6.5765     41.4186   7.0880105066e+01   6.9484781640e+01     1.127269    0.2380394 -44.99   0.00402536    3.587    0.721
       164 -12.0744     27.7188     37.6806   5.6958009985e+01   6.8517775101e+01    0.2426538    0.2257589  10.18 0.0002401791    1.161    0.138
       165 -10.9026     24.4749     34.5639   5.7618365397e+01   6.9504123465e+01    0.2921185    0.2073643  -5.60 0.0005530999    1.474    0.322
       166 -11.9716    149.7986     51.8435   1.9228071061e+01   4.0590301330e+01    0.4931355    0.2838282 -56.55   0.00206211    1.989    0.497
       167 -10.5040    154.3885     52.4765   1.8563610865e+01   3.9328921610e+01    0.2471761    0.2211427 -65.99 0.0001001529    1.080    0.074
       168  -9.4693    145.6765     54.6268   2.0919569440e+01   4.1196100267e+01     0.155846    0.1166543  22.35 0.0005612112    1.815    0.449
       169 -11.4606    105.3271     52.5153   3.0041727654e+01   5.1536856004e+01     0.307808     0.281782  46.57  0.000143002    1.061    0.057
       170 -10.4453     62.5688     50.7237   4.4684638044e+01   6.0832604858e+01    0.3183537    0.1365861 -47.92  0.001240864    2.379    0.580
       171  -9.6553     38.6689     52.7029   5.6640984825e+01   6.4041715479e+01     0.142167   0.09717332 -21.26 0.0001687155    1.640    0.390
       172  -9.6042    127.1896     51.1958   2.3819770147e+01   4.6416735389e+01    0.2403901   0.09997482 -44.11  0.000855343    2.504    0.601
       173 -10.4869     50.1547     43.1431   4.7286796311e+01   6.4400445679e+01      0.53242    0.3852909 -33.02  0.002856658    1.353    0.261
       174 -10.7012     46.3088     49.2857   5.1599416307e+01   6.3740409522e+01    0.3261412    0.1826446 -47.64  0.001535929    1.701    0.412
       175 -12.2767     44.3034     43.9459   5.0503184827e+01   6.5124335627e+01    0.4061889    0.3233869 -55.66 0.0003828273    1.377    0.274
       176 -10.4678     83.4276     48.3093   3.5512199721e+01   5.7212749665e+01    0.4026361    0.3356282 -37.71  0.002152207    1.228    0.186
       177  -9.5705     78.7298     47.3897   3.6857736599e+01   5.8363634721e+01    0.2026016     0.130989  35.94 0.0004262947    1.583    0.368
       178  -9.6366     76.2996     50.4166   3.8981767240e+01   5.8299072797e+01    0.2001026    0.1367909  53.85  0.000942252    1.595    0.373
       179 -11.8074     55.4283     40.5361   4.3688694063e+01   6.4032992754e+01    0.8925443    0.2853799 -44.72  0.003172594    3.122    0.680
       180 -11.1588     57.8389     34.3739   3.9843566784e+01   6.4716634421e+01    0.3365223    0.2168941  20.71  0.001176161    1.823    0.452
       181 -10.2468     55.3876     48.7066   4.7079227065e+01   6.2457740738e+01    0.2991395    0.2107224  64.24 0.0005624116    2.129    0.530
       182 -10.6969     52.0406     49.0000   4.8745265458e+01   6.2935301211e+01    0.3130187    0.2353221  44.75  0.000819293    1.460    0.315
       183 -10.0448    180.5553     47.3742   1.2840162859e+01   3.3556144651e+01    0.2833095    0.1753049 -59.24  0.001327585    1.664    0.399
       184  -9.7801    222.1491     45.8543   7.5316364514e+00   2.4196873404e+01    0.1547853    0.1509712 -28.49 0.0002516478    1.269    0.212
       185  -9.6010    112.0593     45.6441   2.5620182635e+01   5.1064044611e+01    0.2052957    0.1829158  48.42 0.0004281974    1.089    0.081
       186 -10.3332    237.0954     44.7093   5.8763241023e+00   2.1245709698e+01    0.1718103    0.1446214 -66.10 0.0005061181    1.091    0.083
       187 -10.0604     91.7819     45.2700   3.1452066205e+01   5.5910377465e+01     0.306331    0.1364835 -31.95  0.001079358    2.559    0.609
       188 -10.6356    121.5666     42.8558   2.2210629171e+01   4.9136883850e+01    0.5232461    0.2923364 -66.90   0.00188994    2.986    0.665
       189 -11.0540     75.3443     43.9603   3.6735449286e+01   5.9672755326e+01    0.3042717    0.2017404  54.38  0.001088816    1.639    0.390
       190  -9.7061    126.7679     43.2168   2.1136069924e+01   4.7769363367e+01    0.1903872    0.1662547  36.29 0.0004166402    1.234    0.190
       191 -11.8512    245.9314     41.1237   4.3534014780e+00   1.9958744008e+01    0.3320899    0.1169745 -42.70  0.001536311    2.125    0.529
       192  -9.6945    131.3455     41.8228   1.9643756809e+01   4.6811837393e+01    0.2040288    0.1425825 -18.95 0.0008067256    1.735    0.424
       193 -11.0679     98.6555     41.1807   2.7680655357e+01   5.4994262054e+01    0.6995418    0.2005881  54.45  0.002180012    3.362    0.703
       194 -10.7662    233.4055     39.2715   4.9762883745e+00   2.2694919456e+01    0.2164978     0.128769 -73.01 0.0007399956    1.757    0.431
       195 -11.5710     83.5684     37.2334   3.0901251276e+01   5.9061008183e+01    0.4354738    0.3386844  41.24  0.001290324    1.226    0.184
       196 -10.1781     88.1921     32.5350   2.7346421212e+01   5.8743597505e+01    0.2719749    0.1840066  -8.63 0.0009738039    1.924    0.480
       197 -12.1833    140.9774     36.6267   1.5947894143e+01   4.5075091355e+01       0.2712    0.2519046 -74.27  0.000248226    1.054    0.052
       198 -11.6001     65.2943     36.6018   3.7599488876e+01   6.2944185273e+01    0.3060887    0.2405097  48.52 0.0007130813    1.325    0.246
       199 -11.0100    248.0535     36.0746   3.1092427052e+00   2.0177621927e+01    0.1851531     0.143554 -54.55 0.0003805619    1.007    0.007
       200  -9.5461    202.3009     37.3165   7.4776021026e+00   2.9744913871e+01       0.1244     0.104444  29.58 0.0004442175    1.617    0.381
       201 -10.7377    110.5038     34.3501   2.1733009827e+01   5.3145042717e+01    0.3735882    0.2320839  36.25  0.001667618    1.845    0.458
       202 -11.5908    149.5289     40.8572   1.5784403803e+01   4.2287600824e+01    0.2667099    0.2387649 -64.75  0.000293974    1.088    0.081
       203  -9.3394     93.3115     34.6677   2.6645210108e+01   5.7245851080e+01    0.1445499    0.1124961 -74.48 0.0004273095    1.676    0.403
       204 -11.1729     76.1431     33.5517   3.1950683208e+01   6.1247334670e+01    0.3521515    0.2356746  67.57  0.001639275    1.985    0.496
       205  -9.9039     34.4611     33.2697   5.1237733529e+01   6.8578502267e+01    0.2315376    0.1150356 -43.42  0.001089879    1.879    0.468
       206  -9.1626    116.6154     33.7417   2.0012350316e+01   5.1701604434e+01    0.1535348    0.1024927  37.08 0.0006971085    1.678    0.404
       207 -10.6057    224.3389    248.8570   4.7715378729e+01  -5.9754443386e+00    0.1858818   0.09244194 -41.37  0.001094035    2.616    0.618
       208  -9.8467     96.5051     32.0196   2.4587044997e+01   5.6879157545e+01    0.2209817    0.1418956 -32.93 0.0002735835    1.645    0.392
       209 -10.5607     12.1607     29.4181   6.3353467756e+01   7.1686722173e+01    0.2542788     0.194116 -71.61 0.0009085693    1.578    0.366
       210 -10.3257     15.8315     32.1305   6.2012609765e+01   7.0827866146e+01    0.1987318    0.1561749 -30.30 0.0003074086    1.102    0.093
       211 -10.1942     19.3876     31.1921   5.9379044825e+01   7.0697799867e+01    0.2113991    0.1756847   5.57 0.0008345754    1.196    0.164
       212 -10.0025    100.8037     30.0870   2.2574386747e+01   5.6116648611e+01    0.3840293      0.23614   7.45  0.001550421    2.693    0.629
       213 -10.8017    198.9072     28.7216   5.6237296131e+00   3.1621043962e+01    0.2984486    0.1661487  85.78   0.00144151    1.872    0.466
       214 -10.2492     49.2933     28.5497   4.1138703551e+01   6.7202212825e+01    0.3210653    0.1969936  12.21  0.001469609    2.218    0.549
       215  -9.0587    129.3327     28.7022   1.5420918124e+01   4.9122594833e+01    0.1499534    0.1052777 -72.04 0.0003154585    1.646    0.392
       216 -11.4919    112.2068     26.8641   1.8393526316e+01   5.3722512790e+01    0.3810895    0.2938191  -4.48  0.001112669    1.580    0.367
       217 -10.2857     80.1533     27.5216   2.7795975445e+01   6.1278457903e+01    0.2772806    0.1877916  -5.91  0.001324358    1.893    0.472
       218 -11.5463    232.1306     26.6567   2.2396475718e+00   2.4513511138e+01    0.3439898    0.1878164 -86.78  0.001412795    1.954    0.488
       219 -10.4768    176.8725     26.4383   7.4111868638e+00   3.7227667923e+01    0.2352643    0.1977236 -28.75 0.0004224264    1.328    0.247
       220 -10.5731    119.4989     27.2289   1.6898590402e+01   5.1829929406e+01    0.2577104     0.182271  61.65 0.0006098643    1.299    0.230
       221  -9.7911     61.1929     26.7881   3.4766387852e+01   6.5330495901e+01    0.1943338    0.1512714   9.17  0.001067373    1.364    0.267
       222 -11.6531    213.6931     26.1304   3.6004440137e+00   2.8550926981e+01    0.3959987    0.1787523  80.02  0.001811694    2.350    0.574
       223 -10.2596    218.9796     25.3340   2.9659455620e+00   2.7477510447e+01    0.1769407    0.1440729 -79.22 0.0004083409    1.125    0.111
       224  -9.8186     98.6580     26.1313   2.1511682880e+01   5.7164168150e+01    0.1905342    0.1779704  14.31 0.0005350831    1.124    0.110
       225 -10.6989     91.8483     24.7486   2.2839380452e+01   5.8973747059e+01    0.3356906    0.2028455  44.47  0.001163519    1.571    0.363
       226 -10.1044     71.4987     25.6082   3.0026602500e+01   6.3423101952e+01    0.3925354    0.1260028  51.28   0.00139061    2.978    0.664
       227 -10.1495     10.9524     24.5580   6.2222456981e+01   7.2765872982e+01    0.2468034     0.133032 -39.16 0.0007547754    1.607    0.378
       228 -10.5207    159.6692     23.0648   8.5881370722e+00   4.1972721426e+01    0.2641177     0.180951 -83.62  0.000528931    1.470    0.320
       229 -10.1028    156.4631     21.5034   8.5371040227e+00   4.2975425444e+01    0.2509607    0.1219393  65.38 0.0006300136    1.866    0.464
       230 -11.3590     34.1731     22.6372   4.6320815331e+01   7.0554830599e+01    0.2364655    0.1885947   1.57  0.000218654    1.182    0.154
       231 -11.5581    249.2359     20.9031   3.5982818977e+02   2.1751954455e+01    0.2309686    0.1594291 -49.20 0.0002506681    1.126    0.112
       232 -10.9586    241.5003     22.2938   6.1816756454e-01   2.3114833216e+01    0.2011806    0.1007006  77.35  0.001082179    2.096    0.523
       233  -9.9376     82.4111     21.8009   2.4409388499e+01   6.1546085370e+01    0.1859915    0.1325268 -10.27 0.0008133709    1.630    0.386
       234 -10.8164    193.2197     20.6425   4.0765798280e+00   3.3926740788e+01    0.2859501    0.2335964  -8.37 0.0006038756    1.614    0.380
       235  -9.8688    193.4704     16.4456   2.9514188720e+00   3.4341434950e+01    0.2363222    0.1446888 -85.82 0.0009441786    1.575    0.365
       236 -10.5243    122.1289     20.1918   1.3700569433e+01   5.2000546823e+01    0.4030232    0.1816761  41.00  0.001205431    2.712    0.631
       237 -10.9420     69.1069     21.2986   2.8843840305e+01   6.4529666078e+01    0.2486291    0.1883965  66.70   0.00133177    1.585    0.369
       238  -9.5882     58.8627     21.3749   3.3069791276e+01   6.6589593429e+01    0.1882901    0.1128714  36.16 0.0005705664    1.609    0.379
       239 -12.1676     28.5611     19.8741   4.8278876092e+01   7.1793418654e+01    0.3244894    0.2072538  20.57 0.0002343675    1.569    0.363
       240  -9.7458    109.7768    249.6417   6.9580608462e+01   8.7531949731e+00    0.1785586   0.08384284  40.41 0.0006575483    1.646    0.392
       241  -9.3725     72.6249    249.6882   7.7206825804e+01   1.3586241896e+01      0.10996   0.08723693   1.60 0.0007030753    1.787    0.440
       242  -9.8097      6.9767    249.2960   9.0170769302e+01   2.0906854025e+01    0.1522066    0.1041824  53.61 0.0004692304    1.039    0.038
       243 -10.2044     10.5090    248.0153   8.9462434502e+01   2.0802251979e+01    0.3325767   0.08386321  49.00  0.001641827    2.415    0.586
       244  -9.0831     87.7069     19.3419   2.1640518154e+01   6.0629032684e+01    0.1369853    0.1060134 -67.88 0.0002698541    1.656    0.396
       245 -11.0625     73.2040    244.5886   7.6696936848e+01   1.4413841602e+01    0.2755212    0.1965227  33.72   0.00112055    1.243    0.195
       246 -12.6430     74.7229    239.4641   7.5968332772e+01   1.5146855631e+01      0.49041    0.4304511 -75.73  0.003503244    1.368    0.269
       247  -9.3197    169.6721     17.6870   5.7226995385e+00   4.0043127918e+01    0.1357808   0.09927069  42.25 0.0003745609    1.669    0.401
       248 -10.0978    109.3067     16.6742   1.4974661223e+01   5.5658930032e+01    0.2665235    0.1566883  60.06  0.000959916    1.511    0.338
       249  -9.8949     35.7373     17.2674   4.2544357981e+01   7.1215784406e+01     0.166295    0.1273521  -0.71 0.0002138374    1.267    0.211
       250 -10.1761     45.8967    244.4570   8.2317554381e+01   1.7728634813e+01    0.1821049   0.09047652  36.18  0.001031095    1.598    0.374
       251 -10.4618    217.0780     16.0326   9.1658907186e-01   2.8969047281e+01     0.383122    0.1313974  61.98  0.001641057    2.978    0.664
       252 -10.9370    137.3420     15.2415   9.2545673241e+00   4.8608929936e+01    0.2717773    0.2048386 -66.13 0.0004424969    1.362    0.266
       253 -11.1182    219.1475    247.0627   4.8337544420e+01  -5.1731124048e+00    0.2517173    0.1314352 -30.36  0.001581053    1.943    0.485
       254  -9.3604    159.6325     15.1903   6.1616565004e+00   4.2862382875e+01    0.1654767    0.1335139 -12.28 0.0002401329    1.531    0.347
       255 -10.3296    151.5080     15.0164   7.1439726857e+00   4.4966544714e+01    0.2077539    0.1698462  77.17 0.0003348835    1.106    0.096
       256 -10.7318     64.0062     17.7318   2.9037679100e+01   6.6067531576e+01    0.2127689    0.1847634 -12.75 0.0004521642    1.168    0.143
       257 -11.1721     88.8171    241.2884   7.3144421176e+01   1.2979337391e+01    0.2056189    0.1483785 -29.51   0.00122077    2.088    0.521
       258 -10.0718     59.6749    240.6782   7.9229755011e+01   1.6801689876e+01    0.1059878   0.09099297  -7.23 0.0003860194    1.683    0.406
       259 -10.2481      3.7367    238.4782   9.0466013881e+01   2.3204528983e+01    0.1920671    0.1246575  85.02 0.0008011631    1.427    0.299
       260  -9.9294    165.4694     13.0453   4.8252583740e+00   4.1604441867e+01    0.1924438    0.1326328 -29.42  0.001020961    1.564    0.361
       261  -9.6390    195.3979    238.2016   5.1267827725e+01  -1.1569624979e+00    0.1375628    0.1085864 -40.90 0.0009448044    1.665    0.399
       262 -11.2471     40.1762    236.9894   8.3061978320e+01   1.9773277807e+01    0.4098622    0.1198897  47.57  0.001271702    2.448    0.591
       263 -10.3253    160.4769    235.4702   5.7583328860e+01   3.9547275693e+00    0.1240707   0.09805113  18.55 0.0008085769    1.067    0.063
       264  -9.3810    116.3116    240.6573   6.7292158494e+01   9.3431285295e+00     0.125344   0.08107196  56.42 0.0007045991    1.701    0.412
       265 -10.3436     30.9958    234.5038   8.4831499099e+01   2.1255770402e+01    0.2435094    0.1293725  87.03 0.0008998325    1.919    0.479
       266 -10.1853    183.0268    234.5012   5.3047973386e+01   9.8340435018e-01    0.1849625   0.09778489  32.28   0.00102896    1.583    0.368
       267 -10.1362     54.5958    231.7700   7.9679014738e+01   1.9101452534e+01    0.1596792    0.1031859  81.49 0.0009366407    1.614    0.381
       268  -9.5522    248.7541    229.0114   4.0773624733e+01  -6.4521109082e+00    0.1334888   0.07573304 -26.95 0.0008795476    1.574    0.365
       269 -10.1209    227.4615     10.5015   3.5893428726e+02   2.7331334357e+01    0.1232113   0.09771995 -62.24 0.0003575217    1.017    0.017
       270  -9.9468    191.5118    226.5138   5.0264014819e+01   9.5404635751e-01      0.19009    0.1149639 -51.38  0.001038955    2.444    0.591
       271  -9.9608      4.1269    225.9097   8.9993187203e+01   2.5598882067e+01     0.177065     0.144162 -14.68  0.001148433    2.002    0.500
       272 -10.4458     78.8716    223.4629   7.3654766168e+01   1.7632840747e+01     0.216134    0.1557642 -21.13  0.001172298    2.231    0.552
       273  -9.3971     16.3325    222.2825   8.7320237649e+01   2.5177910248e+01   0.09822078   0.08986103 -33.20 0.0002816189    1.613    0.380
       274 -11.4444     49.0013    218.6528   7.9967148477e+01   2.2388638364e+01    0.4863868     0.215371  34.68  0.002351007    1.893    0.472
       275 -10.1590     38.5089    217.0458   8.2208801609e+01   2.3930315298e+01    0.1907272    0.1345581  45.19 0.0004643138    1.175    0.149
       276  -9.9970     23.8476    216.0735   8.5402415345e+01   2.5701926214e+01    0.1838828    0.1225596  60.79 0.0002842715    1.193    0.162
       277 -10.5462     13.9604    215.9995   8.7552219045e+01   2.6693953560e+01    0.1633725    0.1388903 -41.61 0.0008232904    1.710    0.415
       278 -10.4029    234.0000    214.9900   4.0914507380e+01  -3.0434962007e+00    0.1740554   0.05696412 -36.03 0.0007861744    2.910    0.656
       279 -10.0846     29.9688    214.5126   8.3960822877e+01   2.5390524362e+01    0.1808856    0.1057378  32.77 0.0008725906    1.589    0.371
       280  -9.4879    169.6616    213.6738   5.2571032406e+01   6.0268623457e+00    0.1332337   0.08977364   1.72 0.0007051546    1.727    0.421
       281 -11.6422      5.1780    210.9432   8.9243710770e+01   2.8557223919e+01    0.2694693    0.1460846 -87.16  0.001484032    1.701    0.412
       282 -10.8799    217.6470    209.6906   4.2824088345e+01  -2.3946143594e-01    0.3675052    0.1250793 -37.28  0.001652031    2.892    0.654
       283 -11.9631     11.1902    209.1908   8.7859075622e+01   2.8381914383e+01     0.313297    0.2031412  53.82  0.001438963    1.205    0.170
       284  -9.4479     71.4911    208.5719   7.3912806184e+01   2.1653128348e+01    0.1307807    0.1108388  50.11 0.0001072484    1.036    0.034
       285 -11.2635      4.3984    205.0563   8.9188622229e+01   2.9872839919e+01    0.3019742    0.1977992 -47.89  0.001803374    2.183    0.542
       286 -11.5387     20.3586    199.3132   8.5285947266e+01   2.9648592905e+01     0.339414    0.2284174  10.06  0.001622521    2.073    0.518
       287  -9.8728    174.7234    202.0469   4.9675887414e+01   7.1586881559e+00     0.178809    0.1542091   3.75 0.0004967304    1.061    0.057
       288  -9.5432    238.4529    200.5289   3.7767293051e+01  -1.7284902508e+00    0.1168683   0.09149495  -5.65 7.250172e-05    1.018    0.018
