#   1 NUMBER                 Running object number                                     
#   2 MAG_AUTO               Kron-like elliptical aperture magnitude                    [mag]
#   3 X_IMAGE                Object position along x                                    [pixel]
#   4 Y_IMAGE                Object position along y                                    [pixel]
#   5 X_WORLD                Barycenter position along world x axis                     [deg]
#   6 Y_WORLD                Barycenter position along world y axis                     [deg]
#   7 A_WORLD                Profile RMS along major axis (world units)                 [deg]
#   8 B_WORLD                Profile RMS along minor axis (world units)                 [deg]
#   9 THETA_WORLD            Position angle (CCW/world-x)                               [deg]
#  10 FWHM_WORLD             FWHM assuming a gaussian core                              [deg]
#  11 ELONGATION             A_IMAGE/B_IMAGE                                           
#  12 ELLIPTICITY            1 - B_IMAGE/A_IMAGE                                       
         1 -14.7072    173.8988    105.0219   2.6378751159e+02  -5.7717058750e+01    0.7907852    0.2343442  37.73   0.01403318    3.132    0.681
         2 -15.9132    244.1631     62.5643   2.6287363047e+02  -6.0615515040e+01     0.980974    0.4831956 -27.12   0.02817588    2.915    0.657
         3 -13.6895    141.3549    137.3660   2.6491891654e+02  -5.6195772388e+01     0.518195    0.3993884 -38.76   0.02103422    1.343    0.256
         4 -16.5969    241.4541    115.0181   2.6628542712e+02  -5.9799680934e+01    0.6884575    0.4954363 -85.09   0.02655857    1.579    0.367
         5  -8.2620     93.2736     11.9741   2.5626086619e+02  -5.6063500360e+01   0.02241834   0.01602247  13.78  0.000422733    1.410    0.291
         6 -11.3933    234.2553      5.5506   2.5868394905e+02  -6.0960869928e+01   0.08282147   0.05818833 -37.62  0.003206962    1.480    0.324
         7 -10.3827    227.8550      4.9149   2.5849372137e+02  -6.0749929664e+01   0.07134318   0.03464555  54.96  0.002165616    2.502    0.600
         8  -9.2852    193.1022    223.6483   2.7141192047e+02  -5.6523322637e+01    0.0292224   0.02772555  33.33 0.0009702205    1.057    0.054
         9 -12.4625    245.3975    246.9874   2.7446086847e+02  -5.7728007803e+01    0.1536074   0.09555732 -59.13  0.005672279    1.606    0.377
        10 -10.4006    249.3365    210.4629   2.7247377314e+02  -5.8506326444e+01   0.04284524   0.03318096 -31.96 0.0008807517    1.416    0.294
        11  -9.5604    188.3416    210.8885   2.7053663826e+02  -5.6587889398e+01   0.03331346   0.02384433 -47.34  0.001227679    1.398    0.285
        12  -8.9471     97.1383    211.3446   2.6797002198e+02  -5.3668896462e+01   0.02363357   0.02180274 -59.43 0.0003550014    1.078    0.072
        13  -9.5417      6.4846    208.4870   2.6558914111e+02  -5.0779177522e+01   0.01801997   0.01750026 -26.13 0.0001032071    1.022    0.022
        14  -8.7439    224.7631    207.5599   2.7148911972e+02  -5.7790418015e+01   0.02655582   0.01597204 -47.96 0.0009402611    1.666    0.400
        15 -10.7480    204.1727    201.4578   2.7047868745e+02  -5.7245144061e+01    0.1003889   0.05864103 -10.29  0.003043212    2.803    0.643
        16  -9.0660    248.9923    202.9596   2.7201513538e+02  -5.8626707056e+01   0.03827006   0.02540721 -50.58  0.001311575    1.489    0.328
        17 -11.4994    192.9769    195.0383   2.6976040986e+02  -5.6995650081e+01    0.1413036   0.06982207  -1.06  0.003321403    4.659    0.785
        18 -10.8999    223.9661    214.1097   2.7184654540e+02  -5.7652983298e+01   0.06506951   0.03345509 -37.95  0.001721627    2.376    0.579
        19 -14.1982    227.1147    167.2728   2.6914692757e+02  -5.8532921246e+01    0.4191833    0.2604556 -63.29   0.01260213    1.611    0.379
        20 -14.2207    194.7181    108.8908   2.6457615881e+02  -5.8353631526e+01    0.3320972     0.143179 -69.57  0.007319414    2.433    0.589
        21 -10.1836    230.1507    182.6681   2.7017898744e+02  -5.8378706983e+01   0.04203946   0.02866866 -47.52  0.001026585    1.472    0.321
        22  -9.2559    174.0240    182.7191   2.6848044054e+02  -5.6586414172e+01   0.02789347   0.02353014  23.96 0.0003404752    1.192    0.161
        23 -15.2249    245.3566     91.8339   2.6487548189e+02  -6.0260052973e+01    0.3476738    0.2303735 -56.81   0.00424848    1.469    0.319
        24 -12.5578    201.9632    164.8454   2.6823641008e+02  -5.7764825605e+01   0.08406338   0.06048727  25.29  0.002136088    1.394    0.283
        25  -8.8389     41.1826    191.1322   2.6548368819e+02  -5.2152351556e+01    0.0261686    0.0235928  60.30 0.0003197904    1.163    0.140
        26 -10.3364      8.2688    169.4959   2.6358779852e+02  -5.1369229763e+01   0.03573312   0.02801176  42.99 0.0007237562    1.297    0.229
        27  -8.4418    114.6693    168.6926   2.6605433823e+02  -5.4873344386e+01   0.01933843   0.01350624  61.13 0.0004275324    1.662    0.398
        28  -8.6454    110.5570    167.4889   2.6588080922e+02  -5.4756292836e+01   0.01797967   0.01772257 -17.12 0.0001176153    1.011    0.011
        29 -13.9457    226.3623     90.9406   2.6428287236e+02  -5.9646433765e+01    0.2366062    0.1451235 -25.94  0.004942745    2.006    0.501
        30  -8.2084     49.0000    164.0753   2.6420361777e+02  -5.2782796356e+01   0.02896425   0.01031481  22.24 0.0005599285    2.808    0.644
        31  -9.8754    198.4410    247.7253   2.7293375329e+02  -5.6272431166e+01   0.04570082   0.01705337  31.79  0.001309016    2.603    0.616
        32  -8.6182      6.0000    159.9806   2.6303319128e+02  -5.1418930238e+01   0.03093214   0.01027159  21.26 0.0008113738    3.005    0.667
        33 -10.3000    181.0508    149.0036   2.6667763614e+02  -5.7328893565e+01    0.0416726   0.03270968 -26.04 0.0004382628    1.395    0.283
        34 -10.4835    191.9353    144.2147   2.6669255426e+02  -5.7754595664e+01   0.04210588   0.03295652  22.44 0.0005863574    1.286    0.222
        35 -11.7699    191.1776    151.0435   2.6708699546e+02  -5.7627731105e+01    0.1011447   0.05407999   0.11  0.002619267    2.849    0.649
        36 -11.6396    184.9290    153.2233   2.6704144416e+02  -5.7391973005e+01   0.09318354   0.04957842 -54.13  0.002827032    1.807    0.446
        37 -10.0081    216.4627    149.3395   2.6771913099e+02  -5.8472598975e+01   0.07074074    0.0452063  -9.48  0.001761826    2.090    0.521
        38  -9.6614    210.9116    150.8087   2.6764525279e+02  -5.8270670943e+01   0.04718211   0.03115254  14.31  0.001336108    1.653    0.395
        39 -11.2793    173.0531    148.4767   2.6642414017e+02  -5.7075934738e+01   0.09391641   0.04004239  26.81  0.002878752    2.270    0.560
        40 -13.1554    216.3569    182.0908   2.6971089605e+02  -5.7950361608e+01    0.2040974    0.1381987  31.66  0.006351424    1.456    0.313
        41 -12.0009     67.7708    143.2339   2.6347845937e+02  -5.3682398826e+01    0.1105591   0.07665624 -17.68  0.003212874    1.683    0.406
        42  -9.7622    209.6346    145.1406   2.6725817403e+02  -5.8315759492e+01   0.04913816   0.03111746   1.62  0.001704756    1.981    0.495
        43 -10.0882      1.9276    141.4325   2.6195564715e+02  -5.1519917186e+01   0.04818447    0.0270418   9.95 0.0003442935    1.968    0.492
        44 -12.8124     23.2624    120.6190   2.6125811089e+02  -5.2487637806e+01    0.3017628    0.1326027  16.97  0.006691684    2.370    0.578
        45 -12.7796     53.4371    118.8189   2.6178713487e+02  -5.3519004255e+01    0.1048829   0.09621727 -72.61  0.001344908    1.099    0.090
        46 -14.0736     45.1996    116.3283   2.6147259850e+02  -5.3274200701e+01    0.4261888    0.1657042 -71.68  0.007723734    2.695    0.629
        47 -12.0836     36.5611    117.0085   2.6133081138e+02  -5.2976666071e+01   0.06775965   0.04906095 -80.76 0.0009079025    1.466    0.318
        48 -10.7838    149.9902    128.1972   2.6459244809e+02  -5.6608440438e+01   0.04966836   0.03784173  17.83 0.0009357781    1.336    0.252
        49 -11.0828    153.7743    126.0995   2.6456310610e+02  -5.6762515650e+01   0.09602359   0.04488771   7.08  0.002704863    2.959    0.662
        50 -13.3653      6.1678    119.0200   2.6082715420e+02  -5.1935163089e+01    0.1539287    0.1115474  19.58  0.003958084    1.374    0.272
        51 -12.2389    158.5815    111.7498   2.6381304096e+02  -5.7117809814e+01     0.117138   0.05876866  35.05  0.002267218    1.916    0.478
        52 -11.9591    157.3935    104.7935   2.6335636161e+02  -5.7171334673e+01    0.0759978   0.03901447  21.61 0.0009297176    1.950    0.487
        53  -8.4517     92.4336    114.2167   2.6237983992e+02  -5.4880991310e+01   0.02389782    0.0176377   0.72 0.0003900776    1.477    0.323
        54 -10.5145    148.2838    111.5203   2.6354136633e+02  -5.6778722455e+01   0.05882617   0.03329325 -71.09 0.0008918158    1.824    0.452
        55 -10.1454    126.0532    106.2560   2.6268568953e+02  -5.6106831031e+01   0.07206298   0.03690836   8.20  0.002254633    2.334    0.572
        56 -10.2464    127.3062    100.1079   2.6234525863e+02  -5.6227714424e+01   0.03776817    0.0305363  28.57 0.0005409293    1.225    0.183
        57 -13.3956    191.8353    166.5562   2.6804162405e+02  -5.7411906192e+01    0.2103876     0.125999 -60.48  0.002599231    1.632    0.387
        58  -8.3201    109.0027    106.2466   2.6228869834e+02  -5.5536774452e+01   0.02344193   0.01546247 -68.65 0.0004343052    1.516    0.340
        59 -10.2470    142.1744    103.3675   2.6289601235e+02  -5.6682717442e+01    0.0389725   0.02836256 -40.05   0.00076064    1.423    0.297
        60  -8.5574      3.5757    249.2838   2.6759587232e+02  -5.0095297242e+01   0.02469845   0.01613786  38.02  0.000374822    1.528    0.345
        61  -8.3125    158.0000     88.9305   2.6238994256e+02  -5.7398199856e+01   0.03015876   0.01037037  20.86 0.0007980535    2.912    0.657
        62  -8.7754    206.9640     81.5009   2.6314638925e+02  -5.9129750009e+01   0.02814669   0.02490469  20.35 0.0006437316    1.131    0.116
        63  -8.7423    114.4381     75.3534   2.6055759131e+02  -5.6099966073e+01   0.03292569   0.01648401  26.79 0.0009788504    1.903    0.475
        64  -8.0904    140.3386     74.2979   2.6106763936e+02  -5.6987025964e+01   0.01955591   0.01322033  58.84  0.000703319    1.659    0.397
        65  -8.7738    136.7956     72.3512   2.6086715712e+02  -5.6891017834e+01   0.02596216   0.02371237  -6.52  0.001134728    1.120    0.107
        66 -10.9572    211.1025     69.6554   2.6247850765e+02  -5.9421552820e+01   0.05239261   0.03723362  50.49  0.001414257    1.492    0.330
        67 -11.0347    205.4572     65.1393   2.6203809180e+02  -5.9289996483e+01   0.04824625   0.04240763  31.29  0.001510343    1.133    0.117
        68  -8.3599    155.5701     67.4791   2.6098948943e+02  -5.7583383400e+01   0.01822599   0.01746221  50.22  7.55955e-05    1.057    0.054
        69 -10.6539    172.8162     63.9530   2.6116684326e+02  -5.8207684241e+01   0.05353571    0.0363178   3.80   0.00146456    1.614    0.380
        70 -11.4109    167.9694     58.9566   2.6073399869e+02  -5.8104425875e+01    0.0793988   0.06379871 -70.53  0.001772465    1.246    0.197
        71  -9.4988    162.6829     60.6815   2.6072242809e+02  -5.7905227967e+01   0.02975532   0.02243103  74.64 0.0005505086    1.482    0.325
        72  -8.2105    133.3147     64.3140   2.6029221383e+02  -5.6868936818e+01   0.01955667   0.01311064  55.92 0.0003492105    1.641    0.391
        73  -8.8088     97.3178     64.0489   2.5951280916e+02  -5.5651543234e+01   0.02453758   0.02268973  18.82 0.0003347745    1.081    0.075
        74 -10.2781    207.3605     59.5781   2.6171917606e+02  -5.9423386808e+01   0.03531753    0.0304825  57.46 0.0006966194    1.209    0.173
        75 -10.4219    246.7787    220.9684   2.7300642117e+02  -5.8241377078e+01   0.04456486   0.02868394 -41.65 0.0006212968    1.651    0.394
        76 -11.3132    138.6824     46.3587   2.5928637789e+02  -5.7257546557e+01    0.1207761   0.01980389  31.96  0.002337723    4.174    0.760
        77 -10.9796    175.4390     53.0325   2.6052544722e+02  -5.8427344580e+01    0.0512076   0.04457931  17.03 0.0007894417    1.152    0.132
        78 -10.8491    206.5902     52.5821   2.6123675119e+02  -5.9483569514e+01   0.05123441   0.02955611  38.08 0.0009555426    1.713    0.416
        79 -10.7210    159.4473     50.7945   2.6001893196e+02  -5.7912145644e+01   0.03731836   0.02525026 -67.83   0.00141617    1.459    0.314
        80 -11.0103    182.8215     48.5878   2.6040762828e+02  -5.8729485028e+01   0.07564164   0.03900522  44.55  0.002486898    2.028    0.507
        81  -9.9918    186.5067     47.4839   2.6042107300e+02  -5.8867121509e+01   0.03401659   0.02622112  17.58  0.000780178    1.303    0.233
        82 -10.1517    176.5240     47.9853   2.6022348340e+02  -5.8523437236e+01   0.04217196   0.03330216   6.60  0.001154549    1.312    0.238
        83  -9.8222    189.0828     41.9483   2.6011731113e+02  -5.9019072074e+01   0.03930651   0.02517814  27.20 0.0008147454    1.521    0.342
        84  -8.2196    190.4800     52.4398   2.6083896417e+02  -5.8942429745e+01   0.01797988    0.0177422  68.72 0.0001269565    1.026    0.026
        85  -9.0716    175.9730     39.2856   2.5964501802e+02  -5.8605155546e+01   0.04358129   0.01672431  43.70   0.00121333    2.767    0.639
        86  -8.3627    102.9639     39.0219   2.5810440048e+02  -5.6119783070e+01   0.02223969   0.02026398  15.37 0.0005105315    1.099    0.090
        87  -8.5754    202.9059    187.4501   2.6961618696e+02  -5.7435073444e+01   0.02713516   0.01294649 -40.80 0.0008055641    2.441    0.590
        88  -9.8519    190.2090     36.5293   2.5978553326e+02  -5.9119752745e+01    0.0337933   0.02521124  16.08 0.0006290766    1.352    0.260
        89  -9.3943    187.5154     33.6286   2.5953264332e+02  -5.9061360053e+01   0.06558897   0.02083365  42.61  0.001673558    3.320    0.699
        90  -9.1025    144.2283     32.7357   2.5853994825e+02  -5.7597088947e+01   0.02582661   0.02013285  52.38 0.0005517027    1.337    0.252
        91 -10.2978    147.9638     25.4699   2.5815219934e+02  -5.7802869385e+01   0.04953639   0.02833337  34.49  0.001093164    1.699    0.411
        92  -8.5960    113.2038     15.7533   2.5685802252e+02  -5.6711582740e+01   0.02509796   0.01990557  51.03 0.0004608764    1.300    0.231
        93 -10.8778    249.1008    235.9395   2.7395637723e+02  -5.8043295935e+01   0.05232163    0.0278699  43.65  0.001763766    1.937    0.484
        94  -9.1161    224.7189    228.7181   2.7271665083e+02  -5.7421617195e+01   0.03905423   0.01760651 -42.45   0.00114916    2.536    0.606
        95  -8.9927    153.8328    186.1560   2.6810472886e+02  -5.5882960954e+01   0.03746724   0.02008471 -54.74  0.001275214    1.791    0.442
