#   1 NUMBER                 Running object number                                     
#   2 MAG_AUTO               Kron-like elliptical aperture magnitude                    [mag]
#   3 X_IMAGE                Object position along x                                    [pixel]
#   4 Y_IMAGE                Object position along y                                    [pixel]
#   5 X_WORLD                Barycenter position along world x axis                     [deg]
#   6 Y_WORLD                Barycenter position along world y axis                     [deg]
#   7 A_WORLD                Profile RMS along major axis (world units)                 [deg]
#   8 B_WORLD                Profile RMS along minor axis (world units)                 [deg]
#   9 THETA_WORLD            Position angle (CCW/world-x)                               [deg]
#  10 FWHM_WORLD             FWHM assuming a gaussian core                              [deg]
#  11 ELONGATION             A_IMAGE/B_IMAGE                                           
#  12 ELLIPTICITY            1 - B_IMAGE/A_IMAGE                                       
         1 -12.9763    219.5909     77.5464   5.2446319710e+01   2.0434712529e+01     11.09903     3.006266 -49.27   0.02805241    5.615    0.822
         2 -12.7491    238.6374     71.5152   4.8399297878e+01   1.7230412518e+01      3.06682      0.82256 -45.45   0.01016141    3.507    0.715
         3 -12.3194    218.8040     34.4193   4.1957577593e+01   2.6822168366e+01     1.627919    0.7620414 -56.63  0.007071048    2.327    0.570
         4 -12.1807    223.3596     60.9120   4.7842078502e+01   2.2147475390e+01      1.39142     1.001241 -57.67  0.007475699    1.351    0.260
         5 -12.3024    234.2395     52.4627   4.4500092581e+01   2.0951595768e+01     1.177053     0.766129 -76.33   0.00453194    1.742    0.426
         6 -12.4600    141.9451     42.7738   5.6314186967e+01   4.4477435673e+01      1.15793    0.8153463  83.97  0.005441674    1.829    0.453
         7 -12.6844    240.4922     29.3014   3.8604466065e+01   2.2638966621e+01     2.987795    0.4674899  58.75  0.009470343    5.383    0.814
         8 -12.2725    158.7652     50.1567   5.5222739389e+01   3.9289681736e+01     1.850914    0.9318547  70.05  0.007093607    2.452    0.592
         9 -11.1610    129.9683     22.3617   5.1900251712e+01   4.9905120769e+01    0.6294309    0.4161633   3.93  0.000341229    1.913    0.477
        10  -8.3962    222.8960     19.1007   3.7911603907e+01   2.7726996372e+01    0.4636455     0.290662 -43.15  0.001674672    1.473    0.321
        11  -8.1386    220.0286     13.7431   3.6929934708e+01   2.8973010894e+01    0.2846457    0.1636634 -26.13  0.001188984    1.968    0.492
        12 -10.0715    125.1829     12.6320   4.9422712145e+01   5.2039053626e+01    0.6543167    0.2044863 -28.68  0.002482676    3.237    0.691
        13 -11.0807    119.6931      9.7417   4.9486222349e+01   5.3604451154e+01    0.8505209    0.3927587  43.33  0.003538841    2.000    0.500
        14  -7.4673    235.2641     11.9393   3.5240565322e+01   2.5785321394e+01    0.1379883   0.09405284 -43.65 0.0002668154    1.348    0.258
        15  -9.1689    143.3361      7.4410   4.4391509658e+01   4.8118218176e+01    0.6294437    0.2220788 -10.68  0.002026177    5.074    0.803
        16  -9.0067    215.8212      7.6251   3.5877087666e+01   3.0579766902e+01    0.2138832    0.1590496 -56.20 0.0002793065    1.225    0.184
        17  -8.8119    233.8417      3.2172   3.3461799881e+01   2.7018724279e+01    0.2746122    0.1589101 -24.49  0.001426079    2.058    0.514
        18  -7.6118    139.2479      3.5810   4.3775974954e+01   4.9444416554e+01    0.1878558    0.1035341  56.31 0.0004861457    1.533    0.348
        19  -9.0816    249.2772      1.5612   3.2069560480e+01   2.3931003498e+01    0.2167488    0.1287773  88.36 0.0006789095    1.551    0.355
        20  -7.8111    215.6869      1.5161   3.4472199894e+01   3.1222688167e+01    0.1202705   0.09915127 -65.55 -2.108526e-05    1.085    0.078
        21  -8.7787    237.1484    175.2010   7.1803341409e+01   4.9393468066e-01    0.1659906    0.1645994 -39.86  0.001071987    1.392    0.282
        22  -7.5858    219.4988    250.4619   8.8583668027e+01  -7.6178820431e+00    0.1186563   0.09068047  15.05 0.0002404783    1.023    0.023
        23 -12.1559     28.9953    168.1339   1.1836164883e+02   3.6159297558e+01    0.6783253    0.5969971  89.36  0.001699844    1.096    0.087
        24 -11.8822     41.3674    161.1694   1.1458519860e+02   3.6556479117e+01    0.9011039    0.7663924 -83.26  0.003032162    1.025    0.025
        25 -11.2590     11.8521    172.1662   1.2267313220e+02   3.6755160115e+01    0.4726594    0.2784558  67.68  0.002782445    1.572    0.364
        26  -8.5674     56.7650    172.1547   1.1209534407e+02   3.2177281797e+01    0.1856524    0.1794471 -75.54 0.0003229461    1.189    0.159
        27  -7.4774    220.3505    171.3206   7.4076395575e+01   4.0018794799e+00    0.1475379   0.09996213   1.96 0.0007048206    1.744    0.426
        28  -7.4483    120.2968    172.2439   9.6339310063e+01   2.2531574268e+01    0.1362169    0.1139383  -0.83 0.0006850191    1.480    0.325
        29  -7.6193    158.7869    156.6134   8.3908799465e+01   1.8653081591e+01     0.208614    0.1409931  50.41 0.0009317375    1.573    0.364
        30  -8.1483    237.4293    249.4932   8.5238328554e+01  -9.9049045598e+00    0.1161996   0.08624179   8.79 -0.0001221775    1.010    0.010
        31 -10.2510    205.3764     70.1698   5.2738626741e+01   2.4863806930e+01    0.4198042    0.3727276 -16.04  0.001561782    1.252    0.202
        32  -8.5311    227.4844    246.4872   8.6522244254e+01  -8.2194909556e+00    0.1181831   0.09101834  12.40 -4.18897e-05    1.043    0.041
        33  -8.8871    244.1135    244.6481   8.3294526499e+01  -1.0201291734e+01    0.1716742    0.1372292 -16.10  0.000483992    1.340    0.254
        34  -7.5026     99.2173    244.9825   1.1101473548e+02   1.1114309122e+01    0.1354779   0.09675708 -69.30 0.0003668408    1.608    0.378
        35  -9.3814     69.6453    145.3172   1.0482361273e+02   3.7004608212e+01    0.3511224    0.2678504  65.60  0.001558597    1.416    0.294
        36  -9.4619     66.4102    144.1977   1.0553200041e+02   3.7713718406e+01    0.4942245    0.2753625 -71.70  0.001969623    1.841    0.457
        37  -8.1085    192.3978    144.2000   7.3664995548e+01   1.4310289393e+01    0.2039778    0.1376424 -48.59 0.0003884497    1.572    0.364
        38  -9.6981    196.3538    127.8015   6.8981738818e+01   1.6646768375e+01    0.2870602    0.2465176 -37.94 0.0003018861    1.119    0.106
        39  -8.6820    139.9307    128.4302   8.2010730251e+01   2.8697504341e+01    0.2650634    0.2141273 -38.96 0.0005381101    1.234    0.190
        40  -9.2664    185.4170    125.3714   7.0632565463e+01   1.9482817304e+01    0.4359574    0.1369226 -44.25  0.001329933    3.186    0.686
        41  -8.8261    201.8256    124.1509   6.7021479281e+01   1.6170290955e+01    0.2211033    0.2069993 -61.44 0.0004680676    1.171    0.146
        42  -7.4793    102.6879    122.2336   9.0665910399e+01   3.7431688185e+01    0.1449933    0.1167249  70.17 0.0001494923    1.494    0.331
        43  -8.6039    162.9745    120.7429   7.4439186076e+01   2.5375907922e+01    0.2811426    0.2174814 -65.88 0.0007473109    1.577    0.366
        44  -8.9939    187.2371    120.4630   6.9034710622e+01   2.0046137613e+01    0.3844002     0.154254  51.47  0.001318098    2.725    0.633
        45  -8.5783    199.5943    117.5002   6.5827059836e+01   1.7900343154e+01    0.3104168    0.1493314  48.61  0.001214062    2.181    0.542
        46  -7.8987    193.4318    117.4876   6.7033266546e+01   1.9253843832e+01    0.1516498    0.1430689 -32.18 4.009663e-05    1.019    0.019
        47 -10.4940    207.0466    109.5663   6.2469254459e+01   1.7736296600e+01    0.5538296      0.34978  43.14   0.00253357    1.709    0.415
        48  -8.4175    206.5230    105.5026   6.1555156463e+01   1.8585225572e+01     0.217318    0.1391298 -27.54 0.0006736417    1.637    0.389
        49  -9.9317    186.8840    109.1031   6.6225729056e+01   2.2319909496e+01    0.4893315    0.2556621 -48.07  0.001915896    2.009    0.502
        50 -11.0025    187.4972     96.5069   6.2814644060e+01   2.4542254466e+01     1.088251    0.3872723 -47.78  0.003389243    3.247    0.692
        51  -7.8167    143.9536    102.9512   7.4315968731e+01   3.3351375638e+01    0.2419246    0.1921307 -73.93 0.0006914616    1.602    0.376
        52  -8.0462     86.1251    101.5043   9.0513813643e+01   4.5166340203e+01    0.2091164     0.187087 -43.95 0.0004274803    1.046    0.044
        53  -8.7805    150.8433    100.6023   7.1957320935e+01   3.2275328952e+01    0.2985984    0.2753691   9.25 0.0006624556    1.137    0.120
        54  -8.6733    166.5336     97.6618   6.7497217316e+01   2.9225561528e+01    0.2941879    0.2237667  49.94    0.0013851    1.338    0.253
        55  -9.6718    162.6876     93.6817   6.7251450132e+01   3.0896871980e+01     0.555395    0.4095808  34.54  0.002083899    1.478    0.324
        56  -8.3107    136.1555     96.6974   7.4557421069e+01   3.6392882479e+01    0.2687997    0.2076458 -52.39 0.0006952347    1.366    0.268
        57  -7.4346    196.4965     96.4590   6.1088643754e+01   2.2471830043e+01    0.1490013    0.1430907 -31.06 0.0001156346    1.026    0.025
        58  -8.9118    144.9267     90.0361   7.0399941097e+01   3.5752203013e+01    0.2903641    0.2662793 -38.04 0.0007753148    1.084    0.077
        59  -9.7873    188.5130     79.4434   5.8049552113e+01   2.7331861157e+01    0.2779566    0.2710717  65.98 0.0005000336    1.051    0.048
        60 -10.9023    181.0414     83.6680   6.0613230643e+01   2.8383045599e+01    0.9295027    0.6770246 -12.12   0.00266153    1.739    0.425
        61 -11.5385    180.8192     69.6378   5.6757634301e+01   3.0828595412e+01    0.7071867    0.5317545   6.38   0.00312884    1.813    0.449
        62 -10.4302    161.3902     83.9295   6.4769826557e+01   3.3043344514e+01    0.3624831    0.2796717 -27.40  0.001728465    1.359    0.264
        63  -9.4698      3.5068     85.4997   1.1540950876e+02   5.7628673551e+01    0.1888024    0.1015773 -79.86 0.0009942279    1.808    0.447
        64  -9.1750    199.3562     80.3022   5.6363773999e+01   2.4621430196e+01     0.363933    0.2555451 -27.71 0.0008748712    1.493    0.330
        65 -10.2672    103.0285     81.8905   7.9556976490e+01   4.6432937104e+01    0.2353759    0.2130909 -32.25            0    1.066    0.062
        66  -7.7187    103.9225    240.4584   1.0961713677e+02   1.1238282331e+01    0.1768929      0.10203  40.60 9.671635e-05    1.452    0.311
        67 -10.8038    249.9814     59.5611   4.4358173181e+01   1.6624674966e+01     0.853022    0.2915452 -35.49  0.001072485    2.539    0.606
        68 -11.7223    131.0076     35.5092   5.6261919780e+01   4.8091054565e+01    0.6593549    0.5711439 -42.00  0.002759467    1.261    0.207
        69 -11.3377    173.3055     64.1119   5.6586181609e+01   3.3561141005e+01     1.253158    0.6353447 -59.15  0.004374696    3.051    0.672
        70  -8.5215    214.8936    234.2204   8.6840789942e+01  -4.8491819513e+00    0.1863433    0.1514648  -5.99 0.0003640714    1.154    0.134
        71  -9.9644    180.0245     43.6667   4.9547630271e+01   3.4923535136e+01     0.751509    0.2061909  51.15  0.002401427    3.533    0.717
        72  -9.3042    194.2721     46.2701   4.8102487753e+01   3.1070780515e+01    0.5084583    0.2589916 -47.72  0.001392522    1.990    0.498
        73 -10.2521    188.1304     45.2734   4.8741021966e+01   3.2706832870e+01     1.023726    0.3645374 -43.48  0.003741574    2.784    0.641
        74  -8.7097    192.2058     40.5557   4.6858255492e+01   3.2345143795e+01    0.4409482    0.2094859  56.36  0.001665841    2.019    0.505
        75  -9.9338    245.4759     60.5259   4.5071248172e+01   1.7415694794e+01    0.3172412    0.2521056 -51.17  0.001918064    1.087    0.080
        76 -10.9958    149.5149     43.1436   5.4860437756e+01   4.2570378058e+01    0.6685937    0.4617186 -79.03  0.003042944    2.004    0.501
        77  -9.1508    198.6487     44.5096   4.7011793661e+01   3.0252798435e+01    0.6631829    0.2777328 -50.79  0.002246804    2.675    0.626
        78  -8.6170    248.5891     40.4893   4.0307152514e+01   1.9511413375e+01    0.2590454    0.1593945 -73.94  0.001392855    1.734    0.423
        79  -8.1481    164.1887     39.7324   5.1036948766e+01   3.9387611467e+01    0.2434453     0.178194 -45.77 0.0006819855    1.424    0.298
        80  -8.8146    117.2089     59.8778   6.8177249653e+01   4.7632167821e+01    0.3118436    0.1942849 -46.96  0.001386064    1.790    0.441
        81  -8.9760    213.5201    216.5691   8.4093938748e+01  -2.1227515283e+00    0.2251739    0.2184217  58.76 0.0007999514    1.521    0.342
        82  -9.0102    201.5640    211.1284   8.5445163472e+01   6.1906645150e-01    0.2281602    0.1890046  25.27 0.0003756272    1.116    0.104
        83  -8.3887    161.9212     27.5501   4.7723615949e+01   4.1463315558e+01    0.2065493    0.1875769   7.46  0.001210159    1.250    0.200
        84 -10.8812    241.9153     46.6446   4.2331613378e+01   2.0098036396e+01    0.9554146    0.5389213  88.03  0.004667729    2.160    0.537
        85 -10.3606    233.2094    209.9920   7.9246427661e+01  -4.1673132136e+00    0.2214249    0.1915438  -2.46 0.0002967298    1.161    0.139
        86 -10.2175    149.3987     57.0555   5.9303277394e+01   4.0551221196e+01    0.3472409    0.2461291  61.87 0.0008495753    1.438    0.305
        87  -8.9471    202.9199    206.3825   8.4323723624e+01   1.1548073432e+00     0.224873    0.1758863 -17.02 0.0003821689    1.248    0.198
        88  -7.5388    219.4834     20.5184   3.8566779836e+01   2.8340845519e+01    0.1267674    0.1126035 -79.02 1.208304e-05    1.054    0.052
        89  -7.4757    124.5318    206.7554   1.0100163736e+02   1.4439958583e+01    0.1856316    0.1307278 -76.76 0.0007662271    1.803    0.445
        90  -7.9682    118.1875     20.2059   5.3684298511e+01   5.2926897469e+01    0.1731334    0.1581641 -66.52 0.0004570306    1.305    0.234
        91  -7.1693    150.6740    152.3335   8.4898091646e+01   2.1202119018e+01    0.1557057    0.1234715  84.52 0.0007051341    1.714    0.416
        92  -8.5033    203.4385    201.8107   8.3381301435e+01   1.8104584358e+00    0.2240541    0.1694104  29.48 0.0003065423    1.217    0.178
        93  -9.4126    235.6655    196.8193   7.6337904315e+01  -2.6112378375e+00    0.2997053    0.2310812  52.89  0.000962108    1.908    0.476
        94  -9.9340    199.2275     73.5539   5.4610657420e+01   2.5767122794e+01    0.3573942    0.2520268  43.57  0.001735468    1.565    0.361
        95  -7.3353    244.6909     13.7097   3.4892668253e+01   2.3575224040e+01    0.1071081   0.09128807  44.87  0.000699582    1.580    0.367
        96  -8.3564    230.3560    197.3562   7.7405467540e+01  -1.8651675744e+00    0.3317921    0.1468732 -32.03 0.0008761902    2.201    0.546
        97 -10.1442    170.9930    196.7704   8.9147951111e+01   8.3181118823e+00    0.2483321    0.2375894 -18.38 0.0004592482    1.128    0.113
        98  -8.3116    123.0533    195.0925   9.9550404672e+01   1.7078640647e+01    0.1952008    0.1838309  54.22 0.0003069505    1.023    0.022
        99  -8.1843    192.4500    194.2321   8.4172611425e+01   4.9752956454e+00    0.1791457     0.132269 -51.11 0.0009361848    1.659    0.397
       100  -9.0176     55.4999    187.8405   1.1421594203e+02   2.8700961152e+01    0.1953685    0.1923513  79.84 0.0004001447    1.251    0.201
       101  -8.6145    192.1735    181.6002   8.1769946900e+01   7.2758509048e+00    0.2042852    0.1864482 -32.32 0.0004008581    1.177    0.150
