#   1 NUMBER                 Running object number                                     
#   2 MAG_AUTO               Kron-like elliptical aperture magnitude                    [mag]
#   3 X_IMAGE                Object position along x                                    [pixel]
#   4 Y_IMAGE                Object position along y                                    [pixel]
#   5 X_WORLD                Barycenter position along world x axis                     [deg]
#   6 Y_WORLD                Barycenter position along world y axis                     [deg]
#   7 A_WORLD                Profile RMS along major axis (world units)                 [deg]
#   8 B_WORLD                Profile RMS along minor axis (world units)                 [deg]
#   9 THETA_WORLD            Position angle (CCW/world-x)                               [deg]
#  10 FWHM_WORLD             FWHM assuming a gaussian core                              [deg]
#  11 ELONGATION             A_IMAGE/B_IMAGE                                           
#  12 ELLIPTICITY            1 - B_IMAGE/A_IMAGE                                       
         1 -10.9720    193.8543     34.9518   4.5585682828e+01   3.2878896265e+01    0.9514964    0.6550956  19.40  0.001923141    2.154    0.536
         2 -10.0804    209.9901     12.7362   3.7971620257e+01   3.1592429848e+01    0.5385348    0.3587507 -80.77  0.002999932    1.461    0.315
         3 -10.0454    216.9360      9.6612   3.6587465012e+01   3.0307488126e+01     0.533695    0.3842868 -22.82  0.003150324    1.629    0.386
         4 -10.2088    212.0810      5.6812   3.6064265232e+01   3.1833784203e+01    0.6223538     0.436029  50.66  0.003634852    1.636    0.389
         5  -8.2924    236.0876      9.7100   3.5019313190e+01   2.6022910676e+01    0.1868733    0.1532179 -52.21 0.0004776319    1.137    0.121
         6  -8.8977    121.4894      8.0818   4.8897742795e+01   5.3553767528e+01    0.4373622     0.166885  55.19  0.001852111    2.130    0.530
         7  -8.4291    248.1038      3.7892   3.2898055364e+01   2.4099408829e+01    0.1804731     0.161869 -48.92 0.0002755423    1.249    0.199
         8  -8.9872    215.4016    214.5115   8.4253826145e+01  -2.0164408820e+00    0.2615331    0.2416298  83.30 0.0007634475    1.773    0.436
         9  -8.4631    104.0064    250.1804   1.1127242867e+02   9.5648957304e+00    0.1832688    0.1326619  13.52  0.001086273    2.015    0.504
        10 -17.6292     22.0864    239.2717   1.2540633339e+02   2.1727108380e+01     2.648327     2.178378  50.92   0.01609471    1.331    0.249
        11  -8.3211     75.3787    215.0775   1.1337897273e+02   2.0176083441e+01    0.2572933    0.1662081 -80.13 0.0009945652    1.593    0.372
        12  -8.6676     78.9948    213.7668   1.1248395422e+02   1.9951417444e+01    0.2352655    0.1541516  88.28 0.0008022607    1.641    0.391
        13  -8.2471     91.4890    214.6551   1.0994543181e+02   1.7999400183e+01    0.2162577    0.1983414 -33.85 0.0006491219    1.403    0.287
        14  -8.4606    135.2516    212.4064   1.0026926614e+02   1.1597745529e+01    0.2006713    0.1103121  47.27 0.0009507954    1.718    0.418
        15  -8.9071    203.6290    209.1547   8.5560461994e+01   6.8497460860e-01     0.243915    0.1852901  35.60 0.0004005074    1.286    0.222
        16  -8.0710    186.3182    231.1274   9.2666548844e+01   4.8823687075e-02    0.2859541    0.1137237 -52.44  0.001085732    4.303    0.768
        17 -10.3880    235.1641    207.8632   7.9389801651e+01  -4.0688305671e+00    0.2248369    0.1927348  -5.20 0.0002978696    1.152    0.132
        18 -10.4699    133.2219    230.1798   1.0318790098e+02   8.6569864583e+00     0.462908    0.2848055 -28.46  0.002276825    2.560    0.609
        19  -8.2595    127.2934    206.9452   1.0118270423e+02   1.3976374835e+01    0.1780768    0.1715213 -71.91 0.0003868623    1.131    0.116
        20 -10.1339    140.7737    229.4078   1.0154258435e+02   7.5964508233e+00    0.3182223    0.2675224  48.40  0.002029322    1.114    0.102
        21  -9.2333    205.0806    204.3890   8.4409424278e+01   1.2068292264e+00    0.2932203    0.2100143  20.00 0.0004229055    1.302    0.232
        22  -8.3023    101.5984    202.7255   1.0625825957e+02   1.8954378244e+01    0.1752323    0.1240144 -79.17 0.0007567056    1.571    0.364
        23  -9.9973     85.2015    199.0717   1.0943983569e+02   2.2183025060e+01    0.5331909    0.2945915  67.83  0.001794384    2.268    0.559
        24  -7.7507     89.4025    199.4842   1.0855312675e+02   2.1482298391e+01    0.1899523     0.123051 -83.69 0.0005574264    1.747    0.428
        25  -7.7862    215.2611    200.0055   8.1619924013e+01   2.3120962853e-01    0.1836111    0.1542598  -2.48 0.0003537812    1.042    0.041
        26  -8.7107    205.3797    199.9301   8.3522930500e+01   1.8796482756e+00    0.2313136    0.1949273  18.27   0.00031112    1.071    0.066
        27  -7.7337     98.0100    198.0697   1.0643377994e+02   2.0495779266e+01    0.2026794    0.1442455  74.94 0.0004682294    1.558    0.358
        28  -8.0579     73.3208    197.0007   1.1184115010e+02   2.4298085036e+01    0.2286602    0.1776718  18.88 0.0008348612    1.679    0.405
        29  -8.3008    232.0032    195.5952   7.7647450621e+01  -1.7746413587e+00    0.2228878    0.1716638 -40.94 0.0005442051    1.532    0.347
        30 -10.0841    173.0813    195.0111   8.9229197738e+01   8.3445025354e+00    0.2514395    0.2425097 -32.39 0.0004009186    1.162    0.140
        31  -8.9413    125.2121    193.6858   9.9603796176e+01   1.7030731373e+01     0.231668    0.2215843  14.32 0.0002482599    1.129    0.114
        32  -7.8257      8.1182    193.5532   1.2540475047e+02   3.2248052426e+01    0.3032225    0.1151743  25.61  0.001472367    3.342    0.701
        33  -8.1465     96.6803    189.4940   1.0554517840e+02   2.2572295233e+01    0.2860025    0.2095083  59.76  0.001543497    1.349    0.259
        34  -7.5731     53.3883    188.6730   1.1538027445e+02   2.8705349454e+01    0.1679188     0.105889 -63.20 0.0009248881    1.538    0.350
        35  -7.8383     41.3284    188.1622   1.1801210365e+02   3.0204899684e+01    0.2563698    0.1242549  50.89   0.00129921    1.938    0.484
        36  -8.2975    104.6978    185.1423   1.0302156314e+02   2.2276900158e+01    0.3685284    0.1959839  79.86  0.001136458    4.757    0.790
        37  -9.2299     13.8449    184.1893   1.2361569013e+02   3.3795413027e+01    0.1915688    0.1696544  50.85 0.0005632322    1.322    0.244
        38  -7.7772     22.7750    184.0324   1.2170062790e+02   3.3022149979e+01     0.246876    0.1733413  88.57 0.0008821065    1.165    0.142
        39  -8.3696     20.2557    181.6352   1.2205619373e+02   3.3793092125e+01    0.3107342      0.17874 -56.01  0.001275715    1.874    0.466
        40  -8.4461    122.7972    183.1526   9.8429385031e+01   1.9695032101e+01    0.1911611    0.1668662 -16.22 0.0005253939    1.364    0.267
        41  -8.8800    194.2328    179.6458   8.1816521629e+01   7.3366067050e+00     0.242412    0.2218246  -7.62 0.0002907397    1.052    0.050
        42  -7.1912     13.2243    180.3006   1.2346923669e+02   3.4713879426e+01    0.1081465    0.0748248 -63.21 0.0002320271    1.463    0.317
        43  -7.4117    221.9707    178.2260   7.6058311055e+01   2.6408879258e+00    0.1695696    0.1082196  37.36 0.0004651476    1.585    0.369
        44  -7.7836    180.2009    177.3727   8.4307486006e+01   1.0363304873e+01    0.2258364    0.1691783 -45.76 0.0005952446    1.422    0.297
        45  -7.2822    150.2271    178.6249   9.1221609317e+01   1.5731851077e+01    0.1395671    0.1133936 -84.11 0.0006885691    1.603    0.376
        46  -7.6930     18.5185    177.1444   1.2208127104e+02   3.4962536383e+01     0.171812    0.1267523  33.35  0.000564965    1.588    0.370
        47  -7.6420    241.4783    176.5360   7.2170213026e+01  -3.4757816509e-01    0.1342046     0.111559  -9.00 5.892153e-05    1.003    0.003
        48  -8.4042     88.4467    174.4534   1.0529906442e+02   2.7249655570e+01    0.3604233    0.2273814 -66.71   0.00177151    1.579    0.367
        49  -9.8831     64.0293    171.9593   1.1092939484e+02   3.1248831306e+01    0.4867566    0.3472519  70.88  0.001644353    1.416    0.294
        50  -8.9045     15.8889    155.9826   1.2088089154e+02   4.0076418141e+01      0.29884    0.1616746  45.29  0.001347949    1.901    0.474
        51  -9.0477     17.7716    165.4863   1.2128310981e+02   3.7700737970e+01    0.4022854    0.1969847 -84.29  0.001210441    1.789    0.441
        52  -9.2337     14.5822    160.4521   1.2159097233e+02   3.9135273770e+01    0.4820123    0.3714574  -0.99  0.003094396    1.915    0.478
        53  -8.4695     29.8075    174.6059   1.1933225050e+02   3.4491106038e+01    0.2386472    0.1670607  56.54  0.001051651    1.361    0.265
        54  -9.1150     22.8673    173.4656   1.2080713120e+02   3.5409605181e+01     0.568955    0.1744201  43.08  0.002505599    2.947    0.661
        55  -9.1140      8.7393    174.9705   1.2405211705e+02   3.6280504603e+01    0.4694093      0.20867  18.89  0.001952131    3.296    0.697
        56  -8.5550     15.9326    172.9107   1.2231711542e+02   3.6150070390e+01    0.2895224    0.1886456 -63.90  0.001249437    1.458    0.314
        57  -7.8220    136.3472    174.5673   9.3692670501e+01   1.9153577836e+01    0.2873128    0.1343372  43.25 0.0006180801    2.070    0.517
        58  -8.5706    104.1722    172.7799   1.0116675155e+02   2.5163614533e+01    0.3353545    0.2641296  49.97 0.0009610316    1.239    0.193
        59 -10.5428    145.6750    221.2230   9.9368393239e+01   8.2517583780e+00    0.5800011    0.2612621 -53.53  0.002597952    2.635    0.620
        60  -7.9216    121.9916    170.5130   9.6395946812e+01   2.2638858154e+01     0.208856    0.1940539 -58.75  0.000345215    1.095    0.087
        61  -9.1051     81.5239    170.5636   1.0642234376e+02   2.9185442430e+01    0.3180836    0.2358723 -40.54  0.001572226    1.602    0.376
        62  -9.0877     85.2589    166.0060   1.0478533708e+02   2.9716605125e+01    0.3337348    0.2727818 -23.50  0.000920485    1.593    0.372
        63  -8.9976     58.9138    171.0473   1.1205998033e+02   3.2109776182e+01    0.2138245    0.2012572  51.66 0.0002847128    1.196    0.164
        64  -7.9160     30.9375    170.3529   1.1866839801e+02   3.5366842779e+01      0.16644    0.1452495  71.58 0.0004538021    1.135    0.119
        65  -6.9665    222.6267    169.2910   7.4081570979e+01   4.0277681183e+00    0.1284591    0.1136712 -86.38 0.0007022962    1.726    0.421
        66  -7.1964    133.4981    169.5213   9.3417177655e+01   2.0781360074e+01    0.1455373    0.1417469  46.84 0.0008103052    1.003    0.003
        67  -7.8731    127.1471    166.8251   9.4444599426e+01   2.2544550326e+01    0.2209231    0.1777742 -12.96 0.0003817525    1.571    0.363
        68  -7.4696    129.6388    164.3197   9.3349133493e+01   2.2652441466e+01    0.2394702    0.1774302  58.57 0.0008585175    1.493    0.330
        69  -8.9770     74.6072    165.1631   1.0735160427e+02   3.1451799067e+01    0.2272278    0.1738108  56.52 0.0006668331    1.303    0.232
        70  -8.5618     82.1040    161.6282   1.0489257348e+02   3.1229705647e+01     0.235822    0.2244504  57.95  0.001010374    1.106    0.096
        71  -8.2936     71.2173    161.1318   1.0761399027e+02   3.2886464984e+01    0.3577315    0.1446184  48.71  0.001384036    2.706    0.631
        72  -8.3860     91.6885    157.8368   1.0177576385e+02   3.0688183968e+01    0.2445326    0.1956509  51.44 0.0003620634    1.260    0.207
        73  -9.0685     51.0635    156.7967   1.1218322756e+02   3.6462857280e+01    0.4815371     0.275832  89.98  0.002272396    1.956    0.489
        74  -8.3089     23.4431    156.5043   1.1909480261e+02   3.9319545646e+01    0.2215007    0.1024365 -73.01 0.0008333439    1.784    0.440
        75  -8.1158     33.2233    153.9775   1.1638842538e+02   3.9025741525e+01    0.2655079    0.1346835 -47.70 0.0007701434    2.207    0.547
        76  -8.7701     22.0014    153.1582   1.1911298090e+02   4.0238811148e+01    0.2689745    0.2137774 -32.91  0.001703197    1.640    0.390
        77  -7.7228     31.7218    157.3736   1.1714392565e+02   3.8355618094e+01    0.1769757    0.1253752  38.31 0.0005950393    1.549    0.355
        78 -10.1018     28.0144    153.7888   1.1767939162e+02   3.9558669529e+01    0.4784698    0.3153838 -79.90  0.002183452    1.280    0.219
        79 -10.2651     80.6172    152.5891   1.0378681778e+02   3.3635439102e+01    0.4663338    0.2610308 -45.21  0.001181476    1.939    0.484
        80  -7.0487    213.7407    156.2861   7.2966196515e+01   7.9272938994e+00    0.1294429    0.1128145 -63.31            0    1.484    0.326
        81  -8.1488      2.2226    153.1427   1.2389822828e+02   4.1749896479e+01    0.2964783    0.1970752  77.42  0.001577408    1.323    0.244
        82  -8.3581     96.0755    152.6540   9.9691019642e+01   3.1236636467e+01    0.3243298     0.201744 -48.49 0.0008778042    1.610    0.379
        83  -9.0672     55.4279    151.4682   1.1030995537e+02   3.7250422305e+01       0.2591    0.1676428  68.70  0.001294951    1.740    0.425
        84  -9.7554     12.1011    151.6642   1.2140544001e+02   4.1387842404e+01     0.455309    0.2198645  18.47  0.002179286    2.811    0.644
        85  -7.3575    152.5004    150.5739   8.4904392074e+01   2.1283678479e+01    0.1516806    0.1469114   7.87 -0.0001149896    1.017    0.016
        86 -11.8943     68.2571    142.6504   1.0544905799e+02   3.7803660528e+01     1.275107    0.7451176 -76.67  0.004457302    1.880    0.468
        87  -8.3415    107.1990    149.4084   9.6121826761e+01   3.0149321897e+01    0.2100824    0.1356257  49.72  0.000690156    1.631    0.387
        88 -10.1317      9.4053    146.4149   1.2159028856e+02   4.2823292537e+01    0.4669025    0.2435578  46.35  0.001615002    2.019    0.505
        89  -9.8331     55.6785    145.5033   1.0936247932e+02   3.8684438540e+01     0.336516    0.2940308 -19.61  0.001995813    1.427    0.299
        90  -7.3183     83.4712    142.4333   1.0119422931e+02   3.5697320266e+01    0.1437814    0.1343233 -74.19 0.0002681211    1.007    0.007
        91  -9.5409     96.4229    137.9816   9.6720709228e+01   3.4734879189e+01    0.4390455    0.3205661 -48.48  0.002152033    1.329    0.247
        92 -10.3511     59.7306    133.3258   1.0625131019e+02   4.1204958075e+01    0.4354173     0.301354 -89.11  0.002187015    1.621    0.383
        93  -9.6360      3.3663    138.2546   1.2236502982e+02   4.5154504588e+01    0.4135723    0.1893048 -85.33   0.00208101    1.906    0.475
        94  -7.9669    107.4425    138.2138   9.3733676202e+01   3.2786155545e+01    0.2493352    0.1840757  45.76  0.001166687    1.401    0.286
        95 -10.6572    134.4059    219.7345   1.0151200596e+02   1.0358695803e+01    0.5475472    0.2354228  42.15  0.002430987    2.028    0.507
        96  -9.5563    157.8118    218.6254   9.6450823956e+01   6.7113396594e+00       0.3859    0.1731441  40.42  0.001728395    1.961    0.490
        97 -10.0490     49.7798    133.2869   1.0910133428e+02   4.2379716084e+01    0.2957944    0.2240808  79.74  0.001522814    1.411    0.291
        98  -9.0201     84.4237    132.2289   9.8926043989e+01   3.8059605025e+01    0.5132329    0.2553954  57.13  0.001850882    3.005    0.667
        99 -10.0586     37.4617    129.4556   1.1204265305e+02   4.4600423893e+01    0.3953849    0.2143108  33.52  0.001493241    2.054    0.513
       100  -7.3475    115.3157    129.3141   8.9571100275e+01   3.3465440505e+01    0.1565394    0.1213059 -14.01 0.0006531638    1.644    0.392
       101  -9.4163     27.5736    127.8678   1.1464915311e+02   4.5880758544e+01    0.4894152    0.1946134  41.10  0.002178105    2.753    0.637
       102  -9.6330    198.0776    125.8633   6.8963421136e+01   1.6763880169e+01    0.3116195    0.2279754 -31.12 0.0003692969    1.319    0.242
       103  -8.7573    141.6544    126.9738   8.2027014870e+01   2.8740952443e+01    0.2723392    0.2254031  41.84 0.0002563161    1.231    0.188
       104 -10.4800     48.8155    125.9169   1.0816267003e+02   4.4309360461e+01    0.3792638    0.2681972 -47.93  0.001669075    1.362    0.266
       105 -10.2203     54.6403    124.8005   1.0623435523e+02   4.3927455239e+01     0.432403    0.2670776 -40.71  0.002103588    1.741    0.426
       106 -10.6318     55.5034    117.4257   1.0459169424e+02   4.5647248966e+01    0.4888619    0.3026007 -48.33  0.001730244    1.487    0.328
       107  -9.7973      2.8690    125.0638   1.2122447012e+02   4.8304682906e+01    0.3666712    0.1686785 -72.31  0.001914269    1.654    0.395
       108  -8.1070    103.1653    125.0816   9.1981816333e+01   3.6695478385e+01    0.2320621    0.1994386 -18.95 0.0006659372    1.307    0.235
       109  -8.7910     40.7682    125.5964   1.1048642926e+02   4.5228059894e+01    0.1781128    0.1200539  43.26 0.0009573118    1.655    0.396
       110  -8.2873    203.8903    122.1948   6.6930827896e+01   1.6214306691e+01    0.2885847    0.1807925  45.97   0.00129591    1.690    0.408
       111  -7.3461    104.2643    121.0081   9.0701753133e+01   3.7471866798e+01    0.2011143    0.1886368 -47.23 0.0002607274    1.017    0.017
       112 -10.0592     38.1566    115.1909   1.0955439184e+02   4.8040263748e+01    0.4436375    0.3002317   3.61  0.002356609    1.985    0.496
       113  -9.0169    133.3967    147.5014   8.8928434357e+01   2.5760153276e+01    0.5967169    0.2004981 -41.30  0.001784705    3.486    0.713
       114  -8.1065     28.3236    101.8524   1.1035595990e+02   5.2144459681e+01    0.1979087     0.166717  36.43 0.0006877863    1.414    0.293
       115  -8.4658     87.9427    100.2548   9.0368592362e+01   4.5194383885e+01    0.2367332    0.1944989 -45.69 0.0002573187    1.128    0.114
       116  -7.6267    145.2966    100.9180   7.4187577366e+01   3.3598361217e+01    0.2127523    0.1913453 -32.07 0.0002023185    1.091    0.083
       117  -7.2330    249.5420     93.4735   5.2636726694e+01   1.1722991778e+01    0.1367178    0.1175434 -38.51 6.383796e-05    1.015    0.014
       118  -7.8914    121.4413     86.9421   7.6434924908e+01   4.1740132609e+01    0.2542771     0.215238  10.14  0.000947574    1.297    0.229
       119 -10.2335    104.3457     80.4863   7.9462959285e+01   4.6572562742e+01    0.2698018    0.2474643 -22.08 0.0002731549    1.030    0.029
       120  -9.0045    200.3502     78.3012   5.6312716600e+01   2.4894774012e+01    0.3855429    0.2531435 -32.22  0.001142343    1.502    0.334
       121  -7.5201    116.0116     79.0476   7.5535035805e+01   4.4490136194e+01    0.1823884    0.1673764 -26.51 0.0009593607    1.051    0.049
       122  -8.4753    175.1971     67.9406   5.7960192553e+01   3.2671316133e+01    0.2278491    0.1978121 -67.63 0.0006115471    1.225    0.184
       123  -6.8666     52.5041     68.4963   9.3671167015e+01   5.7422010122e+01     0.136488    0.1177465 -34.29 0.0008105063    1.028    0.028
       124  -7.3844    143.8616     59.6004   6.1984068534e+01   4.1685116874e+01    0.2051504    0.1439347  68.36 0.0009277526    1.648    0.393
       125 -10.2322    173.8022     55.0530   5.4448983395e+01   3.5047794745e+01    0.4011025    0.3859053 -51.71  0.001214156    1.041    0.039
       126  -7.5124    150.8783     55.1583   5.8996993670e+01   4.0689329360e+01    0.1982029    0.1668389  26.94  0.001017703    1.269    0.212
       127  -7.1987    104.2591     53.6441   7.0406181632e+01   5.1635305000e+01    0.1394607    0.1139515 -63.07 0.0005908502    1.617    0.382
       128  -7.8206     99.9613     51.4597   7.0921351617e+01   5.2884794966e+01    0.1845832    0.1308282  74.20  0.000806429    2.361    0.576
       129 -11.1936    188.5589     41.1539   4.8040101373e+01   3.3369996979e+01     1.116969    0.8059553  33.87  0.005438689    1.701    0.412
       130  -9.5747    153.2029    216.4041   9.7067291760e+01   7.8719068734e+00    0.2747448    0.2446157 -35.81  0.001715158    1.252    0.201
       131  -7.8215     91.1189     47.6399   7.2306209481e+01   5.5272564037e+01    0.2091996     0.178091  60.46  0.001149773    1.483    0.326
       132  -7.3052    131.8428     33.8102   5.6014648769e+01   4.8326446570e+01    0.1808994    0.1611314 -67.05 0.0003011601    1.301    0.232
       133  -7.4281    171.0115     26.5208   4.6439184942e+01   3.9545309148e+01    0.2047642    0.1268335  63.91  0.000595646    1.494    0.331
       134  -8.3921    162.9847     25.7224   4.7442866253e+01   4.1637413630e+01    0.2052101    0.1942673 -19.85 0.0003854916    1.153    0.132
       135  -8.5297    130.7129     21.5295   5.1912533383e+01   5.0042149902e+01    0.2330766    0.2076879 -45.41 0.0007384645    1.255    0.203
       136  -8.7152     91.1505    247.4983   1.1344537417e+02   1.1831881698e+01    0.3556031    0.1798523  65.53  0.001529993    2.401    0.584
       137  -7.9000    132.7817    248.2209   1.0553881307e+02   5.6683379500e+00    0.1670208    0.1314794  20.02  0.001074658    1.387    0.279
       138  -8.4172    216.9323    232.2240   8.7012586771e+01  -4.7720303496e+00     0.184765    0.1519067  -4.29 0.0002652412    1.136    0.120
       139  -9.5520    246.1390    242.9112   8.3560254436e+01  -1.0154338078e+01    0.2788861    0.1733834 -37.83  0.001431603    2.015    0.504
       140  -7.5467    229.8070    244.3581   8.6654977632e+01  -8.1625155111e+00    0.1661087   0.08778317  25.18 0.0009369366    1.621    0.383
