#   1 NUMBER                 Running object number                                     
#   2 MAG_AUTO               Kron-like elliptical aperture magnitude                    [mag]
#   3 X_IMAGE                Object position along x                                    [pixel]
#   4 Y_IMAGE                Object position along y                                    [pixel]
#   5 X_WORLD                Barycenter position along world x axis                     [deg]
#   6 Y_WORLD                Barycenter position along world y axis                     [deg]
#   7 A_WORLD                Profile RMS along major axis (world units)                 [deg]
#   8 B_WORLD                Profile RMS along minor axis (world units)                 [deg]
#   9 THETA_WORLD            Position angle (CCW/world-x)                               [deg]
#  10 FWHM_WORLD             FWHM assuming a gaussian core                              [deg]
#  11 ELONGATION             A_IMAGE/B_IMAGE                                           
#  12 ELLIPTICITY            1 - B_IMAGE/A_IMAGE                                       
         1 -15.1164    244.9248     33.1701   5.0147574974e+01   1.9408884404e+01     5.779636    0.8174554 -27.72   0.01568891    5.195    0.807
         2 -13.3428     25.4938     45.9040   1.0848237888e+02   6.4192910533e+01      0.98911    0.7814232  -5.80  0.006628386    1.479    0.324
         3 -13.7291      7.2715     29.1072   1.1178618930e+02   6.8945214609e+01    0.9390136    0.7389097 -17.99  0.005467684    1.375    0.273
         4 -13.4591      5.3577     10.9716   1.0658755385e+02   7.2600228212e+01    0.9383686     0.666119 -46.62  0.006422753    1.087    0.080
         5 -12.7167     17.8978      4.3902   9.6541046232e+01   7.2813454642e+01    0.6052722     0.389659   2.67  0.003867771    1.725    0.420
         6 -13.8008      5.8629     48.4982   1.1722545377e+02   6.4966335492e+01     1.421516    0.6712708 -55.75   0.00815829    1.567    0.362
         7 -13.6136     58.7081     17.8175   8.3593957492e+01   6.5559596812e+01     1.196962    0.5542852  31.75  0.005432148    2.519    0.603
         8 -12.3514     73.5297      5.1599   7.1675530288e+01   6.4744268764e+01    0.4477858    0.2832951  50.88   0.00240566    1.696    0.410
         9 -10.9350     60.0160      1.5105   7.4704190066e+01   6.7633294576e+01    0.3038388    0.1193712  47.69  0.001346946    2.666    0.625
        10 -13.8001     88.0580    208.7464   1.1728595005e+02   2.2419405931e+01    0.9320301    0.8571193 -80.53  0.006376623    1.337    0.252
        11 -13.0180     72.2933    168.7231   1.1624952609e+02   3.2039663902e+01     1.550243    0.6620736  45.89  0.007670184    2.072    0.517
        12 -13.7471     52.6659    148.8267   1.1835994822e+02   3.8645962157e+01     1.779653    0.9409086  53.09  0.009687478    1.803    0.445
        13 -13.5144     42.1896    161.5876   1.2203938218e+02   3.7154192669e+01     2.732813     1.044674  63.60   0.01178449    3.222    0.690
        14 -15.2625    107.5006    173.3408   1.0927593964e+02   2.5934217679e+01     2.597596     2.278369  82.58   0.01668158    1.107    0.097
        15 -13.6577     28.9642    169.1688   1.2546938698e+02   3.6988262548e+01      1.24216    0.5322349  53.64  0.006954215    2.025    0.506
        16 -14.9548     74.1629    228.7166   1.2147009072e+02   2.0976286159e+01     2.203791     1.018016  66.26   0.01250986    2.264    0.558
        17 -13.7084     60.5855    207.0619   1.2222497969e+02   2.6304385429e+01    0.8711753    0.3825724  48.23  0.003739422    1.789    0.441
        18 -13.4353      9.6362    162.0750   1.2896169117e+02   4.0162662016e+01    0.6722234    0.5342682  83.76  0.003282475    1.113    0.101
        19 -13.8339     67.9802    200.0725   1.2026952630e+02   2.6623148658e+01     1.263252    0.4155459  50.46  0.006042494    2.520    0.603
        20 -13.7593      6.3302    171.9163   1.3017853968e+02   3.8497663414e+01    0.8151177    0.3711388  56.30  0.005003741    1.796    0.443
        21 -15.2479     34.9247    200.8214   1.2647494541e+02   3.0352989249e+01     2.433534    0.7260194  37.84    0.0123669    2.885    0.653
        22 -15.1788     35.5731    186.0380   1.2537400295e+02   3.3022771213e+01     2.623649    0.4923942  42.94   0.01147087    3.481    0.713
        23 -14.1857     54.0743    247.2241   1.2597058552e+02   2.0564677659e+01     1.348562    0.2817982  45.91  0.006827596    2.861    0.650
        24 -14.7500     59.3761    239.4309   1.2466881593e+02   2.1122537532e+01     2.628751    0.1850639  49.80  0.008900596    6.147    0.837
        25 -12.3360     35.4940    249.2190   1.2894138213e+02   2.2329287567e+01    0.3843908    0.1443888  52.79   0.00201758    1.783    0.439
        26 -14.7394     19.3887    236.6553   1.3087608725e+02   2.5905887875e+01     1.085184     0.619786  85.18  0.006473056    1.486    0.327
        27 -14.3661      4.1860    228.4902   1.3292659573e+02   2.8641352733e+01    0.6232144    0.3181577  74.78  0.003590422    1.459    0.315
        28 -14.1955      9.1290    221.6784   1.3190728845e+02   2.9299867983e+01     1.160729   0.02606386  47.26  0.005326247    3.938    0.746
        29 -14.8437      8.5039    248.9772   1.3294140751e+02   2.5069668913e+01    0.7228321    0.3607085  37.49  0.005307043    2.011    0.503
        30 -14.2915      3.1510    240.8667   1.3347549115e+02   2.6791221745e+01    0.4893435    0.2256176  84.75  0.003664808    1.797    0.443
        31 -14.4520     81.0493    189.8383   1.1674650797e+02   2.6759811524e+01     1.962342    0.8461845  48.93   0.01010628    1.959    0.490
        32 -13.6799    116.4441    142.2357   1.0225750923e+02   3.0599291449e+01      1.51846     0.863099  46.74  0.007068608    1.671    0.401
        33 -12.7668    127.5271    133.7784   9.8004446005e+01   3.0284921780e+01    0.7989754     0.386128 -47.83   0.00338106    2.150    0.535
        34 -13.8453      4.8919    100.6458   1.2525372126e+02   5.3546025607e+01     1.378158    0.6283199  84.61  0.005295038    2.249    0.555
        35 -12.4951     14.4041     97.4583   1.2216122913e+02   5.3627364395e+01    0.7029522    0.4313799  80.13   0.00320504    1.627    0.385
        36 -12.9145      3.7425    136.8206   1.2860490189e+02   4.5804038593e+01    0.7367038    0.3783902 -89.25  0.003692849    1.571    0.364
        37 -13.2836      4.5510    122.1709   1.2731421413e+02   4.8867271794e+01    0.7304141    0.5198929 -56.89   0.00340342    1.502    0.334
        38 -11.9867     18.2877    130.1970   1.2462908939e+02   4.6102386523e+01    0.7176377    0.3326845 -80.34  0.003921223    1.817    0.450
        39 -10.7725     73.1514    133.9887   1.1139204235e+02   3.9251872227e+01    0.3211391    0.2282656  81.91  0.001799273    1.471    0.320
        40 -13.0185     39.1098    128.5187   1.1925500171e+02   4.4554494234e+01    0.9754035    0.6768859 -89.04  0.005226279    1.276    0.216
        41 -11.9924     48.0975    129.3560   1.1707329368e+02   4.3408185385e+01    0.5769766    0.4338697  59.52  0.003241356    1.295    0.228
        42 -12.1636     57.3166    124.2119   1.1395960892e+02   4.3479380699e+01    0.7116371    0.4423715  65.85  0.003811605    1.762    0.432
        43 -10.7055     21.8026    115.6154   1.2224364737e+02   4.9013494405e+01    0.2442542    0.1466221  65.61  0.001444179    1.694    0.410
        44 -12.7429    120.1722    112.0282   9.5038525145e+01   3.6206011988e+01    0.6539813    0.5568711 -78.54  0.003522811    1.276    0.217
        45 -12.7086    113.4181    109.8878   9.6271479425e+01   3.7952638327e+01    0.6116558    0.5412932  21.33  0.003386507    1.291    0.226
        46 -11.7654     83.1008    113.2210   1.0510289192e+02   4.2412086558e+01    0.3417766    0.3227183  54.32  0.002121557    1.132    0.117
        47 -11.9580     51.7397    109.7634   1.1319345733e+02   4.7394987243e+01    0.5832247    0.4335083   8.49  0.003357596    1.936    0.484
        48 -11.8065     74.3918    107.2129   1.0631392192e+02   4.5048973202e+01    0.5641741    0.3589641 -72.24  0.002845503    1.639    0.390
        49 -12.2182    102.3786    105.2883   9.8123482241e+01   4.0969040372e+01    0.3864642    0.2639706 -46.79    0.0019192    1.450    0.311
        50 -11.3587     33.9895    101.4732   1.1697750895e+02   5.1123566008e+01    0.4720583    0.2569935  55.57  0.002490357    2.102    0.524
        51 -10.8256     41.4381     96.8143   1.1400560316e+02   5.1454433109e+01    0.3900308    0.1111514 -66.53  0.001445912    3.169    0.684
        52 -13.4277    126.7407     88.9706   8.7411759911e+01   3.9630637648e+01     1.403352    0.9274848 -82.19  0.005429709    2.736    0.634
        53 -11.7641     53.8095     93.9199   1.0970270242e+02   5.0752221512e+01    0.5018055     0.299086  57.12  0.002542201    2.031    0.508
        54 -11.7417     19.4391     87.8630   1.1932930309e+02   5.5415818040e+01    0.5718235    0.3268506 -85.09  0.003197926    1.677    0.404
        55 -12.4637    132.4298     86.6827   8.5307925712e+01   3.8857962955e+01    0.8568566    0.4687907 -56.17   0.00332253    2.297    0.565
        56 -10.7538     13.0317     79.0125   1.2004990682e+02   5.7845201905e+01     0.296371     0.167678  44.10  0.001746657    2.057    0.514
        57 -12.0812     32.8332     66.2736   1.1078238587e+02   5.9154790713e+01    0.4932465    0.4396044 -17.92  0.003261025    1.294    0.227
        58 -13.3281      4.3468     77.8884   1.2273275978e+02   5.8616230552e+01     1.245172    0.5509427 -72.20   0.00599332    1.732    0.423
        59 -13.2701     18.4463     69.1467   1.1653592307e+02   5.9676228014e+01     0.990181    0.6834425 -35.81   0.00518143    1.580    0.367
        60 -10.3191     33.3597    241.4322   1.2891534931e+02   2.3734911896e+01    0.1770238   0.04847393  48.15  0.001008675    2.314    0.568
        61 -11.7118     58.4316     78.8855   1.0492335482e+02   5.3572771291e+01    0.5942376    0.3100851 -66.22   0.00273569    2.006    0.501
        62 -11.4455     76.1333     81.6249   9.9921986835e+01   5.0503980664e+01    0.3789687    0.2038113  49.25  0.001711366    2.167    0.538
        63 -13.0977    116.4537     63.8328   8.2509798985e+01   4.6745789221e+01     1.185314    0.5522994  56.97  0.004343939    2.683    0.627
        64 -11.9770     91.0308    230.3335   1.1869313220e+02   1.8502308572e+01    0.5808287    0.2638416  59.64  0.002832477    2.118    0.528
        65 -11.2730     94.4731    224.4298   1.1757677359e+02   1.8952817094e+01    0.4593914    0.1872343  42.44  0.002239372    1.944    0.486
        66 -11.1973     34.8819    227.6164   1.2799993890e+02   2.5760407675e+01     0.361389    0.1170128  53.36   0.00195875    2.211    0.548
        67 -10.2181     29.0381    223.9961   1.2877710326e+02   2.6967866965e+01    0.2591234    0.1533931  43.07  0.001927266    1.534    0.348
        68 -11.0769     77.4905     47.9875   8.9064138718e+01   5.7253708464e+01    0.2150447    0.1908557  28.04  0.001274307    1.202    0.168
        69 -11.3767    113.6711     45.6302   7.6901212925e+01   5.0593923617e+01    0.3474982    0.2848638 -42.01  0.001823635    1.244    0.196
        70 -13.0444     41.4235    219.1197   1.2643798263e+02   2.6457088167e+01    0.9090734    0.2527405  54.21  0.004546376    2.807    0.644
        71 -11.9846     58.4416     38.5341   9.2554228698e+01   6.1998775963e+01    0.4868108    0.3809644   9.96  0.002888906    1.421    0.296
        72 -12.1278    141.8724     30.1036   6.4223943681e+01   4.6164218558e+01    0.5768856     0.280703 -22.24  0.002251467    2.232    0.552
        73 -14.0331     15.0783    187.7396   1.2935737844e+02   3.4721369918e+01     1.010914     0.521247  33.79  0.006586767    2.115    0.527
        74 -11.3324      1.5015    207.8786   1.3263469641e+02   3.2313947978e+01    0.2559305   0.09134913 -87.56  0.001291528    2.412    0.585
