#   1 NUMBER                 Running object number                                     
#   2 MAG_AUTO               Kron-like elliptical aperture magnitude                    [mag]
#   3 X_IMAGE                Object position along x                                    [pixel]
#   4 Y_IMAGE                Object position along y                                    [pixel]
#   5 X_WORLD                Barycenter position along world x axis                     [deg]
#   6 Y_WORLD                Barycenter position along world y axis                     [deg]
#   7 A_WORLD                Profile RMS along major axis (world units)                 [deg]
#   8 B_WORLD                Profile RMS along minor axis (world units)                 [deg]
#   9 THETA_WORLD            Position angle (CCW/world-x)                               [deg]
#  10 FWHM_WORLD             FWHM assuming a gaussian core                              [deg]
#  11 ELONGATION             A_IMAGE/B_IMAGE                                           
#  12 ELLIPTICITY            1 - B_IMAGE/A_IMAGE                                       
         1 -10.2652     24.5657     16.7620   1.1359918840e+02   6.9708488524e+01    0.3178935    0.2866775  17.96 0.0007973438    1.388    0.279
         2  -9.2216     31.3944     10.9081   1.0746594575e+02   7.0146479712e+01    0.4885797    0.2242942 -27.89  0.001983172    2.452    0.592
         3  -9.8682     63.8663     14.4224   9.4361149063e+01   6.5177096251e+01    0.4249825    0.2724279  13.98 0.0008197587    1.841    0.457
         4  -9.3436     74.2626     13.5191   8.9909171331e+01   6.3528260793e+01    0.3994179    0.2335611 -16.55  0.001663721    1.765    0.434
         5  -8.3894    134.3655     13.6129   7.3070381204e+01   5.0244987504e+01    0.3237706    0.1790415  27.27  0.001315965    2.088    0.521
         6  -8.6610     89.0366     13.0697   8.4615710480e+01   6.0749565409e+01    0.4346287    0.1787062  35.58  0.001632452    2.856    0.650
         7  -8.9038     80.1476     12.7261   8.7410757193e+01   6.2548862092e+01    0.2914743    0.2346773 -30.10  0.000947885    1.240    0.194
         8  -8.8792     97.1966     11.9602   8.1575506237e+01   5.9184506640e+01    0.2824048     0.213095  33.22 0.0007358177    1.274    0.215
         9  -8.1848    156.7001      9.8214   6.7423423828e+01   4.4862039619e+01    0.3759481    0.1171934 -38.35  0.001199334    3.348    0.701
        10  -8.0811    105.9035     10.8253   7.8590801380e+01   5.7398288231e+01    0.2317954    0.1764861  17.99 0.0006775591    1.266    0.210
        11  -9.6917    234.3748      8.5765   5.7706413762e+01   2.4902501809e+01    0.3822246    0.2450686 -19.60  0.001177009    1.500    0.333
        12 -10.7174     20.0743      8.8708   1.1250703588e+02   7.1601744991e+01    0.3030934     0.203923  -3.49 0.0004395654    1.657    0.396
        13  -8.0682    128.4134      7.7206   7.1836873306e+01   5.2360767962e+01    0.1991709    0.1338648  -1.34 0.0006166868    1.542    0.352
        14  -7.6154     39.2789      8.3765   1.0223083182e+02   6.9686179595e+01    0.1485051    0.1164016  31.23 0.0008339761    1.531    0.347
        15  -8.2513      2.2090      8.0250   1.2226605263e+02   7.2980086821e+01    0.1812088    0.1528948 -21.29  0.001381967    1.278    0.218
        16  -8.4172     76.5906      7.1023   8.5786158287e+01   6.3988403822e+01    0.2809171    0.1516451  31.46  0.001044479    1.982    0.496
        17  -9.3139     56.7149      4.6024   9.2158505572e+01   6.7808106919e+01    0.4408659     0.243543  -2.65  0.001800381    2.572    0.611
        18  -7.7494    119.4882      6.5255   7.3263048154e+01   5.4680557115e+01    0.1474639    0.1291276  19.95 -9.374617e-05    1.032    0.031
        19  -8.2589     84.4913      6.0432   8.2563757599e+01   6.2573289009e+01    0.2000848    0.1074714   1.56  0.000808891    2.489    0.598
        20  -9.9514     49.0976      4.6624   9.5558833979e+01   6.8961098480e+01    0.2669146    0.1948167  -7.71 0.0003776981    1.254    0.202
        21  -8.9599    110.8339      4.3419   7.4299509082e+01   5.6974346256e+01     0.349756    0.1947221 -32.52  0.001590751    1.825    0.452
        22  -8.7632     68.7853      3.6641   8.6792843229e+01   6.5883405120e+01     0.318458    0.1725455 -18.06   0.00152828    1.789    0.441
        23  -8.5310     12.9002      4.8402   1.1469236302e+02   7.2928410822e+01    0.2417801    0.1545882  -1.64  0.001528564    1.786    0.440
        24  -8.4680    125.2468      3.8264   7.0812068427e+01   5.3533637497e+01    0.2450808    0.1848186   1.74 0.0007413704    1.306    0.234
        25  -8.9568    104.6007      2.9151   7.5180308866e+01   5.8570326504e+01    0.3717806    0.2117336  -1.84  0.001659085    1.916    0.478
        26  -8.1149    153.8581      3.1864   6.5352584235e+01   4.6227512039e+01     0.204631    0.1532746  35.61 0.0002755971    1.292    0.226
        27  -7.9773    182.1293      2.1438   6.1079428705e+01   3.8803214331e+01    0.2142223    0.1817048  39.23 0.0003880737    1.164    0.141
        28  -7.6604    143.1773      2.1902   6.6717510158e+01   4.9114986455e+01    0.1847771    0.1676409 -63.61 0.0003072328    1.266    0.210
        29  -7.8558      2.9946      1.3769   1.1907018673e+02   7.4232974745e+01    0.1363173    0.1016058  -2.02 0.0003196053    1.510    0.338
        30  -7.3585    204.5104    230.9852   1.1292263736e+02   3.2330826064e+00    0.1351885   0.08008224   4.96 0.0006094483    2.224    0.550
        31  -7.4916    249.2987    250.3374   1.0864124156e+02  -4.6574965800e+00    0.1058037   0.05500115  17.66 0.0006539202    1.658    0.397
        32  -9.2165    212.0081    250.0000   1.1420090704e+02   3.5858081797e-01    0.1986273    0.1084641  40.32  0.001151268    1.413    0.292
        33  -9.7506    200.2492    249.1644   1.1591721635e+02   2.0591329721e+00    0.2785928    0.1608648  24.85  0.001091855    1.516    0.340
        34  -9.0440    151.1065    249.6596   1.2373276011e+02   8.8282426130e+00    0.2239361    0.1160017  34.83 0.0007553328    1.582    0.368
        35  -7.7748    124.0041    250.5031   1.2812005375e+02   1.2362571593e+01    0.1592567   0.07467449  40.15  0.001026381    1.594    0.373
        36  -7.5055     26.6391    250.3149   1.4296629449e+02   2.3475601378e+01   0.09918324   0.04018891  59.32 0.0001422582    1.756    0.431
        37  -7.5634    236.8235    229.8470   1.0765237349e+02  -1.3062854715e+00    0.1325292    0.1056503  28.33 0.0002923865    1.305    0.234
        38  -8.0032    195.4895    228.9323   1.1411580649e+02   4.7734360795e+00    0.1325994    0.1046114 -17.19 0.0008196315    1.512    0.339
        39  -7.6044    133.3392    229.2717   1.2457949865e+02   1.3804336828e+01    0.1020611   0.07328478  23.70 0.0003481976    1.606    0.377
        40  -7.7316    101.3231    229.3008   1.3000170876e+02   1.8131364941e+01   0.09266361   0.07613199  20.54 0.0003880909    1.631    0.387
        41  -7.7231    248.2992    228.3275   1.0567173985e+02  -2.7744302719e+00    0.1426836     0.082001  39.63 0.0003438062    1.567    0.362
        42  -8.4456    247.1607    225.1041   1.0536192248e+02  -2.3421774140e+00      0.22573    0.1387031   4.78  0.001167331    1.508    0.337
        43  -8.0053    229.6645    227.2953   1.0839669962e+02  -5.9043406352e-02    0.2089567    0.1095662  -1.48  0.001170567    2.570    0.611
        44  -7.2201    175.3139    228.2751   1.1737392903e+02   7.8369515397e+00    0.1081061   0.07042407  22.26 0.0002387417    1.561    0.360
        45  -8.1648    186.7190    226.6138   1.1525808607e+02   6.3299013362e+00    0.1762961    0.1081096  20.04 0.0007647578    1.730    0.422
        46  -7.4753     92.6869    227.6594   1.3131916944e+02   1.9471752218e+01   0.09009165   0.07842811  11.48  0.000704678    1.699    0.412
        47  -7.7205     70.1886    225.9902   1.3496186492e+02   2.2446644029e+01    0.1356155    0.1015571  30.81 0.0007408793    1.631    0.387
        48  -7.7894    237.0628    225.4697   1.0697287445e+02  -9.5020118096e-01     0.166701   0.08060817  35.83 0.0006787876    1.559    0.359
        49  -7.7909    223.5359    224.9729   1.0902836762e+02   1.0463211082e+00    0.1479239   0.07957517   1.85 0.0008092426    2.531    0.605
        50  -7.3429    206.5239    222.4894   1.1142154598e+02   3.8127542821e+00    0.1156321   0.08234502  24.90 -1.05892e-05    1.104    0.094
        51  -7.6921     51.8372    221.4093   1.3771407221e+02   2.5201978774e+01    0.1265035   0.08388919  33.48 0.0007395567    1.703    0.413
        52  -8.9282    239.7839    218.9055   1.0555745310e+02  -7.4388242824e-01    0.2531788     0.127442 -13.77  0.001481165    2.304    0.566
        53  -7.8296    217.6777    219.6118   1.0918566443e+02   2.4401647563e+00    0.1855754     0.105622  18.98  0.001120063    1.723    0.420
        54  -8.2585    182.4402    219.7942   1.1507177500e+02   7.7581726863e+00    0.2283969    0.1133677  30.01  0.000830979    1.896    0.473
        55  -7.6940    130.0674    220.4397   1.2420895336e+02   1.5470696364e+01    0.1517572    0.0847761  24.15 0.0008072851    2.533    0.605
        56  -7.4233    114.6636    220.3216   1.2688642245e+02   1.7645259753e+01    0.1127264   0.06810576  62.05  0.000705032    1.710    0.415
        57  -7.5722     40.3801    220.2928   1.3953710820e+02   2.6573240707e+01   0.07924583    0.0759098  -5.14 0.0007019602    1.748    0.428
        58  -7.5229    173.3366    219.3147   1.1656257702e+02   9.2018601321e+00    0.1142535   0.07516133  18.72 0.0004597781    1.694    0.410
        59  -7.5416    227.4836    217.4856   1.0728657275e+02   1.1916379659e+00    0.1156387   0.08205184  22.16 0.0002066497    1.053    0.051
        60  -7.3113    105.6677    217.6782   1.2820472721e+02   1.9256441731e+01   0.09800898   0.08103497  13.22  0.000704977    1.700    0.412
        61  -7.8005    203.7893    216.3764   1.1099655181e+02   4.8823173127e+00     0.165474    0.0813828  32.72 0.0004566996    1.660    0.398
        62  -8.4805    193.6692    215.5108   1.1257305808e+02   6.5345362843e+00    0.2471041    0.1405994  21.85  0.001187852    1.866    0.464
        63  -7.7089    219.3036    215.3235   1.0828107636e+02   2.6331460633e+00    0.1170248    0.0698225  16.63 0.0003214901    1.638    0.389
        64  -9.3091    248.7653    212.9977   1.0323510892e+02  -1.5015685206e+00    0.2657154    0.1808373 -14.00 0.0009675864    1.488    0.328
        65  -8.2026    232.0051    212.5089   1.0579498632e+02   1.0060392143e+00    0.2031617      0.13009   2.71 0.0006060733    1.551    0.355
        66  -8.1384    122.4426    213.1785   1.2477059057e+02   1.7601429931e+01    0.2189054    0.1272532  29.44  0.001253812    1.915    0.478
        67  -7.8824    186.1042    210.3165   1.1312555853e+02   8.3252259705e+00     0.169606    0.1180963  34.75   0.00112149    1.125    0.111
        68  -7.8867    162.9764    207.8165   1.1684596865e+02   1.2273671517e+01    0.1888035    0.1144152  22.44 0.0009154241    1.942    0.485
        69  -7.9965    246.7306    205.2204   1.0228826985e+02  -4.8402913356e-01    0.1795945    0.1243532 -15.09   0.00121618    1.464    0.317
        70  -8.1337    236.4833    204.5303   1.0379892557e+02   1.1206123483e+00    0.1995967    0.1162461  15.15 0.0005330334    1.627    0.385
        71  -8.0448    215.7586    205.5335   1.0735332153e+02   4.2152305058e+00    0.2209228   0.08824901  36.86  0.001096673    2.016    0.504
        72  -8.0220    117.9119    205.0706   1.2469852721e+02   1.9474171885e+01    0.1637144    0.1304478  14.74 0.0007373841    1.667    0.400
        73  -8.5537    228.8642    199.7503   1.0424652254e+02   2.7851637838e+00    0.2389844    0.1256254   3.60  0.001180368    2.638    0.621
        74  -8.9451    175.7438    203.4525   1.1395483730e+02   1.0832243682e+01    0.2213226     0.186556  42.71 0.0006807936    1.170    0.145
        75  -8.0201    196.2565    200.4233   1.0987873973e+02   7.9114850441e+00    0.2286528   0.09353796  38.62  0.001022193    1.993    0.498
        76  -7.5977    251.0000    198.9583   1.0056987496e+02  -5.2356040816e-01    0.1668925   0.05915689 -26.72 0.0008027697    2.945    0.660
        77  -8.2622    165.8869    197.4074   1.1485701963e+02   1.3234177465e+01    0.2370793    0.1225081  32.09   0.00107639    1.859    0.462
        78  -8.0717    192.9370    194.1309   1.0946784929e+02   9.2370139415e+00    0.2262753    0.1436717   3.59  0.001235521    2.071    0.517
        79  -7.5416    237.6734    193.7094   1.0178751213e+02   2.0396024420e+00     0.123916   0.07208111  17.00 0.0007015925    1.617    0.382
        80  -7.3119    124.6719    193.6805   1.2207916095e+02   2.0273838605e+01    0.1113804   0.08901527   9.48 0.0007047365    1.685    0.406
        81  -6.8811    150.3117    192.3600   1.1702649040e+02   1.6479092824e+01     0.119177   0.08870573   8.87 0.0007042126    1.745    0.427
        82  -7.8335     90.0428    192.2980   1.2856146445e+02   2.5422776533e+01    0.1632636    0.1239103  52.16 0.0007627824    1.105    0.095
        83  -8.4188    247.1353    189.5217   9.9537730239e+01   9.9393605363e-01    0.2958696     0.151906  11.53  0.001509951    2.256    0.557
        84  -7.8036    224.8222    189.4367   1.0316608136e+02   4.5541624923e+00    0.1761683   0.09008193  30.81 0.0006006412    1.686    0.407
        85  -7.4411    179.6740    188.6729   1.1098881525e+02   1.2168963155e+01    0.1263699   0.08568413  14.46 0.0006204147    1.698    0.411
        86  -7.5623    148.5399    185.5071   1.1637023486e+02   1.7813468176e+01    0.1227032    0.1044921  34.28 0.0002787333    1.072    0.067
        87  -7.5229    139.3092    185.3705   1.1813967152e+02   1.9329570461e+01    0.1193695   0.09204748   4.09 0.0003361284    1.767    0.434
        88  -8.0500     64.6630    189.5763   1.3315896737e+02   2.9070614618e+01    0.1941077   0.09913123  32.97  0.001119521    2.106    0.525
        89  -8.0074    161.5273    190.4759   1.1463980937e+02   1.4933473885e+01    0.1225951    0.1019941  34.91 0.0001165833    1.019    0.019
        90  -7.5668    165.5083    182.5139   1.1265333212e+02   1.5441573451e+01    0.1256328    0.1059575  32.83 4.933211e-05    1.019    0.018
        91  -7.8517    155.8243    181.2181   1.1430922511e+02   1.7271739759e+01    0.1715288     0.136051  17.79 0.0007674219    1.358    0.264
        92  -7.5004    183.6576    180.6942   1.0893704432e+02   1.2596369030e+01    0.1304064   0.08719418  15.98 0.0007041894    1.686    0.407
        93  -7.7266     96.2896    178.5595   1.2581064485e+02   2.6988592434e+01    0.1612576    0.1065698  30.34 0.0007680279    1.702    0.413
        94  -8.1709    148.5111    174.9780   1.1476222336e+02   1.9491172016e+01    0.2517552    0.1576747  28.65 0.0009432181    1.704    0.413
        95  -7.7249     46.8001    175.6391   1.3547525924e+02   3.3608742945e+01    0.1569805   0.07935478  47.47 0.0005734679    1.701    0.412
        96  -8.4257    176.6948    168.1582   1.0806567361e+02   1.5642019319e+01    0.3869078    0.2028069 -12.90  0.001315709    4.899    0.796
        97  -7.6405     14.4947    170.5243   1.4144216527e+02   3.7607321099e+01    0.1028168   0.07817708  77.64 0.0008099179    1.035    0.034
        98  -7.7066    150.9621    165.8173   1.1276243795e+02   2.0577559449e+01    0.2101437    0.1386232  19.48  0.001063831    1.940    0.485
        99  -7.8577    169.3189    163.4243   1.0865160067e+02   1.7700576102e+01     0.261855    0.1132215  39.11  0.001134288    2.115    0.527
       100  -7.3268    200.5120    161.4897   1.0230773660e+02   1.2281359496e+01    0.1360641    0.1097512  17.72 1.885542e-05    1.100    0.091
       101  -7.8295    122.8060    162.6879   1.1811501241e+02   2.5873937885e+01    0.2524842    0.1089822  34.40  0.001072684    2.520    0.603
       102  -7.4536    205.5298    159.4120   1.0097868067e+02   1.1647538331e+01    0.1340178    0.1099988  19.59 0.0001449531    1.040    0.039
       103  -7.0861    138.4872    158.4985   1.1409991959e+02   2.4002875415e+01    0.1299017    0.1177195  49.00 0.0008102934    1.036    0.034
       104  -7.4596    107.0353    151.7783   1.1984966648e+02   3.0434300890e+01    0.1698614   0.09739419  41.66 0.0008664948    1.646    0.392
       105  -7.2793     50.3381    149.3193   1.3232920783e+02   3.8402342487e+01    0.1091649   0.08536671 -41.48  0.000525355    1.708    0.415
       106  -7.7652    133.3668    148.1712   1.1338283647e+02   2.6768196304e+01     0.181563    0.1249223 -62.24  0.000944878    1.712    0.416
       107  -7.3864    120.3511    148.3241   1.1629922769e+02   2.8961360389e+01    0.1303674    0.1034694  -2.45 0.0007048261    1.755    0.430
       108  -9.3633     67.2736    144.8158   1.2794481689e+02   3.7384260884e+01     0.462746    0.2485137  65.99  0.002319719    2.213    0.548
       109  -8.5376     14.0472    140.0891   1.3963766374e+02   4.3633776857e+01    0.3581624    0.1673038 -33.36  0.001386735    6.513    0.846
       110  -8.2532    250.0000    140.0019   8.9334155062e+01   5.9884517367e+00    0.2065006   0.06676029 -27.40 0.0007976785    2.910    0.656
       111  -7.9917    139.6194    138.2125   1.1010037682e+02   2.7504363916e+01    0.1897651    0.1268088 -34.37 0.0006702783    1.706    0.414
       112  -7.5728    107.0985    137.2903   1.1742551272e+02   3.3303857132e+01    0.2080404       0.1088  19.51  0.000701004    4.371    0.771
       113  -8.4051      4.5168    134.1417   1.4136271407e+02   4.5542241913e+01    0.1769241    0.1383722 -17.80  0.001301357    2.004    0.501
       114  -8.0885     23.9014    129.8332   1.3653793006e+02   4.4997060376e+01    0.3231125     0.151617 -39.16  0.001471071    3.880    0.742
       115  -7.6054     41.3165    129.2941   1.3226352526e+02   4.3543306259e+01    0.1111792   0.08361372 -45.58 0.0005257619    1.603    0.376
       116  -7.2873    143.6620    126.6543   1.0677324671e+02   2.8918738165e+01    0.1468854     0.110172   2.28 6.172504e-05    1.778    0.438
       117  -7.9358    132.5270    124.9871   1.0899293570e+02   3.1352338943e+01    0.1963785    0.1197271 -23.61 0.0008094369    2.511    0.602
       118  -9.1578     13.4984    120.0396   1.3819383094e+02   4.7888434292e+01    0.3150573    0.1448755 -48.34  0.001669975    2.625    0.619
       119  -7.5806    118.8063    119.3589   1.1109124798e+02   3.4981758226e+01    0.1994072    0.1286823  32.04 0.0009405512    1.719    0.418
       120  -7.9675     99.9697    118.9955   1.1575077344e+02   3.8245133877e+01    0.2101815    0.1653098 -13.81 0.0006484878    1.746    0.427
       121  -8.5781    250.5981    113.8765   8.3339169270e+01   9.0477248163e+00    0.1963785    0.1166391 -21.66  0.000536771    1.513    0.339
       122  -7.6157    184.7116    112.6102   9.4580189618e+01   2.2944162540e+01    0.2016727    0.1392748  55.37 0.0009495432    1.609    0.379
       123  -8.2839     22.2387    112.5804   1.3525085911e+02   4.8860895840e+01    0.1294192    0.1136485  -6.71 0.0005210981    1.575    0.365
       124  -9.1563      2.2709    109.8242   1.4016849053e+02   5.0815116909e+01    0.3272747    0.1386697 -52.28  0.001767981    2.473    0.596
       125  -7.6505    124.0359    107.4586   1.0708322541e+02   3.6450575484e+01    0.1998841    0.1253721  18.29 0.0005604203    2.490    0.598
       126  -9.2104     15.1203    104.8314   1.3632764029e+02   5.1087787535e+01    0.4776379    0.2163409 -36.92   0.00222621    3.562    0.719
       127  -7.6647    134.2781    106.3519   1.0426850934e+02   3.4689193459e+01    0.1470418    0.1133631  -7.03 0.0007009608    1.646    0.393
       128  -8.7229    249.0000    103.0275   8.0984725969e+01   1.0711082177e+01    0.2287932   0.07022691 -26.85 0.0005999468    2.942    0.660
       129  -7.8813     94.1224    103.1959   1.1397158495e+02   4.2573617051e+01    0.2943814    0.1125248  32.26  0.001038604    3.413    0.707
       130  -9.2544     11.2143     95.6128   1.3642552312e+02   5.3387003605e+01    0.1785833    0.1617338  88.70  0.001371477    1.186    0.157
       131  -9.4978     20.1644     91.9449   1.3338553662e+02   5.3607857074e+01     0.363144     0.136324 -52.56  0.001741432    2.404    0.584
       132  -6.8537     83.3367     93.3041   1.1476728873e+02   4.6403450183e+01    0.1369847    0.1037955 -22.35 0.0003259195    1.669    0.401
       133  -8.7652     43.9286     92.0330   1.2627181311e+02   5.1572574791e+01    0.3285447    0.2303268 -14.04  0.001735276    2.096    0.523
       134  -8.0472     96.6524     90.2678   1.1018501263e+02   4.4958193347e+01    0.3190046    0.2119965  -5.70   0.00133786    2.683    0.627
       135  -7.0605    110.0199     91.0000   1.0662987708e+02   4.2460375446e+01    0.2308266   0.08228211  42.17 0.0008005656    2.929    0.659
       136  -8.3979     67.0623     86.0095   1.1796877999e+02   5.0298913753e+01    0.3086883    0.1993446  21.17  0.001578426    2.003    0.501
       137  -9.3981     36.0625     81.9692   1.2692610640e+02   5.4599338871e+01    0.5701855    0.2407066 -39.79  0.002427391    3.075    0.675
       138  -7.5571    126.5990     84.1756   1.0029316596e+02   4.0633709882e+01    0.2158991     0.136296 -29.96 0.0009417096    1.719    0.418
       139  -8.3123     88.7507     78.6826   1.0945595435e+02   4.8753457269e+01    0.3434954    0.1758167  19.69  0.001175125    3.947    0.747
       140  -9.9188      8.5659     77.0920   1.3499870725e+02   5.7685097610e+01    0.4787832    0.2000191 -44.69  0.002424879    2.518    0.603
       141  -7.8723    184.4923     78.0160   8.5247332957e+01   2.8616442117e+01    0.2277361    0.1463253 -28.34 0.0004754823    1.514    0.339
       142  -8.9979     48.6669     77.0899   1.2184889615e+02   5.4479892310e+01    0.3401305    0.2569313 -19.99  0.001559238    1.663    0.399
       143  -7.4356    120.2927     76.3055   9.9652650476e+01   4.3472048930e+01    0.1484626    0.1149841  -2.51 0.0002661429    1.578    0.366
       144  -9.6937     24.4129     73.2530   1.2919239893e+02   5.7528168128e+01    0.7572822    0.2646366 -41.53  0.003051505    3.551    0.718
       145  -8.3084     23.4675     69.5121   1.2884253876e+02   5.8444502943e+01    0.2192068    0.1453933 -54.64 0.0005908519    1.265    0.209
       146  -8.1538     74.8027     74.7724   1.1275002767e+02   5.1736284956e+01     0.241639    0.1777984  -1.43 0.0009069664    1.866    0.464
       147  -9.2987     62.0000     66.9901   1.1488587674e+02   5.5184228246e+01    0.7320398    0.1264443 -51.01  0.002163865    4.325    0.769
       148  -9.5558     65.5233     61.2528   1.1203734592e+02   5.5971255569e+01    0.4642603    0.3244232 -33.71 -9.590844e-05    1.436    0.304
       149  -7.4257    129.3463     69.3377   9.5065911979e+01   4.2912411062e+01    0.1606342    0.1165833   6.36 0.0004560339    1.779    0.438
       150  -8.1410     43.1524     68.1355   1.2170386484e+02   5.7067340329e+01    0.2508916    0.1587688 -35.11  0.001360473    1.734    0.423
       151  -7.9185     80.4690     68.0143   1.0901674724e+02   5.2352212496e+01    0.2158745    0.1740561 -27.19 0.0003835659    1.279    0.218
       152  -8.3335     84.3713     63.6638   1.0642612222e+02   5.2650378040e+01     0.363368    0.2332453   4.25  0.001541842    2.617    0.618
       153  -7.8037    106.2376     67.5447   1.0090010282e+02   4.7981723068e+01    0.2017202    0.1387711  28.10 0.0009443921    1.677    0.404
       154  -9.5788     17.6762     62.3192   1.2955844980e+02   6.0464953455e+01    0.4510359    0.1917549 -53.97   0.00177596    1.827    0.453
       155  -8.8813     51.4957     60.8351   1.1689819496e+02   5.7806255785e+01    0.3451605    0.2793605 -73.27  0.002089855    1.310    0.237
       156 -10.7840     38.4230     57.5913   1.2084846579e+02   5.9882697670e+01    0.4670597    0.2690344 -26.28 0.0005038902    2.271    0.560
       157  -9.8086    243.9156     57.5055   7.0032575731e+01   1.7429151713e+01    0.2812224    0.2325978  27.29 0.0004965336    1.255    0.203
       158  -7.6668    111.3485     58.3173   9.6351736504e+01   4.8764590070e+01    0.1550629    0.1133492   3.48 0.0007048069    1.730    0.422
       159  -9.4671      2.3624     55.2603   1.3395715306e+02   6.2881847821e+01    0.4709555     0.323928 -74.32  0.003186103    1.150    0.131
       160  -9.8095     17.3905     38.6204   1.2436825006e+02   6.5732170747e+01    0.5783687    0.1643719 -40.89  0.002241676    3.594    0.722
       161  -8.8741      3.6540     40.1732   1.3065690442e+02   6.6155734700e+01     0.251512    0.1252859 -69.20  0.001426279    1.565    0.361
       162 -10.1496      9.7988     47.7385   1.2969654471e+02   6.4186567516e+01    0.5469345    0.3055022 -31.74  0.002068504    1.993    0.498
       163  -9.2455      2.1048     45.7419   1.3240421177e+02   6.5001540650e+01    0.3419946    0.2082965 -65.43   0.00104966    1.210    0.173
       164  -7.1891     99.6729     54.2984   9.8437522785e+01   5.1825229559e+01    0.1398055    0.1164076 -78.20 0.0007027431    1.635    0.388
       165  -9.3370     74.8801     50.6837   1.0535082382e+02   5.6827370426e+01    0.4358464    0.2578487 -24.97 0.0005004925    2.084    0.520
       166  -9.1177    248.1456     52.9966   6.8322530832e+01   1.7017739308e+01     0.241807    0.1937708  26.92 0.0004926156    1.320    0.243
       167  -8.1458    118.4068     51.3701   9.1899348901e+01   4.8550661035e+01    0.2856206     0.183368  55.27 0.0009514066    1.776    0.437
       168 -10.2226     45.3507     49.0676   1.1581842676e+02   6.1047963625e+01    0.2447743    0.2045561 -24.50 0.0005992588    1.229    0.186
       169  -9.7643     24.1931     47.3435   1.2378376427e+02   6.3350615914e+01    0.5258633    0.2684515  -3.82  0.002495977    3.205    0.688
       170  -8.9643     31.5280     43.9614   1.1985944480e+02   6.3495277511e+01    0.2164447     0.169124 -20.25 0.0007381239    1.399    0.285
       171  -8.2216     52.5933     47.4912   1.1250635391e+02   6.0558159819e+01    0.2432632    0.1319639  30.00 0.0009543946    2.161    0.537
       172  -9.0275     93.9708     42.7125   9.5954968947e+01   5.5066073071e+01    0.5727552    0.3727917  27.90   0.00272456    1.757    0.431
       173  -8.1718    106.9573     48.0873   9.3978322781e+01   5.1540625265e+01    0.2156889    0.1943413  -9.62  0.001188728    1.044    0.042
       174  -8.6266     37.9805     42.2066   1.1665937528e+02   6.3274051234e+01    0.2008339    0.1260861 -21.81  0.001071276    1.913    0.477
       175  -7.5968    123.1890     40.7723   8.6652851367e+01   4.9267477683e+01    0.2440595    0.1582119  12.97 0.0009058944    2.035    0.509
       176 -10.2269     83.2685     39.9864   9.8456927857e+01   5.7515577442e+01    0.2892755    0.2384193   5.37            0    1.271    0.213
       177  -8.8056    106.2806     36.9345   8.9862713813e+01   5.3600217881e+01    0.4222981    0.2482658  16.97  0.001655295    2.560    0.609
       178  -9.4665     37.6217     35.8246   1.1470919429e+02   6.4650101646e+01    0.3710548    0.2153676 -23.48  0.001650038    2.087    0.521
       179  -8.7157     92.2048     36.8315   9.4194559134e+01   5.6444979272e+01    0.3105468    0.1978567  38.12 0.0006838397    1.661    0.398
       180  -9.4103     96.0992     33.2771   9.1478321356e+01   5.6288773620e+01    0.3076691    0.2411931  -1.66 0.0002910904    1.310    0.237
       181  -9.4653     54.7457     36.6504   1.0784670636e+02   6.2512289987e+01    0.2998191    0.2418654   8.74  0.001126564    1.375    0.273
       182  -9.2737      7.3528     33.7355   1.2755300396e+02   6.7375991596e+01    0.4126042    0.2563483 -44.59  0.002643671    1.347    0.258
       183  -8.5735     77.5385     34.8056   9.8390292405e+01   5.9449262398e+01    0.3263997    0.2654505  59.73  0.001805389    1.663    0.399
       184  -8.6584     70.7778     35.4141   1.0111721380e+02   6.0444227065e+01    0.1877194    0.1267082  22.06 0.0009591439    1.718    0.418
       185  -7.7965    139.9425     34.4618   8.0130837054e+01   4.6230503512e+01    0.2176303    0.1485313  55.00 0.0003861922    1.495    0.331
       186  -8.1014     82.0733     32.1923   9.5692987106e+01   5.9123604303e+01    0.2075971    0.1705245  -4.43 0.0003744692    1.191    0.160
       187  -8.4711    127.8747     30.2376   8.1328000544e+01   4.9754646858e+01    0.2426185    0.1992774   3.37 0.0002619415    1.206    0.171
       188  -8.5745    112.1663     30.1422   8.5391822796e+01   5.3393772025e+01    0.4010984    0.2070075  28.91   0.00151928    2.557    0.609
       189  -7.6268    105.2861     31.3327   8.7857827521e+01   5.4708657238e+01    0.1509626    0.1068864   6.93 0.0007013464    1.621    0.383
       190  -9.0642      1.5184     29.9866   1.2930349332e+02   6.8457157315e+01    0.2760592    0.1031348 -67.77 0.0009471587    2.087    0.521
       191 -10.1544     72.4418     25.7070   9.6361884378e+01   6.1909073524e+01    0.3673546    0.2582358  23.60 0.0005409064    1.546    0.353
       192  -8.6768     61.7566     27.1654   1.0116045647e+02   6.3343120540e+01    0.2418932    0.1896993  -4.49 0.0008128698    1.302    0.232
       193  -8.8304     57.4066     25.1750   1.0206770677e+02   6.4336289359e+01    0.2966865     0.239186  30.38 0.0008829153    1.406    0.289
       194  -9.0288     47.6397     26.0107   1.0659141574e+02   6.5482495609e+01    0.3929936    0.2003734  18.44  0.001553806    2.782    0.641
       195  -7.1881    124.2531     26.6815   8.0781072062e+01   5.1110112479e+01     0.143382    0.1120176 -51.37 0.0002928526    1.533    0.348
       196  -9.3885     27.1189     23.3164   1.1495558940e+02   6.8190856751e+01    0.4828721    0.1643904 -34.51  0.001793367    3.762    0.734
       197  -9.4523     83.2768     22.1873   9.0857307119e+01   6.0554725522e+01    0.5768721    0.2598562  36.06  0.002016048    2.505    0.601
       198  -8.5743     91.9871     21.0960   8.7460504151e+01   5.9021912908e+01    0.3839206    0.2683603  -0.19  0.001878757    1.543    0.352
       199  -9.3020     64.4351     23.1139   9.8284886478e+01   6.3651643838e+01    0.2388878    0.1859704  60.90   0.00118915    1.952    0.488
       200  -7.3610    130.9819     21.7631   7.7162479513e+01   5.0128778809e+01    0.1872528    0.1222566  55.06 0.0003664852    1.533    0.348
       201  -9.9173      8.7379     20.1009   1.2296878384e+02   7.0182241679e+01    0.2533677    0.2213645   8.33  0.000360894    1.430    0.301
       202  -8.3309     12.3778     18.3194   1.2048250328e+02   7.0325746450e+01    0.2185141    0.1254731 -27.23 0.0009778889    1.768    0.434
       203  -8.1123     46.0660     20.1732   1.0474600561e+02   6.6766720912e+01    0.2057464    0.1461439 -21.46 0.0005826931    1.313    0.239
       204  -7.5269    146.7181     19.3045   7.2856592986e+01   4.6459483316e+01    0.1472401    0.1132409 -55.28 0.0002196316    1.556    0.357
       205  -8.0560    226.3029    249.3425   1.1193664092e+02  -1.5326779013e+00    0.1067026   0.05884605  18.46  0.000703943    1.680    0.405
       206  -9.2575    186.3786    249.0148   1.1807073160e+02   4.0055159875e+00    0.2667024    0.1300655  27.75  0.001612792    1.979    0.495
       207  -7.7459    165.3834     18.1851   6.9085840529e+01   4.1710683398e+01     0.219968    0.1281846 -33.27 0.0009482446    1.704    0.413
       208  -8.2080    127.8294     16.8657   7.5850003251e+01   5.1499337559e+01    0.2234938    0.1798171  23.70 0.0003405452    1.198    0.165
       209  -7.7938    232.7039    247.6730   1.1075158325e+02  -2.2573100586e+00    0.1060231    0.0581976  18.47 0.0004057834    1.629    0.386
       210  -8.9356     50.3221     15.1878   1.0048900601e+02   6.7087720736e+01    0.3198806    0.2023081  17.39  0.001009906    1.846    0.458
       211  -7.5810    207.2840     15.6852   6.2477318381e+01   3.0966844005e+01    0.1485519    0.1012484 -52.92 0.0001881128    1.580    0.367
       212  -9.6475    157.3020    245.1285   1.2227523250e+02   8.4878988619e+00    0.2289253    0.1640109 -11.20   0.00130004    2.147    0.534
       213  -8.1549    146.5711     14.2194   7.0898779232e+01   4.7061100586e+01     0.246919     0.193598  54.98 0.0002510647    1.245    0.197
       214  -7.6262     74.1961    247.5614   1.3572221800e+02   1.8886575787e+01    0.1252451   0.07589904  35.74 0.0009323618    1.642    0.391
       215  -8.0461     18.5585    247.6979   1.4403456996e+02   2.4590184407e+01    0.1511306   0.05902678  39.89  0.001073021    2.029    0.507
       216  -8.9157    163.0070    245.9956   1.2144999006e+02   7.5938733086e+00    0.1505259    0.1086998  87.96  0.001014333    2.598    0.615
       217  -7.6162    120.3900     13.6222   7.6190473301e+01   5.3686035920e+01     0.265731    0.1429775  77.78  0.000957433    3.178    0.685
       218  -7.3561     81.4782    246.4769   1.3452041351e+02   1.8188683484e+01   0.09884052   0.06920548  55.00 5.502478e-06    1.025    0.024
       219  -8.3823    243.2628    244.5228   1.0874396533e+02  -3.4164058907e+00    0.1769537   0.09774696   8.75   0.00118781    1.821    0.451
       220  -8.0221    218.5234    245.0090   1.1256440254e+02  -9.4558497362e-02    0.1323373   0.09435637 -11.98  0.001028981    1.602    0.376
       221  -9.7125    192.4891    244.0890   1.1652272648e+02   3.6401761795e+00    0.2702228    0.1576308  20.62  0.001162193    1.781    0.439
       222  -9.3837    176.4214    243.9747   1.1907256013e+02   5.9267756701e+00    0.1906808    0.1100538  27.95  0.001078376    1.578    0.366
       223  -7.3440    189.2462     15.9671   6.4790243199e+01   3.5633303466e+01    0.1888415    0.1216928 -21.19 0.0005918873    1.531    0.347
       224  -7.9106    233.8129    242.9841   1.0995655147e+02  -2.0185900229e+00    0.1609879   0.08079757  25.43 0.0006425016    1.601    0.375
       225  -8.2590     95.7235    243.5717   1.3206358599e+02   1.6862175627e+01    0.1840247   0.07725211  38.23 0.0008100186    1.976    0.494
       226  -7.4198    133.6554    242.7100   1.2586329259e+02   1.2036023918e+01   0.09886248   0.06964455  23.71 0.0007025469    1.655    0.396
       227  -8.2875    248.9659    239.1360   1.0714207286e+02  -3.7492151077e+00    0.2069456    0.1037946   9.10  0.001252808    2.205    0.546
       228  -9.2562    170.6391    239.6374   1.1950877991e+02   7.2232689013e+00     0.246316    0.1411345  31.20 0.0008228571    1.487    0.328
       229  -9.1528    241.9418    237.1501   1.0791635681e+02  -2.6398024010e+00    0.3100546    0.1604377   0.35  0.001520883    2.345    0.574
       230  -7.4158    122.3087    239.3080   1.2739937932e+02   1.3999182267e+01   0.09452804    0.0724631  21.91 0.0007021747    1.615    0.381
       231  -7.8041    148.2083    237.8115   1.2298555369e+02   1.0624424924e+01    0.1429992    0.1035823  27.11 0.0005826061    1.379    0.275
       232  -7.7570     79.5012    238.4881   1.3429727615e+02   1.9527800069e+01   0.09986644   0.07241098  55.48 0.0001342951    1.004    0.004
       233  -7.8851    230.9507    237.0374   1.0957893551e+02  -1.1161177005e+00    0.1303173   0.08993439  25.42 0.0003811538    1.011    0.011
       234  -8.4148    195.6597    235.9629   1.1500440060e+02   4.0116058298e+00    0.1497251    0.1133601  28.28 0.0005447476    1.058    0.054
       235  -9.8522    188.7178    234.5080   1.1594443292e+02   5.1721602539e+00    0.3437792    0.1899043  39.19  0.001278135    1.350    0.259
       236  -8.1592    162.0861    234.1674   1.2028605823e+02   9.0819216016e+00    0.1672732    0.1144296  30.05  0.000642209    1.287    0.223
       237  -7.4651    138.5264    234.5510   1.2425192263e+02   1.2390224806e+01    0.1070931   0.08067185  41.44 0.0001824403    1.048    0.046
       238  -7.9808    248.3488    232.9985   1.0635231253e+02  -3.1698293979e+00    0.1441327    0.1020194  11.28 0.0005188229    1.150    0.131
       239  -7.3033    153.3833    232.3038   1.2152589751e+02   1.0561994580e+01    0.1091225   0.07195093  20.87 0.0007021344    1.787    0.440
