#   1 NUMBER                 Running object number                                     
#   2 MAG_AUTO               Kron-like elliptical aperture magnitude                    [mag]
#   3 X_IMAGE                Object position along x                                    [pixel]
#   4 Y_IMAGE                Object position along y                                    [pixel]
#   5 X_WORLD                Barycenter position along world x axis                     [deg]
#   6 Y_WORLD                Barycenter position along world y axis                     [deg]
#   7 A_WORLD                Profile RMS along major axis (world units)                 [deg]
#   8 B_WORLD                Profile RMS along minor axis (world units)                 [deg]
#   9 THETA_WORLD            Position angle (CCW/world-x)                               [deg]
#  10 FWHM_WORLD             FWHM assuming a gaussian core                              [deg]
#  11 ELONGATION             A_IMAGE/B_IMAGE                                           
#  12 ELLIPTICITY            1 - B_IMAGE/A_IMAGE                                       
         1  -8.5407    227.4928     49.9933   4.2108838601e+01   2.3084198554e+01    0.2061826   0.08082237 -52.81 0.0008106012    2.655    0.623
         2  -9.9505    235.9396    250.0000   8.2269744915e+01  -1.0236831112e+01    0.4164504    0.1270526  30.11  0.001812377    3.086    0.676
         3  -9.1987    215.8883    248.0632   8.5579675371e+01  -7.3719084229e+00     0.219862    0.1839425  66.10  0.001374123    2.324    0.570
         4  -8.5752    219.4265    245.2572   8.4483411881e+01  -7.4764362056e+00    0.1497198    0.1096957 -39.73  0.000809501    1.712    0.416
         5  -8.4611    176.9773    244.0227   9.2403453527e+01  -1.2153700036e+00    0.2544876    0.1378849  -0.12 0.0009561633    4.110    0.757
         6  -9.2660    228.8436    240.2627   8.1957451953e+01  -8.0728750190e+00    0.2088263    0.1336424 -44.56  0.001223998    2.119    0.528
         7 -10.3652      3.1027    235.8210   1.2594677631e+02   2.3682143487e+01    0.5259891    0.1822704  79.15   0.00249093    2.964    0.663
         8  -7.5512    210.0057    235.7910   8.4705847202e+01  -4.8539344954e+00    0.1841335    0.1196512  -8.52  0.001043717    1.629    0.386
         9 -10.1255      3.2087    219.9333   1.2517034839e+02   2.6851228733e+01    0.4088061    0.1553561  81.90  0.001992663    2.558    0.609
        10 -10.3424      5.5575    230.0790   1.2523972038e+02   2.4583882687e+01    0.2937723    0.1384697  72.34  0.001708686    1.806    0.446
        11  -7.7750    192.4424    219.7486   8.5433448693e+01   2.5616335910e-01    0.1673696    0.1163587 -22.51 0.0006023729    1.500    0.334
        12  -8.4038    224.2025    219.1145   7.9195917939e+01  -4.4595497324e+00    0.1849369    0.1407836  -3.30 0.0002598146    1.138    0.122
        13  -9.8833      9.6795    216.5578   1.2376261181e+02   2.6958928182e+01    0.3645532    0.1387659  84.04  0.001700404    2.690    0.628
        14  -8.9153    161.7706    204.9477   8.9283997930e+01   7.9571822982e+00    0.2182121    0.1858294  28.73 0.0004460415    1.079    0.073
        15  -8.3956    243.8325    191.2688   7.0508479459e+01  -3.1007963363e+00    0.2940921    0.1494462 -41.66  0.001451553    1.981    0.495
        16  -8.0947    249.4070    184.1756   6.8185893106e+01  -2.8236882737e+00    0.3123258    0.1423382 -34.52  0.001493452    1.913    0.477
        17  -8.2527    183.6886    154.6592   7.4489626757e+01   1.3896308341e+01    0.1562041    0.1151881  -4.53 0.0007045777    1.696    0.410
        18  -8.1882    206.5043    143.4990   6.7351636760e+01   1.1575112383e+01    0.1463676    0.1344096 -27.06 -0.000181952    1.023    0.022
        19  -8.5381    217.7970    141.3779   6.4772807466e+01   9.7879507345e+00    0.1958338    0.1318108  32.41 0.0009479639    1.681    0.405
        20  -8.0455    172.5058    136.4811   7.2748634836e+01   1.9937241090e+01    0.1544941    0.1469664 -17.43  0.000104782    1.028    0.027
        21  -9.2061    180.6091    127.0129   6.8702356668e+01   2.0161226227e+01    0.3394498    0.2151603 -89.87  0.001086702    3.911    0.744
        22  -8.8546    187.6335    117.2057   6.4836860744e+01   2.0593356981e+01    0.2899095    0.1241968  52.08  0.001037514    2.556    0.609
        23  -7.9416    153.3392    115.6626   7.1993575905e+01   2.8510733821e+01    0.1633328    0.1263177 -84.08 0.0004302526    1.759    0.431
        24  -8.5159    158.0000    113.9977   7.0455277057e+01   2.7826921325e+01    0.2656752   0.08775038 -42.32 0.0008039781    2.953    0.661
        25  -8.3008    184.3181    109.3190   6.3524350720e+01   2.2865693799e+01    0.1540049    0.1207114   4.70 0.0006420878    1.660    0.398
        26  -9.8154    146.9818    105.7169   7.0892040679e+01   3.2030873177e+01     0.293645    0.2322069 -42.76  0.001015639    1.241    0.194
        27 -11.6817    161.0124    100.7219   6.6229641747e+01   2.9862482147e+01    0.6345995    0.5193951  57.80  0.003126069    1.281    0.219
        28  -9.2091    142.2718    105.9909   7.2137898952e+01   3.3023835394e+01    0.2303415    0.2094613 -39.37  0.001169719    1.080    0.074
        29 -10.3602    151.5485    103.3229   6.9134101129e+01   3.1498208309e+01    0.3147763     0.267881 -67.88  0.001304175    1.313    0.238
        30  -8.9393    136.4152    104.2696   7.3162356034e+01   3.4683551957e+01    0.2308124    0.1467023 -53.32 0.0009555988    1.697    0.411
        31  -8.9038    130.7929    104.4088   7.4678698794e+01   3.5878407803e+01    0.2289304     0.147938  32.90 0.0009526914    1.737    0.424
        32 -10.2478    175.1915    102.9529   6.3749624067e+01   2.6168242543e+01    0.3647268    0.2617422  40.44  0.001328171    1.497    0.332
        33 -11.1870    163.9294     84.9558   6.1241576096e+01   3.2208612629e+01     0.708707     0.325293 -38.06  0.002675342    2.155    0.536
        34 -12.6747    177.5629     94.4650   6.1021431396e+01   2.7243546167e+01     1.144354    0.6564682  41.02  0.004748847    1.964    0.491
        35 -11.0878    168.4241    100.8221   6.4621378471e+01   2.8137205137e+01    0.5676805    0.3500087  53.48  0.002440595    1.694    0.410
        36 -11.2866    164.4615     94.1986   6.3687710867e+01   3.0342232006e+01    0.6417782    0.4345965 -62.46  0.002763993    1.827    0.453
        37  -8.7169    101.8298    102.5783   8.2436753485e+01   4.2181695589e+01    0.2219025    0.1438473  51.40 0.0009557378    1.756    0.431
        38  -8.8986    121.4094     99.8086   7.5953439823e+01   3.8875448071e+01    0.2200051     0.145202 -33.70 0.0003573991    1.602    0.376
        39 -12.2347    174.3485     87.4143   5.9771734661e+01   2.9299432028e+01    0.9609193    0.6757532  16.22  0.004115499    2.137    0.532
        40 -11.8092    150.2707     88.7222   6.5356837119e+01   3.4706755336e+01     0.897986    0.4720486 -32.55  0.003469848    2.091    0.522
        41 -10.8507    151.3302     78.8010   6.2240492336e+01   3.6319003110e+01    0.5943449    0.3469872 -23.08  0.002342718    2.237    0.553
        42 -10.5925    142.9256     90.8277   6.7724264385e+01   3.5991107929e+01    0.3821585    0.3226402 -18.07   0.00189309    1.297    0.229
        43 -10.1394    137.4425     92.0561   6.9450666951e+01   3.6992192688e+01    0.3733478    0.2579911 -72.71  0.001495477    2.163    0.538
        44  -8.6968    125.4986     93.5049   7.3018944869e+01   3.9339964156e+01    0.1533694     0.150873 -27.24 -6.423885e-05    1.021    0.021
        45  -8.0952    105.3260     92.3230   7.8470060599e+01   4.3777840367e+01    0.1582042    0.1191696  -5.65 0.0007048287    1.688    0.408
        46 -11.3350    170.4173     82.5926   5.9240649029e+01   3.1101571650e+01    0.5378781    0.3646545  61.99  0.002469475    1.566    0.362
        47  -9.7783     97.4655     87.9192   7.9590280588e+01   4.6243718906e+01    0.2996079    0.2575524 -31.23 0.0005614425    1.125    0.111
        48 -10.6858    157.7618     82.7170   6.1939806460e+01   3.4080082691e+01    0.4522076    0.3746708 -23.76  0.002268573    1.300    0.231
        49  -9.2892    144.9992     79.9805   6.4053572647e+01   3.7592546923e+01    0.4580887    0.1659624  41.44   0.00141471    3.299    0.697
        50  -9.0542    201.0224     78.1802   5.2536675808e+01   2.4699613019e+01    0.2403131      0.16285 -82.93 0.0007634733    1.945    0.486
        51 -11.1691    182.9193     76.5078   5.5190321436e+01   2.9200077090e+01    0.6588284    0.4034832  19.77  0.002391719    3.257    0.693
        52 -11.0098    189.6859     74.2480   5.3400248586e+01   2.7983968048e+01    0.3968893    0.3631681 -26.18  0.002224856    1.173    0.147
        53  -9.9217    157.4963     75.3500   5.9875915282e+01   3.5469907161e+01    0.3202368    0.2217333 -44.64  0.001450315    1.450    0.310
        54  -9.0554    127.4912     74.0415   6.6605854942e+01   4.2727288785e+01     0.234698    0.1482287 -38.12 0.0008071699    1.593    0.372
        55 -10.0748    196.0183     71.4951   5.1631875589e+01   2.6954373029e+01    0.3585885    0.2097469  81.05  0.001477878    2.375    0.579
        56 -11.0207    169.0269     70.5646   5.6152633345e+01   3.3523502896e+01    0.5554376    0.2644559 -45.56  0.002180273    2.143    0.533
        57 -10.5639    156.8528     66.3478   5.7376419501e+01   3.7162793128e+01    0.5477749     0.228499 -44.39  0.002003794    2.489    0.598
        58  -8.2390    210.3140     67.3210   4.8412194109e+01   2.4335245661e+01    0.1343364    0.1103294  17.92 0.0005584364    1.655    0.396
        59  -9.2436    140.3482     66.4895   6.1060292302e+01   4.1087645653e+01    0.3860192    0.1928058  29.55   0.00122708    3.627    0.724
        60  -8.9217    138.8042     73.3976   6.3555686386e+01   4.0242684867e+01    0.2271019    0.1359126  41.42 0.0009579887    1.735    0.424
        61  -9.6217    207.5790     63.1266   4.7763484125e+01   2.5603577990e+01     0.261838    0.1780719  26.86  0.001203908    2.301    0.565
        62 -10.4463    158.5518     91.5178   6.4250516245e+01   3.2236830889e+01     0.436286    0.2506182 -39.22  0.001811794    1.718    0.418
        63  -8.5800    159.1186     59.8408   5.4995730741e+01   3.7664102200e+01    0.2283756    0.1977727 -76.62 0.0007965859    1.234    0.190
