#   1 NUMBER                 Running object number                                     
#   2 MAG_AUTO               Kron-like elliptical aperture magnitude                    [mag]
#   3 X_IMAGE                Object position along x                                    [pixel]
#   4 Y_IMAGE                Object position along y                                    [pixel]
#   5 X_WORLD                Barycenter position along world x axis                     [deg]
#   6 Y_WORLD                Barycenter position along world y axis                     [deg]
#   7 A_WORLD                Profile RMS along major axis (world units)                 [deg]
#   8 B_WORLD                Profile RMS along minor axis (world units)                 [deg]
#   9 THETA_WORLD            Position angle (CCW/world-x)                               [deg]
#  10 FWHM_WORLD             FWHM assuming a gaussian core                              [deg]
#  11 ELONGATION             A_IMAGE/B_IMAGE                                           
#  12 ELLIPTICITY            1 - B_IMAGE/A_IMAGE                                       
         1 -10.0640    196.7257     17.6596   6.2421087470e+01   3.4235562283e+01    0.5888871    0.2779396  79.62  0.002681889    2.137    0.532
         2  -9.1958    208.8415      2.9447   5.7807746946e+01   3.3001996902e+01    0.3448232    0.1987142 -85.43  0.001807448    1.628    0.386
         3  -8.5005    233.6054      1.8253   5.5452244196e+01   2.7629260651e+01    0.2036891    0.1198021  85.34   0.00120583    1.442    0.307
         4  -7.6407    193.3108    248.3175   1.1433094113e+02  -5.9427229355e+00    0.1273837   0.08966698   7.76 0.0007033867    1.640    0.390
         5  -9.0298    248.9132    250.1709   1.0435626325e+02  -1.4509387909e+01     0.345472    0.1441359  32.18  0.001759101    2.187    0.543
         6  -8.4591    234.2673    250.6093   1.0704311951e+02  -1.2534836575e+01    0.2251481   0.09978534  40.03  0.001128862    2.161    0.537
         7  -8.5164     89.6703    250.5606   1.3473310966e+02   1.0644081017e+01    0.2174086    0.1046966  42.08 0.0001875908    1.835    0.455
         8  -8.3188     75.6718    250.5977   1.3733490507e+02   1.2708716486e+01     0.228903   0.09731836  43.69 0.0005395222    2.006    0.501
         9  -9.7504     64.9538    248.9273   1.3913741550e+02   1.4548155662e+01    0.3865803    0.1869086  47.68  0.001060162    1.726    0.421
        10 -10.6086     16.1097    240.1452   1.4701592266e+02   2.2325307183e+01    0.5088853    0.2272159  58.57 0.0006662993    1.833    0.454
        11  -9.2071     32.9307    236.0305   1.4383256786e+02   2.1241853664e+01    0.2587067    0.1618078  58.99 0.0007145387    1.321    0.243
        12 -10.3006     29.0172    240.2324   1.4482261058e+02   2.0857843094e+01    0.3997438    0.2478212  69.71 0.0004298802    1.270    0.213
        13  -9.8349     20.1270    249.2348   1.4691162191e+02   2.0112914099e+01    0.3467615    0.1965252  58.48 0.0009880546    1.389    0.280
        14  -9.7360     27.4720    248.6246   1.4565600232e+02   1.9391576352e+01    0.4388943    0.2057684  43.20  0.001875415    1.961    0.490
        15 -10.4796     36.7565    248.5660   1.4408050403e+02   1.8296325595e+01    0.5355448      0.26973  58.93  0.001019854    1.613    0.380
        16  -9.9158     37.8872    240.6654   1.4330371620e+02   1.9713375369e+01    0.3487779     0.243335  58.95  0.001289747    1.211    0.174
        17 -10.1023     50.0240    249.7232   1.4186758626e+02   1.6400134733e+01    0.5303254    0.2558361  49.17  0.002848877    1.712    0.416
        18 -10.3858     45.5622    244.5803   1.4224900620e+02   1.7979107653e+01    0.5563366    0.2658145  37.42  0.001977547    2.237    0.553
        19  -9.6381     11.7811    248.7792   1.4823974954e+02   2.1114288979e+01    0.2867554    0.1682598  66.18 0.0006471043    1.280    0.219
        20  -9.0808      4.1155    250.1580   1.4953116062e+02   2.1656309123e+01    0.2438562     0.191695  29.62  0.001373977    2.024    0.506
        21  -9.8727      2.7916    243.0227   1.4936438585e+02   2.3154542229e+01     0.329658    0.1781302  76.05 0.0006679894    1.407    0.289
        22  -8.0876    127.8701    247.6118   1.2704451697e+02   5.1029083962e+00    0.1796261    0.1777725  70.34   0.00048462    1.222    0.182
        23  -7.9620    121.5192    248.4288   1.2838930623e+02   6.0020763477e+00    0.1289906    0.1063879  55.28 5.970963e-05    1.011    0.011
        24  -9.1067    215.4516    246.6832   1.0985896616e+02  -9.2012476588e+00     0.226721     0.131335  20.43  0.001187783    1.817    0.450
        25  -8.4933    145.2917    247.1425   1.2355248896e+02   2.2676141226e+00    0.1842809    0.1632452 -17.81 0.0007747106    1.418    0.295
        26  -9.9272    243.0647    244.9354   1.0450570211e+02  -1.3023229182e+01    0.3031988    0.2278364   2.38  0.001295358    1.142    0.125
        27  -9.6916    235.2735    243.8229   1.0571924402e+02  -1.1762675821e+01    0.3780921    0.2584197   2.61  0.002302314    1.448    0.309
        28  -8.6499    249.1704    244.6011   1.0336505292e+02  -1.3823731179e+01    0.2392916    0.1245157  22.41  0.001286609    1.914    0.478
        29  -8.1611    136.1792    245.1791   1.2508743062e+02   4.1534926923e+00     0.174249     0.135454  63.20 0.0004202352    1.268    0.211
        30  -8.2637     84.5130    244.5121   1.3508156092e+02   1.2583910185e+01    0.2156503    0.1633328  60.72 0.0001490601    1.081    0.075
        31  -7.9720    219.4935    243.4876   1.0857087891e+02  -9.3617071772e+00    0.2085115    0.1081225 -26.00 0.0009668546    2.263    0.558
        32  -8.7674    195.6118    243.8357   1.1317277693e+02  -5.6277520079e+00    0.1870326    0.1472727  23.11  0.001152036    1.131    0.116
        33  -8.2048    116.6254    243.9111   1.2878892192e+02   7.6429393906e+00    0.2113059    0.1630571  38.22 0.0006586866    1.299    0.230
        34  -8.1756    178.0088    243.6665   1.1658038051e+02  -2.6805464294e+00    0.2169281   0.09550352  24.08 0.0002990987    4.346    0.770
        35  -9.9838     56.6670    241.7877   1.4001903221e+02   1.7082979179e+01    0.4503291    0.2129315  62.06  0.001797476    1.979    0.495
        36  -9.8464    226.1566    240.8561   1.0688567792e+02  -9.9974850227e+00    0.3085581     0.214879  10.66  0.001589506    1.399    0.285
        37 -11.6326    248.0292    236.0584   1.0208477296e+02  -1.2518654293e+01    0.3895172    0.2733845  12.49  0.000311011    1.285    0.222
        38  -7.7126    202.3271    240.3190   1.1130153197e+02  -6.1769328222e+00    0.1316669   0.09068245   6.54 0.0007046634    1.681    0.405
        39  -7.7927    129.2959    240.2438   1.2579705414e+02   6.2215672857e+00    0.1796052    0.1347516  65.29 0.0007389165    1.332    0.249
        40  -8.7013    108.5538    240.0387   1.2990775216e+02   9.6995825419e+00    0.2374778    0.1671726  48.86 0.0004067769    1.225    0.184
        41  -8.9744     73.2495    239.7729   1.3674020717e+02   1.5178730719e+01    0.2039329     0.175803  70.00 0.0004152378    1.144    0.126
        42  -7.8504     64.1457    239.8954   1.3846616031e+02   1.6441986580e+01    0.1921244    0.1290332  69.25 0.0004373042    1.260    0.206
        43  -7.5078    138.3453    239.6969   1.2390473770e+02   4.7851390504e+00    0.1367124   0.09261035  66.11 0.0007039998    1.687    0.407
        44  -7.7459    121.2711    239.2341   1.2727201752e+02   7.7603892754e+00    0.1810556    0.1335646  65.74  0.000646295    1.326    0.246
        45  -7.3723    151.5524    238.0327   1.2100313001e+02   2.8156276541e+00    0.1702745    0.1144652 -86.84 0.0005962417    2.408    0.585
        46  -9.4710     44.8770    236.8602   1.4175213824e+02   1.9610896886e+01    0.2823645    0.1668132  68.76 0.0005964421    1.448    0.309
        47  -8.6301     96.0383    235.4759   1.3184628965e+02   1.2601503181e+01    0.2181696    0.1766785 -84.81 0.0003942743    1.219    0.180
        48  -8.4922     81.7812    236.0917   1.3472034825e+02   1.4667057250e+01    0.2057067    0.1537747  58.07 0.0003946727    1.133    0.118
        49  -8.7666      6.1012    235.5772   1.4840998051e+02   2.4277913173e+01    0.2079763    0.1552901  76.30  0.000667314    1.102    0.093
        50  -9.4120    231.9646    234.2677   1.0467355563e+02  -9.9234312057e+00    0.2751217    0.1764555 -33.84  0.001570201    1.580    0.367
        51  -7.8632    142.6717    234.9651   1.2235493961e+02   4.9170868497e+00    0.1752617    0.1649263  79.32 0.0004370983    1.128    0.113
        52  -7.3411    180.7794    233.0289   1.1433308122e+02  -1.3761006253e+00    0.1554285    0.1093878 -44.07 0.0003516768    1.589    0.371
        53  -7.7968    164.9918    235.4946   1.1790352735e+02   9.3503114259e-01    0.1975982    0.1169764  41.52 0.0003895068    1.486    0.327
        54  -7.5994    209.3418    232.3133   1.0859499598e+02  -6.0710563215e+00    0.1348136   0.09180298   5.97 0.0005036675    1.703    0.413
        55  -9.6884     59.9222    231.6442   1.3848766714e+02   1.8706350138e+01    0.2952737    0.1789138  55.84 0.0004268301    1.415    0.293
        56  -9.5421     39.6515    230.3379   1.4217309928e+02   2.1598331599e+01    0.2633688    0.1803761 -87.80 0.0004344082    1.225    0.184
        57  -8.6263     14.3981    231.8807   1.4678210354e+02   2.4160136862e+01    0.2022742    0.1427191  67.55 0.0005154876    1.141    0.124
        58  -8.3418     44.0644    212.4458   1.3974713518e+02   2.4872552160e+01    0.3759399    0.2410444 -73.49  0.001530085    1.390    0.281
        59  -9.3636     54.8114    221.3518   1.3848496841e+02   2.1563720519e+01    0.3283519    0.2729779 -87.51 0.0004067673    1.148    0.129
        60 -10.4243     36.1241    216.0349   1.4162812949e+02   2.5049698537e+01    0.5425351    0.3575836  57.54  0.001189051    1.348    0.258
        61  -7.8490     88.8030    229.4703   1.3259156776e+02   1.4954289017e+01    0.1815039    0.1148864  44.62 0.0003364788    1.455    0.313
        62  -7.8022     81.8621    228.6385   1.3388759323e+02   1.6185744672e+01    0.1805864    0.1375414  58.14 0.0005019665    1.137    0.121
        63  -7.6538     32.0532    229.3071   1.4347949975e+02   2.2721352406e+01    0.1632061    0.1197191  66.98 0.0005110464    1.124    0.110
        64  -8.6818    237.3102    227.4793   1.0248889874e+02  -9.7347973188e+00    0.2232262    0.1960464 -59.94  0.001425713    1.719    0.418
        65  -7.5432     95.7926    228.1783   1.3102408569e+02   1.4126414475e+01    0.1557496    0.1523328  54.61   0.00023271    1.297    0.229
        66  -8.6785      4.6940    227.8660   1.4819096453e+02   2.5964486888e+01    0.1988955     0.127212  69.02 0.0004476517    1.213    0.176
        67  -8.0789    117.6459    227.2303   1.2640898839e+02   1.0728161341e+01    0.2188309    0.1582359  54.41 0.0003538004    1.236    0.191
        68  -8.9944     73.2168    226.9640   1.3542579859e+02   1.7814408679e+01    0.2219319    0.1654788  66.37 0.0003864939    1.136    0.120
        69 -10.7956     44.3995    220.6990   1.4044866612e+02   2.3041902932e+01    0.6070894    0.4835937  28.43  0.002123869    1.746    0.427
        70  -7.7831    135.9568    229.9383   1.2300103050e+02   7.0398262367e+00    0.2089262    0.1486239  69.42  0.000474013    1.603    0.376
        71  -8.3297    214.9058    239.3890   1.0874298114e+02  -8.0474720023e+00    0.2375209    0.1751056 -21.07  0.001440217    1.394    0.282
        72  -7.0596    110.7076    233.2686   1.2863106676e+02   1.0677271141e+01    0.1318705   0.08892377  67.13 0.0001730466    1.510    0.338
        73  -8.2216     10.8986    225.8859   1.4699981587e+02   2.5745365338e+01    0.1752759    0.1195517  76.39 0.0004973655    1.093    0.085
        74  -7.5592    224.3018    225.3398   1.0451513720e+02  -7.3948202657e+00    0.1334848   0.09039281   0.01  0.000703776    1.671    0.402
        75  -8.0888    103.8460    229.5529   1.2955397738e+02   1.2549754367e+01     0.203919     0.154643  73.78 0.0003224556    1.267    0.211
        76  -7.2796     85.8316    222.8521   1.3241572668e+02   1.6799463338e+01     0.178877    0.1293863  73.64 0.0003579649    1.289    0.224
        77  -7.7043     77.5124    222.5054   1.3407184883e+02   1.8129293432e+01    0.1330979    0.1070359  73.42 2.723104e-06    1.044    0.042
        78  -7.2264    117.4954    221.4676   1.2563859463e+02   1.1931583522e+01    0.1365823    0.1209813  62.05  4.47912e-05    1.019    0.019
        79  -7.7347    100.7355    221.0349   1.2910182564e+02   1.4824615355e+01     0.181757    0.1552372 -87.42 0.0003917846    1.133    0.117
        80  -7.1792     70.4395    221.4283   1.3538272181e+02   1.9391658337e+01    0.1284894    0.1061636  75.83 0.0002333748    1.019    0.019
        81  -8.1805     62.9987    220.9407   1.3682316667e+02   2.0544497454e+01    0.1966913    0.1546722  73.97 0.0004741895    1.044    0.042
        82  -8.0576     18.6998    221.5954   1.4532249637e+02   2.5820873095e+01    0.1468965   0.08833458  55.62 0.0005895172    1.459    0.315
        83  -8.1454      1.4225    219.9655   1.4827420096e+02   2.7895251284e+01    0.1623505   0.08352043 -83.54 0.0003798246    1.514    0.340
        84  -7.5407    240.5118    217.9978   1.0017789086e+02  -8.7977178528e+00    0.1867477    0.1148116 -33.48  0.001021505    1.557    0.358
        85  -7.6039    228.5305    218.4668   1.0247139714e+02  -6.9939597080e+00    0.1317366    0.1102369   2.43 1.056556e-05    1.061    0.058
        86  -8.8781     12.4743    216.3745   1.4607864629e+02   2.7564431362e+01    0.2012244    0.1524482  81.69 0.0005308573    1.055    0.052
        87  -8.5936    161.1053    215.1809   1.1539921049e+02   5.3947718332e+00    0.2352729    0.2000538 -59.27 0.0004900409    1.305    0.234
        88 -11.1336     48.6910    227.7931   1.4026770119e+02   2.0995399059e+01    0.6359009    0.4676071  82.93  0.003041832    1.106    0.096
        89  -7.4024    206.5257    215.4372   1.0613904938e+02  -2.8278445404e+00    0.1338319    0.1204601  13.84 8.964641e-05    1.017    0.016
        90  -8.0336     86.1452    214.6300   1.3134546060e+02   1.8522740484e+01    0.1808931    0.1540446  59.79 0.0005838462    1.112    0.101
        91  -8.5963     66.5640    213.5640   1.3530470528e+02   2.1652952671e+01    0.2193384    0.1832613  72.53 0.0004499525    1.056    0.053
        92  -7.7907     70.4523    212.2280   1.3434672028e+02   2.1394850341e+01    0.1927914    0.1312409  68.19  0.000380282    1.360    0.265
        93  -7.4204    102.4524    212.4438   1.2757935956e+02   1.6385099491e+01    0.1390505    0.1189396  71.20 0.0001650636    1.038    0.036
        94  -9.4463     58.1270    211.1186   1.3677257309e+02   2.3353496179e+01     0.266276    0.2180272  77.15 0.0004782529    1.030    0.029
        95  -7.9287      1.9222    212.0633   1.4768950677e+02   2.9494489359e+01     0.165099    0.1235221  84.30 0.0004725863    1.063    0.059
        96  -7.1926    234.6471    210.6860   9.9884287600e+01  -6.7364778890e+00    0.1377675   0.09215113   1.72 0.0002736502    1.733    0.423
        97  -8.0025     28.0690    210.3186   1.4269097280e+02   2.7212484821e+01    0.1642525    0.1254918  71.54 0.0004455821    1.114    0.102
        98  -7.4056     21.8621    210.1584   1.4386826414e+02   2.7921182425e+01     0.142888    0.1181135 -79.16 0.0002542116    1.263    0.208
        99  -7.5500     81.8752    208.8242   1.3151970555e+02   2.0460482345e+01    0.1880948    0.1366708  73.90 0.0005795796    1.305    0.233
       100  -7.2107    181.2689    208.3231   1.0995174479e+02   2.9860767859e+00    0.1380385    0.1070726  -3.42 0.0002840355    1.568    0.362
       101  -7.9291     35.6732    207.9998   1.4099747098e+02   2.6857368741e+01    0.1773842    0.1275405 -82.30 0.0005809253    1.167    0.143
       102  -9.6268     52.5180    198.5359   1.3656884892e+02   2.6924920767e+01    0.2634057    0.2163098  83.25    0.0010046    1.017    0.016
       103 -10.0227     56.3101    194.6761   1.3530839546e+02   2.7319467734e+01    0.4009419    0.2397049 -85.47   0.00206758    1.632    0.387
       104  -9.9019     64.8475    203.7757   1.3454164151e+02   2.4080567340e+01    0.4089513    0.2783259 -55.40  0.002271712    1.610    0.379
       105 -10.6238     60.4605    201.0918   1.3516439583e+02   2.5292938964e+01    0.4330984    0.3111371 -83.89   0.00111176    1.235    0.191
       106  -9.0266     52.0632    205.6465   1.3743925341e+02   2.5372382631e+01    0.2197572    0.1501537  88.36 0.0005672143    1.297    0.229
       107  -7.8494     41.7678    206.0120   1.3958671428e+02   2.6576024400e+01    0.1753249    0.1347827  87.67 0.0004170885    1.048    0.046
       108  -7.4804    241.3066    205.2989   9.7644188556e+01  -6.9354481741e+00    0.1322443   0.09141044  -1.28 0.0003133646    1.592    0.372
       109  -7.5469     88.8504    204.8462   1.2948806126e+02   2.0270253407e+01      0.18816    0.1416191  78.02 0.0003155843    1.284    0.221
       110  -9.4700     13.1851    204.0858   1.4504557421e+02   3.0127571192e+01    0.2220713    0.1631208 -87.15 0.0003709062    1.080    0.074
       111  -7.7028     25.2556    202.5927   1.4257894480e+02   2.9216823582e+01    0.1323078    0.1167288  37.44 0.0004710391    1.511    0.338
       112  -7.8119    134.1070    200.6720   1.1879741412e+02   1.3383033794e+01    0.1988359    0.1712544  47.09  0.000355952    1.107    0.097
       113  -8.3455     73.2323    201.5601   1.3246514152e+02   2.3389033910e+01    0.1694862    0.1304637  28.36 0.0009411444    1.652    0.395
       114  -7.1952    162.4848    199.5519   1.1233923085e+02   8.2573316444e+00    0.1438479    0.1358758  31.66 8.773983e-05    1.043    0.041
       115  -8.0509     44.9080    198.9418   1.3822201310e+02   2.7786348249e+01    0.1987078    0.1554795  82.97 0.0006672987    1.050    0.048
       116  -7.3755     91.5324    196.4769   1.2771888549e+02   2.1747783627e+01    0.1407733    0.1234681  80.41 0.0002320556    1.007    0.007
       117  -8.1281      3.0705    196.3450   1.4639722790e+02   3.2759476375e+01    0.1543065    0.1182842  78.49 0.0004858798    1.108    0.097
       118  -7.8375     39.4250    193.6973   1.3882780281e+02   2.9638116528e+01    0.1626342    0.1025453 -67.22 0.0003938349    1.420    0.296
       119  -9.6337     67.9102    206.2173   1.3417827701e+02   2.3098992289e+01    0.2933735      0.20306  64.28  0.001131418    1.330    0.248
       120  -8.0126     46.0276    191.4733   1.3717347911e+02   2.9362531852e+01    0.1984617    0.1457762 -81.24 0.0004531692    1.151    0.131
       121  -8.3550     69.6649    190.9669   1.3188487547e+02   2.6352401859e+01     0.227775    0.1947832  43.76 0.0005076001    1.305    0.233
       122  -7.0413     33.3428    190.2628   1.3976233200e+02   3.1116740399e+01    0.1125629    0.0910756 -47.26 0.0003222997    1.597    0.374
       123  -7.2951     16.3324    188.7368   1.4316186303e+02   3.3222844893e+01    0.1225716   0.07244977  69.36 0.0003307171    1.576    0.366
       124  -7.3471      4.2110    188.4014   1.4557555371e+02   3.4406089590e+01    0.1468479    0.0916765  54.72 0.0004195437    1.561    0.359
       125  -9.2660     63.4990    196.8751   1.3400467215e+02   2.5844621611e+01    0.2700451    0.2241026 -60.60  0.001197157    1.319    0.242
       126  -7.4801     52.5420    187.5171   1.3528357497e+02   2.9472194756e+01    0.1333844    0.1095859  88.80 0.0008089066    1.012    0.012
       127  -7.4551     23.5853    185.5091   1.4135587146e+02   3.3239914783e+01    0.1243143   0.09627578 -86.06 0.0001207466    1.029    0.028
       128  -7.6938     38.7461    184.5840   1.3799395397e+02   3.1821839346e+01    0.1618369    0.1061934  54.96 0.0003975885    1.499    0.333
       129  -7.2155     11.6143    183.2541   1.4365084441e+02   3.4901356898e+01    0.1234943   0.07074197  66.68 0.0003600551    1.672    0.402
       130  -7.1535    113.4643    181.5232   1.2023861342e+02   2.1489366396e+01    0.1506013    0.1336036  80.06  0.000807786    1.083    0.077
       131  -7.5460     58.5378    180.4672   1.3303252472e+02   3.0360192300e+01    0.1353241     0.114772 -86.84  7.13365e-05    1.014    0.014
       132  -7.0056     22.6604    179.2679   1.4093981557e+02   3.4766385400e+01    0.1260887   0.07682478  69.79 0.0003513861    1.599    0.375
       133  -7.1363     29.6583    178.2865   1.3930777147e+02   3.4283206112e+01    0.1308792   0.07969351  70.71 0.0003447064    1.641    0.391
       134  -7.4853      1.4028    176.4626   1.4518411709e+02   3.7305089072e+01    0.1200906    0.0859838  88.96 -3.531061e-05    1.081    0.075
       135  -7.2347     41.3399    174.7313   1.3626819346e+02   3.3840778518e+01     0.132888   0.08499222  70.22 0.0006985332    1.602    0.376
       136  -7.2213     81.3093    171.7016   1.2632601874e+02   2.9221379260e+01    0.1463416    0.1019118  75.60 0.0002445615    1.597    0.374
       137  -7.6355     27.8846    168.8295   1.3866248827e+02   3.6679401986e+01    0.1788302    0.1251182  78.01 0.0008547374    1.349    0.259
       138  -7.2866      6.2644    169.7259   1.4356958978e+02   3.8435493657e+01     0.115927   0.07270129  76.62 0.0002995467    1.472    0.321
       139  -7.5911     39.4628    166.4869   1.3568122954e+02   3.6013213195e+01    0.1315363    0.1082694 -78.76 0.0003230749    1.032    0.031
       140  -7.1480     17.3028    169.3365   1.4110921715e+02   3.7572420126e+01    0.1220321   0.07896548 -51.90 0.0005510779    1.665    0.400
       141  -7.7867     65.1077    156.1654   1.2784462135e+02   3.5353903255e+01    0.1885081    0.1494411  82.04  0.000383959    1.278    0.217
       142  -7.3860     75.4794    148.5629   1.2382285301e+02   3.5743561385e+01    0.1432797     0.128814 -76.33 0.0001283984    1.016    0.016
       143 -10.1952    221.3332    146.4826   8.9146825934e+01   7.2080423298e+00    0.2611441      0.25469 -47.16 0.0002578031    1.065    0.061
       144  -7.2554     47.2675    143.6618   1.3045472044e+02   4.0631888366e+01    0.1353226   0.09417934  83.34 0.0004212562    1.596    0.373
       145  -7.9697    107.2934    142.2388   1.1410468411e+02   3.2016906675e+01    0.2010729    0.1690782  87.78 0.0003496429    1.299    0.230
       146  -7.4547     59.4721    138.5483   1.2629963726e+02   4.0391388059e+01     0.139095    0.1216839 -71.94 0.0001186348    1.028    0.028
       147  -7.7481     35.4755    138.4985   1.3277280915e+02   4.3138437294e+01    0.1320738    0.1089482 -69.37 0.0001056576    1.008    0.008
       148  -7.4124     31.4995    135.5378   1.3338202051e+02   4.4232061954e+01    0.1303555    0.1071713 -69.86 0.0001024707    1.005    0.005
       149  -7.6102      3.8026    135.6077   1.4059915630e+02   4.6455119683e+01    0.1444308    0.1037276  48.74 0.0004612691    1.626    0.385
       150  -7.3981     64.2975    134.6828   1.2425193586e+02   4.0695866599e+01    0.1403935    0.1035153  81.49 0.0003010409    1.611    0.379
       151  -7.4730     52.9746    131.4550   1.2680426576e+02   4.2907631701e+01    0.1822101    0.1031627  58.25  0.000760354    2.356    0.575
       152  -7.2551    240.3021    127.7266   8.1722002576e+01   6.9481012477e+00    0.1370611    0.1051013 -70.59 0.0003023236    1.536    0.349
       153  -7.5021      2.3271    125.7158   1.3977319330e+02   4.8812379799e+01    0.1150443   0.07879301  74.90 0.0002965413    1.605    0.377
       154  -8.0532     33.6927    121.7514   1.3053215688e+02   4.7278174457e+01    0.1884603   0.09351652  40.96 0.0006191807    2.347    0.574
       155  -7.6665     37.7116    119.6899   1.2900630596e+02   4.7370090215e+01    0.1330833   0.08555841 -40.45 0.0003537571    1.579    0.367
       156  -7.6270     24.6549    114.3287   1.3186528890e+02   4.9805190993e+01     0.126051   0.08919474  76.16 0.0007050469    1.751    0.429
       157  -7.5424     48.4859     97.9756   1.2121892936e+02   5.1196220402e+01    0.1727482    0.1122174 -82.85 0.0008058728    2.304    0.566
       158  -7.3696     40.7041     82.3292   1.1998249029e+02   5.5398468383e+01    0.1182116   0.09849597  89.32 0.0007025616    1.634    0.388
       159 -10.3926    163.5102     70.9905   8.1638076620e+01   3.4844920520e+01    0.5922837    0.4589181  21.34   0.00288199    1.672    0.402
       160  -9.7841    160.5946     68.1723   8.1447778913e+01   3.6017202275e+01    0.4147902    0.2327321  48.20  0.001793201    1.759    0.432
       161  -9.7307    235.9840     71.5582   6.9902544896e+01   1.7702837731e+01    0.4939041    0.3022561 -26.16  0.001915331    2.158    0.537
       162  -7.2381    121.3356     66.7347   9.0127050199e+01   4.5282183139e+01    0.1389557    0.1143904  88.44 0.0004709884    1.587    0.370
       163  -9.8558    177.8872     54.1198   7.4341856743e+01   3.4038290872e+01    0.6113909     0.395697 -86.68  0.002632329    1.972    0.493
       164  -9.4060    173.2004     50.4079   7.4153678722e+01   3.5719627290e+01      0.35383    0.3033369  35.93  0.001912995    1.327    0.247
       165  -8.0553    155.6938     56.2809   7.9069664047e+01   3.9079468830e+01    0.2727998    0.1730375  70.25  0.001244951    1.731    0.422
       166  -8.3981    133.5330     44.2412   8.0164090475e+01   4.6003961476e+01    0.2349728     0.173504  52.89 0.0003693908    1.248    0.199
       167  -9.5163    189.3930     26.8449   6.5558961563e+01   3.4909679955e+01    0.4459718    0.2719549 -89.25  0.001627845    1.766    0.434
       168  -8.9298    199.3526     34.3496   6.6086622408e+01   3.1604118348e+01    0.3157734    0.2175569 -68.23  0.000936646    1.463    0.317
       169  -8.8351    194.8776     31.1132   6.5886498613e+01   3.3079544569e+01    0.3678252      0.23393 -81.43  0.001247579    1.705    0.413
       170  -8.9858    178.7386     30.1116   6.7872683501e+01   3.7070484404e+01    0.3080135    0.2033044 -51.66  0.001364755    1.587    0.370
       171  -8.9999    172.7380     25.4816   6.7540566713e+01   3.9059274305e+01    0.3816919    0.2626753 -84.44  0.001266597    1.575    0.365
       172  -9.0480    226.2367    248.1077   1.0809211408e+02  -1.1029219524e+01    0.3610323    0.1866928  25.63  0.001874414    1.891    0.471
       173  -9.2740    207.7030     25.9403   6.3079672313e+01   3.0695227833e+01    0.2493975    0.1738933  82.41 0.0006984719    1.283    0.221
       174  -9.4785    202.4730     22.5065   6.2890250754e+01   3.2329812924e+01     0.376461    0.2097316 -81.13  0.001633056    2.037    0.509
       175  -8.5809    228.8155     23.8874   6.0376674685e+01   2.6132301822e+01     0.274045    0.1761086 -35.64  0.001107212    1.711    0.415
       176  -8.7254    204.0404    248.8094   1.1235837591e+02  -7.7320798217e+00    0.2116848    0.1255707  17.48  0.001031838    1.948    0.487
