#   1 NUMBER                 Running object number                                     
#   2 MAG_AUTO               Kron-like elliptical aperture magnitude                    [mag]
#   3 X_IMAGE                Object position along x                                    [pixel]
#   4 Y_IMAGE                Object position along y                                    [pixel]
#   5 X_WORLD                Barycenter position along world x axis                     [deg]
#   6 Y_WORLD                Barycenter position along world y axis                     [deg]
#   7 A_WORLD                Profile RMS along major axis (world units)                 [deg]
#   8 B_WORLD                Profile RMS along minor axis (world units)                 [deg]
#   9 THETA_WORLD            Position angle (CCW/world-x)                               [deg]
#  10 FWHM_WORLD             FWHM assuming a gaussian core                              [deg]
#  11 ELONGATION             A_IMAGE/B_IMAGE                                           
#  12 ELLIPTICITY            1 - B_IMAGE/A_IMAGE                                       
         1 -13.1632    200.0809     33.2399   5.9689059976e+01   3.0817128757e+01     1.034153    0.7443466  37.99  0.005147926    1.567    0.362
         2 -13.8010    216.6176     15.2858   5.2739717315e+01   2.8711233888e+01     1.179888    0.8988407  28.45  0.006396843    1.641    0.391
         3 -11.6886      2.0000     18.9806   1.1533415566e+02   7.0754735369e+01    0.5273023    0.1374713 -62.82  0.001985386    4.409    0.773
         4 -12.4213      3.9475      5.0453   1.0897586811e+02   7.3120998589e+01    0.5871427    0.3350303 -38.19  0.003927909    1.295    0.228
         5 -10.6678     73.8945    243.9028   1.2846617660e+02   1.7552384435e+01     0.311812    0.2175426 -66.02  0.002307017    1.739    0.425
         6 -11.4380    184.8084    249.6993   1.0987275961e+02   4.6118903752e-01    0.3932239    0.1731969  43.00  0.001794199    1.753    0.429
         7 -10.6207    175.4848    249.7705   1.1148376051e+02   1.8841186892e+00    0.2703609    0.1901075   1.83  0.001744364    1.972    0.493
         8 -11.1448    162.5897    250.1262   1.1375321811e+02   3.8220230966e+00    0.3480794    0.1584449  41.91 0.0007556057    1.645    0.392
         9 -12.0823    166.0672    242.2848   1.1219496130e+02   4.2984235764e+00    0.5410368    0.2076232  51.93   0.00237791    2.977    0.664
        10 -11.1630    169.1092    249.1965   1.1251409727e+02   2.9369241076e+00    0.2592647    0.1909142  17.60 0.0003602051    1.520    0.342
        11 -11.6797    149.9142    247.9589   1.1570447842e+02   6.0516990183e+00    0.3434954    0.2542185 -64.39  0.002408149    1.852    0.460
        12 -12.6008    134.0049    248.8112   1.1856704345e+02   8.3494682900e+00     1.171976     0.248781  40.05  0.004379412    3.857    0.741
        13 -11.3433    115.0970    250.3868   1.2198801913e+02   1.0910355939e+01    0.6322914    0.2651937  38.86  0.003057272    2.005    0.501
        14 -11.4021    109.6719    247.2841   1.2263313030e+02   1.2147095056e+01    0.4284593    0.3588244  61.85  0.003346618    1.144    0.126
        15 -10.9608    121.9769    245.4372   1.2031764647e+02   1.0626479025e+01    0.3347142    0.2313651 -89.84  0.001131376    1.873    0.466
        16 -12.0061    125.3819    242.1256   1.1938084711e+02   1.0605909024e+01    0.4878129    0.3628269  62.82  0.001350145    1.273    0.214
        17 -10.2363    102.5366    247.4775   1.2387853497e+02   1.3131622168e+01    0.2014533    0.1912103 -17.38 0.0008641573    1.609    0.378
        18  -9.6771     99.6635    250.6566   1.2464329826e+02   1.3056234246e+01    0.2306206   0.08661295  40.42 0.0009472225    2.145    0.534
        19 -10.9168     99.0064    247.4844   1.2448398157e+02   1.3624745398e+01    0.2626647    0.1977018  64.03  0.001148757    1.137    0.120
        20  -9.6430     81.4468    247.2554   1.2744532506e+02   1.6041077891e+01    0.2326185    0.1379282  81.92  0.001533735    1.834    0.455
        21  -9.7639     90.9621    250.3251   1.2608483449e+02   1.4298731478e+01    0.2162644    0.1579126  49.85  0.001408481    1.124    0.110
        22 -11.3917     86.6431    248.1640   1.2664054154e+02   1.5210182567e+01    0.3026037    0.2345684  34.43 0.0007900089    1.534    0.348
        23  -8.8382     63.2973    250.3105   1.3066282116e+02   1.7874908102e+01   0.08392531   0.07889169  41.24 0.0002460611    1.597    0.374
        24 -11.9102     16.0336    218.2222   1.3664931153e+02   2.8484724251e+01    0.7759166    0.2595115  40.43  0.004491013    2.444    0.591
        25 -12.0932      7.4822    214.4278   1.3790324503e+02   2.9959979106e+01    0.9195026    0.4921691  22.86  0.005646187    3.115    0.679
        26 -12.4653     11.3615    206.1016   1.3685250024e+02   3.1110566535e+01     1.048112    0.5487526  17.44  0.005582236    4.121    0.757
        27 -12.7794      4.5871    226.2755   1.3886750611e+02   2.8158228146e+01    0.9498009     0.529662  82.37   0.00719949    1.388    0.279
        28 -12.7115     41.5885    206.6495   1.3146780447e+02   2.7936185044e+01     1.537039    0.5554381  69.94  0.006485309    3.806    0.737
        29 -13.3529     40.3148    243.3610   1.3396266228e+02   2.1677062829e+01    0.9647355    0.6548352  74.00  0.002946343    1.158    0.137
        30 -13.2613     28.1019    246.8207   1.3606278698e+02   2.2443157418e+01     1.061964    0.5455875  45.70  0.007686104    1.558    0.358
        31 -13.3999      5.6048    246.0061   1.3944133129e+02   2.4810947157e+01    0.9028733    0.3862888  61.86  0.006411722    1.632    0.387
        32 -12.9337     13.7546    239.0913   1.3794558039e+02   2.5149121977e+01    0.6127789    0.4166066  53.51  0.003543898    1.258    0.205
        33 -12.8293     28.0779    226.2441   1.3504336271e+02   2.5870054843e+01    0.2910035    0.2369323  76.34 0.0007731615    1.226    0.184
        34 -14.1563     34.7128    218.3180   1.3346300237e+02   2.6559656674e+01    0.9593853     0.846918 -71.79  0.007932199    1.531    0.347
        35 -11.3970    159.3695    244.2801   1.1361903976e+02   5.0822992125e+00    0.2747603     0.179216  60.24  0.001068974    1.759    0.432
        36  -9.7402    132.1686    224.1010   1.1612725140e+02   1.2316046870e+01    0.2181889    0.1479594  43.25 0.0006203112    1.202    0.168
        37 -12.1564    136.0851    241.1974   1.1738311997e+02   9.1167453106e+00    0.4320595    0.2365737  63.68  0.001599874    2.356    0.576
        38 -12.5587    135.1169    234.3114   1.1678221775e+02   1.0279571963e+01    0.6269222    0.3929861 -52.83  0.003934508    2.013    0.503
        39 -10.2952    135.7017    225.4588   1.1563115719e+02   1.1540801993e+01    0.2566224    0.2105744 -36.52 0.0009051492    1.621    0.383
        40 -10.5933     97.0343    238.9842   1.2407881335e+02   1.5217552692e+01    0.2239223    0.1513059  61.79 0.0005966325    1.248    0.199
        41 -11.4413     92.0491    241.5858   1.2517660388e+02   1.5500244726e+01    0.3114857    0.2487416  74.53  0.001754206    1.191    0.160
        42 -10.6284     89.8602    237.6108   1.2521760341e+02   1.6434115052e+01    0.2802606    0.1978169  80.33  0.001153357    1.415    0.293
        43 -10.3086     85.2452    235.3542   1.2583573290e+02   1.7430516745e+01    0.3699368     0.183118  78.11  0.001897986    2.840    0.648
        44 -10.6732     84.6383    229.6268   1.2545105217e+02   1.8461083453e+01    0.2122414    0.1858304 -76.08 0.0006414584    1.383    0.277
        45 -11.8320    103.9115    238.6402   1.2283480528e+02   1.4294942303e+01    0.5053587    0.3841654  -1.32  0.002578031    2.648    0.622
        46 -10.8757    113.3595    230.8685   1.2036678260e+02   1.4140503183e+01    0.2547443    0.2260322 -65.26   0.00163343    1.403    0.287
        47 -11.1629     98.4139    223.2066   1.2233394212e+02   1.7606142557e+01    0.3359984    0.2313048  51.83  0.001603904    1.156    0.135
        48  -9.4238     94.1205    219.1257   1.2272692843e+02   1.8925576842e+01    0.2056684     0.139535  52.04 0.0006893179    1.185    0.156
        49 -11.2096    109.3363    232.0392   1.2121910978e+02   1.4551170615e+01    0.3819248    0.2246744  72.32  0.002181657    2.072    0.517
        50 -11.6519    105.6939    228.1678   1.2149097551e+02   1.5715379597e+01    0.3844594    0.2865363  54.76  0.002226742    1.055    0.052
        51 -11.0396    244.8453    241.2791   9.8635805515e+01  -7.5617750580e+00    0.1782321    0.1258381 -38.47  0.001225124    2.091    0.522
        52 -10.3671     84.1029    240.6676   1.2647480516e+02   1.6726287428e+01    0.3209655     0.203739  62.84  0.001859917    1.311    0.237
        53 -11.0337    143.4385    240.6723   1.1601537489e+02   8.0576264645e+00    0.2418364    0.1194734  39.94  0.001350727    1.608    0.378
        54  -9.9062     53.8752    240.8896   1.3160693879e+02   2.0517804503e+01    0.1446049    0.1189205  65.21 0.0006472623    1.216    0.178
        55 -11.2488    128.5659    234.8647   1.1803204463e+02   1.1209595566e+01    0.3750998     0.198429  60.70  0.002000034    2.146    0.534
        56 -11.4563    122.2664    233.9472   1.1907318228e+02   1.2312926482e+01    0.4012675    0.3076787  20.10   0.00263943    1.733    0.423
        57 -10.0050    115.6832    240.3070   1.2091227229e+02   1.2323049287e+01    0.2140843    0.1139483  56.19 0.0009259774    1.689    0.408
        58 -10.4441    117.3126    237.0363   1.2029085184e+02   1.2582004570e+01    0.2303693    0.1655745 -36.26  0.001066032    2.175    0.540
        59  -9.4585     66.7969    239.5512   1.2935127624e+02   1.9156605822e+01    0.2242436     0.111406  65.56 0.0008037067    1.864    0.464
        60  -9.9797    173.1000    235.9341   1.1013041731e+02   4.0217506311e+00    0.1691028    0.1350537  49.05  0.001169334    1.220    0.180
        61 -10.2677    100.3252    234.6762   1.2309962741e+02   1.5437830522e+01    0.1878954    0.1306478  60.64  0.001152511    1.203    0.168
        62 -10.8044     98.4699    230.9535   1.2308052643e+02   1.6306988322e+01     0.218096    0.1916318 -77.84  0.001532134    1.349    0.258
        63  -9.5102     54.6395    235.3878   1.3112452435e+02   2.1335296883e+01    0.1763844   0.09164519  63.38   0.00080096    1.592    0.372
        64 -10.8234    168.5455    233.6131   1.1064036135e+02   5.0644515659e+00    0.3316745    0.1720304  29.94  0.001648712    1.977    0.494
        65 -10.5180    156.6667    232.1931   1.1260672032e+02   7.1741964354e+00    0.2076718    0.1888955  10.19 0.0006054706    1.292    0.226
        66 -10.7968    249.4695    231.3704   9.6348944378e+01  -7.2353936961e+00    0.2598543    0.1283384  17.63   0.00139414    2.182    0.542
        67  -9.4282     45.6130    231.1170   1.3237790873e+02   2.3112626414e+01    0.1606618   0.09709407  74.59 0.0008119786    1.387    0.279
        68 -10.3474     79.3410    225.9640   1.2608718294e+02   1.9798774356e+01    0.3356166    0.2041506 -80.89  0.001494959    1.771    0.435
        69  -9.5516     92.6337    226.2833   1.2369851728e+02   1.7913000733e+01    0.2213456     0.130932  65.85  0.001066297    1.645    0.392
        70 -10.4968    117.2483    224.5586   1.1896967047e+02   1.4570986771e+01    0.2254384    0.1982946 -74.52 0.0003621858    1.334    0.250
        71  -9.4446     64.9710    224.3815   1.2854062980e+02   2.1943602496e+01    0.1737465    0.1442354 -53.03  0.001177715    1.734    0.423
        72  -9.6211     51.7721    225.0847   1.3092464747e+02   2.3434584777e+01    0.1395202    0.1247739  85.38 0.0004544148    1.353    0.261
        73 -11.9456    178.6495    244.1736   1.1022788906e+02   2.0854766007e+00    0.3516781    0.2310034  45.42  0.001213137    1.284    0.221
        74  -9.1979    164.3064    224.0255   1.1012385915e+02   7.1012827348e+00    0.1593091    0.1419179  39.56 0.0003812623    1.115    0.103
        75  -9.8160     87.5002    223.4994   1.2437897054e+02   1.9106312719e+01    0.2050897    0.1474695  79.68  0.001013872    1.348    0.258
        76 -10.8859    142.2747    219.7219   1.1367738692e+02   1.1379358153e+01     0.318703    0.2678232 -74.06   0.00140584    1.455    0.313
        77 -10.5879    245.5783    219.9984   9.5139153467e+01  -5.4775880835e+00    0.2600566    0.1053467 -30.39  0.001328075    2.657    0.624
        78  -9.7444    109.4643    217.4693   1.1964891160e+02   1.6943237900e+01    0.1892819    0.1106294 -79.17 0.0007225534    2.269    0.559
        79 -10.5046     70.6635    218.8486   1.2706129041e+02   2.2186852160e+01    0.4272808    0.2343369  79.19  0.002473489    1.989    0.497
        80  -8.9296     99.2812    218.3215   1.2167282875e+02   1.8316319433e+01    0.1011263   0.09248158   4.28 0.0003668551    1.588    0.370
        81  -9.5006     77.1861    220.7787   1.2602920165e+02   2.0985909819e+01    0.1721865    0.1205073  64.74 0.0003652492    1.174    0.148
        82  -9.5193     88.1141    212.7819   1.2322932824e+02   2.0901551278e+01    0.2160258    0.1427922  89.45 0.0008704431    1.622    0.384
        83 -11.0298     55.6676    208.9265   1.2902522995e+02   2.5873881074e+01    0.5529935    0.2711258  77.88  0.002304935    2.261    0.558
        84  -9.4849     55.6708    204.7029   1.2868319091e+02   2.6662620809e+01    0.3156957    0.1446636  29.03  0.001545531    3.016    0.668
        85  -9.1211    130.9559    211.3106   1.1476303505e+02   1.4599186991e+01    0.1726018    0.1327188  48.77 0.0002269448    1.076    0.071
        86 -10.0559    156.1107    208.1532   1.0942924115e+02   1.0894941840e+01     0.183722    0.1685939  44.92 0.0003112663    1.103    0.093
        87  -9.1900     90.5245    208.9335   1.2237056519e+02   2.1253146968e+01    0.1893216    0.1126495 -73.37 0.0003498466    1.846    0.458
        88  -9.8404     91.0253    205.0910   1.2186440925e+02   2.1884803894e+01    0.3653859    0.1508256  37.40  0.001187469    2.330    0.571
        89 -10.5108    111.4315    206.5215   1.1799702550e+02   1.8552630154e+01    0.3273949    0.2130438  83.44  0.001000855    1.939    0.484
        90  -8.9882     74.4473    208.4729   1.2542884451e+02   2.3566431988e+01    0.1191316   0.09104544  66.12  0.000101012    1.057    0.054
        91  -9.0779     69.7759    207.9864   1.2627828815e+02   2.4273211031e+01    0.1548008    0.1206521  73.82 0.0002063884    1.078    0.072
        92  -8.9392    125.6290    206.8760   1.1523327743e+02   1.6225123089e+01    0.1621257    0.1141158 -78.63 0.0009335788    1.772    0.436
        93  -9.2492     32.8368    206.9500   1.3308749900e+02   2.8831643935e+01    0.1463293     0.124589 -82.37 0.0005802243    1.352    0.260
        94 -10.4341     63.2140    209.1488   1.2762634303e+02   2.4899919567e+01    0.3081906    0.2751945  84.00  0.001557388    1.251    0.200
        95 -10.3882    250.1644    200.9379   9.1096615199e+01  -4.0389708041e+00    0.2889147    0.1402194  -7.11  0.001255202    3.173    0.685
        96 -10.7843     83.8949    201.6239   1.2290516640e+02   2.3548561112e+01     0.209056    0.1812421  83.16 0.0002530054    1.137    0.120
        97  -9.9497      2.0251    201.8400   1.3826998203e+02   3.2722389282e+01    0.2296152    0.1431464  86.52  0.001309228    1.238    0.193
        98  -9.9552      2.8254    197.5622   1.3793501582e+02   3.3447926521e+01      0.28868    0.1195673  59.51  0.001108522    1.920    0.479
        99 -10.3088      4.6725    195.3010   1.3749951539e+02   3.3714628760e+01    0.1965574    0.1468528  63.07  0.001326607    1.171    0.146
       100 -10.3474      1.9726    192.9915   1.3787101995e+02   3.4378962237e+01     0.217028    0.1300313  82.78  0.000939339    1.265    0.209
       101  -8.8302     64.6388    201.7309   1.2670233349e+02   2.6110453902e+01   0.09862363     0.092122  -4.14 0.0002158446    1.648    0.393
       102  -9.8533     43.2641    200.1530   1.3068044219e+02   2.8975281554e+01    0.2851236    0.2505613 -14.88  0.001703497    1.942    0.485
       103 -11.9952     56.3582    194.2230   1.2765329946e+02   2.8589785759e+01    0.4186039    0.2776843 -50.99  0.001112662    1.997    0.499
       104 -11.0422    102.8473    195.9478   1.1843117078e+02   2.1825483265e+01    0.2377478    0.2255727   0.13 0.0004286026    1.413    0.292
       105 -10.9480     27.8991    194.9115   1.3321381296e+02   3.1622752119e+01     0.361484    0.2467573  84.34  0.001321465    1.181    0.153
       106 -10.0102    249.8169    194.4523   8.9979872903e+01  -3.2207849928e+00    0.2491022    0.1857803  22.11  0.001615174    1.122    0.109
       107  -9.5941    112.8776    192.2736   1.1588895039e+02   2.0936267336e+01    0.3188636    0.1645272 -39.82  0.001126478    3.058    0.673
       108  -8.5100     77.9659    194.0000   1.2328940983e+02   2.5832639011e+01    0.1818387   0.06119204  38.39            0    2.742    0.635
       109  -9.6078    191.4806    191.4745   9.9882114847e+01   7.2219558445e+00    0.2235977     0.193286  26.65 0.0006322847    1.017    0.017
       110  -9.3606     40.7998    189.0197   1.3029404452e+02   3.1414830613e+01    0.1668815    0.1447842  86.33   0.00125756    1.204    0.169
       111 -10.6749     21.0079    194.5957   1.3448311223e+02   3.2363698704e+01     0.304213    0.1813175 -73.61 0.0008440877    1.563    0.360
       112 -10.4417    250.1071    188.0162   8.8738970520e+01  -2.4889733616e+00    0.3033473    0.1576247 -17.42  0.001532359    2.100    0.524
       113  -9.6997     10.8694    188.3109   1.3600216265e+02   3.4511611584e+01    0.2688673    0.1276909  72.95  0.001398712    1.813    0.448
       114 -11.2995      4.4535    186.2643   1.3708406032e+02   3.5458429655e+01    0.2826783    0.2304578  42.48  0.001484519    1.481    0.325
       115  -8.8970     77.0446    188.5097   1.2288435717e+02   2.7037480273e+01    0.1665625    0.1073977  44.17 9.631494e-05    1.429    0.300
       116 -10.4603     83.6281    186.7454   1.2130963374e+02   2.6465986944e+01    0.2120054    0.1692941  68.37 0.0003088974    1.082    0.075
       117 -10.5730     71.8186    186.6378   1.2376703188e+02   2.8118498515e+01    0.3211304    0.2638679   5.59  0.001411367    1.934    0.483
       118 -11.7433     63.2337    186.1422   1.2549597915e+02   2.9336026267e+01    0.2919647    0.2252004 -50.26 0.0005701466    1.675    0.403
       119  -8.9773     24.4245    183.9682   1.3313952656e+02   3.4110110358e+01    0.1650606     0.124523  59.03 0.0006624674    1.197    0.164
       120  -9.0094     36.3396    182.8791   1.3069303159e+02   3.3121161716e+01    0.1594255   0.08517591 -66.13 0.0009409431    1.799    0.444
       121  -8.5586    127.4545    182.4697   1.1140885182e+02   2.0355514227e+01    0.1348524    0.1153923  60.93 0.0001543929    1.083    0.077
       122  -8.6836    107.5178    182.4790   1.1568091875e+02   2.3684827393e+01    0.1308118    0.1127487  63.48 3.690566e-05    1.018    0.018
       123  -8.9418      8.4124    182.1786   1.3611829637e+02   3.5920926404e+01    0.1452813   0.07595091  83.07 0.0004133286    1.570    0.363
       124  -8.6329     85.9513    180.2454   1.2003092202e+02   2.7436246061e+01     0.155177   0.09613951  44.45            0    1.481    0.325
       125 -10.2484      4.6288    178.8163   1.3665151624e+02   3.6898620951e+01      0.16026    0.1039117  84.07  0.001154327    1.170    0.146
       126  -9.1573     47.2432    179.6655   1.2818777775e+02   3.2575566281e+01    0.1460399    0.1057325  31.70 0.0005614209    1.663    0.399
       127  -8.6327     12.3244    178.3370   1.3513603857e+02   3.6344532205e+01    0.1003142   0.07353689 -56.31 0.0007051199    1.718    0.418
       128 -12.1862    248.8412    172.3278   8.5926406162e+01  -2.9576590794e-01    0.7200718    0.3612138 -31.83  0.003624645    1.955    0.489
       129 -11.9534    245.2652    162.3502   8.4514186160e+01   1.6556220988e+00     0.456328    0.2661256 -30.63  0.002389876    1.662    0.398
       130 -12.2425    246.7731    157.8897   8.3344344338e+01   1.9970389390e+00    0.9746441    0.7366904  84.96  0.004809484    2.817    0.645
       131 -11.4537     65.2741    175.4262   1.2393242514e+02   3.1262144841e+01    0.2990689    0.2119388  50.76 0.0001111636    1.296    0.229
       132 -12.1177     60.2588    172.3074   1.2467878716e+02   3.2546981084e+01    0.5574653     0.320194 -38.88  0.002670971    3.067    0.674
       133 -10.9589     68.3790    166.3242   1.2218637279e+02   3.2769930032e+01    0.2287592    0.1855364  74.28 0.0003401945    1.083    0.076
       134  -9.3532    103.0848    175.9067   1.1571700114e+02   2.5704625361e+01    0.1911585    0.1558615  69.53  0.001151913    1.148    0.129
       135 -11.3311     19.4880    174.6806   1.3347337895e+02   3.6441074868e+01    0.2949791      0.16604  80.48  0.001852807    1.523    0.344
       136 -10.8865     73.9360    174.2769   1.2191333962e+02   3.0353659631e+01    0.2118561     0.189653  88.65 0.0003283748    1.118    0.106
       137 -10.1981     12.2883    172.8732   1.3479735269e+02   3.7444830589e+01    0.2527714    0.1093616 -68.22  0.001451198    2.029    0.507
       138  -9.5472     46.0616    172.6667   1.2778194265e+02   3.4152871928e+01    0.1898379    0.1334368  84.89 0.0004212905    1.234    0.190
       139  -9.8490     27.6514    171.5340   1.3156663062e+02   3.6315360430e+01    0.2819167    0.1495209 -52.11  0.001210736    2.364    0.577
       140 -11.0596      1.7261    170.7119   1.3676172546e+02   3.8741875692e+01    0.3710159    0.1527152 -86.87 0.0004734891    2.011    0.503
       141  -9.3023     51.9497    171.0127   1.2634987819e+02   3.3822488223e+01    0.1796871    0.1472865  72.88 0.0005749069    1.045    0.043
       142  -9.0292    166.8672    170.2119   1.0094248310e+02   1.5357751702e+01    0.1800086    0.1539643  10.87 0.0005256823    1.272    0.214
       143 -11.8504     82.1169    166.0750   1.1904150128e+02   3.0929504864e+01    0.6340614    0.4038831  40.69  0.003492795    1.546    0.353
       144 -11.3420     14.3939    167.1510   1.3398550807e+02   3.8430985365e+01    0.2748272    0.2484839  27.98  0.001520391    1.530    0.346
       145 -11.3365      7.9230    166.2358   1.3525080137e+02   3.9157528323e+01      0.30518    0.2544675   4.85  0.002305502    1.879    0.468
       146 -10.6813     45.1732    164.6706   1.2718846621e+02   3.5934400380e+01    0.3447123    0.1648133 -54.04  0.001764312    2.320    0.569
       147  -9.7492     43.2475    161.0110   1.2724465317e+02   3.6926408910e+01    0.1991464    0.1462765  59.84 0.0003798505    1.250    0.200
       148 -10.6987     82.4509    157.5481   1.1777109162e+02   3.2706699287e+01    0.4102012    0.2772242 -46.83  0.002220488    1.728    0.421
       149 -10.3718     31.2887    163.1346   1.3008829708e+02   3.7712902687e+01    0.2261675    0.1804162  65.66 0.0002730427    1.145    0.127
       150  -9.6080     37.7455    163.0135   1.2866435235e+02   3.7084436479e+01    0.2472896   0.09799141  55.40  0.001162733    2.568    0.611
       151 -11.0245      1.9947    160.7501   1.3612025639e+02   4.0741910413e+01    0.3871636   0.06813929 -75.24  0.001502814    4.127    0.758
       152  -9.8873     24.2320    161.9718   1.3151712446e+02   3.8631875180e+01    0.1580569    0.1234299  88.12 0.0004413387    1.037    0.036
       153 -11.9611     10.6552    157.9241   1.3411728693e+02   4.0654455903e+01    0.3990818    0.2099122  70.10  0.001243375    1.727    0.421
       154 -11.3999     12.4623    154.4829   1.3347479307e+02   4.1230572158e+01    0.5074291    0.1800977  85.35  0.002150252    3.390    0.705
       155  -8.6980    119.4225    158.5437   1.0927366538e+02   2.6515654929e+01    0.1378202    0.1255002  68.83 0.0001938307    1.037    0.036
       156  -8.9709    228.3480    155.2358   8.5945656478e+01   5.7822059336e+00    0.1821996    0.1196589 -38.89 0.0004776589    1.625    0.385
       157 -10.3587     24.9611    154.9099   1.3075423906e+02   4.0062592051e+01    0.2048787    0.1543554  29.62  0.001129165    1.647    0.393
       158  -9.2593     32.9238    153.7213   1.2884772770e+02   3.9562896253e+01    0.1590113    0.1325998  76.22 0.0005138637    1.085    0.078
       159 -11.1521    249.4983    151.0527   8.1465761939e+01   2.4487897337e+00    0.4387421    0.3000876 -23.35  0.002033633    1.359    0.264
       160 -13.2151    247.8126    100.2626   7.0307798016e+01   1.0083274526e+01     1.384483    0.6281083 -27.56  0.005775751    2.156    0.536
       161 -12.1334    248.0288    142.4383   7.9862475260e+01   3.9234795797e+00    0.6361206    0.4822495  17.04  0.003647091    1.299    0.230
       162 -13.2452    248.2509    134.1625   7.8015721266e+01   5.0614381136e+00     1.453355    0.7772695 -26.29  0.006889944    1.795    0.443
       163 -10.5166     95.6273    150.4448   1.1352271442e+02   3.2244551486e+01    0.2799422    0.2368953  77.20 0.0008894638    1.144    0.126
       164 -11.0966     21.4047    149.2403   1.3105320152e+02   4.1596692651e+01    0.3191402    0.1902799  49.82  0.001541019    1.634    0.388
       165  -9.8472     83.2350    149.6356   1.1639787738e+02   3.4317644542e+01    0.2241027    0.1945053 -54.00 0.0003260046    1.256    0.204
       166 -12.7225      9.2239    144.0214   1.3338465426e+02   4.3706270418e+01    0.4914716    0.3222387  76.04  0.001630393    1.315    0.240
       167 -12.2121      2.9952    144.0099   1.3478781702e+02   4.4162337537e+01     0.500198    0.1981956 -80.63  0.002670356    2.030    0.508
       168 -12.1721     68.2858    144.2103   1.1924988466e+02   3.7606708240e+01    0.6442719    0.4150204  80.39   0.00241975    1.762    0.433
       169  -9.9433     41.3042    147.3434   1.2622467326e+02   4.0102605309e+01    0.1903318    0.1652718 -68.80 0.0006080649    1.211    0.174
       170 -10.2738    235.8737    145.9019   8.2637268583e+01   5.7214515592e+00    0.2138403    0.1655432   8.49  0.000522495    1.279    0.218
       171  -9.1336     98.5552    146.4896   1.1214004123e+02   3.2635417143e+01    0.1340464    0.1272425  87.28 5.229157e-05    1.058    0.054
       172  -9.1346     52.6995    146.3053   1.2336088806e+02   3.9073131955e+01    0.1285802   0.08312619  72.23 0.0002562529    1.593    0.372
       173  -9.7564    133.2589    140.6322   1.0260285382e+02   2.7669786173e+01    0.3355408    0.2334601 -57.46  0.001256874    1.543    0.352
       174 -11.0508     38.8948    141.7417   1.2616461562e+02   4.1589112056e+01    0.2388328    0.1801664  67.62  0.001543826    1.253    0.202
       175 -11.7909     17.3853    140.3547   1.3118245663e+02   4.3858643581e+01      0.37399    0.1786104  54.69  0.002061248    2.108    0.526
       176  -8.6298     25.6499    139.6851   1.2914880448e+02   4.3303347011e+01    0.1153372   0.07969178 -46.91 0.0004823028    1.728    0.421
       177  -9.9711    107.9111    136.4740   1.0797165271e+02   3.3249550113e+01    0.4066795    0.2772735 -20.19   0.00178548    2.452    0.592
       178  -9.5777     31.2554    138.6241   1.2767707596e+02   4.3026534958e+01    0.1361008    0.1166939  12.57 0.0003224006    1.588    0.370
       179 -10.6950     59.8809    136.3271   1.2020880104e+02   4.0447933422e+01     0.268821    0.2006453 -82.31 0.0002641541    1.242    0.195
       180  -9.6300     55.8425    135.8609   1.2117303327e+02   4.1041064246e+01    0.1920805    0.1660715  85.71 0.0003808397    1.046    0.044
       181 -10.4933     47.4364    135.8158   1.2330602587e+02   4.2010550178e+01    0.2732797    0.1813448 -38.76  0.001508347    1.985    0.496
       182 -12.3852      2.0153    121.9213   1.3325786109e+02   4.8979491103e+01    0.7730669    0.2094311 -83.45  0.002925749    3.937    0.746
       183  -9.8181     33.3164    127.9800   1.2591634121e+02   4.5208892022e+01    0.2043133   0.08331428  87.44 0.0007048061    4.286    0.767
       184 -12.5880     12.7618    127.4243   1.3108305410e+02   4.7046187071e+01    0.3485312    0.2877103  37.94  0.002559965    1.450    0.310
       185  -9.1575    209.8076    125.8200   8.2749340294e+01   1.4202205140e+01    0.1896026    0.1734305 -60.32 0.0004703393    1.286    0.222
       186  -8.6012     48.2893    126.3143   1.2176290557e+02   4.4065408964e+01    0.1232019   0.08839164 -43.76 0.0002961205    1.589    0.371
       187 -10.4846    238.9344    121.3330   7.6616584719e+01   8.7808215957e+00    0.3434682    0.1863337 -13.88  0.001400219    2.459    0.593
       188  -9.9058     58.5962    147.4291   1.2207518249e+02   3.8121759336e+01    0.2766548     0.154751 -41.44  0.001321884    2.520    0.603
       189 -12.0610     16.3906    117.5706   1.2911790435e+02   4.8960575625e+01    0.3926783    0.2374065 -15.21  0.002148621    2.812    0.644
       190 -10.6864    231.9091    116.3794   7.6612953726e+01   1.0988738928e+01    0.2433938    0.1862186 -38.12 0.0006103751    1.298    0.230
       191 -12.6043      9.5699    113.8805   1.3052678795e+02   5.0260030583e+01    0.3947617    0.2210119 -80.58  0.001929694    1.465    0.317
       192  -9.9536    167.8150    113.0299   8.8160447100e+01   2.5892319265e+01    0.3249528    0.2667795 -83.71  0.001040424    1.564    0.361
       193 -10.8406    236.5054    110.5636   7.4484723149e+01   1.0912103671e+01    0.3032462    0.1311633 -31.95  0.001215223    2.180    0.541
       194  -9.0078    203.5039    111.4922   8.0456000313e+01   1.8010252967e+01    0.1496276    0.1402977   6.24 0.0008103734    1.035    0.034
       195 -10.9389     15.4264    109.7078   1.2846333769e+02   5.0785480673e+01    0.2270248   0.09661181 -76.89  0.000969647    2.027    0.507
       196 -10.4169    249.8258    117.8726   7.4104026396e+01   7.1090822960e+00    0.4506445    0.2813648  -2.22  0.001833445    2.089    0.521
       197  -9.8292     35.0239    107.0933   1.2254925652e+02   4.9780990139e+01    0.1820064     0.155545 -77.38 0.0003510518    1.036    0.035
       198 -10.4237     44.6784    130.4069   1.2328724036e+02   4.3527304782e+01    0.3021805    0.1700199  69.79 0.0009694482    2.119    0.528
       199 -11.6214     13.0074    102.9849   1.2831733350e+02   5.2453798543e+01    0.2153276     0.170346 -76.15  0.001041863    1.010    0.010
       200  -8.5654     71.6847    100.2377   1.1037336123e+02   4.7126845865e+01    0.1285143    0.1005628  71.68 0.0002265329    1.505    0.336
       201 -11.0510     20.7633     93.5513   1.2470845813e+02   5.4022402299e+01    0.2512484    0.1724757 -67.74 0.0002635467    1.171    0.146
       202 -10.9266     14.2400     93.9389   1.2675312540e+02   5.4390687603e+01    0.1765458    0.1743216  60.44 0.0008050526    1.262    0.208
       203 -11.1390      2.1136     88.8081   1.2974785770e+02   5.6242883609e+01    0.3250174    0.1038055 -75.02   0.00146021    2.585    0.613
       204 -12.4043    247.6707    112.8717   7.3282019748e+01   8.2677309535e+00    0.9000692    0.5782474  -3.51  0.004254914    1.961    0.490
       205 -11.8343    199.9163    246.2237   1.0683067678e+02  -1.4471039079e+00    0.3653377    0.2184153  42.60   0.00232624    1.387    0.279
       206 -11.1952     59.9180    245.8796   1.3092882435e+02   1.8986429941e+01     0.364063    0.2080474  55.47  0.002174595    1.282    0.220
       207 -11.2309     18.9590     26.4893   1.0959038106e+02   6.8266884707e+01     0.372437    0.1631613  40.94  0.001790518    3.511    0.715
       208  -9.3158     66.7237    243.8452   1.2966545449e+02   1.8471932073e+01    0.1879113    0.1338807  32.04 0.0008294481    1.773    0.436
