#   1 NUMBER                 Running object number                                     
#   2 MAG_AUTO               Kron-like elliptical aperture magnitude                    [mag]
#   3 X_IMAGE                Object position along x                                    [pixel]
#   4 Y_IMAGE                Object position along y                                    [pixel]
#   5 X_WORLD                Barycenter position along world x axis                     [deg]
#   6 Y_WORLD                Barycenter position along world y axis                     [deg]
#   7 A_WORLD                Profile RMS along major axis (world units)                 [deg]
#   8 B_WORLD                Profile RMS along minor axis (world units)                 [deg]
#   9 THETA_WORLD            Position angle (CCW/world-x)                               [deg]
#  10 FWHM_WORLD             FWHM assuming a gaussian core                              [deg]
#  11 ELONGATION             A_IMAGE/B_IMAGE                                           
#  12 ELLIPTICITY            1 - B_IMAGE/A_IMAGE                                       
         1 -13.4246    157.9301     49.4202   8.6397855939e+01   3.9296146895e+01     1.662497     1.088348  19.21  0.005392981    2.078    0.519
         2 -13.5354    169.4779     33.0881   7.8732682588e+01   3.8667748339e+01     1.087583    0.9397163  -4.56   0.00350324    1.188    0.158
         3 -12.4135    173.2962     25.8931   7.5634010210e+01   3.8571550100e+01    0.5685378    0.4285922   9.92  0.001486051    1.495    0.331
         4 -12.3532    185.1377      2.5949   6.6026216461e+01   3.7879038810e+01    0.8292302    0.3672353  71.80  0.003243519    2.268    0.559
         5 -10.4316     22.0815    242.9242   1.4468024281e+02   2.6370863490e+01    0.1531323    0.1047939  51.43  0.001425234    1.328    0.247
         6 -19.6607     59.1933    158.9342   1.3313745818e+02   3.6134813630e+01     16.18796     3.551298 -69.13   0.05968802    4.805    0.792
         7 -11.0124    130.3933    205.8407   1.2497737746e+02   1.8320632626e+01    0.1995781    0.1555376  60.39 0.0005395556    1.117    0.105
         8 -12.9860    196.3252    195.7956   1.1262395059e+02   9.0401482215e+00    0.5553661    0.3868777  41.29  0.001670023    1.158    0.136
         9 -11.6453    188.9108    186.9886   1.1250360742e+02   1.1351893425e+01    0.4634623    0.3446971 -58.04  0.002311097    1.920    0.479
        10 -10.6410    143.0642    199.9553   1.2212053534e+02   1.7196952402e+01    0.3511643    0.1834711  63.66  0.001803561    2.537    0.606
        11 -11.4694    180.1653    193.9163   1.1500786449e+02   1.1960219711e+01    0.4035976    0.2721117 -75.34  0.002183671    2.974    0.664
        12 -11.2617    135.1648    195.7723   1.2297169434e+02   1.9036323431e+01    0.2669213    0.1890319  74.92 0.0007890135    1.630    0.386
        13 -10.2333    124.0645    196.6114   1.2501459200e+02   2.0625269562e+01    0.1759066    0.1410572  83.33 0.0006020427    1.321    0.243
        14  -9.3506    159.3054    194.6813   1.1864908560e+02   1.5315527372e+01    0.1123453   0.08152602  69.13 0.0003039399    1.631    0.387
        15 -11.5207    207.7571    185.4177   1.0915125997e+02   8.3209844257e+00     0.302249    0.2229156  16.79 0.0009520086    1.359    0.264
        16 -11.5036    212.0578    181.7661   1.0785637022e+02   8.0061581047e+00    0.2893914    0.2018189  20.95  0.001286245    1.400    0.286
        17  -8.8838     18.5027    242.0326   1.4515160207e+02   2.6838684599e+01    0.1085481   0.07101644  70.45 0.0003601219    1.113    0.102
        18 -10.4561    124.0177    185.0700   1.2362900191e+02   2.2407866528e+01    0.1817557    0.1209357  69.96 0.0005048421    1.626    0.385
        19 -10.1148    157.4904    242.5152   1.2455736135e+02   9.7427917511e+00    0.1028234   0.07358103  45.01 4.164515e-05    1.014    0.014
        20 -10.8894     39.1377    183.4535   1.3901182709e+02   3.3933995705e+01    0.1889083    0.1378404  87.78  0.001014728    1.186    0.157
        21  -9.7941    223.9696    184.0323   1.0634179317e+02   5.7302216925e+00    0.1412062    0.1119614  27.83            0    1.008    0.008
        22 -11.0198    198.8346    178.4271   1.0947070669e+02   1.0700065558e+01    0.2680606    0.2472707 -69.15 0.0009563087    1.468    0.319
        23 -10.5174    169.2264    237.6149   1.2227259212e+02   8.5794687310e+00    0.1480352   0.07276077  39.02 0.0003552075    1.589    0.371
        24 -10.3649    179.1543    175.0957   1.1228359603e+02   1.4606206896e+01    0.1924577    0.1525215  23.39  0.001237237    1.298    0.230
        25 -10.8950    137.2239    170.5897   1.1920589341e+02   2.2574947883e+01    0.1929668    0.1607613  69.39 0.0007360324    1.176    0.150
        26 -10.0573     18.1301    231.1476   1.4481938415e+02   2.8423725040e+01   0.05983504   0.04362019  71.70            0    1.186    0.157
        27 -10.9536      1.0798    229.5208   1.4722580041e+02   3.0217024400e+01   0.07389077   0.03541021 -79.57 0.0003729936    2.010    0.502
        28 -11.1119    144.7379    168.4992   1.1747764375e+02   2.1628874634e+01    0.3647196    0.1713191  45.85  0.001610582    1.844    0.458
        29 -11.0623    103.8142    162.0539   1.2448974187e+02   2.9428503577e+01    0.2110452    0.1855032  89.17 0.0003583862    1.121    0.108
        30 -12.7938    107.7549    154.7490   1.2267197954e+02   3.0139305550e+01    0.6093128    0.5314924  17.32  0.003619228    1.567    0.362
        31 -11.0219     27.0091    157.0000   1.3944959824e+02   3.9992211773e+01    0.2304899    0.2237841  -0.75  0.001951034    1.644    0.392
        32 -11.1638     23.1550    156.1887   1.4015836737e+02   4.0511798165e+01    0.4856659     0.361359 -35.11   0.00289645    2.418    0.586
        33 -10.4685      9.6212    152.6058   1.4261393032e+02   4.2387130097e+01    0.2056175    0.1845496 -39.81  0.001486026    1.776    0.437
        34 -11.2998    134.0000    144.0014   1.1555437640e+02   2.7650624931e+01    0.5858413    0.2014992 -58.21   0.00194447    4.640    0.784
        35  -9.6011    174.8362    148.8652   1.0846064941e+02   1.9203036201e+01    0.1746456    0.1516801  73.96 0.0005467441    1.328    0.247
        36 -12.2481      5.7708    112.0376   1.4061375752e+02   5.0765165417e+01     0.431288     0.262946  16.06  0.002292889    2.484    0.597
        37 -13.2468      2.8877    127.1702   1.4241898679e+02   4.7884959317e+01     1.031061    0.4382069 -76.08  0.006199514    1.833    0.454
        38 -10.5396      2.3290    145.2701   1.4365199136e+02   4.4371038485e+01    0.2011587    0.1703427  61.60  0.001728836    1.322    0.243
        39 -12.8370      4.0405    138.5445   1.4290309515e+02   4.5544351568e+01    0.9308371    0.6011124 -86.62  0.006958925    1.195    0.163
        40 -10.0577    143.2873    144.6393   1.1378256354e+02   2.5850597234e+01    0.1309751   0.09833228  86.03 0.0007023463    1.687    0.407
        41 -11.4156    105.9048    130.6789   1.1923035990e+02   3.5005057524e+01    0.3431258    0.2857086 -69.10   0.00117437    1.181    0.153
        42 -10.6597    108.4436    126.3996   1.1789311600e+02   3.5422668645e+01    0.2268418     0.218116 -50.72 0.0007897679    1.207    0.172
        43 -11.0460    119.7039    130.2901   1.1610335350e+02   3.2725945099e+01    0.2665478    0.2334304  51.42 0.0009122094    1.123    0.109
        44 -10.6024    160.9002    128.3551   1.0705955911e+02   2.5251763611e+01      0.23743    0.1926122 -58.16  0.001334924    1.382    0.276
        45 -11.5347    185.5760    221.0943   1.1782075301e+02   7.9111989278e+00    0.2692972    0.1236875  37.63  0.001516884    1.790    0.441
        46 -10.9439    125.7409    127.3417   1.1422170993e+02   3.2205106295e+01    0.4822441    0.2655595  70.93  0.001883266    3.185    0.686
        47 -11.7025    158.2741    219.0102   1.2188548415e+02   1.2341524202e+01    0.2439565    0.1553692  35.77   0.00158822    1.418    0.295
        48 -12.4869     92.7026    123.6355   1.2102061926e+02   3.8526501768e+01    0.3949524    0.3150147 -76.34  0.001272402    1.191    0.160
        49 -10.2774    113.9039    119.0797   1.1524973553e+02   3.5924784219e+01    0.1997028    0.1850881  77.30 0.0004660136    1.019    0.018
        50 -11.8095    115.2003    139.7858   1.1876359930e+02   3.1701860832e+01    0.4218486    0.2478392 -41.52  0.002123381    2.136    0.532
        51  -8.1917     30.9583    217.4798   1.4231427058e+02   2.9205303301e+01    0.1186592     0.074829  46.36 0.0009571824    1.438    0.304
        52 -10.0478    205.3649    110.1362   9.4600639277e+01   1.8739231169e+01    0.2456842    0.1800736  37.35 0.0006656463    1.324    0.245
        53 -10.6997    171.6946    117.2945   1.0249486934e+02   2.4880354335e+01    0.4351588    0.2890025  87.05  0.001556037    2.780    0.640
        54 -11.8977    105.0106    140.0333   1.2099774275e+02   3.3335577320e+01    0.2702597    0.2317146  65.10 0.0006776538    1.058    0.055
        55 -11.2998    249.4904    102.6540   8.5921979887e+01   1.0389976350e+01    0.3895642    0.2829738 -20.67  0.002196729    1.268    0.211
        56  -9.5051    143.8916    128.3053   1.1052945343e+02   2.8617227019e+01    0.1846363    0.1609931  50.36 0.0003382559    1.086    0.079
        57  -9.7141    155.3265    213.3344   1.2169351882e+02   1.3499366643e+01    0.1063554   0.07673998  22.33 0.0007051539    1.717    0.418
        58 -11.1890    248.6793     86.5905   8.2166058873e+01   1.2478939109e+01    0.3414758    0.3365214 -46.64  0.001626872    1.207    0.171
        59 -10.2871    165.3060    208.1115   1.1941271285e+02   1.2595455899e+01    0.2099949    0.1308987  46.95 0.0006111704    1.270    0.213
        60  -9.9063     13.8070     59.2647   1.3171508989e+02   6.1504965215e+01    0.2353732     0.115624 -58.68  0.001352027    1.578    0.366
        61 -10.5471     30.8697    207.4405   1.4183337703e+02   3.0785201605e+01    0.1770725    0.1209056  22.30  0.001264717    2.610    0.617
        62 -12.0454     12.8685    244.5053   1.4601635149e+02   2.7026044840e+01    0.2028392   0.08857854 -70.45  0.001552584    2.636    0.621
        63 -11.2208      1.9068    247.2554   1.4758786431e+02   2.7641957491e+01   0.06782146    0.0333201  79.11 0.0005387014    1.568    0.362
        64 -10.9218     11.5725    205.9129   1.4485315788e+02   3.2886418827e+01    0.2015093    0.1362668  52.23  0.001066049    1.312    0.238
        65 -10.6578    189.6951     15.0171   6.9611650169e+01   3.5447050544e+01    0.2145896    0.1900157 -22.55 0.0008282225    1.116    0.104
