#   1 NUMBER                 Running object number                                     
#   2 MAG_AUTO               Kron-like elliptical aperture magnitude                    [mag]
#   3 X_IMAGE                Object position along x                                    [pixel]
#   4 Y_IMAGE                Object position along y                                    [pixel]
#   5 X_WORLD                Barycenter position along world x axis                     [deg]
#   6 Y_WORLD                Barycenter position along world y axis                     [deg]
#   7 A_WORLD                Profile RMS along major axis (world units)                 [deg]
#   8 B_WORLD                Profile RMS along minor axis (world units)                 [deg]
#   9 THETA_WORLD            Position angle (CCW/world-x)                               [deg]
#  10 FWHM_WORLD             FWHM assuming a gaussian core                              [deg]
#  11 ELONGATION             A_IMAGE/B_IMAGE                                           
#  12 ELLIPTICITY            1 - B_IMAGE/A_IMAGE                                       
         1 -11.7346    243.4032     29.3882   1.1392630319e+01   2.1077058927e+01    0.9292385    0.5348524 -11.44  0.004403308    2.254    0.556
         2 -13.2197    231.2714     11.7311   7.8711120085e+00   2.5743575383e+01     1.650948      1.08165 -38.64  0.009254529    1.300    0.231
         3 -11.8783    247.4823     11.8677   6.8435280920e+00   2.2150138335e+01     0.915588    0.4812623 -44.56  0.004874273    1.516    0.340
         4 -10.7017    247.5074      3.4021   4.8294779467e+00   2.3016413657e+01    0.4816605    0.3214435 -61.08  0.002520836    1.297    0.229
         5 -10.6292    193.1617     14.9578   1.1922230014e+01   3.4615377915e+01    0.4258412    0.2557565   1.59  0.001483431    2.426    0.588
         6 -10.6685    200.5462     12.4950   1.0503052481e+01   3.3013781262e+01    0.3213868    0.1947807 -68.36  0.001550095    1.687    0.407
         7  -9.4192     24.0613      8.2390   5.4846971803e+01   7.4060906241e+01    0.2198358    0.1547714 -44.16 0.0005050115    1.392    0.282
         8  -8.7968     42.4798      8.5225   4.4433398209e+01   7.1414533739e+01    0.1295108    0.1075323  -6.53 3.479136e-05    1.048    0.046
         9  -9.5035     30.7190      7.1489   5.0061314088e+01   7.3378166491e+01    0.1851948    0.1412935 -44.73 0.0006145606    1.462    0.316
        10  -9.6762    178.1188      3.4569   9.8401414133e+00   3.9642546213e+01     0.302866    0.1449134 -41.58  0.001324661    1.933    0.483
        11  -9.2171    102.3651      4.2106   2.1209234911e+01   5.9338465663e+01    0.1999615    0.1190605 -32.07 0.0009209259    1.716    0.417
        12 -11.5791    216.6777      5.4984   7.2672867137e+00   2.9786039536e+01    0.5308793    0.4024905 -76.72   0.00310204    1.235    0.191
        13  -9.2895    111.5184      8.0249   2.1030934284e+01   5.6691555154e+01    0.2071495   0.09685839 -45.69 0.0006538371    2.501    0.600
        14  -8.8661     32.7818      1.6123   4.5170766827e+01   7.3903726184e+01    0.1528114    0.1150482  45.85 0.0007743294    1.649    0.394
        15  -9.6969    179.1572    237.3641   6.5732240515e+01   2.9812535790e+00    0.3221605    0.1521888  25.22  0.001445366    2.267    0.559
        16  -8.9658    238.7059    249.5921   5.7617540356e+01  -6.1885944785e+00    0.1402226    0.1201744 -26.94  0.001167338    1.785    0.440
        17  -8.8561    172.2271    250.3820   6.8556272526e+01   2.3624237401e+00     0.155011   0.07975604  41.40 0.0005586949    1.575    0.365
        18  -9.8518     66.3178    248.8086   8.7185838455e+01   1.6726917985e+01    0.3973128    0.1382165  52.46   0.00210807    2.266    0.559
        19  -9.4021     50.7943    249.9325   8.9972779379e+01   1.8370214604e+01    0.3536058    0.1118985  38.71  0.001889639    2.303    0.566
        20  -9.6716    235.5517    229.5282   5.5203036463e+01  -3.8393683517e+00    0.1723744    0.1158609  -5.32 0.0006404669    1.346    0.257
        21 -10.5994    232.3204    236.6604   5.6770220220e+01  -4.1521136275e+00     0.351197    0.1724247  14.59   0.00196702    2.288    0.563
        22  -9.0697     61.5693    236.7682   8.7266989117e+01   1.9266062757e+01     0.194985    0.1154417  32.09 0.0009335622    1.744    0.427
        23 -10.0179    240.1036    235.3318   5.5359132617e+01  -5.0021545295e+00    0.2590987    0.1408834  26.34  0.001487071    1.461    0.316
        24  -9.0545    191.5007    236.0811   6.3420506487e+01   1.3951763563e+00    0.1445497    0.1066201 -27.25 0.0007956491    1.568    0.362
        25  -9.5205    218.2957    231.2977   5.8240642027e+01  -1.7491453106e+00    0.2341387    0.1420607   9.93  0.001007462    1.640    0.390
        26  -8.9508    177.1864    232.8001   6.5477745294e+01   3.8395824287e+00    0.1639234     0.115362  17.83  0.001084867    1.355    0.262
        27  -9.5041    244.8025    231.9653   5.4132153639e+01  -5.2572619104e+00    0.2424256     0.129021  16.94  0.001533792    1.697    0.411
        28  -9.7255    226.2831    230.1872   5.6778480987e+01  -2.6962431737e+00    0.2001096     0.147714  22.68 0.0008322826    1.116    0.104
        29  -8.4144    161.4372    230.5270   6.8013296004e+01   6.4395412135e+00    0.1159528   0.09280466  36.88 7.036762e-05    1.072    0.067
        30  -9.9977     61.4920    228.6887   8.6737147992e+01   2.0662707638e+01    0.4168968    0.1580002  49.39   0.00208433    1.999    0.500
        31  -9.2573     72.9050    227.2814   8.4458197342e+01   1.9481539265e+01    0.2440783    0.1427632  81.57  0.001471401    1.901    0.474
        32  -9.4764    216.2384    227.4014   5.8004162812e+01  -1.0362053185e+00    0.1943851     0.140238  38.82  0.001352224    1.451    0.311
        33  -9.2061    217.5087    224.5188   5.7361435233e+01  -8.8479407207e-01    0.2164967    0.1424519  29.28  0.001369685    1.242    0.195
        34  -9.0617    197.7532    226.9932   6.1070357759e+01   1.6046809176e+00    0.1298967   0.09315286 -28.24 0.0008790405    1.569    0.362
        35  -9.5399    235.7870    225.2359   5.4511827699e+01  -3.4230314426e+00    0.1910635    0.1602909  18.81 0.0005861636    1.313    0.238
        36  -8.2308    190.5209    225.9566   6.2179983636e+01   2.7761277184e+00     0.154087   0.08962344  -9.41 0.0008095378    2.525    0.604
        37  -9.3475    222.1537    222.4576   5.6281244413e+01  -1.2915206844e+00    0.2300611    0.1571526 -31.01    0.0015748    1.651    0.394
        38  -8.0524    144.3171    222.6278   7.0197798612e+01   1.0133940706e+01    0.1198063    0.0838445  64.08 0.0006647403    1.793    0.442
        39 -10.2863    228.4076    220.6427   5.4980848677e+01  -1.9432852111e+00    0.2727475    0.1653615  32.58 0.0008208767    1.414    0.293
        40  -9.0187     52.3407    221.5786   8.8004915744e+01   2.3032671991e+01    0.2255599   0.07957397  40.44  0.001146964    2.152    0.535
        41  -8.6446    239.4917    220.5292   5.3195385101e+01  -3.4118916986e+00    0.1115283   0.08303534  10.57  6.65745e-05    1.002    0.002
        42  -8.9301     62.2192    220.3382   8.5998823043e+01   2.2062596956e+01    0.2182302    0.1107404  46.90  0.001014578    1.522    0.343
        43 -10.3364    248.3338    217.8743   5.1400987796e+01  -4.2830123881e+00     0.242287    0.1551348 -19.44 0.0009766498    1.455    0.313
        44 -10.1109    180.2470    216.7123   6.2678540213e+01   5.5202874613e+00    0.2535724    0.2137687  23.23 0.0007949812    1.044    0.042
        45  -9.2922     11.8511    215.8739   9.5414029471e+01   2.8408975744e+01    0.1589953   0.08891585  65.44  0.001069657    1.324    0.245
        46  -9.5544    213.1561    215.2788   5.6667152445e+01   8.1335662904e-01     0.322016    0.1404455  35.02  0.001045459    1.960    0.490
        47  -9.6663    209.1132    211.6961   5.6791183124e+01   1.8432429380e+00    0.2951207     0.183118 -23.99  0.001534059    1.707    0.414
        48  -8.5665    242.7857    214.4409   5.1707221378e+01  -3.1965798033e+00    0.1540957   0.08352315  24.07  0.000934694    1.612    0.380
        49  -9.5864    233.3187    212.0525   5.2820343403e+01  -1.6539492000e+00    0.2098482    0.1411957  31.97 0.0008456717    1.352    0.260
        50 -10.1189    228.7380    205.8808   5.2548269580e+01  -2.9785139000e-01    0.4001865    0.2064158 -20.18  0.002208855    2.084    0.520
        51  -8.5657    190.3226    204.3094   5.8937764526e+01   5.6806245957e+00    0.1252452   0.08420408   9.76 0.0007036497    1.648    0.393
        52  -9.2632    244.7698    199.6524   4.8928812572e+01  -1.8278167799e+00    0.4088105    0.2390024 -47.06  0.002183354    3.010    0.668
        53  -8.4510    209.7512    200.0003   5.4767712200e+01   3.2475430794e+00     0.149923   0.09705515 -30.08 0.0008931786    1.608    0.378
        54  -8.0859    134.3063    200.3510   6.9220241900e+01   1.5313121529e+01    0.1234758    0.0965842   0.84 0.0007042371    1.709    0.415
        55  -8.4615    163.6733    199.2056   6.3162521951e+01   1.0724071728e+01     0.155806    0.1133989 -30.11 0.0002933532    1.586    0.370
        56  -9.0526      5.3248    199.3403   9.6034313782e+01   3.2187743322e+01   0.09719819   0.07774979 -59.02  0.000705117    1.728    0.421
        57  -8.8473    182.8615    197.9576   5.9288167195e+01   7.7841716382e+00    0.1885829     0.148542   8.84 0.0007737579    1.261    0.207
        58  -9.1432    158.0386    197.6326   6.4028058312e+01   1.1901955961e+01     0.186984    0.1753761  72.27 0.0006625844    1.262    0.208
        59  -8.8236     17.6935    194.0712   9.3305471167e+01   3.2104587394e+01    0.1603409     0.115663  75.58 0.0004439224    1.082    0.076
        60  -8.8560    127.9883    192.9687   6.9493024614e+01   1.7649682741e+01    0.1948758    0.1705245  45.63 0.0004476215    1.010    0.010
        61  -8.6337    233.5442    190.7512   4.9158310208e+01   8.3563784090e-01     0.149295    0.1049995 -35.15 0.0007749721    1.601    0.375
        62  -8.1670    202.3236    187.7065   5.3957997252e+01   6.1065689858e+00    0.1120611    0.1003221  67.91 0.0004232927    1.616    0.381
        63  -8.0499    131.3200    186.6741   6.7859466506e+01   1.8259990787e+01    0.1342935    0.0962486  68.47 0.0007046676    1.681    0.405
        64  -9.7908    249.4607    183.3476   4.5308253580e+01  -5.8745117026e-01    0.2036976    0.1671513 -11.73 0.0006018646    1.178    0.151
        65  -9.2309    240.1942    182.3594   4.6571623187e+01   8.8856373081e-01    0.3425381    0.1796141 -21.40  0.001841239    1.866    0.464
        66  -8.7122     80.0163    201.2017   8.0712468579e+01   2.3339378523e+01    0.1645661    0.1361696  62.23 0.0003577414    1.022    0.022
        67  -7.8447    193.7227    176.3078   5.3463974005e+01   9.2428706696e+00    0.1153279    0.1052357  88.14 0.0004938343    1.553    0.356
        68  -8.1584    245.3618    174.6724   4.4326432280e+01   1.0742999229e+00    0.1067278   0.09676982 -58.61 0.0007040831    1.794    0.443
        69  -7.8972     51.3356    159.3011   8.2932785597e+01   3.6054055845e+01    0.1206335   0.09846757 -39.31 0.0007035458    1.659    0.397
        70  -7.7834    176.3273    148.3260   5.1288867698e+01   1.7129748613e+01    0.1468516    0.1080832   5.07 0.0005671929    1.698    0.411
        71  -8.9981    236.7602    146.3566   4.0018352461e+01   6.2221099449e+00    0.2679931     0.136952 -54.09 0.0009648104    4.404    0.773
        72  -8.0698    151.4432    142.4891   5.5361076318e+01   2.3169876034e+01    0.1427458    0.1396191  60.79 8.981046e-05    1.044    0.042
        73  -8.2084    215.7101    141.6778   4.2464988507e+01   1.0672413225e+01    0.1384911   0.09813721   2.90 0.0005391049    1.606    0.377
        74  -8.7987    215.9794    135.0114   4.0947398207e+01   1.1660271890e+01    0.2171282    0.1539336   8.72 0.0006662237    1.642    0.391
        75  -9.5742    248.2839    131.2713   3.5062487457e+01   6.3511604947e+00    0.4644163    0.2041766 -48.64  0.001785327    3.566    0.720
        76  -8.6360     97.4842    134.5606   6.7062398011e+01   3.5120053373e+01    0.2715966    0.1225139 -46.51  0.001035971    2.441    0.590
        77  -9.1534    236.4197    130.9476   3.6749196462e+01   8.4833066217e+00    0.4361376     0.196628  61.73  0.001561279    4.457    0.776
        78  -8.0086    195.2768    128.3141   4.3101687518e+01   1.6853576863e+01    0.1433717    0.1079914   2.20 0.0003200125    1.565    0.361
        79  -9.6374    239.0915    124.8933   3.5000948226e+01   8.8755383915e+00    0.4597144      0.26453  62.77  0.002143793    2.643    0.622
        80  -8.9201      5.0261    125.8257   9.2161380514e+01   4.8469232029e+01    0.1950778    0.1327432  72.18 0.0006229584    1.269    0.212
        81  -8.9276    227.0731    124.7718   3.6813109101e+01   1.1127353520e+01    0.1988801    0.1759535 -45.64 0.0006595596    1.268    0.212
        82  -8.6042    239.4734    118.4859   3.3498888578e+01   9.7324488758e+00    0.2319817    0.1332851  50.66 0.0008252648    1.990    0.497
        83  -8.2414    250.4774    116.4886   3.1498068137e+01   8.0184548749e+00    0.1315554    0.1099563 -24.82 0.0008096084    1.052    0.049
        84  -8.5701    129.3284    115.6655   5.4464971457e+01   3.3341975534e+01    0.1591704    0.1207753  89.59 0.0007051893    1.722    0.419
        85  -8.8629    236.1893    112.2245   3.2536050663e+01   1.1264684233e+01    0.3435505    0.1676117 -29.24  0.001550115    1.840    0.457
        86  -8.8968    249.6410    106.2993   2.9302983126e+01   9.5931377062e+00    0.1303818   0.09503183 -56.92 0.0007035731    1.711    0.416
        87  -8.8001    130.2572    104.0100   5.1217382954e+01   3.5683791441e+01    0.3215331    0.1982281  22.57  0.001184779    2.642    0.622
        88  -9.0869    239.0696    103.0689   2.9980670026e+01   1.2051147947e+01    0.2146257    0.1809702 -24.21  0.001281168    1.024    0.023
        89  -8.9265    230.3351    103.4432   3.1311138332e+01   1.3716959301e+01    0.2680743    0.1028114  40.03 0.0009568532    3.465    0.711
        90  -8.4231    143.5235    103.4731   4.7779346700e+01   3.2867632522e+01    0.1533807    0.1505193 -42.32 4.282729e-05    1.020    0.019
        91 -10.3968    246.9443     97.9389   2.7719400537e+01   1.1274040368e+01    0.3806774    0.2890184 -42.50  0.001536233    1.257    0.205
        92  -9.4464    242.7741     98.0030   2.8281096732e+01   1.2065266139e+01    0.3138887    0.1702992 -33.77  0.001335743    1.559    0.358
        93  -8.0009    237.3437     96.2899   2.8602310382e+01   1.3378190158e+01    0.1361811    0.1003483  10.96 0.0005897884    1.653    0.395
        94  -8.3333    197.3401     93.3266   3.3974915005e+01   2.2397419070e+01    0.1537517    0.1141559  12.41 2.769839e-05    1.732    0.423
        95  -8.3013    144.0031     88.7561   4.3500418866e+01   3.5758119292e+01     0.203416    0.1337654  51.32 0.0004458915    1.562    0.360
        96  -8.7038     65.2956     71.2416   6.1875728599e+01   5.5606878809e+01    0.2899018    0.1718613 -74.89  0.001156758    2.506    0.601
        97  -9.9203    247.8529     70.8300   2.1143046545e+01   1.4861745036e+01    0.1937685    0.1399352 -51.50 0.0008796405    1.355    0.262
        98  -8.5346    219.3497     71.6632   2.4842849764e+01   2.0825019907e+01    0.1541293   0.09964236 -59.58 0.0007046437    1.786    0.440
        99  -9.5976    228.6834     70.0015   2.3197671630e+01   1.9000313840e+01    0.2083784    0.1660767 -33.96  0.001158766    1.100    0.091
       100 -10.3059    246.3592     59.2587   1.8485077540e+01   1.6715692704e+01    0.2859464    0.1845733 -40.76  0.001540231    1.300    0.231
       101  -8.7729    120.3111     60.6525   4.0370650854e+01   4.6848881755e+01    0.1614894    0.1200668 -70.86 0.0004486996    1.712    0.416
       102  -8.1164     29.5304     55.4945   7.2041819261e+01   6.3795454391e+01     0.132268     0.113016 -58.05 0.0001365257    1.042    0.041
       103  -8.7572    153.4037     52.1760   2.9755194349e+01   4.0066049305e+01    0.2270371    0.1338393 -43.34 0.0009448251    1.662    0.398
       104 -10.0148    240.8042     43.5002   1.5128667827e+01   1.9925536860e+01    0.3989149    0.2762307  -1.58  0.002050387    1.929    0.482
       105  -8.9785    249.8365     44.2212   1.4482340562e+01   1.7919996894e+01     0.169774    0.1493775  -4.22  0.000752484    1.330    0.248
       106  -8.5388     94.4949     41.4923   4.0460217451e+01   5.6214055134e+01    0.1457907    0.1399811 -39.76 0.0008096569    1.070    0.065
       107  -9.3270     75.7877    248.4371   8.5479866306e+01   1.5625206479e+01    0.3383197    0.1419487  44.59   0.00198092    1.703    0.413
       108  -8.9295    229.0605    247.3147   5.8795428908e+01  -4.7946488470e+00    0.1496518    0.1009956  21.22 0.0005262017    1.085    0.079
       109  -9.0220     78.0930     30.8797   4.1274821956e+01   6.1467819620e+01    0.2070976    0.1883139 -53.80 0.0005551826    1.245    0.197
       110  -8.4791    196.1956    246.8606   6.4057028433e+01  -4.8814780660e-01    0.1544382    0.1035512  13.98  0.001074948    1.383    0.277
       111  -8.5886    156.6748    247.3405   7.0903441235e+01   4.8899394142e+00    0.1084115   0.07468165  56.87 -7.166123e-05    1.729    0.422
       112  -8.7820     99.5036     24.9735   3.1696389048e+01   5.7638520698e+01    0.2180239    0.1386202 -28.87 0.0008054668    1.555    0.357
       113  -9.4456     14.4139     23.3935   6.8863832739e+01   7.2183179289e+01    0.2630627    0.1044415  29.19  0.001247837    2.829    0.647
       114  -9.1152    211.0000     21.9758   1.2237808420e+01   2.9395187795e+01    0.2308229   0.07326712 -26.03 0.0008073314    2.976    0.664
       115  -9.0493     47.1359     20.3549   4.8960903884e+01   6.8816183952e+01    0.2426192    0.1545444 -30.02  0.001175691    1.450    0.310
       116 -10.0693     29.2782     20.4561   5.8541793174e+01   7.1270088917e+01    0.3909226    0.1567464 -28.96  0.001364252    4.065    0.754
       117  -9.1210     57.7750    246.9887   8.8585030695e+01   1.8034536661e+01    0.2095546   0.09103734  49.83  0.001267929    1.652    0.395
       118  -9.0559     37.9640     34.9572   6.0630874826e+01   6.7381446626e+01     0.192603    0.1620145 -89.62 0.0005744326    1.662    0.398
       119 -10.1631    201.4364    240.9319   6.2394418864e+01  -5.3539247207e-01    0.2809504    0.1771378  -9.83  0.001804082    1.856    0.461
       120  -9.2052    191.2289    243.8041   6.4494405511e+01   5.2930545783e-01    0.1529263    0.1041365  15.98 0.0005834616    1.345    0.256
       121  -8.7279    187.4556    241.4773   6.4833219496e+01   1.3192509240e+00    0.1544525     0.107303 -52.76 0.0007432316    2.245    0.554
       122  -9.5176    249.5648    239.2668   5.4493457995e+01  -6.5357446214e+00    0.2143333   0.08790328 -26.04  0.001269684    2.485    0.598
       123  -8.8623     44.0350     31.9787   5.6282376631e+01   6.7169344132e+01    0.1992077     0.163828 -81.11 0.0006652024    1.764    0.433
       124  -9.4641     72.5458    239.5325   8.5439977949e+01   1.7456274356e+01    0.2384451    0.1411262  59.43  0.001570772    1.413    0.292
       125  -9.6043     52.5067    239.0807   8.9063092851e+01   1.9951159693e+01    0.2752316    0.1368977  42.60  0.001736822    1.528    0.346
       126  -9.1553    220.2525    238.1511   5.8911801681e+01  -2.7450539330e+00    0.2007117    0.1271596   7.19 0.0009885376    1.498    0.333
       127  -8.7967    163.0135    239.5061   6.8854420267e+01   5.0084611953e+00    0.1754589   0.08888256  36.40 0.0005308565    1.544    0.352
