#   1 NUMBER                 Running object number                                     
#   2 MAG_AUTO               Kron-like elliptical aperture magnitude                    [mag]
#   3 X_IMAGE                Object position along x                                    [pixel]
#   4 Y_IMAGE                Object position along y                                    [pixel]
#   5 X_WORLD                Barycenter position along world x axis                     [deg]
#   6 Y_WORLD                Barycenter position along world y axis                     [deg]
#   7 A_WORLD                Profile RMS along major axis (world units)                 [deg]
#   8 B_WORLD                Profile RMS along minor axis (world units)                 [deg]
#   9 THETA_WORLD            Position angle (CCW/world-x)                               [deg]
#  10 FWHM_WORLD             FWHM assuming a gaussian core                              [deg]
#  11 ELONGATION             A_IMAGE/B_IMAGE                                           
#  12 ELLIPTICITY            1 - B_IMAGE/A_IMAGE                                       
         1 -15.0415      7.4824     24.5507   1.3089217313e+02   7.1554492222e+01     1.943182    0.8214295 -57.25  0.008940044    1.799    0.444
         2 -12.6754     83.7509     22.5785   9.0251047620e+01   6.1083072906e+01    0.4995619    0.4359223  -6.72  0.001700847    1.075    0.070
         3 -11.6847     63.6086     17.2431   9.5426546014e+01   6.5992576737e+01    0.4717126    0.3134524  54.97  0.002332653    1.884    0.469
         4 -12.5275    103.8888      3.6941   7.5082512707e+01   5.8600007892e+01    0.6263181    0.4863109 -26.82  0.003379426    1.347    0.257
         5 -11.9311     75.3229     13.3774   8.8589746414e+01   6.4186560212e+01    0.4376637    0.3068686  41.56  0.001248512    1.367    0.269
         6 -13.3295     85.7563      3.7161   7.9877343335e+01   6.2991889514e+01     1.282516    0.5454549  49.39  0.005349153    2.080    0.519
         7 -12.5522     96.3981      3.2991   7.6717316209e+01   6.0487790994e+01    0.6802381    0.4963175  28.79  0.002525511    1.323    0.244
         8 -12.0480     82.1999     13.8021   8.6360050120e+01   6.2634896050e+01    0.3428436    0.2939801  51.51  0.001040547    1.245    0.197
         9 -13.0826     87.1558     11.3960   8.3487309402e+01   6.1813307488e+01    0.8449036    0.4931409  62.03  0.002773278    1.910    0.477
        10 -12.1593    114.0267     10.2155   7.5803828896e+01   5.5409873966e+01    0.5521775    0.3141186 -51.77  0.002329657    2.290    0.563
        11 -11.8933    111.9814      4.7984   7.3799609346e+01   5.6457221114e+01    0.4479056    0.2625304  43.94  0.002081302    1.599    0.375
        12 -11.4177    123.8641     10.2746   7.3776293522e+01   5.2885590047e+01    0.2660739     0.218846  16.36 0.0004173875    1.248    0.198
        13 -11.1930    137.6406      5.8781   6.9542416867e+01   4.9710094529e+01    0.2783341    0.2075013  78.29  0.001102966    1.376    0.273
        14 -11.5459     33.3724      4.1417   1.0354927081e+02   7.3118853086e+01    0.2937423    0.2380641  18.55  0.001203695    1.230    0.187
        15 -10.6967    176.9960      3.0000   6.3530327510e+01   3.9745187939e+01    0.2179455   0.07489661  73.33            0    2.855    0.650
        16 -12.0087     73.2795      1.5103   8.2671274384e+01   6.6059377968e+01    0.2548776     0.162402  55.61 0.0004395008    1.592    0.372
        17 -12.6727    239.7525    201.1259   1.0288618373e+02   1.6044347163e+00    0.4556085    0.2631937 -31.21  0.002867776    1.860    0.462
        18 -12.7557    237.5857    191.1424   1.0152357463e+02   2.9992535516e+00    0.6226827     0.334615 -32.53  0.003664353    1.948    0.487
        19 -11.8849    228.4401    198.1502   1.0424549775e+02   3.4362536507e+00    0.2548994    0.2020959 -37.13  0.001736071    1.853    0.460
        20 -12.2396    173.4641    192.1318   1.1331497558e+02   1.2199685678e+01    0.3918086    0.2547593  31.05  0.001592554    1.307    0.235
        21 -10.9221    106.3286    189.6607   1.2728570158e+02   2.2604339048e+01    0.1301136   0.08708344  60.38 0.0004892508    1.735    0.424
        22 -11.4342    173.0134    184.2870   1.1209741675e+02   1.3442923571e+01    0.1855043    0.1445228  23.67 0.0008047266    1.087    0.080
        23 -11.5109    250.1024    200.6998   1.0117187753e+02   3.2883338088e-01    0.3319905    0.1295061 -21.40  0.001691687    2.543    0.607
        24 -10.9833     34.2534    177.0175   1.4273281616e+02   3.3652254921e+01    0.2232168    0.1437907 -13.90  0.001197829    2.692    0.629
        25 -11.2506    217.3135    173.9931   1.0184695285e+02   8.0032204439e+00    0.2875271    0.2127585 -17.01  0.001817377    1.238    0.192
        26 -11.3468     89.8775    168.3274   1.2836890954e+02   2.9038717456e+01    0.2204272    0.1761573 -82.59 0.0009737696    1.395    0.283
        27 -10.7741    212.5778    164.3461   1.0083949106e+02   1.0035309017e+01    0.2515506    0.1452528  33.14  0.001347203    1.610    0.379
        28 -13.1760    192.1308    152.6782   1.0232143384e+02   1.5146015538e+01    0.9864212     0.514087 -18.28  0.004241173    2.453    0.592
        29  -9.7661     91.2926    151.6466   1.2558977389e+02   3.2358491461e+01     0.139394   0.09953352  69.26  0.000703004    1.682    0.405
        30 -12.3218     41.9098    135.1042   1.3699496254e+02   4.2209727096e+01    0.2648565     0.225428  51.03 0.0006819843    1.153    0.133
        31 -14.4417     48.5257    131.3696   1.3460843871e+02   4.2415147993e+01     1.121043    0.3641507 -54.79  0.004371365    2.878    0.653
        32 -13.0917     58.7724    145.4542   1.3348482121e+02   3.7995095491e+01    0.8116055    0.4343665  56.43  0.003846947    2.046    0.511
        33 -13.3562     51.6797    143.5100   1.3520924508e+02   3.9237930613e+01    0.5028532    0.3458215  55.12   0.00219766    1.422    0.297
        34 -14.9816    133.0705    115.1086   1.0711967098e+02   3.3041219296e+01      1.47019    0.6959592  29.74  0.005266431    2.713    0.631
        35 -13.8002    140.7250    138.2636   1.1048486361e+02   2.6958585135e+01     0.780306    0.5435817 -21.03  0.003424692    1.700    0.412
        36 -15.2629    143.6192    129.6662   1.0790173542e+02   2.8096187719e+01     2.308648      1.64676  38.69   0.01154334    1.359    0.264
        37 -13.4502    121.0117    127.5429   1.1316682643e+02   3.2723818261e+01    0.5772707    0.3387944  48.55  0.002547807    1.826    0.452
        38 -13.4159     96.2815    126.9586   1.1986018125e+02   3.7070216232e+01    0.5015623     0.419766  -7.62  0.002702557    1.400    0.286
        39 -11.4339     75.8317    141.9478   1.2827032650e+02   3.6665421176e+01    0.2951525    0.2309123  22.44  0.001654529    1.383    0.277
        40 -15.4967    109.8440    120.8835   1.1474192903e+02   3.6146401244e+01     1.437119    0.9897161 -74.01  0.006478483    2.017    0.504
        41 -14.4811    104.3698    107.9234   1.1330925734e+02   3.9988779244e+01     0.966931    0.6220304 -18.01  0.003949503    2.364    0.577
        42 -15.7538    105.0002    101.4351   1.1150155662e+02   4.1320016881e+01     1.860817    0.7490081  39.78  0.006752626    2.500    0.600
        43 -11.4369     75.5267    121.0341   1.2484663316e+02   4.1558908403e+01    0.2042184    0.1859329  40.28 0.0003429502    1.114    0.102
        44 -14.2395     68.6029    116.1937   1.2609667854e+02   4.3655004252e+01    0.9354262    0.6416922   0.46  0.004452933    2.052    0.513
        45 -15.0247    120.3892    103.1256   1.0748806688e+02   3.8025724337e+01     1.361369    0.6433353 -39.86  0.005221308    2.181    0.542
        46 -10.9217      3.3179    142.3410   1.4825537248e+02   4.3596197777e+01    0.1162882   0.07722524 -51.79 0.0007049137    1.712    0.416
        47 -15.2635    112.8915     98.2178   1.0832272816e+02   4.0536941497e+01     2.227463    0.5621643 -49.37  0.006054275    4.335    0.769
        48 -13.4318     73.8114     96.8325   1.2035836894e+02   4.7571398761e+01    0.5638221    0.2479649 -46.50  0.001614352    2.235    0.553
        49 -14.2522     79.4215    105.2888   1.2042563959e+02   4.4723453570e+01    0.8897753    0.5360565  60.12  0.003767833    2.276    0.561
        50 -14.4434     83.2775     97.1562   1.1726423687e+02   4.6040679787e+01    0.7563512    0.5233268  50.78  0.002953592    1.616    0.381
        51 -13.7334     17.2216    101.0658   1.4086556717e+02   5.2492718805e+01       0.5556    0.4771992 -43.34  0.002103702    1.261    0.207
        52 -11.5788      6.1369    105.0513   1.4497717469e+02   5.2172576041e+01    0.2587214     0.192964   7.60  0.001259379    1.656    0.396
        53 -13.0453    131.8944    103.4169   1.0444554467e+02   3.5660586065e+01     0.402885    0.2820489  18.21   0.00142712    1.742    0.426
        54 -12.5008     32.1051    102.4178   1.3590372374e+02   5.1036871013e+01    0.3182609    0.2647366  76.47  0.001168211    1.202    0.168
        55 -15.1120     43.9993     93.1328   1.3013086753e+02   5.2218500637e+01      1.17534    0.9290404 -55.95  0.006718831    1.155    0.134
        56 -13.2529     54.3141     95.0469   1.2677675951e+02   5.0599882271e+01    0.4347938    0.4076851 -27.44  0.001519283    1.128    0.114
        57 -12.4255     27.7593     98.3365   1.3684229340e+02   5.2406147520e+01    0.2599749    0.2276711  83.03  0.001255759    1.115    0.103
        58 -14.3355     97.2246     89.0695   1.1059473765e+02   4.5499733796e+01    0.9732109    0.4558468 -55.86  0.003593697    2.452    0.592
        59 -13.9531     88.6904     86.6592   1.1271301289e+02   4.7564049733e+01    0.4894488    0.4160262  52.17  0.002127283    1.291    0.225
        60 -12.3930     23.8328     88.8498   1.3689448257e+02   5.5061993773e+01    0.3348381    0.2197162  84.59  0.001227727    1.607    0.378
        61 -14.3307     72.2969     75.6061   1.1535146787e+02   5.2806549825e+01    0.6768876    0.4241442 -39.32  0.003126485    1.590    0.371
        62 -12.2143     66.9155     76.4928   1.1762972927e+02   5.3413288098e+01      0.29434    0.2536951   4.52 0.0007493999    1.264    0.209
        63 -14.6662     55.6453     76.6895   1.2204230042e+02   5.4909521852e+01    0.9739171    0.7723529 -57.99  0.005331512    1.174    0.148
        64 -14.6323     61.5591     74.8279   1.1922698199e+02   5.4568714149e+01     0.856566     0.606056 -21.93  0.004194845    1.680    0.405
        65 -11.3882    128.9812     83.1752   9.9481148244e+01   4.0335276655e+01    0.2621049    0.2197987 -35.68 0.0004152527    1.172    0.147
        66 -13.3737     76.9989     70.9919   1.1220988689e+02   5.3102073253e+01    0.5129201    0.2951647 -32.12  0.001732595    2.014    0.503
        67 -11.2903     35.7257     79.9875   1.3072936835e+02   5.6285574700e+01     0.207367    0.1949662  25.06 0.0008369567    1.195    0.163
        68 -11.6430     42.3234     78.0805   1.2768123048e+02   5.6109655042e+01    0.2825404    0.1938059  -5.53  0.001342948    1.854    0.461
        69 -14.4423     95.4779     72.6583   1.0623413119e+02   4.9415741228e+01    0.9041697    0.5458023  32.06  0.002030712    1.812    0.448
        70 -12.6199     83.1547     68.5152   1.0916527015e+02   5.2592234443e+01    0.2835325    0.2388124 -45.70 0.0003955606    1.153    0.132
        71 -10.2924    250.0544     74.5154   7.5088687297e+01   1.5460670400e+01    0.1550581    0.1285532  53.95 -2.603562e-05    1.442    0.307
        72 -12.2960    120.6076     73.0941   9.8633263957e+01   4.4135957109e+01    0.2759873    0.2655947 -37.50 0.0003685172    1.087    0.080
        73 -10.1253    135.2957     63.2890   9.1459272279e+01   4.2601308448e+01    0.1549678    0.1172526  13.70            0    1.552    0.356
        74 -12.7132    125.5929     57.6397   9.2008587123e+01   4.5864823963e+01    0.3489037    0.2886246  34.55 0.0005534999    1.211    0.174
        75 -12.9072     68.4894     55.3720   1.1028785782e+02   5.7949869641e+01    0.4182292    0.3763283  49.11  0.002091338    1.282    0.220
        76 -10.7623     52.6850     56.9682   1.1754834517e+02   5.9931247270e+01     0.201476     0.168921 -47.45 0.0005146852    1.094    0.086
        77 -10.5851    210.7074     54.4604   7.4816636305e+01   2.6012653275e+01    0.1642291    0.1304282  43.41 0.0002363253    1.356    0.263
        78 -11.3044    133.0629     53.8359   8.8745237962e+01   4.4735160144e+01    0.3640637    0.2380594  47.92  0.001633469    1.517    0.341
        79 -11.1158    145.4887     50.8326   8.4802983302e+01   4.2178155202e+01    0.2614502    0.2180958  52.19 0.0007831344    1.210    0.174
        80 -12.4637      2.5160     46.7328   1.3923755132e+02   6.6588253382e+01    0.4184203    0.3527079 -80.07  0.001750655    1.166    0.142
        81 -12.3244    232.0394    237.4767   1.0979364579e+02  -1.1619004485e+00    0.2360485    0.1452664  20.47 0.0009864006    1.181    0.153
        82 -12.8697     42.4652     47.6853   1.1915772833e+02   6.3318672475e+01    0.3712486    0.3332298  -3.41 0.0005970272    1.152    0.132
        83 -12.6612     41.3085     42.9887   1.1806372034e+02   6.4506270658e+01    0.7681565     0.430468  -5.96  0.003179918    2.817    0.645
        84 -11.5616    156.9111     43.8432   8.0072347635e+01   4.0348953850e+01    0.2346378     0.221709  -4.00 0.0004679496    1.040    0.039
        85 -10.5073    102.0281     43.4965   9.3462329661e+01   5.3716775413e+01    0.2157013    0.1467043  47.52 0.0003232009    1.486    0.327
        86 -10.1799    197.3515     41.0243   7.2776998513e+01   3.0762050240e+01    0.1880738     0.170437 -26.29  0.001088036    1.042    0.040
        87 -11.1801     81.9449     34.6820   9.6580815731e+01   5.9525605208e+01    0.3408695    0.2665428  19.21  0.001475161    1.320    0.242
        88 -12.0259     79.4878     30.5560   9.5622857122e+01   6.0725990977e+01    0.4641364    0.3772777  60.73  0.001962743    1.527    0.345
        89 -10.4782    176.2529     33.5465   7.3425830952e+01   3.6812177144e+01    0.1881319    0.1309932  50.56 0.0004533914    1.453    0.312
        90 -11.4917     41.4766     32.8996   1.1399689063e+02   6.6656044910e+01    0.2932307    0.1961027  11.13 0.0009674683    1.698    0.411
        91 -11.2971     25.9318     25.4951   1.1962764682e+02   6.9962607604e+01    0.2701929    0.2136744 -25.83 0.0009920305    1.126    0.112
        92 -12.9965    242.7902    233.6185   1.0752451911e+02  -2.0484787590e+00    0.4774459    0.3356045  44.98  0.003208224    2.606    0.616
        93 -10.6606    242.4673     23.6590   6.3524573492e+01   2.2652465095e+01    0.2250204    0.1350215 -66.51  0.001202586    1.896    0.472
        94 -10.2858    151.1549     19.7834   7.2621513461e+01   4.4805919394e+01    0.1994986    0.1570135  36.36 0.0002657428    1.304    0.233
        95 -14.5393    246.3718    221.4043   1.0511306040e+02  -1.3020709293e+00     1.203992    0.6112092 -27.62  0.007782897    1.978    0.494
        96 -13.0356    186.6134    231.4568   1.1667794156e+02   5.1413785782e+00    0.3901458    0.2120239  47.63  0.002145495    2.554    0.608
        97 -13.1038    215.1423    229.4251   1.1141824705e+02   1.7054122124e+00    0.4141681    0.1872365  28.28  0.002418353    1.747    0.428
        98 -12.6736    217.3615    220.4362   1.0970641248e+02   2.3945874891e+00    0.5558047     0.290565   3.08    0.0030515    2.239    0.553
        99 -13.2400    213.0614    216.4219   1.0982979335e+02   3.4035595152e+00    0.5247584     0.347166   5.39  0.002877637    1.289    0.224
       100 -12.0642    191.6462    217.2260   1.1375310837e+02   6.1860759174e+00    0.2638926    0.1746439  25.39  0.001525131    1.184    0.156
       101 -12.7363    200.7768    215.9366   1.1191405204e+02   5.1018336489e+00    0.3577994    0.2225774  38.53  0.002244528    1.622    0.383
       102 -11.5175    214.7168    197.3247   1.0646098041e+02   5.4292424862e+00       1.0299    0.4945988 -24.50  0.005485596    2.153    0.536
       103 -14.5665    196.5209    199.2040   1.1005204743e+02   7.7906187973e+00     2.280987     1.003766  16.78  0.008824358    3.774    0.735
       104 -13.8941    187.7402    195.5135   1.1109268195e+02   9.5720097902e+00     1.499179    0.7605509  17.06  0.007068664    2.390    0.582
       105 -11.8730    244.7681    192.4777   1.0060104807e+02   1.8930809973e+00    0.2814683    0.1826823  23.18  0.001876972    1.316    0.240
       106 -11.1617    232.8268    204.0812   1.0451041060e+02   2.1840812566e+00    0.5172393      0.16614  29.61  0.002307254    2.990    0.666
       107 -12.1885    231.1089    192.6291   1.0285068107e+02   3.7101003420e+00    0.4056873    0.3595463  25.72  0.002954173    1.568    0.362
