#   1 NUMBER                 Running object number                                     
#   2 MAG_AUTO               Kron-like elliptical aperture magnitude                    [mag]
#   3 X_IMAGE                Object position along x                                    [pixel]
#   4 Y_IMAGE                Object position along y                                    [pixel]
#   5 X_WORLD                Barycenter position along world x axis                     [deg]
#   6 Y_WORLD                Barycenter position along world y axis                     [deg]
#   7 A_WORLD                Profile RMS along major axis (world units)                 [deg]
#   8 B_WORLD                Profile RMS along minor axis (world units)                 [deg]
#   9 THETA_WORLD            Position angle (CCW/world-x)                               [deg]
#  10 FWHM_WORLD             FWHM assuming a gaussian core                              [deg]
#  11 ELONGATION             A_IMAGE/B_IMAGE                                           
#  12 ELLIPTICITY            1 - B_IMAGE/A_IMAGE                                       
         1 -13.3810     53.8135    146.2038   1.0764374056e+02   3.8953179718e+01     5.349915     3.609107 -83.72    0.0283977    1.484    0.326
         2 -14.9142     68.3737    144.2314   1.0316962504e+02   3.7488955740e+01      4.87242     1.933211  59.97  0.008437881    4.445    0.775
         3 -14.3747    214.0186     26.1797   4.0574970524e+01   2.7895977201e+01      1.28599    0.9655392   8.58   0.00707687    1.791    0.442
         4 -14.4570    201.7483     38.4617   4.5091705072e+01   2.9310068269e+01     2.057208     1.437842  28.54  0.006943482    1.935    0.483
         5 -11.5761      2.6380      3.6972   9.8170362679e+01   7.7810877237e+01    0.3647253    0.2636889 -57.70  0.002347835    1.357    0.263
         6 -10.7548     58.3565      6.8527   6.2810527229e+01   6.9106951806e+01    0.2226845    0.1835465  62.14 0.0006915077    1.383    0.277
         7 -12.3813    240.8494      3.1520   3.3071464137e+01   2.4408643220e+01    0.5332863    0.3516454  56.29   0.00259138    1.871    0.466
         8 -12.1208    235.9913      2.4944   3.3166154078e+01   2.5486491529e+01    0.4018085    0.2523971  75.02  0.001848585    1.695    0.410
         9 -10.9771     53.9984      4.9881   6.3557194012e+01   7.0236437402e+01    0.2063034      0.18537  14.01  0.000483354    1.006    0.006
        10  -9.8520     66.9733      2.9997   5.7077096014e+01   6.7691150515e+01     0.207491    0.1639731 -67.21  0.000862409    1.689    0.408
        11 -15.8874     41.3793    249.5584   1.1846293893e+02   1.9680366520e+01     11.52806     3.123897  24.05   0.02413163   17.024    0.941
        12 -11.9283    139.4926    248.8427   9.9736947848e+01   7.8572579354e+00    0.3129894    0.2629486  76.99  0.002371336    1.735    0.424
        13 -13.0002      9.9172    188.1128   1.2229504208e+02   3.4086287049e+01    0.3157805    0.2139139  39.63 0.0008694903    1.321    0.243
        14 -13.6086     24.8104    226.0495   1.2065450716e+02   2.5364932263e+01     1.072957    0.3499192  51.89  0.005621828    2.202    0.546
        15 -15.9321      7.2549    162.7477   1.2183476222e+02   3.9775573539e+01     5.854347     1.894864 -81.46   0.02572304    2.797    0.642
        16 -10.0695     29.9033    201.8263   1.1843233355e+02   2.9422967192e+01    0.2986117    0.1119756  38.06  0.001124737    2.008    0.502
        17 -10.5809     62.1282    200.4592   1.1105543905e+02   2.6061109217e+01    0.2160097    0.1625137  61.32 0.0005028856    1.161    0.138
        18 -10.8277     63.4813    196.5760   1.1040793611e+02   2.6661822933e+01    0.4884349     0.331029  -2.31  0.002519698    2.598    0.615
        19 -10.1633    111.7117    197.1904   9.9422126030e+01   1.9846253243e+01    0.2655279     0.163545  27.39  0.001068553    1.600    0.375
        20 -11.0591    207.8043    195.4841   7.9819747149e+01   5.3497481268e+00    0.2189293    0.1554112 -23.87  0.001416945    1.402    0.287
        21  -9.5137    128.5328    195.4800   9.5472697607e+01   1.7579339900e+01    0.1905922     0.127984 -70.59 0.0008260648    2.118    0.528
        22 -14.0156     41.1556    201.2695   1.1587959796e+02   2.8345424716e+01     1.396278    0.6216668  82.83     0.006256    2.646    0.622
        23  -8.8091     72.4151    188.4816   1.0752856320e+02   2.7143598220e+01    0.1302071    0.1045244  56.64  0.000142743    1.073    0.068
        24  -9.1465     91.4987    183.0924   1.0232837279e+02   2.5569228097e+01    0.1720911    0.1298835 -67.62 0.0003823446    1.482    0.325
        25 -10.7742    150.5439    179.0625   8.8164659946e+01   1.6879653157e+01     0.360107    0.2378702 -68.14   0.00166838    2.457    0.593
        26 -10.1297     99.4156    180.6616   1.0010888642e+02   2.4875024166e+01    0.2353206    0.2113216  33.51 0.0006122473    1.120    0.107
        27 -11.4786    144.3874    178.8499   8.9464110985e+01   1.7949514901e+01    0.3913439    0.3237717  89.00  0.002104233    1.679    0.404
        28 -12.3187     66.5910    175.9463   1.0763617027e+02   3.0545392893e+01    0.4779386    0.2951398 -48.19  0.001838601    2.024    0.506
        29 -12.0874     71.3341    170.8488   1.0585299363e+02   3.1014834785e+01    0.3005385    0.2854076 -31.17  0.000542237    1.308    0.235
        30 -10.7167     41.5097    178.9942   1.1420535422e+02   3.2925256718e+01    0.2416895    0.1911716  44.52 0.0003526602    1.155    0.134
        31 -10.5238     45.1752    176.6066   1.1309638225e+02   3.3032150847e+01    0.2750978    0.2134491  25.87  0.001271324    1.425    0.298
        32  -9.6338    204.5173    176.1878   7.7044423902e+01   8.4434691898e+00     0.219922    0.1149084 -39.20  0.001128425    2.048    0.512
        33  -9.9543    196.8576    175.5382   7.8308920741e+01   9.7555134603e+00    0.2469448    0.2137478 -13.89  0.001623564    1.154    0.133
        34  -9.7587    188.4498    174.7164   7.9726481546e+01   1.1245078491e+01    0.2259762    0.1213885 -42.72  0.001124676    2.085    0.520
        35 -10.0299    128.6557    247.3061   1.0161290151e+02   9.4814598969e+00    0.1136209   0.06933695  51.21 0.0007042362    1.691    0.409
        36 -12.4290     80.3769    161.5650   1.0231008685e+02   3.1778903302e+01    0.6191499    0.3496771  54.19 0.0004313253    1.772    0.436
        37 -13.7213     68.0292    157.2150   1.0504627493e+02   3.4515719266e+01    0.5402842     0.510685 -20.21  0.001649136    1.308    0.235
        38 -12.5276     27.6222    214.8073   1.1958185062e+02   2.7147839230e+01    0.7326668    0.2720799  72.79  0.002943313    2.992    0.666
        39 -16.4224      8.4930    241.3087   1.2430685942e+02   2.4258622708e+01      6.35378     2.201575  21.36   0.02827165    4.394    0.772
        40 -13.0699     87.4258    154.7224   9.9436389460e+01   3.2240813992e+01     1.798046    0.9948484 -68.25  0.001687766    2.035    0.509
        41  -9.8865    157.6427    160.0501   8.3233441956e+01   1.8990905944e+01    0.2079499    0.1773651 -73.45  0.001168531    1.552    0.356
        42  -9.9036    187.5930    151.7731   7.5485259325e+01   1.4971547346e+01    0.1831919    0.1238131 -45.49 0.0009502778    1.668    0.400
        43  -9.5627     34.5370    171.5265   1.1538310735e+02   3.5311437870e+01    0.2288176    0.1253907  59.00 0.0007268571    1.628    0.386
        44 -10.6745    134.0000    147.4934   8.6194707664e+01   2.5731135634e+01    0.5349718      0.21811 -54.39  0.001946573    2.998    0.666
        45 -11.1034    133.4007    142.0079   8.5238249002e+01   2.6953260041e+01     0.730454    0.2659371 -57.18  0.002196285    4.371    0.771
        46 -10.5585    174.2416    148.6094   7.7475051602e+01   1.7945028781e+01    0.3164868    0.2619026 -68.97  0.001606034    1.664    0.399
        47 -14.8937      9.4716    207.8069   1.2312106884e+02   3.0193898970e+01     1.301059    0.9928074 -30.30  0.004347491    2.163    0.538
        48 -12.3666     25.8758    137.4732   1.1495188602e+02   4.4099780687e+01    0.5457496    0.3186561  65.16  0.001317646    1.638    0.390
        49 -11.2125     31.7580    144.1165   1.1382825989e+02   4.1931131602e+01    0.3556485    0.3079363 -22.11  0.002206579    1.518    0.341
        50 -10.8937     27.4932    143.5106   1.1501525218e+02   4.2492524398e+01    0.2382706    0.2041447  69.95 0.0008321382    1.025    0.025
        51 -11.0714    101.6879    139.8728   9.3032955208e+01   3.3230152411e+01    0.5770007    0.3824202 -18.45  0.002393718    2.610    0.617
        52 -10.7075     81.5880    141.4064   9.8933505381e+01   3.6195880082e+01     0.343636     0.204347  56.05 0.0005854316    1.782    0.439
        53 -12.2949     88.8015    139.9564   9.6634967454e+01   3.5384650456e+01     0.269998    0.2532148 -49.10 0.0003820809    1.174    0.148
        54 -10.2285     33.5557    138.9339   1.1278882316e+02   4.2999698614e+01    0.2552371    0.1516432  49.27 0.0007074374    1.554    0.357
        55 -12.4098     45.0044    129.0542   1.0810459147e+02   4.4180439260e+01    0.4438979    0.3650132 -77.79  0.002586374    1.147    0.128
        56 -10.1584    111.0507    130.2348   8.8556811812e+01   3.3694836523e+01     0.321008    0.2443971  17.34 0.0009835187    1.614    0.380
        57 -11.4611    135.7301    127.4918   8.1541756562e+01   2.9467410321e+01     0.579809    0.1906858 -48.77  0.001878121    3.274    0.695
        58 -10.6802     98.3838    126.4385   9.1313485728e+01   3.6873892357e+01    0.2787479    0.2412989 -14.29 0.0006342982    1.416    0.294
        59  -9.7703    116.9876    124.2413   8.5646396227e+01   3.3884174693e+01    0.2424573    0.1751505   9.36  0.001063285    1.999    0.500
        60  -9.2513     90.2403    123.2583   9.3047677018e+01   3.9046663569e+01    0.2039583    0.1610497  67.72 0.0007204937    1.355    0.262
        61 -10.8721    121.0375    120.9340   8.3808045417e+01   3.3805726752e+01    0.3464416    0.2066071 -26.22  0.001319279    2.609    0.617
        62 -10.0795    160.8771    127.7601   7.5764026273e+01   2.4290891760e+01    0.2791121    0.1954978 -68.18  0.001248805    2.111    0.526
        63  -8.7614     87.2763    120.6640   9.3407627710e+01   4.0168946583e+01     0.150739      0.11134  77.16  0.000367628    1.608    0.378
        64  -9.8704    107.4631    119.1392   8.7130988393e+01   3.6861088185e+01     0.221994    0.1962399  31.49 0.0003081373    1.172    0.146
        65 -11.4937     32.5757    118.6244   1.1079872183e+02   4.8116745872e+01    0.3006887    0.1806848 -44.11  0.001465258    1.957    0.489
        66  -9.4539    168.4560    113.1819   7.0684384970e+01   2.5383276050e+01    0.2718044    0.1960755 -85.65  0.001182787    2.267    0.559
        67 -10.4231    105.9178    130.6710   9.0058183830e+01   3.4546235298e+01    0.3382783    0.3011213  76.78  0.001260508    1.168    0.144
        68 -10.0594    205.4646    110.1840   6.3105208307e+01   1.8181384466e+01    0.2857409    0.1903751  39.51  0.001020386    1.593    0.372
        69 -10.6061    117.3286    108.6684   8.1855653056e+01   3.7230410544e+01    0.2627766    0.1539539  46.72 0.0005656374    1.684    0.406
        70 -11.4311     33.8597    109.0097   1.0906542901e+02   5.0412358793e+01     0.333938    0.1875407 -72.26  0.001608383    1.630    0.387
        71 -11.2076    138.0006    170.2527   8.9442787449e+01   2.0597819286e+01    0.5174068    0.3142497  42.50  0.001964703    1.496    0.332
        72 -10.2289    134.5774    104.7791   7.6295076092e+01   3.4385574904e+01    0.3864783    0.1477528 -45.33  0.001315082    2.660    0.624
        73 -11.3927    109.6364    201.6076   1.0043559533e+02   1.9354653703e+01    0.2971972    0.2312995  -5.48  0.001761528    1.740    0.425
        74 -10.7694    241.1670     99.1318   5.5388070498e+01   1.2970282879e+01    0.1766413    0.1350074 -44.83 0.0004172192    1.321    0.243
        75  -9.6225    127.1628     94.4211   7.5403240948e+01   3.8154461742e+01    0.2216157    0.1451936  60.39  0.000612815    1.729    0.421
        76  -9.7228     41.1664     98.1970   1.0464995698e+02   5.2375510821e+01    0.2021206    0.1535129  69.91  0.000812429    1.379    0.275
        77 -10.4522     53.1558     90.9505   9.8629593767e+01   5.2721337844e+01    0.3034699    0.2145588 -63.08  0.001372468    1.333    0.250
        78 -10.3553     41.6656     91.8693   1.0326705475e+02   5.3919151568e+01    0.2137447    0.1936558   0.21 0.0004846977    1.278    0.217
        79  -9.2829    156.7838     88.7972   6.6747156391e+01   3.2442442116e+01    0.2147592    0.1771275 -69.98  0.001058707    1.399    0.285
        80  -9.3161     74.9604     84.9877   8.8982344988e+01   5.0822725279e+01    0.2270285    0.1752128  75.81  0.000384979    1.573    0.364
        81  -9.0354    115.5048     84.5231   7.5730322172e+01   4.2810728668e+01    0.1548801    0.1487323  88.17 0.0001682559    1.057    0.054
        82  -9.5074    158.8534     81.8755   6.4346358514e+01   3.3195119422e+01    0.2098988    0.1782216 -68.80 0.0004613219    1.302    0.232
        83  -9.5493     69.5725     81.6116   9.0030653930e+01   5.2537488597e+01    0.2269881    0.1625952  57.88 0.0006660302    1.584    0.369
        84  -9.7877    243.4564     77.4953   5.0219372625e+01   1.5391202288e+01    0.1281983    0.1070475 -34.21 0.0001079344    1.025    0.024
        85  -8.8521    184.3672     77.3011   5.8280298295e+01   2.7933204519e+01    0.1507879    0.1109871  21.59  0.000703356    1.736    0.424
        86 -10.5835     13.4462     59.8664   1.0933836401e+02   6.4482004644e+01    0.2648747    0.2085288 -79.47 0.0004208188    1.197    0.164
        87  -8.6823     71.5352     58.4926   8.1904945977e+01   5.7453030772e+01    0.1445534    0.1408926 -44.19   0.00065577    1.022    0.022
        88  -9.0318     37.1959     56.7949   9.6649079687e+01   6.3059844038e+01     0.182032    0.1458653 -34.04 0.0003667045    1.253    0.202
        89 -13.6940     58.0319    241.5870   1.1485176972e+02   1.9146712618e+01    0.6451281     0.279172  49.64  0.003749695    1.759    0.432
        90 -13.0785    192.5221     45.0084   4.8021438223e+01   3.0683548364e+01    0.7756397    0.6055924  35.43 0.0008277802    1.531    0.347
        91  -9.9698    113.8425    207.3457   1.0021199927e+02   1.7724322693e+01    0.2322876    0.1585783  73.92   0.00128812    2.018    0.505
        92 -11.2081    140.7045     46.1288   5.6802436496e+01   4.3673964048e+01    0.3896644    0.2867365 -75.11 0.0008376112    1.619    0.382
        93 -10.5003    143.9241     40.9535   5.4362053267e+01   4.3600615076e+01    0.2473574    0.2145636 -87.01 0.0003059167    1.183    0.155
        94  -9.8414     12.7305     52.6228   1.0816699418e+02   6.6291208057e+01    0.1654973    0.1170549  30.77 0.0009438296    1.584    0.369
        95 -11.4668      3.3613     24.6928   1.0647167107e+02   7.3336574710e+01    0.4337015    0.2949535  41.21  0.002578578    1.798    0.444
        96  -9.5929    189.6704     15.0220   3.9703498463e+01   3.4930620806e+01    0.1941106    0.1641044 -42.06  0.000586036    1.129    0.114
        97 -10.9344     44.7140    230.0119   1.1683471121e+02   2.2593260588e+01    0.2696401    0.1801036  47.09  0.001879874    1.106    0.096
        98 -13.8290     68.5044    243.2186   1.1290724256e+02   1.7669585828e+01    0.9169955    0.5262052  60.82    0.0059258    1.654    0.395
        99  -9.7175     59.1048    220.4095   1.1326009925e+02   2.2665321563e+01    0.3013986    0.1538012  25.33  0.001278426    2.101    0.524
       100 -11.6473    193.8697    196.1127   8.2409712506e+01   7.3209287895e+00    0.9222371    0.5448857 -62.83    0.0032969    6.510    0.846
       101 -14.4790     51.2231    191.6148   1.1285811160e+02   2.9154440442e+01     2.210204      1.17952  85.12   0.01120044    2.113    0.527
