#   1 NUMBER                 Running object number                                     
#   2 MAG_AUTO               Kron-like elliptical aperture magnitude                    [mag]
#   3 X_IMAGE                Object position along x                                    [pixel]
#   4 Y_IMAGE                Object position along y                                    [pixel]
#   5 X_WORLD                Barycenter position along world x axis                     [deg]
#   6 Y_WORLD                Barycenter position along world y axis                     [deg]
#   7 A_WORLD                Profile RMS along major axis (world units)                 [deg]
#   8 B_WORLD                Profile RMS along minor axis (world units)                 [deg]
#   9 THETA_WORLD            Position angle (CCW/world-x)                               [deg]
#  10 FWHM_WORLD             FWHM assuming a gaussian core                              [deg]
#  11 ELONGATION             A_IMAGE/B_IMAGE                                           
#  12 ELLIPTICITY            1 - B_IMAGE/A_IMAGE                                       
         1 -10.3455     74.4750     23.8291   5.2234881921e+01   6.0776536141e+01    0.5703166    0.3478073  11.27  0.002942161    2.038    0.509
         2 -10.2681     81.3947     26.5925   5.1114850802e+01   5.9109720267e+01    0.4241527    0.3469662  85.97  0.002507562    1.812    0.448
         3 -12.2649    163.3032     42.4471   3.7948874884e+01   3.8955213251e+01    0.4468405    0.3365285 -78.53 0.0001563373    1.385    0.278
         4 -10.9288    170.3901     32.1410   3.4285728056e+01   3.8616685270e+01    0.5474777    0.3457474 -13.26  0.001761162    2.517    0.603
         5  -9.4456     40.8977      5.1233   5.6657786459e+01   6.8626720288e+01    0.1675095      0.13261  19.91 0.0002829314    1.079    0.073
         6 -10.8381     35.2748      9.5008   6.1220124848e+01   6.9030518459e+01     0.492721     0.439076  28.23  0.003425299    1.458    0.314
         7 -11.2839     15.9153     26.9993   7.8780590844e+01   6.9059583180e+01    0.6016257    0.3596013 -15.62  0.003625514    1.511    0.338
         8 -11.7011     35.4077     19.2870   6.5646619034e+01   6.7855774703e+01    0.9274845    0.3824673  24.31  0.003123235    2.714    0.632
         9 -10.4464     29.3633     26.2544   7.1575999628e+01   6.7703526089e+01    0.7522132    0.2381281 -33.89  0.003136664    3.278    0.695
        10 -11.3149    236.1381     29.6435   2.6718553503e+01   2.4992216515e+01    0.5347382    0.3879495 -30.56  0.003528033    1.793    0.442
        11 -11.4921    238.5453     20.7965   2.4898908841e+01   2.5594600274e+01    0.6518004    0.2644047  59.09  0.003408944    2.797    0.642
        12 -11.4468    236.3494     16.8275   2.4338233018e+01   2.6470866593e+01    0.5098664    0.3174849 -77.07  0.002134083    1.343    0.256
        13 -11.3163     28.4786     18.2618   6.8525872163e+01   6.8909133041e+01    0.6975006     0.344813  -6.64   0.00315059    3.053    0.672
        14 -10.7648    227.1593     17.9608   2.5242333799e+01   2.8123530531e+01    0.5149144    0.3170699  35.41  0.002572287    3.827    0.739
        15  -9.8051    206.9213     25.9772   2.8614148677e+01   3.1316932518e+01    0.2259666    0.1690344 -32.06  0.000692072    1.628    0.386
        16  -8.6727     51.5007     10.4342   5.4788694017e+01   6.6361727331e+01    0.1817259    0.1365469  29.64 9.481066e-05    1.077    0.072
        17 -11.7112     63.7465     19.9312   5.4310343219e+01   6.3214320565e+01    0.2714964    0.2217919  43.38  0.000238539    1.256    0.204
        18 -11.3080     55.7057     19.0645   5.6916404466e+01   6.4727333125e+01    0.7140292    0.3274341  22.75  0.002411912    2.971    0.663
        19 -11.2061     58.9426     12.8831   5.3075193912e+01   6.4819022873e+01    0.5304695     0.255028  47.84   0.00182336    1.845    0.458
        20  -9.9320    221.8827     15.6871   2.5225724651e+01   2.9426979845e+01    0.3080366    0.2166761  58.97  0.001825852    1.687    0.407
        21 -10.9363    165.4418     21.7109   3.2360021737e+01   4.0926112118e+01    0.5379464    0.2532596  54.54  0.002644659    2.004    0.501
        22 -12.0456    111.4836     19.2726   4.0771250664e+01   5.3488647581e+01     0.468591    0.3345364  14.12  0.002641535    1.737    0.424
        23 -10.3252      7.0973     22.5192   8.1795635249e+01   7.0537134505e+01    0.3296175    0.2264419  -2.61   0.00148833    1.191    0.160
        24 -10.3851      1.8705     20.9232   8.4144041501e+01   7.1187904652e+01     0.339536    0.1286592 -43.56  0.001794044    2.195    0.544
        25 -12.2071     10.7905      7.0178   7.2724214465e+01   7.2392913470e+01    0.8414189    0.3898917  13.65  0.004565123    2.195    0.544
        26 -11.7116     23.3182     11.9284   6.8223361259e+01   7.0359651548e+01    0.4077678    0.2925591  23.56 0.0007633136    1.286    0.222
        27 -11.0013     10.1127     15.1791   7.6937544884e+01   7.1363781773e+01    0.3306171    0.2096072   1.45 0.0009274511    1.319    0.242
        28 -12.3431     15.9909     13.5143   7.2882587015e+01   7.1000386366e+01    0.2375524    0.1695317   5.71  0.000123721    1.101    0.092
        29  -9.6295     85.6040     14.2221   4.5249696027e+01   5.9536386748e+01     0.366963    0.2520606 -82.63   0.00186732    2.662    0.624
        30 -10.3664     81.0533     19.1815   4.8410325049e+01   5.9978722043e+01    0.3404881    0.1936986 -30.58  0.001847885    1.993    0.498
        31 -11.1865    152.3292     17.5119   3.3080816998e+01   4.4358343135e+01    0.6017721    0.4425844  45.31  0.002800661    1.473    0.321
        32 -10.1226    152.8286      3.3222   2.9315553966e+01   4.5562286090e+01    0.3328504    0.2820012  17.36  0.001496851    1.582    0.368
        33 -10.3821    156.6154      9.7879   3.0495497109e+01   4.4127985302e+01    0.2654731    0.1831547 -45.26 0.0007868793    1.569    0.363
        34 -10.6288    153.0816      9.3796   3.0847130052e+01   4.4968229922e+01    0.2969617    0.2155455  84.66 0.0009304285    1.226    0.184
        35  -9.4949     98.1107      7.5138   3.9733246209e+01   5.7480263238e+01    0.2450701    0.1384844  55.07 0.0007814463    1.416    0.294
        36 -10.9251    100.6337     16.4001   4.2241051987e+01   5.6149936830e+01    0.5196908    0.3328047  29.60   0.00289562    1.674    0.402
        37 -11.2875     94.2982     10.2903   4.1595856426e+01   5.8064373588e+01    0.8337115    0.3718261  64.39  0.003879061    2.234    0.552
        38  -9.5551    176.2737     12.3829   2.8799226380e+01   3.9455796797e+01     0.306872    0.2089123 -78.78 0.0002825817    1.378    0.274
        39 -12.5464    187.1037     13.6798   2.7946387811e+01   3.6936364502e+01    0.3717228    0.3334622  -8.83 0.0003713924    1.581    0.368
        40 -11.8249    182.7209     12.7525   2.8191455456e+01   3.7992376375e+01    0.3450212    0.3057331 -24.17  0.001187161    1.489    0.328
        41  -9.8491    138.1779      2.3411   3.0981869423e+01   4.8959710969e+01    0.6524178     0.229913  78.30  0.002479202    3.461    0.711
        42 -11.9360    122.2738     11.5507   3.6201391904e+01   5.1786324405e+01    0.5614521    0.2508561  44.90  0.001174609    2.175    0.540
        43 -12.0828    127.8540      4.7094   3.3201471615e+01   5.1105199710e+01    0.4035981    0.2894314  85.06  0.001208634    1.375    0.273
        44  -9.7901    142.9126     11.1073   3.2717990222e+01   4.7127965973e+01    0.3745166    0.2102553 -68.69  0.001369651    2.317    0.568
        45 -10.2494    131.4935     13.1687   3.5087783579e+01   4.9546731475e+01    0.3631235    0.1695033  55.97    0.0014377    1.759    0.431
        46  -9.8417     75.9388     13.0256   4.7542818233e+01   6.1600861976e+01    0.2959191     0.204733 -36.52  0.001791228    1.786    0.440
        47  -9.1534     71.7789      7.6240   4.6635691277e+01   6.2904492357e+01    0.2835298    0.1935314  77.78  0.001551447    2.311    0.567
        48 -12.2159     46.0073      9.2207   5.6428443284e+01   6.7398889286e+01    0.2802304    0.2040226   3.34 0.0003353762    1.261    0.207
        49  -9.5559     48.0945      2.4797   5.2499439829e+01   6.7689554917e+01    0.1875916    0.1379085   5.38 0.0002880477    1.274    0.215
        50 -11.3861    216.8244      6.3845   2.3828314353e+01   3.1443796245e+01    0.3833707    0.3323121  -8.48  0.001208691    1.852    0.460
        51 -10.2066    211.9516      6.2211   2.4169236487e+01   3.2449259976e+01    0.2726994    0.1702857 -78.36  0.001535914    1.355    0.262
        52 -10.2456     35.0282      2.2408   5.7840487927e+01   6.9814995292e+01    0.6563098     0.175546  39.96   0.00283972    3.027    0.670
        53 -10.2193    238.4615      7.2056   2.2467543385e+01   2.7136400260e+01     0.334207    0.1295552 -59.20  0.001791127    2.243    0.554
        54 -10.6975    208.6045     10.1307   2.5214516985e+01   3.2731383308e+01     0.357603    0.2193629  57.67   0.00119331    1.822    0.451
        55 -10.6659    167.9869      5.6502   2.8123273865e+01   4.1949141255e+01     0.357379    0.2677159 -28.00  0.002151604    1.656    0.396
        56 -11.4256     89.8294      2.9471   4.0005265820e+01   5.9607689484e+01    0.4311562    0.2893726  59.72  0.001119227    1.282    0.220
        57  -8.6951    178.8616      6.6025   2.7193666983e+01   3.9448597832e+01     0.158705    0.1112508 -73.02 9.074189e-05    1.311    0.237
        58  -8.7042    175.6340      4.7491   2.7098820277e+01   4.0334329957e+01    0.1658727    0.1367176 -68.41  0.001155524    1.174    0.148
        59  -9.3840     78.0363      6.2024   4.4257699509e+01   6.1783373084e+01     0.252386    0.2294028 -79.05    0.0017632    1.491    0.329
        60 -10.1563    246.2583      1.9424   2.1077349828e+01   2.6249192386e+01    0.4380805    0.1925692 -61.42  0.002263598    1.856    0.461
        61 -10.1580    242.0007      1.0000   2.1166761414e+01   2.7131475388e+01    0.5193513   0.06758459  70.97  0.001916879    5.540    0.819
        62  -9.8457    204.8609      2.9059   2.4068283083e+01   3.4242337048e+01    0.3413491    0.1609513  56.77  0.001861693    2.328    0.570
        63  -9.9855    199.5381      4.0552   2.4735194415e+01   3.5241154220e+01    0.3839832    0.1910027 -69.07  0.002093731    1.995    0.499
        64 -10.1604    195.0203      1.5496   2.4594990283e+01   3.6437372828e+01    0.2478738    0.1513079  65.65 0.0009794334    1.527    0.345
        65  -9.9152    107.2331      3.9612   3.6614251454e+01   5.5774247239e+01     0.285555    0.1969728 -38.41  0.001105429    1.751    0.429
        66 -10.0172    103.9779      1.3285   3.6379992970e+01   5.6687686296e+01    0.3406957    0.1953955  69.13  0.001173959    1.593    0.372
        67 -10.7588    118.1713      1.6358   3.3870806539e+01   5.3524192619e+01    0.3008281    0.1748491  77.30  0.000829066    1.687    0.407
        68  -9.8353    116.8060      8.6527   3.6300828649e+01   5.3267593327e+01    0.2283179    0.1750843  80.78 0.0004543579    1.316    0.240
        69  -9.1904    230.0568      2.0678   2.2097388794e+01   2.9279960063e+01    0.1817476    0.0934967 -68.61 0.0006508023    1.662    0.398
        70 -11.4104      3.3861      3.7422   7.5530197372e+01   7.3531447661e+01    0.4018886     0.262465  18.05  0.002862799    1.386    0.278
        71 -10.5138     68.0250    104.0688   8.1074316647e+01   4.7630878192e+01    0.5605674    0.2425314  21.48  0.001916076    3.160    0.684
        72  -8.4447    143.2785    250.3482   8.7913753179e+01   1.1730206408e+00    0.1318928   0.09485324  -9.23 0.0007009045    1.639    0.390
        73  -9.3978    131.2015    104.6095   6.1649641241e+01   3.5685767128e+01    0.2193188    0.1433726  33.56 0.0004713911    1.684    0.406
        74 -11.5802    101.6291     97.8617   6.8223949498e+01   4.3215564826e+01    0.3783743    0.2738309  26.62 0.0002094736    1.472    0.320
        75  -9.8484     97.0042     95.4990   6.8999542012e+01   4.4613159990e+01    0.3220732    0.2480815  34.27  0.000947213    1.291    0.226
        76  -9.7041     68.1513     99.1749   7.9748385708e+01   4.8746195841e+01    0.2779338    0.2243897  -9.07 0.0006135923    1.297    0.229
        77  -9.3697     69.5009     95.5122   7.8277441381e+01   4.9371503834e+01    0.3352739    0.2801411  73.11  0.001724081    1.634    0.388
        78  -8.5935     52.9707    100.5636   8.5613239563e+01   5.0526770591e+01    0.2049157    0.1397164  21.91 0.0005516487    1.549    0.354
        79  -9.8426    108.9190     96.1300   6.5533124167e+01   4.2134477992e+01    0.2754419     0.222427  42.00 0.0009277138    1.233    0.189
        80 -10.8929    115.6994     97.6677   6.3994772600e+01   4.0421282025e+01    0.6925367    0.2585875  53.38  0.002035042    3.807    0.737
        81  -9.8897    116.9062     94.1071   6.2653473099e+01   4.0904988319e+01    0.2890778    0.2491749  13.54 0.0009820677    1.254    0.203
        82  -8.9183     61.2807     96.3097   8.1464863811e+01   5.0402440362e+01    0.1880299    0.1747572  80.96 0.0004209015    1.337    0.252
        83  -8.2830     11.3674     98.2461   1.0078711259e+02   5.4970207240e+01    0.1362742   0.08043847 -33.32 0.0006942921    1.618    0.382
        84  -9.9856     26.1356     96.7733   9.4870425982e+01   5.4246426333e+01    0.4029683    0.1860463  31.60  0.001810825    2.381    0.580
        85 -10.1396     15.9810     94.9176   9.8395837120e+01   5.5459305808e+01    0.3856494    0.2332317  50.99 0.0009900577    2.320    0.569
        86  -9.6097    143.2107     96.6389   5.6496631500e+01   3.4689334475e+01    0.2179541    0.1368609  38.39 0.0003202021    1.720    0.419
        87 -10.5767    137.6827     93.6019   5.7022605692e+01   3.6511456021e+01    0.3335261    0.3035817 -37.06 0.0007617376    1.117    0.105
        88  -9.1557     77.7359     94.0583   7.4975704044e+01   4.8375035019e+01    0.2896458    0.1800103  32.23  0.001315605    1.630    0.386
        89  -8.8752      4.9586     93.8556   1.0242657003e+02   5.6374438644e+01    0.1913316    0.1366029 -38.55 0.0004388419    1.225    0.184
        90  -8.9770      1.3201     94.2675   1.0387931609e+02   5.6458832624e+01    0.1655246     0.103036 -72.26 0.0003327168    1.505    0.335
        91 -10.7060    120.2732     86.6757   5.9600948713e+01   4.1667814938e+01    0.4115514    0.3536028  32.76  0.001482869    1.162    0.140
        92 -10.3918    124.3100     86.0449   5.8334604627e+01   4.0915544156e+01    0.3270977    0.3087231 -65.12   0.00122004    1.133    0.117
        93 -10.4700    126.3985     91.4204   5.9303616894e+01   3.9416145801e+01    0.3517007    0.2962782  61.38 0.0002359822    1.266    0.210
        94 -12.3558    131.2468     85.9768   5.6518877327e+01   3.9404971552e+01    0.6130049    0.3797852  45.55 0.0003539083    1.581    0.367
        95  -9.3904     57.4801     89.4517   8.1019161834e+01   5.2473160012e+01    0.2244163     0.175653  30.06 9.115619e-05    1.336    0.251
        96  -9.4586     54.6946     87.3603   8.1497660788e+01   5.3311563559e+01    0.2608239    0.1860215 -55.49  0.001332794    1.467    0.318
        97  -9.5109     42.2556     90.7620   8.7209422107e+01   5.4071661256e+01    0.3536943    0.2076495  -6.77 0.0009524006    2.199    0.545
        98 -12.1999     34.8509     89.6916   8.9846300475e+01   5.5096957819e+01    0.3008204    0.2632037 -59.76 0.0002752364    1.226    0.184
        99  -9.9422     30.2036     85.6595   9.0711965206e+01   5.6458915178e+01    0.3110686    0.2143726  30.04  0.001364172    1.617    0.382
       100 -10.6818    102.1993     70.2000   5.9807538298e+01   4.8534211949e+01    0.4580671    0.2376331 -47.31  0.001920426    2.180    0.541
       101 -11.1151    121.2582     77.4617   5.6653272903e+01   4.3180158386e+01    0.6466205    0.2320284  44.12  0.002228066    2.744    0.636
       102  -9.4025    100.9830     89.5009   6.6029152679e+01   4.5095687062e+01    0.2234361    0.1994289 -34.00 0.0003531522    1.122    0.109
       103  -9.9867    102.5808     85.0331   6.4224114924e+01   4.5676538384e+01    0.3894417     0.220486 -40.51  0.001497985    1.799    0.444
       104 -11.9702    104.3539     78.6633   6.1776321211e+01   4.6546920483e+01    0.8641512    0.6120763  35.10  0.004223547    1.394    0.283
       105 -10.5972    112.0485     82.4599   6.0666467062e+01   4.4228703843e+01    0.4857965    0.2552265  44.65  0.001726925    1.848    0.459
       106  -9.8839    116.3037     80.2854   5.8827682975e+01   4.3734781698e+01    0.2528172    0.2193279   9.64 0.0004549648    1.250    0.200
       107  -9.1790     48.9869     89.1593   8.4180898348e+01   5.3644029308e+01    0.2417364    0.2363985  21.92  0.001474923    1.203    0.168
       108  -9.0591     63.1188     89.3301   7.8879502821e+01   5.1701062780e+01    0.2335551    0.1720267   2.40  0.001169692    1.489    0.329
       109  -9.6657     12.1706     88.2822   9.8553560751e+01   5.7258101822e+01    0.3415499    0.1970268  18.22  0.001220337    1.925    0.481
       110  -9.9039    110.3974     87.9866   6.2764421114e+01   4.3496267387e+01    0.2823225     0.216124  41.66 0.0004796753    1.279    0.218
       111  -8.8785     70.9775     83.4624   7.4300200480e+01   5.1750533450e+01    0.3143423    0.1397595  28.95    0.0012029    2.464    0.594
       112  -9.4800     87.9708     75.6532   6.6002209815e+01   5.0339973403e+01    0.4616274    0.2280382 -48.11  0.001026679    2.230    0.552
       113 -11.0613     79.3867     81.3840   7.0688485827e+01   5.0769214744e+01    0.7832127    0.4730955   5.65  0.003080856    2.648    0.622
       114 -10.5028     83.3298     74.3012   6.7134376030e+01   5.1456406842e+01    0.2944911    0.2425756 -21.39 0.0006224509    1.210    0.173
       115 -10.6698     76.5965     75.2189   6.9761314795e+01   5.2475649846e+01     0.672205    0.2666337  33.45  0.002493623    2.647    0.622
       116 -10.3622     88.0036     86.0096   6.9153425845e+01   4.8286083261e+01    0.5490037    0.3921284  21.66  0.002648573    1.503    0.334
       117 -10.2838    157.5530     84.4852   5.0047310656e+01   3.3760046203e+01    0.3194156      0.21082  43.62  0.001495967    1.596    0.374
       118  -8.8656    177.9876     84.0000   4.5947872499e+01   2.9251115207e+01    0.2284234   0.07957876  55.26 0.0007079012    2.910    0.656
       119 -10.8482     54.0402     81.0024   7.9944418174e+01   5.4773881850e+01    0.3538139    0.2565588  -4.69 0.0003204115    1.471    0.320
       120  -9.6027     60.8179     76.2209   7.5894775080e+01   5.4809497417e+01    0.3445332    0.2235972 -39.50 0.0009159864    1.464    0.317
       121  -8.9626     19.9563     82.3981   9.4110620559e+01   5.8057659224e+01    0.3007348    0.1398757 -51.24  0.001268473    1.736    0.424
       122  -9.3987      1.7762     82.9124   1.0166114648e+02   5.9061353120e+01    0.1919254    0.1336183 -45.18 0.0004075739    1.143    0.125
       123  -8.9974     91.8610     79.9547   6.6060092861e+01   4.8774760616e+01    0.2260473    0.1882035  -4.19 0.0005826285    1.266    0.210
       124  -8.8008     51.0876     70.8241   7.8053340423e+01   5.7268402003e+01    0.2125006    0.1431291 -15.72 0.0003918309    1.582    0.368
       125  -9.9582     56.8031     72.5625   7.6320010803e+01   5.6129682855e+01    0.3793399    0.2207291 -22.47  0.000529204    2.048    0.512
       126 -10.8476     43.7220     78.4620   8.3314728090e+01   5.6618318229e+01    0.3502575    0.2837124  32.92 0.0004545507    1.387    0.279
       127 -11.6099     46.4493     73.0628   8.0623056267e+01   5.7415990173e+01    0.5498671    0.4026878  63.21 0.0008365365    2.311    0.567
       128  -8.7173      6.9971     80.5469   9.9053189547e+01   5.9326473975e+01    0.1628106    0.1198142   5.17 0.0004102935    1.477    0.323
       129 -10.0807    154.7498     79.4259   4.9296427387e+01   3.5293545718e+01     0.274087    0.1397087  58.43  0.001029565    2.028    0.507
       130  -8.8991    187.5129     76.9298   4.2602111240e+01   2.8345464915e+01    0.2126585    0.1300174 -41.47  0.001032447    1.589    0.371
       131 -10.3489    159.1313     77.1304   4.7790969533e+01   3.4691142970e+01    0.2217605    0.1983198  29.29 0.0007495584    1.277    0.217
       132 -11.3568    140.9442     72.2529   5.0331310133e+01   3.9678328150e+01    0.4608566    0.3893411  19.42   0.00145929    1.393    0.282
       133 -10.6051    136.1638     74.2013   5.1982272456e+01   4.0432514780e+01     0.370357    0.2894577 -76.76 0.0005805359    1.592    0.372
       134 -10.7619    136.6052     69.7416   5.0607941067e+01   4.1088438489e+01    0.3396623    0.3151967 -68.76   0.00104238    1.133    0.118
       135 -10.7925    136.5766     66.2000   4.9599803812e+01   4.1676480759e+01    0.6128106     0.301024  59.53  0.002367293    2.128    0.530
       136 -10.8941    152.0067     73.2673   4.8216399870e+01   3.6975766606e+01    0.3840353     0.244313 -39.02  0.001563191    1.624    0.384
       137  -9.6493      9.9267     74.5330   9.6498561037e+01   6.0489508417e+01    0.3488038    0.1830945  27.79  0.001811227    2.171    0.539
       138  -8.5334      4.5329     75.5659   9.9028585108e+01   6.0568302520e+01    0.1277739   0.09974589 -40.52 0.0001103328    1.022    0.021
       139  -8.6351      3.5423     72.5543   9.8797915659e+01   6.1279897672e+01    0.1778651    0.1329599 -42.31 0.0001005103    1.053    0.050
       140  -8.9414     92.1915     74.4489   6.4247327041e+01   4.9762210337e+01    0.2771364     0.134743  37.63   0.00100229    2.035    0.509
       141 -10.3002    128.9246     71.3213   5.2892489851e+01   4.2559010778e+01    0.3009375    0.2127288 -23.47 0.0004869421    1.680    0.405
       142 -10.9667    164.0128     70.9332   4.5223493621e+01   3.4611514572e+01     0.390673    0.2974156  31.05  0.001276826    1.657    0.396
       143 -11.4174    154.4671     50.9135   4.1687185515e+01   3.9853055579e+01    0.9251246    0.4580909  62.98  0.002302878    1.933    0.483
       144 -10.8600    147.1727     61.7804   4.6067800738e+01   3.9940719941e+01    0.3473818    0.2680512  19.27 0.0004682903    1.717    0.418
       145 -13.1645    150.7714     57.6836   4.4221411334e+01   3.9730242468e+01    0.7743028    0.5198091 -54.61 0.0004956929    1.633    0.388
       146 -10.4759     18.4141     70.7184   9.1883828151e+01   6.0730201667e+01    0.5366564    0.2294309  13.16  0.002341416    2.595    0.615
       147  -9.6162     97.1550     70.6521   6.1483760666e+01   4.9478865819e+01    0.2876335    0.2092225 -30.47  0.001451742    1.438    0.305
       148  -9.2812     63.4983     70.6659   7.3129746835e+01   5.5505890601e+01    0.3074989    0.1808726  35.37  0.001474608    1.692    0.409
       149 -12.2892    110.9913     65.8160   5.5907709257e+01   4.7436798172e+01    0.5461739     0.421606   2.29 0.0003393723    1.585    0.369
       150 -10.3645     42.6665     62.7027   7.8968066687e+01   5.9943847523e+01     0.482592    0.4669056  -0.74  0.001982596    1.285    0.222
       151 -10.5979     35.4735     67.8352   8.3651032120e+01   5.9760195767e+01    0.3541006    0.2475045 -60.52 0.0007581693    1.714    0.416
       152  -8.5422     34.1890     62.6413   8.2618457018e+01   6.0935821670e+01    0.3783011    0.1735426  15.02  0.001229198    2.533    0.605
       153  -8.6243     27.1818     66.7383   8.6937204820e+01   6.0818267914e+01    0.2966601     0.266064  60.79  0.001873663    1.590    0.371
       154  -9.3187     11.6792     68.2493   9.4220418339e+01   6.1732554475e+01    0.3532706    0.1670546 -21.63  0.001456456    2.303    0.566
       155  -9.0206      9.2428     65.9651   9.4734442728e+01   6.2370154616e+01    0.1736201     0.131366 -44.44 0.0003248491    1.110    0.099
       156  -9.9870    180.5228     64.5098   4.0739944099e+01   3.1883856139e+01    0.4348821    0.2751454 -23.83  0.002063486    2.136    0.532
       157  -9.6802    177.3589     64.1881   4.1172998015e+01   3.2645684053e+01    0.4543548    0.1897008 -39.83  0.001587552    2.356    0.576
       158  -9.0924     91.2248     67.3975   6.2312823592e+01   5.1230915388e+01    0.2230191    0.1348267  43.04  0.001036685    1.588    0.370
       159  -9.8858     88.8647     62.2650   6.1394616165e+01   5.2578120409e+01    0.5878851    0.2477131 -43.44   0.00233191    2.577    0.612
       160  -9.9407     77.7813     66.3385   6.6483822694e+01   5.3933195910e+01    0.2506654    0.2087654  10.88 0.0002685443    1.147    0.128
       161 -11.2781     82.7996     63.4876   6.3808983311e+01   5.3523109486e+01    0.4503946      0.30064  -4.64  0.001014063    1.978    0.495
       162 -10.1714     60.3369     65.5768   7.2696440045e+01   5.6961358856e+01      0.38751    0.2906549 -10.43  0.002117306    1.341    0.254
       163  -9.0988     54.8680     67.1391   7.5365257672e+01   5.7469388991e+01    0.2230081    0.1664447  35.88 0.0007367033    1.437    0.304
       164  -8.9299     48.4370     67.1156   7.7966961132e+01   5.8353433991e+01    0.2743353    0.1799471  33.09  0.001444154    1.586    0.370
       165 -10.5858    108.2960     62.6998   5.5679881735e+01   4.8529740502e+01    0.3102448    0.2185065 -28.39 0.0008852449    1.550    0.355
       166  -9.2898     72.3257     65.1690   6.8045695264e+01   5.5097671003e+01    0.3393251    0.2057734  15.96  0.001274182    2.037    0.509
       167 -10.2021    160.9986     64.9679   4.4229947548e+01   3.6256652554e+01    0.2148817    0.2021572  87.58 0.0005458832    1.018    0.018
       168  -9.3958      1.6236     64.3547   9.7777859225e+01   6.3133523340e+01    0.2049717    0.1332792 -48.30  0.001243136    1.218    0.179
       169 -10.0293     67.4480     63.1385   6.9166738965e+01   5.6283304344e+01    0.3021764    0.2118015  24.73 0.0003966177    1.374    0.272
       170  -9.2675     19.5550     64.0656   8.9575689141e+01   6.2029760305e+01    0.2396097    0.1815218 -73.65 0.0008739203    1.799    0.444
       171  -9.9655     22.1110     60.9723   8.7522471984e+01   6.2441786218e+01    0.2283235    0.1601144 -15.85 0.0002949203    1.298    0.229
       172  -9.1890    203.4104     62.4284   3.6908959237e+01   2.7185718841e+01    0.2827096    0.1678536 -58.28  0.001187083    1.658    0.397
       173  -9.4788    201.2496     50.0416   3.4433519031e+01   2.9437486078e+01    0.2531141    0.1954359  85.14 0.0009149555    1.199    0.166
       174 -10.9010    200.2293     55.2603   3.5726866302e+01   2.8919452168e+01    0.4267394    0.2986582  34.93  0.001588265    2.174    0.540
       175  -8.6944    190.3110     61.4445   3.8511206768e+01   3.0172295712e+01    0.3379469    0.1170658  57.84  0.001323342    2.767    0.639
       176  -9.6535    171.9539     62.9153   4.1755162103e+01   3.4066703294e+01    0.2491098    0.2286395 -63.07  0.001100863    1.084    0.078
       177  -9.4440    168.2909     60.5899   4.1789855051e+01   3.5256545682e+01    0.2593655    0.1954445 -11.05  0.001330777    1.889    0.471
       178 -10.3796    219.0651     59.4097   3.4303465697e+01   2.4375297216e+01    0.3045815    0.2228368 -50.56 0.0005653925    1.226    0.184
       179  -9.5365    222.6485     55.3264   3.3050518272e+01   2.4240471870e+01    0.2217603    0.1663734 -62.10  0.001013842    1.133    0.118
       180  -9.5975    131.6682     60.6400   4.9106350655e+01   4.3677105028e+01    0.2947347    0.2291591 -83.57  0.001156691    1.614    0.380
       181 -10.0471     95.9919     57.5631   5.7600988349e+01   5.1930395544e+01    0.5078698     0.336335  32.76  0.002204916    1.493    0.330
       182  -9.4347     93.0237     54.2392   5.7396597758e+01   5.3055464227e+01    0.4034805    0.2373718 -19.10  0.001307517    2.214    0.548
       183 -10.5076    184.8722     54.7565   3.7724028190e+01   3.2362168730e+01    0.5405359    0.2337184 -44.34   0.00129161    2.219    0.549
       184 -10.0243    104.5232     58.0191   5.5246695533e+01   5.0083325277e+01    0.3281948    0.2592645   0.25 0.0008596878    1.462    0.316
       185 -10.7685     60.4469     57.7301   7.0002763220e+01   5.8368693253e+01    0.4788439    0.2749122  24.56  0.001201812    1.775    0.436
       186  -9.5618     64.9447     52.2912   6.6352771959e+01   5.8566397717e+01     0.245835    0.1776893 -34.20 0.0003312749    1.409    0.290
       187  -9.5329     29.1738     59.0980   8.3741188992e+01   6.2150404756e+01    0.5387498     0.235982   4.70  0.002037669    3.611    0.723
       188 -11.2679     17.7632     49.0645   8.5873112421e+01   6.5113929111e+01     0.465176    0.2657587 -28.67  0.001256544    1.535    0.348
       189 -10.5587     24.9765     49.4937   8.2551528776e+01   6.4377323742e+01    0.6015925    0.2832645 -13.71  0.002492972    3.088    0.676
       190  -9.9895     33.6021     43.5008   7.6368749453e+01   6.4501634633e+01    0.4586422    0.2798735  14.16  0.002556443    1.580    0.367
       191  -9.2693     26.9801     56.2940   8.3851081721e+01   6.2908367970e+01     0.197956    0.1407764 -14.86 0.0005983987    1.262    0.208
       192 -11.2717     30.3280     52.7652   8.1153676330e+01   6.3230642501e+01    0.4706976    0.3003335 -45.67  0.001295564    1.522    0.343
       193 -10.6050     35.2735     51.4441   7.8444628422e+01   6.2922380869e+01    0.2282085    0.1962342   5.77 0.0003906437    1.158    0.136
       194  -9.9980      8.1319     57.2546   9.2955599735e+01   6.4231557021e+01    0.3971778    0.2072334 -26.82  0.001446485    1.749    0.428
       195  -8.9935    213.8088     57.5427   3.4531067014e+01   2.5723439864e+01    0.2074962    0.1329639 -50.20 0.0007422564    1.395    0.283
       196 -10.8970    160.9707     56.3200   4.1961391273e+01   3.7574088834e+01    0.3804616    0.3144689  70.22 0.0006164156    1.131    0.116
       197  -9.5257    162.0117     52.7447   4.0841866826e+01   3.7850138897e+01    0.2663782    0.1793602  70.64 0.0007462332    1.449    0.310
       198 -10.4411     77.9657     55.4809   6.2747795166e+01   5.5765637878e+01    0.2886298    0.2224332 -14.13 -0.000116958    1.342    0.255
       199  -8.5791     83.5303    249.4617   1.0103729847e+02   9.9004873483e+00    0.1292078    0.1120902  48.15 0.0001031749    1.008    0.008
       200 -11.8260     90.8856     43.0462   5.4200786491e+01   5.5128027553e+01     0.432699    0.3176932 -17.56  0.001271748    1.503    0.335
       201 -10.8174     84.7927     38.9176   5.4606013132e+01   5.6911905052e+01    0.4168685    0.2549647 -31.41 0.0002492699    1.775    0.437
       202 -10.8220     82.2109     31.6928   5.2768174632e+01   5.8345634560e+01    0.4157435    0.4122449  44.89  0.002466353    1.260    0.206
       203  -8.9559    106.8432    246.1302   9.5467001912e+01   7.2960190651e+00    0.2033853    0.1663653  58.67 0.0008715959    1.262    0.208
       204 -10.3033     81.5852     50.8290   5.9891927851e+01   5.5826676821e+01    0.8557878    0.2981218 -47.66  0.002795824    4.476    0.777
       205 -10.4214     85.0058     49.0807   5.8153864333e+01   5.5433307915e+01    0.6082603     0.338881 -50.59  0.002712549    2.514    0.602
       206 -10.1827    245.9902     55.8144   3.0756829173e+01   1.9681008894e+01    0.1835881    0.1375629 -56.88 0.0002901015    1.091    0.083
       207  -9.3329    239.1291     56.0067   3.1458537790e+01   2.0932069635e+01    0.1861075    0.1452927 -63.74 0.0006433293    1.025    0.025
       208 -11.5402    175.1095     53.7355   3.8947349855e+01   3.4708294629e+01    0.4539978    0.4093295  68.21  0.001005151    1.120    0.107
       209 -10.4422    128.1220     37.6610   4.3023793847e+01   4.7689724457e+01    0.8836914     0.290606  51.71  0.003411196    2.583    0.613
       210  -8.2614    116.7149    237.2741   9.2069004752e+01   7.6422973386e+00    0.1322524   0.09804817  58.09 0.0001848261    1.506    0.336
       211 -12.2214    140.2631     37.9121   4.0693580778e+01   4.4863206543e+01    0.2822177    0.2635911  71.02  0.000297481    1.054    0.051
       212 -13.0886    138.0252     47.1083   4.3776878982e+01   4.4186195485e+01    0.5892022    0.4815357  64.88  0.000827047    1.131    0.116
       213 -11.2985    148.1814     39.1548   3.9601739479e+01   4.2874149364e+01    0.6179579    0.4048803  38.51 0.0009375676    1.786    0.440
       214 -12.2412    117.8379     51.3742   4.9595771206e+01   4.8184119923e+01    0.3176801    0.2677915  49.15 0.0002552722    1.083    0.077
       215 -11.2182    122.2287     49.1905   4.7857609597e+01   4.7509920875e+01    0.3749247    0.3092794 -50.95   0.00213576    1.361    0.265
       216  -9.6479     44.8608     53.0033   7.4755259254e+01   6.1453249454e+01    0.3806205    0.2014547 -56.18   0.00124201    2.814    0.645
       217  -9.0599    194.5246     54.2591   3.6255468206e+01   3.0300572189e+01    0.2725533    0.1480387  80.47 0.0009965976    2.153    0.536
       218  -9.8008    195.5703     61.1965   3.7701857233e+01   2.9057892527e+01    0.3280178    0.2583163  13.29  0.001224687    2.058    0.514
       219 -10.5947    211.5407     49.4079   3.3066023393e+01   2.7345949916e+01    0.2646982     0.214473  89.80 0.0006168085    1.120    0.107
       220 -10.7626    209.1031     43.5681   3.2098904190e+01   2.8648894659e+01    0.3974914    0.2141256 -53.92  0.002109463    1.715    0.417
       221  -9.5519      9.5208     49.9908   9.0191988494e+01   6.5568277953e+01     0.247212    0.1520582 -19.61 0.0005120412    1.449    0.310
       222 -10.3864      5.6793     49.1291   9.1828623086e+01   6.5983904075e+01    0.5267385    0.3011315 -37.63  0.002434423    1.378    0.274
       223 -10.4765    106.3785     48.5796   5.1658921194e+01   5.1100488001e+01    0.5261871    0.2666248  44.28  0.001910692    1.807    0.446
       224 -10.8312    107.7382     43.5704   4.9654714985e+01   5.1498249562e+01    0.4950746    0.2413382  50.54   0.00208395    1.816    0.449
       225 -10.2360    246.3447     47.8204   2.9231137855e+01   2.0718859372e+01    0.2208478    0.1831036 -39.77  0.001250618    1.433    0.302
       226 -10.7976    232.9474     48.2655   3.0565054053e+01   2.3191819440e+01    0.2226113    0.1840346  87.90 0.0002520334    1.184    0.155
       227 -11.0771    154.5374     35.7948   3.7609944639e+01   4.1818111298e+01    0.9669866    0.5520956 -70.80  0.004387783    2.436    0.589
       228  -9.1231     62.5172     47.6736   6.5609944184e+01   5.9711806819e+01    0.2161325    0.1530621 -29.79 0.0005937977    1.414    0.293
       229  -9.4259     55.0858     49.7934   6.9325553217e+01   6.0547270103e+01     0.202656    0.1659962 -14.35 0.0004950484    1.119    0.106
       230  -8.2746     58.6917     47.3281   6.6977085459e+01   6.0386696879e+01    0.1175165    0.1081041  77.13 0.0007039038    1.659    0.397
       231  -8.6318     37.8563     47.1297   7.5746955502e+01   6.3371396716e+01    0.1720163    0.1497739 -19.45 0.0004073513    1.177    0.150
       232  -9.3192    228.0488     45.2248   3.0448332199e+01   2.4562787157e+01    0.2102656    0.1510542 -52.56  0.001314647    1.220    0.180
       233  -9.3817     73.5105     44.9930   6.0572821026e+01   5.8210538394e+01    0.2238539    0.1279426 -38.12   0.00054286    1.888    0.470
       234  -9.1192     67.1851     44.9442   6.2840105144e+01   5.9342935204e+01    0.1795562    0.1728068 -14.26 0.0002786047    1.272    0.214
       235  -8.5403    190.6007     44.2698   3.4479469598e+01   3.2543203121e+01    0.1374473   0.08629557 -77.43 0.0001491849    1.739    0.425
       236  -8.4945     69.3039     56.6955   6.6272444564e+01   5.7098187201e+01    0.1231512    0.1111425  76.89  0.000354082    1.598    0.374
       237 -10.2957     18.5150     42.6719   8.3347037318e+01   6.6210942989e+01    0.2574631      0.20129  21.71  0.001046796    1.417    0.294
       238 -10.1962     56.4736     41.9299   6.5839755629e+01   6.1578429505e+01    0.2879238    0.2047405   1.60 0.0003347436    1.414    0.293
       239 -11.8685     62.4208     37.5334   6.1828806644e+01   6.1241945855e+01    0.5563768     0.380712  36.71  0.003191988    1.338    0.252
       240 -10.4012     54.5006     36.5772   6.4565995841e+01   6.2681719918e+01     0.230621    0.2007876  -6.48 7.018958e-05    1.146    0.127
       241 -10.8963     53.9959     33.2960   6.3470002499e+01   6.3224729974e+01    0.2088185    0.1679052  14.01 0.0003973867    1.031    0.030
       242  -9.2152     98.7570     41.5317   5.1392034273e+01   5.3699325194e+01    0.3136705    0.1799643  56.45 0.0008462445    1.739    0.425
       243  -9.4247     28.2897     41.5878   7.8172229001e+01   6.5427422286e+01    0.2033021    0.1672298 -25.02 0.0005872746    1.176    0.149
       244  -9.0628      1.9971     52.5717   9.4611926441e+01   6.5523413339e+01    0.4411467    0.1732735 -66.21  0.001886043    3.213    0.689
       245 -10.0081    230.7345     39.4616   2.9060856037e+01   2.4796969735e+01    0.2177228    0.1631517 -63.16 0.0005910606    1.091    0.083
       246  -9.0219    113.4298     40.2433   4.7141485515e+01   5.0682417543e+01    0.3038208    0.1315887  45.52  0.001284532    2.120    0.528
       247 -10.6911    202.0047     37.3717   3.1560239594e+01   3.0962971106e+01    0.2441075    0.1901141 -83.50 0.0003021121    1.115    0.103
       248 -10.5580    194.9532     37.0574   3.2302992381e+01   3.2526457974e+01    0.3286285    0.2157481 -50.24  0.001011562    1.444    0.307
       249  -8.2763    181.7094     38.2893   3.4244586953e+01   3.5300065298e+01    0.1299408   0.08700901 -72.99  0.000304778    1.543    0.352
       250 -11.5305     76.5730    219.7335   9.9270667710e+01   1.7332757525e+01     1.086451    0.5779337  40.10  0.005070732    1.716    0.417
       251  -9.5891     42.9841     30.9959   6.7201711604e+01   6.5217400857e+01    0.3131569    0.1777894 -20.80   0.00128588    1.849    0.459
       252  -9.7917     47.3150     28.6532   6.4355138586e+01   6.4900760564e+01     0.255078    0.1701272  30.43  0.000855501    1.327    0.246
       253  -8.9711     38.4643     37.5070   7.1845534350e+01   6.4869277111e+01    0.2555754    0.1884417 -32.52 0.0007706241    1.356    0.263
       254  -9.7477     40.4242     33.5050   6.9366059879e+01   6.5213599927e+01    0.2486226    0.1726117  -0.23  0.001042524    1.343    0.255
       255  -9.6628     32.9359     37.1423   7.4270794897e+01   6.5622531200e+01    0.1897114    0.1490166 -20.57  0.001231242    1.148    0.129
       256  -9.8087      3.2372     37.6496   8.9492884319e+01   6.8273099444e+01    0.3507296    0.1605119  -6.19  0.001354539    2.390    0.582
       257 -11.2697    246.9653     32.9929   2.6465294348e+01   2.2539061956e+01    0.4853726    0.2238519 -57.61  0.001904788    1.838    0.456
       258  -9.6722    115.0433     34.5569   4.4930091740e+01   5.1028418198e+01    0.3502456    0.1807095 -36.43  0.001675115    2.148    0.534
       259 -10.7131     73.3240    213.9764   9.9356238708e+01   1.9126474109e+01    0.4888433    0.3389733  27.64  0.001528156    1.502    0.334
       260  -9.1232     91.4561    214.5237   9.4969163250e+01   1.6410338230e+01    0.2872689    0.1313398  33.73 0.0007555523    2.059    0.514
       261  -9.7151    123.9626    206.0002   8.5611682460e+01   1.3289921571e+01    0.2030674    0.1947201  23.02  0.001148181    1.009    0.008
       262  -9.0168     90.4665    206.1879   9.4045641797e+01   1.8522464762e+01    0.2364273    0.1836845  58.45 0.0007916792    1.324    0.245
       263 -10.6000      4.9959    202.7126   1.1450438127e+02   2.9435530752e+01    0.1770692    0.1504394  76.06  0.001184501    1.070    0.065
       264 -11.0652     30.6220     31.1714   7.3002053175e+01   6.6826867534e+01    0.3897108    0.2171823 -33.92 0.0004652505    1.687    0.407
       265 -12.4365     34.9040     27.4612   6.9421111686e+01   6.6828081976e+01    0.4205867    0.2339327  22.30 0.0003228471    1.653    0.395
       266  -8.8140    185.6004     34.7645   3.2915991276e+01   3.4872854514e+01    0.1729097    0.1057274 -49.93 0.0006861706    1.591    0.371
       267 -10.1588    106.9570     34.8704   4.6975802460e+01   5.2780325899e+01    0.1955673    0.1793932  25.57 0.0002975204    1.101    0.092
       268 -10.4454     96.8135     33.4775   4.9150881495e+01   5.5133187131e+01     0.335156    0.2035418  32.69 -0.0001463255    1.690    0.408
       269 -10.0891     23.3921     25.1856   7.4118644294e+01   6.8557661552e+01    0.3136074    0.1929724 -27.71  0.001925729    1.456    0.313
       270  -9.6843     74.7564     33.3279   5.5795543245e+01   5.9585518869e+01    0.2591413    0.1774395 -35.24  0.001463948    1.645    0.392
       271  -9.9217      1.3777    184.7541   1.1406024712e+02   3.4041447020e+01    0.4161819   0.09823357 -74.97  0.001440463    3.428    0.708
       272  -8.2674     77.5101    185.5975   9.4384585322e+01   2.5511977199e+01      0.14449    0.1384981  72.06 7.622218e-05    1.020    0.020
       273  -9.4430     25.0973    173.8879   1.0704931028e+02   3.4780388845e+01    0.2002739    0.1617927  77.27  0.001162385    1.183    0.155
       274 -11.6461    132.0642     29.6668   3.9843950533e+01   4.7729738946e+01     0.347042    0.2758698 -38.97 -5.119154e-05    1.413    0.292
       275  -8.8145     66.6334     31.4062   5.7883476144e+01   6.1328277581e+01    0.2990761    0.2133214  77.31  0.001385742    3.087    0.676
       276  -9.0563     59.6849     31.7491   6.0606239365e+01   6.2496547440e+01    0.2037361     0.144618 -20.87 0.0006731365    1.429    0.300
       277  -8.7807      6.4757    168.5114   1.1144428127e+02   3.7690688496e+01    0.1311761    0.1091344 -82.24  5.45745e-05    1.003    0.003
       278 -11.4451    127.8794     53.1536   4.7751273341e+01   4.5663981363e+01    0.4431027    0.3654963 -22.98 0.0004318227    1.367    0.269
       279 -10.0280    124.1950     30.6012   4.1686361702e+01   4.9424069914e+01    0.2465991    0.2033667  65.53  0.000466493    1.111    0.100
       280  -9.8474    216.0772     29.2132   2.8398979799e+01   2.9027672379e+01    0.2603424    0.1719601 -84.39 0.0008696555    1.363    0.266
       281  -8.8313    201.1402     29.8514   3.0026197367e+01   3.2081111607e+01    0.1869483     0.133956 -69.92 0.0003824571    1.245    0.197
       282  -9.1602    110.8604     29.6261   4.4300758657e+01   5.2534088638e+01    0.2130127    0.1768807   9.35 0.0008788912    1.365    0.267
       283  -9.6772    179.8648     28.9097   3.2259335932e+01   3.6858225222e+01    0.2594317    0.1669267  84.14 0.0008515857    1.469    0.319
       284 -10.9218      9.6971    163.7417   1.1013786419e+02   3.8656310386e+01    0.3353156    0.2309133   3.13  0.001658374    1.906    0.475
       285 -12.2630     18.1091    158.4977   1.0726198506e+02   3.9337915712e+01    0.5217677    0.4373477  76.35  0.003149549    1.184    0.156
       286  -9.8979    183.6749     25.1998   3.0932960022e+01   3.6437512177e+01    0.2766353    0.1878909 -79.39 0.0009206145    1.413    0.292
       287 -10.3771    179.5515     21.6498   3.0590659793e+01   3.7752349097e+01     0.346301    0.2113913 -65.45  0.001666015    1.676    0.403
       288  -9.2021    119.4170     26.3332   4.1352154595e+01   5.0981227126e+01     0.323001    0.1365686  50.30  0.001445007    2.015    0.504
       289 -10.7530      2.4604    153.6540   1.1112910863e+02   4.1711399768e+01    0.3151961    0.2283293 -89.49  0.001850512    1.243    0.196
       290  -9.8854     66.2742     25.0252   5.5482556208e+01   6.2176295784e+01    0.3296091    0.2482892  17.94  0.001173716    1.202    0.168
       291  -8.9608      6.1546    159.5985   1.1069271979e+02   3.9961780237e+01    0.1620489    0.1216365 -15.88 0.0005150228    1.708    0.414
       292 -11.1992     30.6749    147.1889   1.0213464787e+02   4.1168943741e+01    0.3558948    0.2594502 -63.68 0.0001395385    1.197    0.165
       293 -10.3476     23.8369    148.9380   1.0443365290e+02   4.1326288931e+01    0.2180721    0.1628144 -51.14 0.0006555212    1.260    0.207
       294 -11.0443      6.7204    148.3469   1.0938284892e+02   4.2777226448e+01    0.3700432    0.2058304  34.54  0.001645032    1.989    0.497
       295 -10.0286    224.9712     23.0067   2.6383154868e+01   2.7972896137e+01    0.2918998    0.1755789  73.51 0.0007626964    1.551    0.355
       296  -9.9305    222.5696     19.7713   2.5957729634e+01   2.8827513469e+01    0.2283253    0.1779718 -62.26  0.001098922    1.137    0.121
       297  -8.0588     60.6929    148.2650   9.3075072509e+01   3.7531953191e+01     0.145827       0.1111  66.05 0.0001545459    1.531    0.347
       298  -8.7886    104.1331     23.8934   4.3977002705e+01   5.4640185123e+01    0.1716769     0.127121  38.68  0.001006911    1.242    0.195
       299  -9.5963     98.7343     23.3177   4.5104012666e+01   5.5870137904e+01    0.2151925    0.1903874 -75.02  0.000608499    1.424    0.298
       300  -9.3054    249.0025     22.3522   2.4420680427e+01   2.3463994403e+01    0.1951843    0.1265016 -58.59  0.001240253    1.204    0.170
       301  -9.6875    212.0031     22.3102   2.7377884683e+01   3.0685070001e+01    0.2403818    0.2069017 -32.96 0.0007169282    1.504    0.335
       302  -8.7400    213.7065     18.6590   2.6489903153e+01   3.0750687114e+01      0.16226    0.1071276 -36.72 0.0008146474    1.678    0.404
       303  -9.1628     36.1973    148.1380   1.0059043080e+02   4.0387650540e+01     0.213824    0.1721011 -49.08 0.0004342789    1.189    0.159
       304  -9.4015    117.7935     19.3435   3.9481734098e+01   5.2068901960e+01    0.3381743    0.1707824  53.58   0.00113891    1.636    0.389
       305 -11.5111      2.9730    141.8998   1.0977505884e+02   4.4648778461e+01    0.5805994    0.5188138 -57.21  0.002464784    1.132    0.117
       306 -11.9488     13.2775    115.4124   1.0300901287e+02   5.0666891531e+01     1.299139    0.7199198 -26.96  0.006310572    2.042    0.510
       307 -11.0313     12.1222    144.6315   1.0738310686e+02   4.3352488028e+01     0.347494     0.244746 -38.89            0    1.499    0.333
       308 -12.2978     29.1971    137.7899   1.0121168276e+02   4.3742718182e+01    0.9168383    0.3585811 -51.29  0.003702132    2.208    0.547
       309 -11.8252     23.6208    124.8218   1.0099749897e+02   4.7543841716e+01    0.7792126    0.4597371 -76.25  0.003328549    1.704    0.413
       310 -11.4499     21.7241    142.0549   1.0415554041e+02   4.3281643639e+01    0.4939772    0.2941126  47.92 0.0002998171    1.916    0.478
       311  -9.2843    189.0444     25.9880   3.0496530695e+01   3.5161391029e+01    0.1872081    0.1510437 -83.61 0.0003697966    1.050    0.048
       312  -8.7066    188.0907     21.1573   2.9514187609e+01   3.5917790081e+01    0.1677395    0.1478933  67.39 0.0003858962    1.255    0.203
       313  -8.7171    142.9989     21.5176   3.5583380410e+01   4.6093279479e+01    0.1981256    0.1096592  65.51 0.0009870689    1.551    0.355
       314  -8.7295     89.0200     19.7172   4.6357365241e+01   5.8295139398e+01     0.284159    0.1793964 -64.31  0.001006629    3.050    0.672
       315 -11.7214     14.4669    134.5623   1.0539700870e+02   4.5758031264e+01    0.8000172    0.4817384  -2.76  0.000861518    2.154    0.536
       316 -11.5761     12.7960    128.9245   1.0516158641e+02   4.7307174797e+01    0.7300805    0.5111704  79.18  0.003272124    1.614    0.381
       317  -9.6235    158.8782     22.8137   3.3536099525e+01   4.2306240638e+01    0.2144751    0.1699848  45.87 0.0008257441    1.398    0.285
       318 -10.0255      1.6407    104.8650   1.0545479650e+02   5.3918510622e+01    0.3268589    0.1405864 -66.58 0.0004882835    1.875    0.467
       319  -9.7968     25.0665    115.8758   9.8990178513e+01   4.9679701952e+01    0.3217563    0.1697488 -61.32 0.0003703838    1.610    0.379
       320 -11.2276     26.0491    108.2009   9.7222595356e+01   5.1498614541e+01    0.5446972    0.4904636  86.75  0.001387527    1.281    0.219
       321 -11.0318     15.6283    104.2808   1.0029779825e+02   5.3243249663e+01    0.7211492    0.4647517  68.38  0.001102229    2.226    0.551
       322  -8.5918    130.8435     19.6408   3.7101935156e+01   4.9075066550e+01     0.186669    0.1076668  74.29 0.0007280994    1.731    0.422
       323 -11.1058      2.7207    116.6589   1.0677930929e+02   5.0983539802e+01     1.191604    0.4980832  56.60  0.003628064    4.121    0.757
       324 -11.4053      6.0831    109.9613   1.0466210135e+02   5.2447827602e+01     1.132411    0.5150498 -23.52   0.00494674    2.743    0.635
       325 -10.9320     27.1614    130.1940   1.0068650737e+02   4.5877577491e+01    0.4338942    0.2852049 -28.70  0.001355382    1.701    0.412
       326  -8.8191     18.8837     19.1952   7.3886373474e+01   6.9911996982e+01    0.1574266     0.103225  -5.64  0.001003041    1.304    0.233
       327  -9.4832    193.0359     17.3129   2.8145112407e+01   3.5261662184e+01    0.2559991    0.1557358  53.51  0.001475669    1.842    0.457
       328 -11.3302     29.2505    125.0686   9.9150932977e+01   4.7003908025e+01    0.4040892     0.300577 -42.73  0.001003464    1.254    0.203
       329  -8.8846     56.4979    142.4828   9.3339937753e+01   3.9580036677e+01    0.1480641    0.1368301 -57.04  0.000810442    1.001    0.001
       330  -9.7873     44.5012    141.5460   9.6966542474e+01   4.1236827820e+01    0.2772401    0.2280798 -32.64 0.0006899281    1.274    0.215
       331  -9.7137      4.1283    131.4947   1.0823360574e+02   4.7204654164e+01    0.2885634    0.2085222  17.88  0.001485097    1.650    0.394
       332  -8.6248     48.6708    131.2674   9.3787149726e+01   4.3432834278e+01    0.1422648    0.1088107  64.07 0.0002150181    1.577    0.366
       333 -10.3210     41.1841    127.6939   9.5610140980e+01   4.5177201916e+01    0.3227396     0.211132 -64.54  0.001578976    1.414    0.293
       334 -10.7852     47.7985    126.3068   9.3126197930e+01   4.4805286724e+01    0.4791096    0.2902626  27.82 0.0009467752    1.776    0.437
       335  -9.9168     97.6924    125.9432   7.6789469212e+01   3.7483893663e+01    0.2554972    0.2218914  36.28 0.0003835929    1.180    0.153
       336  -9.6558     36.1578    142.3716   9.9725063731e+01   4.1894848179e+01    0.2554104    0.1665501 -55.20 0.0006196063    1.356    0.263
       337 -10.1823    229.8564    123.0511   4.6137883525e+01   1.1742470443e+01    0.5694115    0.3014173 -58.45  0.002521146    2.268    0.559
       338  -8.9798    247.3129     13.3276   2.2962359129e+01   2.4816554383e+01   0.09102578   0.08216587  59.40 0.0007042692    1.668    0.400
       339  -9.6715     67.2432    123.5696   8.6018665134e+01   4.3000429674e+01     0.329046    0.1888181 -17.27  0.001111745    2.859    0.650
       340  -8.4520     78.4561    122.5039   8.2068373187e+01   4.1581916454e+01    0.1549582    0.1416957 -29.69 0.0001659548    1.057    0.054
       341  -8.6059    201.2874     12.6247   2.6358362006e+01   3.3998549227e+01     0.126674   0.06991457 -65.84 0.0007018455    1.722    0.419
       342  -9.8469     83.1282    119.1413   7.9739848589e+01   4.1653351683e+01    0.4405974     0.228193 -40.18  0.001426506    2.013    0.503
       343  -8.5480    135.7785    120.0091   6.4456823225e+01   3.1373902477e+01    0.2141415    0.1267826 -45.86 0.0005437739    1.664    0.399
       344  -9.1442     98.7353    117.3960   7.4348622101e+01   3.9346095219e+01    0.2454327    0.2227906  59.86 0.0004795889    1.224    0.183
       345  -9.3051     67.5479    118.2722   8.4711444668e+01   4.4276532270e+01    0.2541402     0.176858  42.43  0.000434672    1.574    0.365
       346 -10.0315     58.1099    117.7676   8.7824077553e+01   4.5697724999e+01    0.3256429    0.2804387  23.26  0.001001574    1.232    0.188
       347  -9.1963     46.4689    116.7433   9.1649749334e+01   4.7373078937e+01    0.2714928    0.1368283 -64.40 0.0009178657    1.991    0.498
       348 -10.2150     62.4732    112.3982   8.5077831839e+01   4.6434486001e+01    0.3451511    0.3164562 -36.73 0.0005145228    1.011    0.011
       349  -9.7955     30.0660    115.8736   9.7237484646e+01   4.9251836396e+01    0.2090586    0.1868638  74.36  0.001231546    1.297    0.229
       350  -9.3105     84.1670    113.0443   7.7884272608e+01   4.2947726237e+01    0.2383739    0.2116755  22.50 0.0002372879    1.147    0.128
       351 -10.8085     34.6640    108.5193   9.4153014172e+01   5.0646941378e+01    0.7741665    0.2897323 -60.80  0.002790768    2.369    0.578
       352 -10.2370     46.5094    109.6885   9.0114373891e+01   4.9112972952e+01    0.3881661     0.229365 -50.62  0.001228453    1.494    0.331
       353 -10.3125     46.1012    103.1010   8.8761294574e+01   5.0753546801e+01    0.4605481    0.2853777 -78.71  0.001735391    2.346    0.574
       354  -9.4422     38.9976     98.7489   9.0403058590e+01   5.2567410994e+01    0.3813703    0.1675819  36.67  0.001533894    2.545    0.607
       355  -9.5660     35.8734     96.1367   9.0986915759e+01   5.3501759109e+01    0.3577979    0.1931613 -59.79  0.001512672    1.755    0.430
       356  -8.9625    139.0074    107.7594   6.0475400061e+01   3.3340516753e+01    0.2080103    0.1971423  47.25            0    1.064    0.060
       357  -9.6959     75.4675    105.5244   7.8867027086e+01   4.6144782812e+01    0.5629849    0.3079594   4.92  0.001833087    3.679    0.728
       358 -11.6121     80.5873    103.1956   7.6509313064e+01   4.5848570601e+01    0.3712859    0.2846225  10.41 0.0006799446    1.445    0.308
       359  -9.6508    127.0232    106.0165   6.3137384427e+01   3.6278091317e+01    0.2248141    0.2218799 -17.16   0.00121186    1.007    0.007
       360 -11.3382    107.7642    103.1327   6.7824812303e+01   4.0866223848e+01    0.4586324    0.3071574  48.22            0    1.571    0.363
       361  -9.7958    112.5142    101.4513   6.5961738154e+01   4.0274784651e+01       0.3165    0.2658523  73.09  0.001335426    1.456    0.313
