#   1 NUMBER                 Running object number                                     
#   2 MAG_AUTO               Kron-like elliptical aperture magnitude                    [mag]
#   3 X_IMAGE                Object position along x                                    [pixel]
#   4 Y_IMAGE                Object position along y                                    [pixel]
#   5 X_WORLD                Barycenter position along world x axis                     [deg]
#   6 Y_WORLD                Barycenter position along world y axis                     [deg]
#   7 A_WORLD                Profile RMS along major axis (world units)                 [deg]
#   8 B_WORLD                Profile RMS along minor axis (world units)                 [deg]
#   9 THETA_WORLD            Position angle (CCW/world-x)                               [deg]
#  10 FWHM_WORLD             FWHM assuming a gaussian core                              [deg]
#  11 ELONGATION             A_IMAGE/B_IMAGE                                           
#  12 ELLIPTICITY            1 - B_IMAGE/A_IMAGE                                       
         1  -9.7856     72.7551     22.6016   2.8879471118e+01   6.4413093125e+01      0.22825    0.2079385  43.43 0.0004756235    1.044    0.043
         2 -10.4952    242.8289     15.8474   1.7247847133e+00   2.3866203833e+01     0.289924    0.1442991  -8.96  0.001279951    3.490    0.714
         3 -11.5986    182.8376     14.2316   5.2141926430e+00   3.6996782728e+01    0.4840413    0.3488805  76.35  0.002730595    1.389    0.280
         4 -11.9574    183.1518      3.6787   2.1434219332e+00   3.7960272085e+01    0.5999062    0.3014963  76.97  0.002916068    1.928    0.481
         5 -11.5914    178.1690      7.7902   3.7029761583e+00   3.8779453988e+01     0.289443    0.2210259  -8.52  0.001014569    1.602    0.376
         6 -11.9411    174.1395      4.0310   2.8874200631e+00   4.0127403427e+01    0.4473528    0.3176325 -57.11 0.0008930701    1.235    0.190
         7 -10.9510     49.5718     14.0447   3.4050628310e+01   7.0789093618e+01    0.3412248    0.2818295  39.47 0.0008111689    1.153    0.132
         8 -10.2330     45.4871     12.0289   3.4909997139e+01   7.1914130845e+01    0.2541949    0.2178237  18.89 0.0008014346    1.114    0.102
         9 -10.0572     35.2329     13.5568   4.2230577396e+01   7.3586694452e+01    0.2690384    0.2165974  -6.28 0.0006945041    1.262    0.208
        10  -9.7804     32.3053     10.0445   4.1782002797e+01   7.4668483657e+01    0.2591094    0.1561111 -43.93 0.0009132596    1.763    0.433
        11 -10.0525    162.7022     11.9730   6.3429686260e+00   4.2236056241e+01    0.1926683      0.16967 -57.25  0.000542591    1.059    0.056
        12 -11.0838     78.9569     11.6230   2.0785414381e+01   6.4332487070e+01    0.3959678    0.2688655 -39.97   0.00186364    1.573    0.364
        13 -10.7915     74.9559      9.2314   2.0675741766e+01   6.5596193733e+01    0.4277451    0.3231656  16.98  0.002053851    1.494    0.331
        14 -10.2491     27.4568     11.1288   4.6132860679e+01   7.5274404149e+01    0.2719055    0.2324543 -44.40   0.00105232    1.287    0.223
        15  -9.4660    200.9129     10.5515   2.8569833068e+00   3.3138235378e+01    0.3144386    0.1697314   2.42  0.001287428    3.551    0.718
        16 -10.2099    105.3387     10.0066   1.3533927929e+01   5.7649734032e+01    0.3645628    0.2560955  -2.22  0.001789634    1.742    0.426
        17 -11.4079     56.3910      8.8505   2.7364862363e+01   7.0032334311e+01    0.4247468    0.3340572  31.82   0.00118921    1.232    0.188
        18 -10.3072     98.5071      8.4925   1.4207092679e+01   5.9615375657e+01     0.408509    0.2444454  29.63  0.001808487    2.077    0.519
        19  -9.2310     96.5007      5.4912   1.3162353441e+01   6.0433048985e+01    0.2681098    0.1307823 -28.14   0.00115168    2.107    0.525
        20  -9.7648     69.1821      9.3625   2.2665697228e+01   6.6992444842e+01    0.2350022    0.1849318  -1.48 0.0006775502    1.404    0.288
        21 -10.9391    119.0808      8.7001   1.0554759761e+01   5.4092120304e+01    0.2585208     0.225814  75.03 0.0002129076    1.061    0.057
        22  -9.6113    115.0060      8.7908   1.1251795218e+01   5.5179235985e+01    0.2251119    0.1984996  72.94 0.0009064086    1.053    0.051
        23 -11.2882    123.8470      6.5259   8.9487573101e+00   5.3014086339e+01    0.3857683    0.2559269 -82.87  0.001045071    1.531    0.347
        24 -11.5816     16.9495      7.4779   5.2399360556e+01   7.7406286650e+01    0.5197667    0.3889247  18.84  0.001897762    1.309    0.236
        25 -10.2662      3.3866      8.4402   6.6824253741e+01   7.8551858809e+01    0.2478258    0.2033654 -48.16 0.0007068146    1.138    0.121
        26  -9.9885      4.2047      4.0307   6.3210322838e+01   7.9399219578e+01    0.2679781    0.1786966 -37.99 0.0008987651    1.311    0.237
        27 -10.0637    236.4435      7.1855   8.5023088911e-02   2.5963363448e+01    0.2483917    0.1471157 -63.06  0.001516334    1.469    0.319
        28 -11.4524     88.5098      5.9387   1.5158088190e+01   6.2487329930e+01    0.4780362    0.3010715 -10.46  0.001870586    1.859    0.462
        29 -10.8178    130.7690      5.0296   7.4328362466e+00   5.1290942689e+01    0.4316009    0.2779602   6.45   0.00143545    2.101    0.524
        30 -10.8710     85.5377      7.4757   1.6701308190e+01   6.3105727016e+01    0.2821266    0.2468252 -42.42  0.000748258    1.224    0.183
        31  -9.4483    203.4000      4.4487   1.0990815142e+00   3.3174437858e+01    0.2419188    0.1619968  56.83  0.001271668    1.790    0.441
        32 -10.3552    159.8610      3.1061   3.7364173203e+00   4.3809647765e+01    0.2260386    0.1636211 -60.59 0.0006101605    1.249    0.200
        33 -11.4291    114.3619      1.9213   8.3871890573e+00   5.5971355406e+01    0.4541413    0.2193527  75.39  0.001203115    1.916    0.478
        34  -9.6699     38.3376      2.3513   3.1953565059e+01   7.4674919012e+01    0.2771429     0.193505  44.49  0.001042764    1.351    0.260
        35  -9.6926     79.4222      1.4517   1.4946929822e+01   6.5243787493e+01     0.261306    0.1272274  67.39 0.0005262253    1.898    0.473
        36  -9.7591      8.1436      5.2317   5.9636829224e+01   7.8812985334e+01     0.211842    0.1531236  -2.17 0.0007363893    1.370    0.270
        37 -11.3481    249.6616     99.5219   1.9537812486e+01   1.2635972645e+01    0.3367204    0.1474619 -26.51  0.001643318    2.055    0.513
        38  -9.1977      5.5828    101.1710   8.5606007788e+01   5.5096864879e+01    0.2437389    0.1189803 -52.22  0.001087916    2.041    0.510
        39 -10.8004      6.1126     95.0768   8.4846608705e+01   5.6702253686e+01    0.5018793    0.2675078 -62.92  0.002393281    1.681    0.405
        40  -9.7311     27.7990    100.3174   7.6272111657e+01   5.3703440026e+01    0.3208809    0.1654382 -18.79  0.001180361    3.205    0.688
        41  -8.9635    159.4934     98.4540   3.3073863881e+01   3.0095667698e+01    0.1469776    0.1414463 -26.69 0.0001165255    1.026    0.025
        42 -11.8095    236.0752     95.4841   2.0228092078e+01   1.5402193690e+01    0.3687276    0.1982544 -52.19   0.00184528    2.180    0.541
        43 -10.8562    103.2026     95.6673   4.6735031012e+01   4.3061288822e+01    0.3400866    0.2553775 -60.80  0.001564469    1.413    0.292
        44 -10.5693     64.4337     95.9427   6.0432385675e+01   5.0243153163e+01    0.3036764    0.2898114 -76.68  0.000790447    1.017    0.016
        45  -9.0419    143.0307     96.4762   3.6163644102e+01   3.4133701993e+01    0.2202412    0.1505033  48.74 0.0004981125    1.492    0.330
        46 -10.6514     35.1487     95.4036   7.2351888964e+01   5.4300375240e+01    0.2983082    0.2080933 -80.76 0.0009028573    1.413    0.292
        47 -10.6991     38.1445     93.3638   7.0682893674e+01   5.4520432826e+01    0.4385202    0.2304356 -89.63  0.001676368    2.484    0.597
        48  -9.5049     51.2685     95.0827   6.5506797466e+01   5.2421107176e+01    0.2083374    0.1844702 -75.66 0.0004103804    1.089    0.082
        49  -9.8257     16.4763     93.6904   8.0194824959e+01   5.6428613697e+01    0.2304685    0.1734765  38.20 0.0009804957    1.377    0.274
        50 -10.3378    132.4068     92.6616   3.7667013103e+01   3.7297482814e+01    0.2896595    0.2741761  84.92  0.000602125    1.089    0.082
        51  -8.8514      2.4186     88.4771   8.5864259562e+01   5.8652282724e+01    0.1357884    0.1169855 -77.93 0.0003230422    1.037    0.036
        52 -10.0490    249.2283     86.2606   1.6774708550e+01   1.4421855136e+01    0.2039175   0.06501249 -39.29 0.0008870335    2.408    0.585
        53  -9.2628     96.5344     86.4866   4.6191448306e+01   4.6573026755e+01    0.1547502    0.1537036 -73.37 -9.198669e-06    1.030    0.029
        54 -10.0876     12.0129     85.8369   8.1197059747e+01   5.8846212716e+01    0.2235817    0.1792287 -78.84  0.000274148    1.118    0.106
        55 -11.7687    238.8813     82.5844   1.7062382612e+01   1.6651438780e+01    0.4638135    0.1395107 -43.57  0.001837794    2.973    0.664
        56 -10.1867    188.5963     81.9948   2.3445505445e+01   2.6557274674e+01    0.2395896    0.2067271  60.03 0.0001107269    1.272    0.214
        57  -8.6589    160.2973     81.2677   2.8182071461e+01   3.3025269290e+01    0.1422428    0.1163188  15.90 0.0002216657    1.517    0.341
        58 -12.1476     54.7433     79.0616   6.0025973737e+01   5.6089526261e+01    0.3264778    0.2866842 -89.90 0.0004010201    1.204    0.169
        59 -10.2320     30.8950     78.6386   7.0979941772e+01   5.9235654849e+01    0.4884578    0.1286225 -47.57  0.001440563    3.990    0.749
        60  -9.6672      5.6423     80.1080   8.3512197014e+01   6.0737463604e+01    0.1926182    0.1540634 -76.91 0.0004384747    1.103    0.094
        61  -9.1409     77.8877     77.8648   5.0130819588e+01   5.2366753409e+01    0.2043886    0.1775055  74.30  0.001015849    1.261    0.207
        62  -9.1413      6.4716     85.4678   8.3720399718e+01   5.9261525352e+01    0.1368708    0.1206669  89.19 0.0001452205    1.043    0.041
        63 -10.5303      3.3785     75.2466   8.4065652824e+01   6.2137260735e+01    0.2871166    0.2557291  60.51  0.001407364    1.173    0.147
        64  -8.9936    201.4486     74.5294   1.9657242111e+01   2.4964370122e+01    0.1373717    0.1194296 -42.70 2.941137e-05    1.018    0.017
        65  -9.1747    121.7431     74.6210   3.4937502360e+01   4.3417967802e+01    0.2124408    0.1483715  61.95 0.0005712096    1.530    0.346
        66  -9.0640    100.5512     73.5461   4.0759439249e+01   4.8569033993e+01    0.1567044      0.15003 -88.12 -1.851914e-05    1.050    0.048
        67  -9.4587    164.9543     71.8896   2.4616135245e+01   3.3537545681e+01    0.2135522    0.1998596 -54.16 0.0003145514    1.007    0.007
        68  -9.1258     89.8543     72.1553   4.3864934369e+01   5.1227266129e+01    0.2028698    0.1828858   7.68            0    1.264    0.209
        69  -9.4859     76.1990     72.0696   4.8893967117e+01   5.4054844862e+01    0.2415846    0.2127919 -15.71  0.001218889    1.289    0.224
        70  -9.3079    128.4861     71.1529   3.2085140581e+01   4.2467430333e+01    0.2274332     0.151319 -39.91 0.0005293043    1.491    0.329
        71 -12.1551     64.1070     69.5479   5.3021043496e+01   5.6904471160e+01    0.2720906     0.255553 -55.04 0.0003346349    1.045    0.043
        72  -9.7921      7.8129     68.9242   8.0939771860e+01   6.3600883095e+01    0.2036451    0.1967449   8.27 0.0004580185    1.158    0.136
        73  -9.1611     82.9975     68.2405   4.4982963562e+01   5.3548004755e+01    0.2154313    0.1921069  45.40 0.0003363208    1.124    0.110
        74  -9.3884    151.9830     66.4495   2.5415918272e+01   3.7563267433e+01    0.2323493    0.1968803 -35.94 0.0006294339    1.168    0.144
        75  -8.9936    192.1413     65.8160   1.8651567567e+01   2.8252916523e+01    0.1671018    0.1548105  -8.06 0.0003121326    1.206    0.171
        76 -10.1074     69.9076     66.0805   4.9373808584e+01   5.6654172783e+01    0.2548987    0.2269953  13.67 0.0005544304    1.233    0.189
        77 -10.0873      4.5066     63.8865   8.1992439141e+01   6.5086407473e+01    0.2553169    0.1975568 -55.87 0.0007302452    1.170    0.146
        78 -10.6138      3.6108     58.6681   8.1711408357e+01   6.6486354337e+01    0.4342431    0.2738965 -52.15  0.002294482    1.419    0.295
        79 -10.9819    250.0046     62.0315   1.1461757126e+01   1.7332014925e+01    0.6048412   0.07461766 -34.09  0.001986496    4.296    0.767
        80 -10.7646    247.3228     52.6742   9.6286045132e+00   1.8932579468e+01    0.2203993    0.1457099 -43.14  0.001093582    1.190    0.160
        81  -9.5743    212.4635     64.5368   1.5768683677e+01   2.4100475607e+01    0.1328514    0.1137326 -41.76  8.31163e-05    1.010    0.010
        82  -8.8939    204.4704     65.5149   1.6968668493e+01   2.5628447453e+01    0.1378934    0.1158707 -48.05 0.0004476405    1.061    0.057
        83 -10.2775     99.1519     61.7247   3.7051213291e+01   5.1336247531e+01    0.4678409    0.3025267 -69.95    0.0018324    2.277    0.561
        84 -10.9398     43.5582     62.3752   6.0317041636e+01   6.1907102306e+01      0.28873    0.2748294 -18.29 0.0006896672    1.072    0.067
        85  -8.8405    114.4883     60.9989   3.2264818623e+01   4.7798163417e+01    0.2201726    0.1526162 -39.69 0.0003473361    1.450    0.310
        86  -8.9993     35.0264     60.9752   6.4355107291e+01   6.3357805804e+01    0.1661947    0.1586955  12.00 -0.003769674    1.100    0.091
        87 -10.2265     13.1082     61.2665   7.6681197470e+01   6.5301872573e+01    0.2647029    0.1679801  15.33  0.001339086    1.730    0.422
        88 -10.4402    232.8096     59.9543   1.2539930401e+01   2.0699128004e+01    0.2765347    0.1492612  45.06  0.001403428    2.492    0.599
        89 -10.7769     85.4289     58.4475   4.0484361349e+01   5.5123695553e+01    0.5473853    0.3763206  64.13  0.001185471    1.723    0.420
        90  -9.3395     56.7426     60.0127   5.3029497101e+01   6.0436959569e+01    0.2073712    0.1853688 -44.89 0.0003005216    1.092    0.085
        91 -11.9328     24.0873     57.0901   6.9353402448e+01   6.5507123641e+01    0.6116124    0.5095925  49.56  0.003088194    1.322    0.244
        92  -9.0501     23.4984     50.4828   6.7789219648e+01   6.7220191229e+01    0.1390046    0.1263732 -45.64 -7.109096e-05    1.014    0.013
        93  -9.8692    228.1806     57.1749   1.2330419653e+01   2.1938499506e+01    0.1854514    0.1244295 -51.07 0.0005951851    1.337    0.252
        94 -10.0354     77.6765     55.4647   4.2242256030e+01   5.7421326983e+01    0.3354263    0.2154714  47.57  0.001309538    1.560    0.359
        95  -9.3769     44.3800     55.8099   5.7664925162e+01   6.3384689167e+01    0.3931738    0.2001249  55.22  0.001181401    3.002    0.667
        96 -10.5659     63.9228     52.0468   4.6642554105e+01   6.0928858983e+01    0.4528004    0.2228513 -45.78  0.001806714    2.013    0.503
        97  -8.9358     88.4962     52.5847   3.7086313654e+01   5.5606642388e+01    0.1514426    0.1467786  68.67 8.484651e-05    1.029    0.029
        98  -8.6945    111.2794     51.7401   2.9733240559e+01   5.0271923897e+01    0.1488096    0.1175846 -77.91 0.0006861665    1.474    0.322
        99 -10.3248     69.0670     51.4217   4.4127865574e+01   6.0049373496e+01    0.3619176    0.1778827  44.00  0.001201501    2.036    0.509
       100  -9.5448     94.0061     56.9500   3.6928833024e+01   5.3481032267e+01    0.2240216    0.1820209 -85.72 0.0003197495    1.486    0.327
       101  -9.2104    129.9988     50.0047   2.4522064683e+01   4.5811078743e+01    0.2379573    0.1842058  25.26 0.0008799204    1.632    0.387
       102  -8.7616    114.3032     49.0536   2.7912016783e+01   4.9974589255e+01    0.2433944    0.1317347 -10.73 0.0007039174    4.295    0.767
       103 -11.7277     94.0517     48.4065   3.3522800410e+01   5.5090888089e+01    0.3315567    0.2508113 -37.42  0.001592935    1.352    0.261
       104 -11.0550     52.1412     46.4464   4.9955056342e+01   6.4289544592e+01    0.4526779    0.3380772  25.19  0.001514015    1.432    0.302
       105  -9.6649      6.9575     44.6730   7.6900709853e+01   6.9903835318e+01    0.2644757    0.1996229 -44.03  0.001523231    1.209    0.173
       106 -10.3843    249.2224     44.5226   7.6878712819e+00   1.9550872225e+01    0.3046525    0.1213146 -34.71  0.001536974    1.852    0.460
       107 -10.8122     39.6414     43.4121   5.5487541635e+01   6.6951926055e+01    0.6499719    0.3060958  27.83  0.002645327    2.334    0.572
       108 -10.2161     32.1982     43.8662   6.0123746350e+01   6.7854353990e+01    0.3953317     0.185961  33.90  0.001490532    2.164    0.538
       109  -9.9777    137.3422     43.8605   2.0830659272e+01   4.4871318247e+01    0.2471943    0.1976191  83.94 0.0004225111    1.283    0.221
       110  -9.0118     20.5372     44.5606   6.7791630368e+01   6.8952616940e+01    0.1350343    0.1247077 -45.56 6.058411e-05    1.020    0.019
       111 -10.3102    118.9628     42.5269   2.4264702639e+01   4.9843649693e+01    0.3464683    0.2223762 -29.38 0.0008165232    1.660    0.398
       112 -11.1081    185.7714     41.4479   1.2745260585e+01   3.3100984173e+01    0.2627551    0.2187213 -41.35 0.0002700113    1.107    0.097
       113  -9.4166     71.5197     42.0201   3.9011601893e+01   6.1417692608e+01    0.2294562    0.1457272 -41.44  0.001032348    1.592    0.372
       114 -10.3339    158.8945     39.1924   1.5599930646e+01   3.9990731511e+01    0.2314658    0.2082296 -61.74 0.0003132539    1.027    0.026
       115  -9.9699    223.3231     39.0044   8.4095073093e+00   2.5148610877e+01    0.3342428    0.1318566  89.46  0.001211067    4.465    0.776
       116  -9.0416    152.1761     39.5883   1.6760658881e+01   4.1651874879e+01    0.1899179    0.1328532  56.97 0.0002934076    1.458    0.314
       117  -9.4472     95.9796     38.1585   2.8593251182e+01   5.6387300533e+01    0.2202013    0.1929364 -85.91 0.0003426214    1.237    0.192
       118 -10.9480     39.8807     35.7659   5.1930089044e+01   6.8587873684e+01    0.5513518    0.2483124  38.53  0.002280887    2.257    0.557
       119  -9.5954     46.8782     36.0264   4.8014892756e+01   6.7393031904e+01    0.2683896    0.2327571 -58.44 0.0008727543    1.268    0.211
       120  -9.6708     51.8466     33.1461   4.3895252392e+01   6.7074518177e+01    0.2424542    0.1881721  46.17 0.0003454966    1.332    0.249
       121  -9.3606     48.5999     32.2060   4.5152419916e+01   6.7851241542e+01    0.2450385    0.1777785 -30.61 0.0006703643    1.423    0.297
       122  -9.5474     27.5305     37.5047   6.0543676786e+01   6.9888924540e+01    0.2350935    0.1155488  39.05 0.0008256927    2.203    0.546
       123  -9.7186     13.2451     35.8468   6.9937568087e+01   7.1665074506e+01    0.3500383    0.1628028 -65.81    0.0015609    2.023    0.506
       124  -9.8827    119.1561     35.1185   2.1334514207e+01   5.0903102756e+01     0.241593     0.211911 -29.79 0.0005063078    1.204    0.169
       125  -8.8802     82.3842     35.5345   3.1843708890e+01   6.0118686783e+01    0.1452476    0.1406925  16.99 -2.558081e-05    1.049    0.047
       126  -9.6114     32.4092     34.3045   5.5916462493e+01   6.9985030559e+01    0.2729095    0.1655208 -59.45 0.0008255514    1.773    0.436
       127 -10.3186    153.2918     32.5715   1.4255696655e+01   4.2299509496e+01    0.3248004     0.268546  -3.28 0.0008546444    1.481    0.325
       128 -10.2289     26.1165     32.5082   5.9336765581e+01   7.1181303979e+01    0.4436533    0.1905939 -38.35  0.001753473    2.566    0.610
       129  -9.7236    139.0566     32.7251   1.6558883176e+01   4.5992646992e+01     0.214523    0.1853218  76.07 0.0004249175    1.117    0.105
       130 -11.0031      4.9701     31.8718   7.4960089669e+01   7.3148217837e+01    0.4820634    0.2009146  35.19  0.002102672    2.685    0.628
       131  -9.6781    226.4592     32.5312   6.6023056424e+00   2.5268146429e+01    0.1251348    0.1022662 -46.61 0.0001511759    1.028    0.027
       132 -10.2920     17.6402     31.4628   6.5027870732e+01   7.2319856392e+01    0.2252028    0.2154587 -78.03 0.0002879056    1.182    0.154
       133  -8.6827    233.6444     31.3244   5.8026476272e+00   2.3976194685e+01    0.1360839   0.06945284 -55.19 0.0007045927    1.768    0.434
       134 -10.1424    104.5464     29.8086   2.2586899171e+01   5.5471826876e+01    0.3678615     0.230026 -45.14  0.001484279    1.666    0.400
       135  -9.4579     92.4487     31.0534   2.6479609310e+01   5.8376903099e+01    0.2176166    0.1897837  59.80 0.0003060454    1.105    0.095
       136  -8.9188     64.2354     29.8685   3.6213760038e+01   6.5179381221e+01    0.2001938    0.1648535  15.14 0.0008545031    1.334    0.250
       137  -9.5136     59.1652     29.3579   3.8264786220e+01   6.6334294480e+01    0.2218399    0.1895572  12.88 0.0009616202    1.233    0.189
       138  -9.9441     61.7628     25.4187   3.4936658869e+01   6.6454931499e+01    0.3263176    0.2156418  19.68  0.001466603    1.999    0.500
       139 -10.3036    161.5851     27.2846   1.1398586440e+01   4.0827404664e+01    0.4324694    0.2220926  89.59  0.001700424    2.318    0.569
       140 -10.8195    153.3002     27.6802   1.2617351363e+01   4.2910224865e+01    0.2581233    0.2271318 -70.61 0.0002837415    1.048    0.046
       141  -9.1095     42.2679     28.5432   4.6838756584e+01   6.9669068032e+01     0.181587     0.130085  22.68 0.0003792449    1.492    0.330
       142 -10.5732    120.2775     26.1722   1.7528881184e+01   5.1818682885e+01    0.4774178    0.2446035  55.19  0.001953502    1.852    0.460
       143  -9.2522     83.7544     25.3797   2.6480807864e+01   6.1366612749e+01      0.31721    0.1301417  54.87  0.001190764    2.252    0.556
       144 -10.4499     87.7165     24.6970   2.4899496443e+01   6.0481024724e+01     0.512665    0.2461939 -53.80  0.001833095    2.986    0.665
       145  -9.5242     84.9774     20.4649   2.3628278426e+01   6.1739663612e+01    0.2303628    0.1773389  85.79 0.0005470644    1.494    0.331
       146  -9.2577     52.0855     27.4880   4.0776253135e+01   6.8081170182e+01    0.2062084     0.135759  43.55 0.0004036595    1.504    0.335
       147  -9.5209     94.1219     26.0975   2.3694030701e+01   5.8669831662e+01    0.2255462    0.1989724  24.83  0.001210326    1.225    0.184
       148  -8.5873    133.6843     25.7106   1.4900256088e+01   4.8309616139e+01    0.1469917    0.1079953  37.75 0.0002892346    1.592    0.372
       149 -10.3496    111.4833     24.6399   1.8728249558e+01   5.4346384002e+01    0.2679507    0.2238502 -79.16 0.0002077802    1.240    0.194
       150 -10.4863     47.4663     26.2856   4.2600212565e+01   6.9172977194e+01    0.3826764    0.2578436   0.88  0.001460924    2.127    0.530
       151  -9.9474    239.6203     24.1010   3.7581570528e+00   2.3612479835e+01    0.2456902    0.1673695  79.86  0.001217781    1.658    0.397
       152  -8.7817    177.4433     24.4887   8.7302867645e+00   3.7187874813e+01    0.1402462    0.1191983 -60.46 8.068241e-05    1.036    0.035
       153  -9.6431    128.9760     24.0883   1.5088981701e+01   4.9761095782e+01    0.2157672    0.2033266 -86.15 0.0003817796    1.020    0.020
       154 -11.2935     97.2925     22.2691   2.1048276137e+01   5.8367350402e+01    0.4335019    0.2874507  83.55   0.00155847    1.764    0.433
       155  -8.8248    136.3276     23.6682   1.3709723624e+01   4.7854716732e+01    0.1592295    0.1003637 -62.93 0.0007051481    1.713    0.416
       156  -9.6736    244.3298    199.3396   3.9020534868e+01   7.8010843147e-01     0.115531   0.06489124  -2.11  0.000705174    1.739    0.425
       157  -8.3892    196.3173     22.7008   6.4680781063e+00   3.2902619928e+01    0.1425313   0.08178841 -58.02 0.0003556788    1.615    0.381
       158  -9.5654    142.2308     22.3966   1.2350938390e+01   4.6439908778e+01    0.2108461    0.1302327  88.17 0.0009502437    1.709    0.415
       159  -9.0045    159.1490     20.1979   9.3931322670e+00   4.2272837649e+01     0.195318    0.1433271 -57.70 0.0004591979    1.274    0.215
       160  -9.8013    109.7166     19.2458   1.6781403564e+01   5.5476174407e+01     0.261006    0.2006546  -9.67  0.000563982    1.521    0.343
       161  -9.2276     66.5234     20.5422   3.0180869022e+01   6.6155349411e+01    0.1415077     0.133356  32.34 9.195467e-05    1.003    0.003
       162  -9.5443     48.4308     19.7752   3.8266827705e+01   7.0120708012e+01    0.2132905    0.1778183  50.27 0.0005737275    1.268    0.211
       163 -10.4928      6.5135     19.4190   6.9133441736e+01   7.5950123991e+01    0.5115384    0.2072784  14.63  0.002248852    2.632    0.620
       164 -10.7011     14.1540     17.9441   6.1524983627e+01   7.5638399998e+01    0.3726874    0.2016282  30.29  0.001175072    1.913    0.477
       165 -10.0840     23.6094     16.7582   5.2881701644e+01   7.4787289687e+01    0.3932769    0.2186139 -65.10   0.00167718    2.870    0.652
       166  -9.9468     19.9672     16.0313   5.5417856000e+01   7.5393287165e+01    0.2256475    0.1745699  14.37 0.0006416758    1.287    0.223
       167 -10.5451     38.2701     22.7160   4.6028224497e+01   7.1449404325e+01    0.2385695    0.2178013   2.53  0.000295848    1.027    0.027
       168  -9.6585      1.4037    181.1201   9.0958401024e+01   3.5310987434e+01    0.1713487     0.104953 -89.36 0.0008302837    1.535    0.349
       169  -8.7394    147.3247     17.6804   9.9858343881e+00   4.5627551501e+01    0.1555323    0.0950022 -61.55 0.0007045855    1.677    0.404
       170  -9.0634    206.8432     15.8238   3.8418722841e+00   3.1267170146e+01    0.1760926    0.1199366 -57.45 0.0002881904    1.255    0.203
       171 -10.0440     84.9613     15.9158   2.1300099201e+01   6.2318087234e+01    0.4428586    0.1921259  61.04   0.00174852    2.137    0.532
       172 -10.0735     66.1054     15.9856   2.7735082647e+01   6.6892505622e+01    0.2331563    0.1991465   4.80 0.0003705249    1.241    0.194
       173  -9.9764    243.8832    179.5528   3.5766336447e+01   3.1563608188e+00    0.2121919    0.1265475 -39.88  0.001316488    1.923    0.480
       174  -8.6352     29.3368    175.2759   8.3243788822e+01   3.4258399406e+01    0.1199536   0.09881023 -29.66 0.0002315686    1.609    0.379
       175  -9.5971     20.9263    174.4581   8.5497145660e+01   3.5240294207e+01    0.1946352    0.1541155  80.37 0.0006416946    1.167    0.143
       176 -10.2419    224.4942    172.9935   3.7546457255e+01   6.4700594263e+00    0.1840885   0.09962407 -30.93  0.001046545    1.631    0.387
       177  -9.5218     21.8572    169.8555   8.4972458978e+01   3.6240758965e+01    0.1781548    0.1689058  57.75 0.0005360816    1.172    0.147
       178 -10.0482      5.3066    161.6973   8.9232338529e+01   3.9547320540e+01    0.2083741    0.1447536 -45.27  0.001127378    1.831    0.454
       179 -10.1137    127.7079     14.0916   1.1402156030e+01   5.1231682183e+01     0.408038    0.1722212  62.49 0.0009723732    2.120    0.528
       180  -9.4571    111.4770     14.2406   1.4242914590e+01   5.5570197985e+01    0.3841553    0.1661556  72.23  0.001467365    2.292    0.564
       181  -8.9207     28.0099    159.7940   8.2523799080e+01   3.8100008192e+01     0.169805   0.09987764  27.70 0.0003890852    1.653    0.395
       182 -11.0952    243.9903    148.4957   3.0095430323e+01   7.0485927363e+00    0.2130554    0.1931657 -85.79  0.001508254    1.895    0.472
       183  -9.6523     25.4984    146.2449   8.2224876106e+01   4.1729435228e+01    0.2435131    0.1763498  27.81 0.0006160272    1.409    0.290
       184  -8.9039    119.6824     12.7145   1.2128965612e+01   5.3530349217e+01    0.1469982    0.1019286  41.54 0.0003756723    1.588    0.370
       185  -9.1767     75.0039    144.0260   6.6310214123e+01   3.6283769501e+01    0.2047129    0.1891296  59.66  0.001140193    1.008    0.008
       186 -10.3258      6.9707    142.0339   8.7820030103e+01   4.4292594822e+01    0.3997178    0.1513303 -70.07   0.00168964    2.417    0.586
       187  -8.5238     31.2548    143.6783   8.0158396530e+01   4.1838005746e+01    0.1443753   0.09007406  63.58 0.0003432149    1.542    0.351
       188  -8.7898     39.9932    147.5036   7.7753134679e+01   3.9950886657e+01    0.1975081   0.08789934  50.22 0.0004585158    2.151    0.535
       189  -9.5179     28.7957    138.1630   8.0436359652e+01   4.3501783018e+01    0.2018973    0.1633054  67.56 0.0003050894    1.118    0.106
       190  -9.8409    245.6729    137.6916   2.7781687242e+01   8.2232893118e+00    0.1195435   0.07843141  -2.20 0.0007038476    1.656    0.396
       191  -8.8118     40.4564     11.4938   3.7467340107e+01   7.2972513244e+01    0.1360998    0.1203057   9.34 0.0008084193    1.055    0.052
       192  -9.5770     10.9081    133.8909   8.6056889624e+01   4.6104520172e+01    0.1970756    0.1744597 -63.58 0.0009638573    1.227    0.185
       193 -10.4436     17.5669    132.2464   8.3689465882e+01   4.6029141030e+01    0.2606625    0.2067494  62.27 0.0004009075    1.139    0.122
       194 -10.9777    235.9124    129.5761   2.7475843551e+01   1.0743379885e+01      0.40721    0.1463416 -26.69   0.00165657    2.933    0.659
       195 -11.3607     58.0358    130.0281   6.9536761120e+01   4.2266473268e+01     0.234938    0.2190274  72.61  0.001314545    1.005    0.005
       196  -8.2058     40.6646    125.3351   7.4879180983e+01   4.5651549758e+01    0.1601639   0.09653644  61.25 0.0007052052    1.742    0.426
       197 -10.9981    248.4912    118.4911   2.3592273599e+01   1.0333353214e+01    0.2165603    0.1482362  25.23  0.001353837    1.760    0.432
       198  -9.0030    119.1575    118.7466   4.8074332703e+01   3.4517957405e+01    0.1957137     0.174588 -14.07  0.000489099    1.250    0.200
       199 -10.4312     13.2418    117.4506   8.4000224920e+01   5.0263682597e+01    0.2495804    0.2160949 -66.86 0.0002996069    1.166    0.142
       200  -9.7637      6.9967    118.4676   8.6379466070e+01   5.0406796761e+01     0.189787    0.1323164  20.60 0.0009154436    1.568    0.362
       201  -9.7566    103.0580    119.9623   5.2988469093e+01   3.7390276485e+01    0.2255248    0.2171068  43.50 0.0003121711    1.033    0.032
       202  -9.7591    224.3295    116.3352   2.6302726858e+01   1.4463721530e+01      0.13018   0.09049977   0.04 -0.0001205728    1.727    0.421
       203  -9.1919     91.7900    116.2388   5.5615404614e+01   4.0390846557e+01    0.1984521    0.1780858  -0.55 0.0003019079    1.289    0.224
       204  -9.6980     96.0253    111.9535   5.3258771889e+01   4.0643860028e+01    0.2277665    0.2191745 -55.91 0.0004415864    1.059    0.055
       205  -9.6587     19.0746    108.0021   8.0830267742e+01   5.2366337845e+01    0.2070141    0.1941346 -80.16 0.0008366155    1.075    0.070
       206  -9.3463     13.0374    106.0471   8.3030759046e+01   5.3332614945e+01    0.2067364    0.1804538  84.16 0.0003049326    1.027    0.026
       207 -10.2353      1.9971    104.5636   8.7313164615e+01   5.4377587948e+01    0.3324328    0.1718271 -63.63   0.00152328    1.766    0.434
       208 -10.2916     78.0339    101.8176   5.6813096425e+01   4.6455805476e+01    0.5373517    0.2228508 -54.04  0.001723181    2.350    0.574
       209  -9.6158    108.7850    100.7165   4.6431965355e+01   4.0734288785e+01     0.320004    0.2053237 -52.39  0.001063252    1.587    0.370
