#   1 NUMBER                 Running object number                                     
#   2 MAG_AUTO               Kron-like elliptical aperture magnitude                    [mag]
#   3 X_IMAGE                Object position along x                                    [pixel]
#   4 Y_IMAGE                Object position along y                                    [pixel]
#   5 X_WORLD                Barycenter position along world x axis                     [deg]
#   6 Y_WORLD                Barycenter position along world y axis                     [deg]
#   7 A_WORLD                Profile RMS along major axis (world units)                 [deg]
#   8 B_WORLD                Profile RMS along minor axis (world units)                 [deg]
#   9 THETA_WORLD            Position angle (CCW/world-x)                               [deg]
#  10 FWHM_WORLD             FWHM assuming a gaussian core                              [deg]
#  11 ELONGATION             A_IMAGE/B_IMAGE                                           
#  12 ELLIPTICITY            1 - B_IMAGE/A_IMAGE                                       
         1 -14.8875    156.5633     52.7069   7.9862650269e+01   3.9340800360e+01     1.169792     1.124952  -9.96  0.003447735    1.128    0.114
         2 -15.1604    167.8392     24.1891   6.9669206711e+01   4.0258043355e+01     1.034446    0.8767667  67.44  0.003466605    1.047    0.045
         3 -14.2331    191.1534     14.6839   6.3987898072e+01   3.5628190821e+01    0.8461566    0.4456584 -83.18  0.003795032    2.321    0.569
         4 -12.3622    196.5213      6.8571   6.1469277677e+01   3.5152490953e+01     0.223268    0.1558413 -81.74 0.0008941596    1.340    0.254
         5 -10.8078     36.3279    245.7513   1.4550560031e+02   1.9572220346e+01    0.1678112   0.08216643  73.64 0.0005470031    1.864    0.463
         6 -13.0027    190.5193    249.3491   1.1746748285e+02  -5.1783232495e+00    0.5133522    0.3353914  20.50 0.0009030006    1.662    0.398
         7 -13.7935    199.1392    246.6326   1.1542049533e+02  -6.2082203312e+00    0.7691568     0.501649  60.04  0.004034624    2.224    0.550
         8 -20.5571     85.7736    178.8139   1.2838725510e+02   2.7092088993e+01     15.78345     7.225955 -62.90   0.06680952    2.103    0.525
         9 -11.0757     21.0455    215.3108   1.4592502500e+02   2.7411061016e+01    0.1491117    0.1169503  86.19  0.001073991    1.119    0.107
        10 -11.6254      9.5377    214.0269   1.4788000492e+02   2.8863798147e+01    0.1566403    0.1180224 -88.45 0.0004345007    1.142    0.124
        11 -11.0411     16.3129    202.2766   1.4578811142e+02   3.0653933822e+01    0.1517209    0.0818963 -68.03 0.0003298545    1.625    0.385
        12 -11.1819     16.4235    210.5264   1.4640108481e+02   2.8896049007e+01    0.1566853    0.1168414  79.87  9.75392e-05    1.048    0.046
        13 -13.2004     11.9521    206.1565   1.4689007973e+02   3.0265255426e+01    0.5147646    0.2931864  33.42  0.003176298    2.195    0.544
        14 -13.3955    198.4648    238.3150   1.1420199988e+02  -4.8565947979e+00    0.4100564    0.3062215  12.97 0.0004051131    1.402    0.287
        15 -11.0255     17.0839    192.0758   1.4480257232e+02   3.2783731623e+01    0.1650995    0.1230004 -69.41 0.0003872931    1.315    0.240
        16 -13.5081    182.5511    232.9815   1.1640203162e+02  -1.2636660824e+00    0.5157994    0.3429055 -55.70  0.002759563    1.930    0.482
        17 -12.6514     18.4777    182.8020   1.4369869984e+02   3.4695670741e+01    0.3769228    0.1869232 -53.67  0.002001966    2.218    0.549
        18  -9.3817     23.2788    184.2555   1.4285225068e+02   3.3894606262e+01    0.1059849   0.08217243 -57.91            0    1.466    0.318
        19 -12.4863    203.7988    174.8305   1.0119425158e+02   5.1697966680e+00    0.6828952    0.3441384 -60.01  0.002258809    3.728    0.732
        20 -13.4217    161.0201    166.0461   1.0843652038e+02   1.5852425154e+01    0.5956557    0.4144143  64.09  0.002647985    1.709    0.415
        21 -12.8230    188.2830    153.8905   9.9795234224e+01   1.2581486714e+01    0.7834173    0.4933372  37.92  0.003407013    1.692    0.409
        22 -10.7711    177.9603    156.0925   1.0249930530e+02   1.4361331471e+01    0.2225925    0.2184564  80.20 0.0003016528    1.036    0.035
        23 -13.2202    164.7736    153.7260   1.0488776019e+02   1.7730966657e+01     0.603916    0.3774699  54.08  0.001520084    1.700    0.412
        24 -12.5525    212.1179    235.7628   1.1118892411e+02  -6.7570753889e+00    0.3021025    0.2275365   4.57  0.001367424    1.370    0.270
        25 -12.3731    174.3254    148.8549   1.0164624664e+02   1.6692107345e+01    0.4456604    0.3376976 -56.30  0.001118488    1.389    0.280
        26 -11.0981     13.9263    142.1698   1.4039186546e+02   4.4337643068e+01    0.1953957    0.1358499 -73.23 0.0002818951    1.116    0.104
        27 -11.2220    168.3599    134.9461   9.9684171439e+01   2.1009136370e+01      0.26602    0.2174925  65.90  0.000468231    1.329    0.247
        28 -10.8059     14.7715    132.9911   1.3901258990e+02   4.6374295547e+01     0.303647    0.1615618 -34.68  0.001540517    2.584    0.613
        29 -13.4279    187.8118    240.1904   1.1654536214e+02  -3.3313927829e+00     0.603672    0.2241133  43.23  0.002552544    2.360    0.576
        30 -13.0170    160.3916    128.1539   9.9830638019e+01   2.4281401580e+01    0.5309915    0.4074806 -60.06  0.001619273    1.391    0.281
        31 -11.7789     26.9716    224.7863   1.4558145884e+02   2.4807603806e+01    0.2661474    0.1304965 -67.98   0.00139835    1.870    0.465
        32 -11.9025    153.7648    125.6225   1.0074519188e+02   2.6330198204e+01    0.2752533    0.2018309  57.68 0.0006932747    1.445    0.308
        33 -11.7069    207.8531    226.1781   1.1033966284e+02  -4.5801310866e+00    0.1882721    0.1719256  37.56 0.0004728165    1.190    0.160
        34 -12.7989     39.7294    115.5567   1.2942894927e+02   4.8160914483e+01    0.3769364    0.2769625 -15.99  0.001136678    1.763    0.433
        35 -11.3769    231.3075    113.7708   8.2322685735e+01   1.1000078312e+01    0.2625565    0.2534094 -60.06 0.0008049796    1.061    0.058
        36 -11.7267    167.5909    112.8243   9.4298862994e+01   2.5861184432e+01    0.4162624    0.3188418  84.63  0.001172789    1.646    0.393
        37 -13.0845    186.6525    236.1502   1.1611876405e+02  -2.4937902617e+00    0.3308905    0.2717535 -18.59  0.001262539    1.372    0.271
        38 -11.1172    205.2198    110.3656   8.6038438422e+01   1.7493098747e+01    0.3700113    0.2437319  36.86  0.001367644    1.835    0.455
        39 -10.1908      6.2353    222.7240   1.4901461699e+02   2.7422779768e+01    0.1078619   0.05947659  74.70 0.0004579987    1.435    0.303
        40 -11.6840     38.7106    102.2165   1.2706414778e+02   5.1285557195e+01    0.2346488     0.194067  -7.48 0.0007974103    1.421    0.296
        41 -11.2797    207.4836    219.5203   1.0922487750e+02  -3.4552779771e+00    0.1759015    0.1289757 -49.41 0.0007187571    1.648    0.393
        42 -12.5664    197.9141    217.4001   1.1070916539e+02  -1.4067843612e+00    0.2556047    0.1964121 -24.85 0.0007067499    1.404    0.288
        43 -11.3315    142.0056     83.6296   9.2185955712e+01   3.7639540178e+01    0.3279251    0.2200003 -21.88  0.001030183    1.847    0.459
        44 -11.0219    150.9011    239.6178   1.2363295161e+02   3.1873719921e+00    0.2816162    0.2245883 -78.28  0.001548519    1.538    0.350
        45 -10.3075    153.4212    236.4355   1.2267406456e+02   3.2999291089e+00    0.2167016    0.1143902  40.68 9.286236e-05    1.661    0.398
        46 -14.3650    146.7465     66.4252   8.6010008247e+01   3.9562947914e+01     1.038674    0.9183035  62.12  0.001214341    1.123    0.109
        47 -11.6087    156.8659    247.6888   1.2362692321e+02   7.9140317918e-01    0.2221709    0.1832152 -40.80 0.0005922018    1.464    0.317
        48 -13.6776    160.6903     43.7661   7.6457428033e+01   3.9593519823e+01    0.5134683      0.49978  15.34 0.0007863747    1.127    0.113
        49 -11.7094     13.4843     59.9001   1.2560586365e+02   6.2164531568e+01    0.1952355    0.1678786 -28.65 0.0003980412    1.153    0.132
        50 -12.4683    186.8813     29.4445   6.8294754638e+01   3.4988167232e+01    0.5263361    0.2321204 -56.70  0.002030485    2.975    0.664
        51 -11.9744    210.2595    247.6215   1.1350453028e+02  -8.1590379251e+00     0.231474    0.1390166  30.32   0.00129596    1.465    0.317
        52 -11.7042     44.4920    246.0372   1.4415267216e+02   1.8503394441e+01    0.1768547    0.1136783  71.57 0.0008143786    1.216    0.178
