#   1 NUMBER                 Running object number                                     
#   2 MAG_AUTO               Kron-like elliptical aperture magnitude                    [mag]
#   3 X_IMAGE                Object position along x                                    [pixel]
#   4 Y_IMAGE                Object position along y                                    [pixel]
#   5 X_WORLD                Barycenter position along world x axis                     [deg]
#   6 Y_WORLD                Barycenter position along world y axis                     [deg]
#   7 A_WORLD                Profile RMS along major axis (world units)                 [deg]
#   8 B_WORLD                Profile RMS along minor axis (world units)                 [deg]
#   9 THETA_WORLD            Position angle (CCW/world-x)                               [deg]
#  10 FWHM_WORLD             FWHM assuming a gaussian core                              [deg]
#  11 ELONGATION             A_IMAGE/B_IMAGE                                           
#  12 ELLIPTICITY            1 - B_IMAGE/A_IMAGE                                       
         1 -11.9638    243.2936     25.4022   3.2963625808e+01   2.3819486969e+01    0.4610529    0.1801206 -47.65   0.00221575    1.980    0.495
         2 -12.3329    248.3010      5.8957   2.8896988294e+01   2.5000986951e+01    0.7315035    0.4400535 -37.60  0.004956985    1.519    0.342
         3  -9.2653    139.9440      9.0902   3.8872675727e+01   4.8199261294e+01    0.1992034    0.1691444  77.17 0.0005465532    1.025    0.025
         4  -8.3748     18.9669      9.0360   7.7878143490e+01   7.3432115328e+01    0.1429789    0.1130012  -2.49 0.0003139031    1.018    0.018
         5  -8.9645    189.9580      6.9448   3.2938413808e+01   3.6711834453e+01    0.2695436    0.1280737 -62.03 0.0008433345    2.106    0.525
         6  -9.3577    186.3923      4.2453   3.2578995845e+01   3.7762388322e+01    0.2160696    0.1209388 -75.28  0.000693194    1.732    0.423
         7 -10.1825    239.6877      2.3175   2.8662470764e+01   2.6953080125e+01    0.2005403   0.07972677 -39.39 0.0008040933    2.003    0.501
         8  -8.6962    153.4604      2.4369   3.5223892827e+01   4.5540442181e+01    0.2190204   0.09314185 -39.80  0.001031405    2.319    0.569
         9  -8.5172     51.2758      3.3423   5.7695040722e+01   6.8891546446e+01    0.1293492   0.08047742  21.31 0.0006783604    1.620    0.383
        10  -8.9773    222.3129      1.6502   2.9493266485e+01   3.0388720870e+01    0.1257088   0.06221133 -60.22 0.0007046178    1.722    0.419
        11  -8.1815     54.6445      1.2602   5.5254024034e+01   6.8429104094e+01    0.1114648   0.09603779  82.84 0.0005116059    1.618    0.382
        12  -9.3648     98.0407      7.5754   4.5635529746e+01   5.8388608372e+01    0.2087958    0.1797416  19.89 0.0003768441    1.244    0.196
        13  -8.8259    240.7813    209.1915   6.9492715319e+01  -2.4535156420e+00    0.1576636    0.1358483 -84.01 0.0009143024    2.822    0.646
        14 -10.4706    244.7508    249.3285   7.5305815848e+01  -8.0819651830e+00    0.3113326    0.1564382   5.09  0.001826656    2.018    0.505
        15  -8.4449    226.2207    250.6145   7.8630549972e+01  -6.3210573907e+00    0.1471251   0.08322194  14.39 0.0002728587    1.505    0.335
        16  -8.9425    210.5874    250.3034   8.1362137485e+01  -4.5544071400e+00    0.1548826   0.09019488 -22.48 0.0009505244    1.607    0.378
        17  -8.6576    230.6435    208.3176   7.1045889753e+01  -1.1088458971e+00    0.1004909   0.09850876 -61.77 0.0007045215    1.751    0.429
        18  -8.6936    227.6306    201.2919   7.0339848733e+01   3.0354593602e-01    0.1637365    0.1482406 -57.17  0.001093749    1.785    0.440
        19  -9.3560    247.2467    194.1595   6.5835677556e+01  -1.0986288429e+00     0.176265     0.158909  62.75  0.001212998    2.026    0.506
        20  -8.4120    234.2690    193.2830   6.7786918139e+01   6.4877497357e-01    0.1202937   0.07791512  -9.50            0    1.494    0.331
        21  -8.6677    249.4768    185.9432   6.4023910218e+01  -1.8947456537e-01    0.1566325   0.09248281 -51.22 0.0008091279    2.560    0.609
        22  -9.8603     77.8059    185.5045   1.0141041300e+02   2.5918789124e+01    0.3093967    0.2501571 -34.42  0.001289506    1.421    0.297
        23  -8.2722    156.5005    184.6125   8.1473409758e+01   1.3758686999e+01    0.1412771    0.1263061   8.89 0.0001989067    1.027    0.027
        24  -9.1936    241.7938    181.9942   6.4512600097e+01   1.3654796094e+00    0.1840836    0.1325427 -52.97  0.001075426    2.005    0.501
        25  -9.4410    231.9632    179.1469   6.5583648783e+01   3.1124500369e+00    0.1696966    0.1479366  72.57 0.0009834527    2.000    0.500
        26  -8.6149    238.2945    170.6671   6.2963635953e+01   3.5582614901e+00    0.1135359   0.09251805 -52.88  0.000305447    1.639    0.390
        27  -9.4464    247.2638    169.5834   6.1368751161e+01   2.5101378924e+00    0.2047938    0.1166449  42.89   0.00115007    2.207    0.547
        28  -8.6329     67.2427    166.5893   1.0165956239e+02   3.1961107494e+01    0.1839817    0.1393144  14.06 0.0003283978    1.503    0.335
        29  -8.9204    213.3284    164.3296   6.5931980848e+01   8.2560196443e+00    0.1384828    0.0933661  -6.90  0.000705129    1.710    0.415
        30  -9.2580    237.8982    159.1626   6.0827430489e+01   5.4096304339e+00    0.1860431    0.1578088 -41.16 0.0007794517    1.292    0.226
        31  -9.3913    246.0205    158.0291   5.9375106462e+01   4.4347966379e+00    0.1863867    0.1429814 -55.92  0.001147161    1.742    0.426
        32  -9.0265    233.9370    154.3045   6.0498430234e+01   6.7612772420e+00    0.2259523    0.1658637 -52.71  0.001319914    1.645    0.392
        33  -8.2055    212.3165    155.6863   6.4374223687e+01   9.8958193409e+00    0.1243335    0.1048209 -66.99 0.0006631965    1.644    0.392
        34  -9.1779    250.0115    152.2999   5.7697652468e+01   4.7530669326e+00    0.1650506    0.1405251 -18.79 0.0006168239    1.097    0.088
        35  -8.3096    221.4784    151.9667   6.2047994752e+01   9.0596829475e+00    0.1775673    0.1041072 -55.76 0.0008085066    2.421    0.587
        36 -10.6789    244.0336    149.2209   5.7970649804e+01   6.0775702208e+00    0.3169761    0.2049564 -54.51  0.001740123    1.999    0.500
        37 -10.6552    235.7552    147.9529   5.8961848039e+01   7.5044166677e+00    0.3101805    0.2672721 -84.00  0.001490665    1.760    0.432
        38 -10.0805    242.7573    134.3096   5.5215727660e+01   8.5966406188e+00    0.3893311    0.1641505 -46.58  0.001753503    2.346    0.574
        39  -9.4271    249.4202    147.7409   5.6906587495e+01   5.5316710345e+00    0.2232746    0.1216266 -42.39 0.0006456611    1.618    0.382
        40  -9.9128    247.2279    144.2011   5.6532048711e+01   6.3905924279e+00    0.2205666    0.1880383 -55.80 0.0009870146    1.442    0.307
        41 -10.4623    243.6927    140.3447   5.6280312624e+01   7.5109984218e+00    0.3225778    0.1841818 -35.92  0.001782809    1.431    0.301
        42  -9.3249    224.0236    147.2088   6.0663797707e+01   9.4486629794e+00    0.1898872    0.1542497  88.94  0.001069523    2.011    0.503
        43  -9.8547    230.1910    141.1224   5.8447141971e+01   9.4698834077e+00    0.3320532    0.1210434 -47.99  0.001249616    3.199    0.687
        44  -9.1905    248.9634    135.9737   5.4681738110e+01   7.4020401574e+00    0.1876617      0.13802 -58.67 0.0008079012    1.712    0.416
        45  -9.9358    235.7008    136.0936   5.6593675999e+01   9.4115692164e+00    0.2544557    0.1928234  70.60  0.001474487    2.021    0.505
        46  -9.2068    250.4768    140.9749   5.5449394617e+01   6.4140984953e+00    0.1956662   0.09854618 -38.08  0.001031056    1.601    0.375
        47 -10.7591    248.4378    130.0578   5.3588187191e+01   8.3897483184e+00    0.3598334    0.2763255 -71.13  0.002196138    1.875    0.467
        48  -8.1778     69.7412    128.6871   9.4326239397e+01   4.1253758127e+01    0.1507576    0.1102965 -31.40 0.0002182749    1.531    0.347
        49 -10.8078    241.1635    126.6443   5.3899307342e+01   1.0047062506e+01    0.3329558    0.2324797 -53.96   0.00166941    1.568    0.362
        50  -8.7934    227.6865    125.3614   5.5575867955e+01   1.2456965455e+01    0.1319577   0.09389111 -61.02 0.0007041828    1.754    0.430
        51  -9.9565     18.4551    119.0366   1.1043732574e+02   4.9413745697e+01     0.250727    0.2163862 -83.62 0.0003982754    1.107    0.096
        52 -10.3995    248.0803    119.3062   5.1496935080e+01   1.0093327229e+01    0.2907934    0.1688498 -51.50   0.00157498    1.785    0.440
        53  -9.2827     56.7893    108.1576   9.4449327438e+01   4.8265210972e+01    0.2691307    0.1849971 -51.20 0.0006330372    1.361    0.265
        54  -8.9598    236.5192    108.4275   5.0787550293e+01   1.3665026548e+01    0.1267561     0.106028 -41.38 4.318948e-05    1.029    0.029
        55  -9.5175     62.8267    108.3142   9.2284115243e+01   4.7392619865e+01    0.2366127     0.188434  50.46  0.001191482    1.393    0.282
        56  -9.3691     42.8943    106.8388   9.9353418425e+01   5.0301063659e+01    0.2201483    0.1769967 -34.31 0.0003670685    1.242    0.195
        57  -9.0755      7.3383    105.1979   1.1263664014e+02   5.3680766666e+01    0.1990265    0.1672879 -31.18 0.0004722047    1.238    0.192
        58  -9.2049    229.8651    102.9045   5.0510058902e+01   1.5688493204e+01    0.2471653    0.1520913 -42.80  0.001344253    1.380    0.275
        59  -8.5372      9.5647     99.5405   1.1098562448e+02   5.4984603913e+01    0.1341504    0.1138086 -58.38 0.0002159991    1.021    0.020
        60  -9.8585    248.3777    107.1730   4.9022886031e+01   1.1887246966e+01    0.1874343   0.09088429 -44.50 0.0009518863    1.734    0.423
        61  -8.4540    241.2640     97.3374   4.7881097675e+01   1.4554900257e+01     0.118605   0.09015698 -13.90  0.000462473    1.588    0.370
        62  -8.1727    221.3232     97.6786   5.0544403806e+01   1.8071257826e+01    0.1343966   0.09265374 -63.58 0.0006429424    1.677    0.404
        63  -8.2088     30.3486     97.2992   1.0230890227e+02   5.3989352014e+01    0.1498735   0.09353523 -32.71 0.0007036764    1.686    0.407
        64  -9.1858    248.9209     93.1133   4.6119029901e+01   1.3886799769e+01     0.196078    0.1268037 -71.21  0.001083878    2.069    0.517
        65  -8.2603     90.4889     93.4714   7.8685548452e+01   4.6319400737e+01    0.1513221    0.1462967  -6.90 0.0001070011    1.002    0.002
        66 -10.2930     24.4959     90.3185   1.0329849765e+02   5.6242538802e+01    0.3453998    0.2128656 -35.80  0.001504082    1.605    0.377
        67  -9.7425    236.5202     89.0562   4.6724601050e+01   1.6627798962e+01    0.4229045    0.1417182 -50.95  0.001542653    3.573    0.720
        68  -8.4629     21.6874     87.3647   1.0388428253e+02   5.7198553713e+01    0.1829952    0.1323668  37.66 0.0005179152    1.568    0.362
        69  -8.2928    249.6444     88.3165   4.5069033878e+01   1.4463454668e+01    0.1261374   0.07941941 -61.44 0.0007045436    1.746    0.427
        70  -8.8062    226.4034     88.1850   4.7788821553e+01   1.8604198971e+01    0.1943018    0.0987395 -46.42 0.0009454347    1.733    0.423
        71  -9.0835     53.3290     88.9577   9.1087018366e+01   5.3431669304e+01    0.2086934    0.1804579 -44.19 0.0006214736    1.088    0.081
        72  -8.2382    221.1372     85.8805   4.7962059805e+01   1.9952140270e+01    0.1632396     0.145086 -13.34 0.0003818189    1.303    0.233
        73  -9.2817    230.4950     81.8959   4.5921143233e+01   1.8790754820e+01    0.3272036    0.1290739 -48.73  0.001409735    2.403    0.584
        74  -8.7273     76.9312     83.5533   8.0484058519e+01   5.0993191057e+01    0.2076423    0.1293319   9.26 0.0008064955    2.422    0.587
        75  -8.3075    113.6994     82.6253   6.8255118853e+01   4.3877243493e+01    0.1582911     0.119597  -0.19 0.0007028321    1.755    0.430
        76  -8.6324     31.8060     82.1164   9.8345282364e+01   5.7581138001e+01    0.2004305    0.1451955 -31.96 0.0008556062    1.333    0.250
        77  -8.7609     95.1259     79.1233   7.2831185356e+01   4.8483848924e+01    0.2238081    0.1965881   5.24 0.0003020872    1.198    0.165
        78  -8.8119    243.0000     82.9899   4.4712807020e+01   1.6375072804e+01    0.2042849   0.05874995 -36.66 0.0007936995    2.882    0.653
        79  -8.0764    159.4561     77.4926   5.5803396433e+01   3.4448352693e+01    0.1450954    0.1366013 -70.22  0.000808554    1.047    0.045
        80  -9.5402     37.5259     76.3026   9.4335805986e+01   5.8355630773e+01     0.339183     0.151953  35.34  0.001423073    2.365    0.577
        81  -8.8233    248.5316     74.0268   4.2296004839e+01   1.6683002504e+01    0.1819663   0.07197201 -51.94 0.0008094038    2.515    0.602
        82  -8.6533    195.7116     72.5983   4.8373316830e+01   2.7161009100e+01    0.2381847    0.1401511 -53.52  0.001144068    1.712    0.416
        83  -8.1114    239.3232     72.6627   4.2967001187e+01   1.8508421580e+01     0.130582   0.07857875 -60.56 0.0005581543    1.716    0.417
        84  -9.3852     61.5776     69.9233   8.2106951417e+01   5.6515530985e+01    0.3294806    0.2123861  -5.49  0.001079068    2.179    0.541
        85  -8.3418    102.2146     69.0146   6.7330232636e+01   4.8977775936e+01    0.1991081    0.1203228 -39.46  0.000870115    1.697    0.411
        86  -8.2389    119.6818     64.7485   6.1012240916e+01   4.5848201247e+01     0.145716    0.1111319  24.43 0.0002428416    1.530    0.346
        87  -9.3310     75.0237     61.3226   7.3882560263e+01   5.5917384646e+01    0.3122807     0.205525  32.92  0.001499023    1.506    0.336
        88  -9.6191     22.3843     60.4223   9.7014470428e+01   6.3473723766e+01     0.384524    0.1618687 -40.14  0.001522884    2.196    0.545
        89  -9.6564    238.9700     60.4723   4.0460334345e+01   2.0257431743e+01    0.1611223    0.1156353  76.07  0.000670803    1.550    0.355
        90  -9.8765    248.2968     56.9815   3.8879263756e+01   1.9030858976e+01    0.3303534    0.1386726  61.17  0.001507103    2.701    0.630
        91  -8.5963     50.0007     56.4804   8.2455549764e+01   6.1056226930e+01     0.197203     0.114747   5.08 0.0008015739    2.498    0.600
        92  -8.9262     10.2753     55.8378   1.0196494457e+02   6.5416666914e+01    0.2451347    0.1271233 -24.93 0.0009639527    1.985    0.496
        93  -9.5384    241.7256     54.7797   3.9023277009e+01   2.0507756812e+01    0.2806855    0.1272649 -86.98  0.001104127    4.292    0.767
        94  -8.9110    249.6755     52.5141   3.7865910391e+01   1.9365817929e+01    0.2140193    0.1033392 -51.64  0.001084706    1.751    0.429
        95  -8.2766    107.4910     51.4654   5.9812476513e+01   5.0823409137e+01    0.1435486    0.1348468  40.05 3.543062e-05    1.002    0.002
        96  -8.4641     62.3591     51.2996   7.5169939554e+01   6.0067434658e+01    0.1470163    0.1028699   2.11 0.0007035939    1.712    0.416
        97  -9.2183    101.4612     49.8004   6.0922947700e+01   5.2446482297e+01    0.2462179    0.1853032  47.72 0.0003992531    1.250    0.200
        98  -8.8450     43.7801     50.0336   8.2967366351e+01   6.3217155241e+01    0.1770247    0.1050355 -45.73 0.0004547595    1.655    0.396
        99  -9.8664    246.7949     47.6779   3.7140766569e+01   2.0498985044e+01    0.3098412    0.1380189 -73.03  0.001325547    3.572    0.720
       100  -8.4916     79.4937     48.5043   6.7497277432e+01   5.7340626127e+01     0.142884    0.1287149  16.56 -2.396567e-05    1.033    0.032
       101  -8.5686     88.4936     46.4968   6.3673946557e+01   5.5801810745e+01     0.142118    0.1304774  26.19 6.303865e-05    1.006    0.006
       102 -10.6005    237.9665     40.7708   3.6469171705e+01   2.2994206401e+01    0.3874723    0.1270173 -36.90  0.001774269    2.481    0.597
       103 -11.1169    246.8123     33.1055   3.4239546621e+01   2.2278443792e+01    0.3302788    0.1903886 -51.90  0.001145373    1.378    0.274
       104  -8.4142    121.4262     39.5062   5.2194328959e+01   4.9301379190e+01    0.1384666    0.1295947  55.12 0.0002651036    1.016    0.016
       105  -8.8610     93.2036     37.4675   5.8745493523e+01   5.6120104302e+01    0.1972521    0.1308773  64.97 0.0006105625    1.720    0.418
       106  -8.8249    219.4824     35.4573   3.6936001230e+01   2.7271060814e+01    0.1236453   0.09938549 -63.56 2.025351e-05    1.039    0.038
       107  -8.5981     85.5230     33.9877   5.9725701967e+01   5.8285901468e+01    0.1914051    0.1352886 -29.93 0.0004386423    1.511    0.338
       108  -8.0197    157.6880     31.7333   4.3123680432e+01   4.1540681567e+01    0.1302201   0.09686372  41.40 0.0002105677    1.543    0.352
       109  -8.9192    127.5221     31.2560   4.8124151255e+01   4.8885290226e+01    0.2981315    0.1623944  76.06  0.001287436    2.150    0.535
       110 -10.5748     30.4543     28.3802   8.0840816361e+01   6.8943918168e+01    0.2520854    0.1972889  -8.48 0.0007084332    1.118    0.105
       111  -9.9302    242.6866    244.8672   7.4965458068e+01  -7.3363424114e+00    0.2537348    0.1045834 -29.08  0.001009892    2.148    0.535
       112  -8.4311     42.4305     27.5291   7.4132678633e+01   6.7369814426e+01    0.1303996    0.1099729   3.37 9.051245e-05    1.009    0.009
       113  -9.8784    250.3147     25.7415   3.2562511082e+01   2.2496255719e+01    0.2181831    0.0974436 -45.43  0.001246899    1.703    0.413
       114  -8.9279    209.9567     25.9866   3.5671634853e+01   3.0362201579e+01    0.1825087    0.1480893 -68.14 0.0003439639    1.033    0.031
       115  -8.3629     68.4977     25.4784   6.1924075605e+01   6.2979198978e+01    0.1331898    0.1180087  26.86 0.0008100169    1.037    0.035
       116  -9.1550     84.8030     21.7644   5.4892624412e+01   5.9986147616e+01    0.1709332    0.1578115 -81.39 0.0005751333    1.316    0.240
       117  -8.9305    168.0691    249.5154   8.9393686018e+01   7.0866733334e-01    0.1831429   0.09935193  28.08 0.0005279612    1.532    0.347
       118  -7.9345     88.2964     20.3339   5.3284889805e+01   5.9369479010e+01     0.139771   0.09214916  27.60 0.0002989809    1.645    0.392
       119  -9.0060      9.8142     18.2479   8.8801531534e+01   7.2955521374e+01    0.1663893    0.1418182  -3.16 0.0004423637    1.166    0.142
       120  -8.6117     23.4885     15.5092   7.8574337648e+01   7.1904152599e+01    0.1239435    0.1002421  -1.23 0.0002895027    1.015    0.015
       121  -8.3759    102.3808     13.2546   4.6910456324e+01   5.6850981621e+01    0.1418679   0.08336654  41.21 0.0006964232    1.662    0.398
       122  -8.4981     80.7264     12.6854   5.2170010133e+01   6.1863807011e+01    0.1907552    0.0969779 -39.48 0.0008912208    2.332    0.571
       123  -8.1177     13.3066     13.3781   8.4003786033e+01   7.3423438492e+01    0.1309921   0.07523721 -15.70 0.0007027218    1.780    0.438
       124  -9.1496    147.0970    247.2820   9.3389583776e+01   3.7825275603e+00     0.181412    0.1330896  24.76 0.0008438539    1.119    0.106
       125  -9.1387     46.4858    247.5126   1.1497123577e+02   1.6386800571e+01    0.1179735   0.09615412  49.60 0.0008103031    1.021    0.020
       126  -9.3395    238.0704    245.0797   7.5766862435e+01  -6.8860632445e+00    0.1417281    0.1283749  -5.83 0.0006163548    1.651    0.394
       127  -9.9638    248.4041    238.7399   7.3079535491e+01  -7.1698311696e+00    0.2206361    0.1251649 -43.03 0.0007799427    2.389    0.581
       128  -8.7673    240.3675    240.2702   7.4639246908e+01  -6.5284976889e+00    0.1651872    0.1249904  31.90 0.0007503704    1.784    0.439
       129  -9.3008    243.6595    236.1803   7.3452648279e+01  -6.3608237210e+00    0.2084723    0.1226121 -39.59  0.001082127    1.967    0.492
       130 -10.1076    203.9702    232.7173   7.9895062215e+01  -1.3455455213e+00    0.1961997    0.1660828   3.40 0.0003877777    1.189    0.159
       131 -10.1996    247.8843    231.2569   7.1980226671e+01  -6.1825444469e+00    0.3286811    0.1411028  31.54  0.001853436    2.370    0.578
       132  -9.2027     59.8510    213.3758   1.0920540610e+02   2.1856916852e+01    0.2056405    0.1499041 -65.04 0.0009541402    1.464    0.317
