#   1 NUMBER                 Running object number                                     
#   2 MAG_AUTO               Kron-like elliptical aperture magnitude                    [mag]
#   3 X_IMAGE                Object position along x                                    [pixel]
#   4 Y_IMAGE                Object position along y                                    [pixel]
#   5 X_WORLD                Barycenter position along world x axis                     [deg]
#   6 Y_WORLD                Barycenter position along world y axis                     [deg]
#   7 A_WORLD                Profile RMS along major axis (world units)                 [deg]
#   8 B_WORLD                Profile RMS along minor axis (world units)                 [deg]
#   9 THETA_WORLD            Position angle (CCW/world-x)                               [deg]
#  10 FWHM_WORLD             FWHM assuming a gaussian core                              [deg]
#  11 ELONGATION             A_IMAGE/B_IMAGE                                           
#  12 ELLIPTICITY            1 - B_IMAGE/A_IMAGE                                       
         1 -18.5319    242.0026    113.4505   8.4714031218e+00   1.3227502445e+01     8.007096     1.936848 -36.44   0.03093827    3.215    0.689
         2 -15.2392    247.8594     17.6214   3.4853894205e+02   2.4637337417e+01     1.677712    0.5626399 -29.22   0.00810267    2.799    0.643
         3 -15.7597    131.9705     80.7649   1.8517194211e+01   3.9925769657e+01     1.646418     1.320563 -40.93  0.008393188    1.227    0.185
         4 -15.5986    126.2853     69.6486   1.6441763664e+01   4.3326601874e+01     1.809835     1.214137  15.65   0.00715491    2.738    0.635
         5 -12.6568    202.6596     25.8674   3.5305504629e+02   3.2255731077e+01    0.3879255    0.2547941 -64.73  0.002003839    1.327    0.247
         6 -11.8934    147.4912    231.0081   4.5732472631e+01   7.3101791941e+00    0.3977568    0.1922465  34.35  0.001839282    1.859    0.462
         7 -12.4389    204.6115    250.2615   3.7637180460e+01  -1.6331256136e+00    0.4183609    0.1435985  23.84  0.001496085    2.665    0.625
         8 -13.3542    196.6964    243.4765   3.8074610212e+01   6.8917724077e-03    0.5986425    0.3132587  33.14  0.002911209    1.965    0.491
         9 -13.3335    187.5630    236.4329   3.8720689032e+01   1.9059281217e+00    0.9598422    0.5428011  44.01  0.005315125    2.711    0.631
        10 -15.2717    172.6289    239.7936   4.1950002111e+01   3.0653029236e+00     2.760398    0.8767787  37.11   0.01219761    3.251    0.692
        11 -14.2615    167.3379    249.4648   4.4219579906e+01   2.2781435218e+00     1.059918    0.3842619  28.24  0.005173946    2.302    0.566
        12 -15.1760    146.8567    248.8389   4.8120121958e+01   4.6186526861e+00     2.140013    0.5572089  29.61  0.008899002    3.099    0.677
        13 -14.2020    122.2475    246.6678   5.2908185501e+01   7.7593173993e+00    0.7795787    0.4728035  24.70  0.004700377    1.347    0.257
        14 -16.2109    120.7285    237.3323   5.2173556413e+01   9.4842704369e+00     2.846417     1.562565  26.49   0.01543363    1.526    0.345
        15 -11.5454     35.4262    207.5936   6.9588214778e+01   2.5335197828e+01    0.4465429    0.2354625  30.35  0.002260253    1.650    0.394
        16 -12.9138     34.0477    184.1522   6.8217425064e+01   3.0996145839e+01     1.237195    0.2486326  22.89  0.003551318    4.939    0.798
        17 -12.8599     68.0988    213.7202   6.1860327787e+01   2.0391574810e+01    0.5439377    0.4202052 -20.23   0.00313054    1.635    0.389
        18 -12.4875     59.3452    202.9176   6.3048375305e+01   2.3785984383e+01    0.6387987    0.2752925  25.67  0.002736634    2.180    0.541
        19 -12.0308     35.4158    215.6247   7.0119989318e+01   2.3559692082e+01    0.6545228    0.3632422   6.93  0.003111285    2.431    0.589
        20 -12.1252     51.5535    198.5568   6.4684231521e+01   2.5675565602e+01    0.3931129    0.2247806  42.53  0.001430987    1.525    0.344
        21 -13.6389     39.8678    191.4518   6.7205723283e+01   2.8623953840e+01     1.119386     0.444731  27.89  0.004697929    2.250    0.556
        22 -14.6262     52.5037    220.6957   6.6295263248e+01   2.0686119916e+01     1.880881    0.6661105  29.49  0.008112519    2.297    0.565
        23 -11.3418     73.6416    230.6501   6.2091116720e+01   1.6294712918e+01    0.2018687    0.1953332 -64.73 0.0009597426    1.223    0.182
        24 -11.8761     24.8246    227.4004   7.3320711277e+01   2.2082717358e+01    0.5051119     0.194973 -71.73  0.002402192    2.748    0.636
        25 -11.2460    221.7666    227.7389   3.1597837147e+01  -4.9138154716e-01    0.2728716    0.1645521  -7.44  0.001828761    1.457    0.314
        26 -11.3978    216.6129    224.1588   3.1900514566e+01   4.9253637679e-01    0.3153043     0.237416 -53.02  0.002090413    2.351    0.575
        27 -11.0979     93.2429    228.3702   5.7317208227e+01   1.4417995862e+01    0.2184031    0.1338273  25.71 0.0006403969    1.419    0.295
        28 -14.6358     48.2518    204.8682   6.6094237229e+01   2.4600947791e+01      3.09881    0.5154591  39.05   0.01012255    3.713    0.731
        29 -11.5882    247.7333    226.4903   2.7435508985e+01  -2.7929671956e+00    0.2367229    0.1665767 -38.63  0.001780226    1.841    0.457
        30 -11.6962     50.7124    231.4217   6.7509777554e+01   1.8677546285e+01    0.3084992    0.2456702  16.23  0.001983789    1.313    0.238
        31 -11.1767    176.3228    226.7761   3.9429846334e+01   4.5493559195e+00     0.234954    0.1317984  18.58 0.0009096745    1.638    0.389
        32 -10.9351    153.5933    227.6609   4.4029887232e+01   7.1116160289e+00    0.2041197   0.09711297  29.56  0.001047711    1.835    0.455
        33 -11.0866    140.2491    227.2028   4.6736744731e+01   8.8204920846e+00    0.2405307     0.150291  31.63 0.0009132044    1.420    0.296
        34 -10.7725    220.6139    243.7820   3.4099670493e+01  -2.3632347423e+00    0.1540849   0.09997538  19.56 0.0007499955    1.410    0.291
        35 -10.9257    186.0576    225.9468   3.7488930203e+01   3.5550628700e+00    0.2627256    0.1261843  14.76   0.00132746    2.307    0.567
        36 -11.6931    165.4580    225.0301   4.1281718632e+01   6.0975060130e+00    0.3238444    0.1553922  28.23  0.001692812    1.858    0.462
        37 -12.7612     45.6595    211.7085   6.7297242323e+01   2.3356820238e+01    0.9359703    0.1940998  34.27  0.003372121    3.137    0.681
        38 -10.9667    249.9549    234.6682   2.8312088940e+01  -3.9299817497e+00    0.1843035    0.1172765 -40.51  0.001324154    2.084    0.520
        39 -10.8112    193.3889    223.2310   3.5753537160e+01   3.1189531354e+00    0.1755638    0.1317191  37.46  0.001171568    1.711    0.416
        40 -11.1266    156.9900    223.4707   4.2753505125e+01   7.3725944483e+00    0.2719012   0.09585623  35.49  0.001195424    2.608    0.617
        41 -10.4953     82.7667    223.3877   5.9254035018e+01   1.6650809722e+01    0.1762144    0.1107316  18.76 0.0006398821    1.568    0.362
        42 -11.3958    238.2209    219.5851   2.7803213149e+01  -1.0766961648e+00    0.4111138    0.1775643 -42.10  0.002310018    2.553    0.608
        43 -11.5967    217.9388    212.0255   2.9812751012e+01   1.9765364136e+00    0.3439916    0.1802428 -20.20  0.001993399    1.830    0.454
        44 -11.7631    220.7991    219.5170   3.0512340581e+01   6.7059444632e-01    0.4749829    0.3415834  59.99  0.002382127    4.798    0.792
        45 -11.5273    227.2389    221.9735   2.9859097011e+01  -3.0141323642e-01    0.2115417     0.158798 -21.93  0.001259484    1.230    0.187
        46 -11.8555    227.0049    217.7864   2.9255498033e+01   2.6046967623e-01    0.3039964    0.1589108 -20.38  0.001711011    1.720    0.419
        47 -11.7185    150.7059    220.4316   4.3612434950e+01   8.6526429639e+00    0.3746221     0.172955  35.67   0.00185164    2.018    0.504
        48 -12.3817    247.9778    216.3611   2.5871676782e+01  -1.6066645002e+00    0.5036379    0.1755148 -36.38  0.002770894    2.388    0.581
        49 -11.0295    183.9142    220.5030   3.7076462828e+01   4.6018281383e+00    0.3067324    0.1014094  31.55   0.00137863    2.812    0.644
        50 -10.5826    176.5217    220.5097   3.8471983061e+01   5.4732525365e+00    0.1214124     0.095863  -1.20 0.0006151454    1.039    0.037
        51 -11.0542    142.5235    220.1321   4.5291896069e+01   9.7374389326e+00    0.2644576    0.1322248  41.12  0.001295981    2.101    0.524
        52 -10.9509    193.2980    217.9541   3.4970609105e+01   3.8902787805e+00    0.1657285    0.1214309 -18.78 0.0007288727    1.172    0.147
        53 -12.1062    205.0971    238.1098   3.5873263355e+01  -1.4970671021e-01    0.3040476    0.2113944 -18.94  0.001247016    1.217    0.179
        54 -10.7819    160.4880    216.8903   4.1090415361e+01   8.0104895050e+00    0.2522285    0.1379551  14.59 0.0009449907    1.958    0.489
        55 -11.1599    202.0244    218.3375   3.3483440783e+01   2.8479881564e+00    0.2270579     0.138657 -26.16  0.001419543    1.440    0.306
        56 -11.2769    121.3440    216.9471   4.9514480988e+01   1.3034801583e+01    0.2109322    0.1583194  36.18 0.0006626303    1.250    0.200
        57 -11.2422     10.4893    217.2192   7.6252907877e+01   2.5516706765e+01    0.2272025    0.1533297  33.32  0.001231036    1.300    0.231
        58 -10.5152     80.4976    246.4668   6.1912722780e+01   1.2566723394e+01    0.1220777   0.09681883  34.42 0.0002794545    1.032    0.031
        59 -10.7249     86.5716    216.5081   5.7620666810e+01   1.7567840425e+01    0.1298868    0.1133787  34.88 0.0001170168    1.019    0.018
        60 -10.8895     83.1825    215.7665   5.8361714970e+01   1.8139105880e+01    0.2149099    0.1473083   6.70  0.000641659    1.692    0.409
        61 -11.3330    232.5970    212.6721   2.7590680391e+01   3.5454237541e-01    0.3685614    0.1881226 -34.45  0.002131776    1.676    0.403
        62 -10.6025    125.3199    215.4016   4.8410288893e+01   1.2803261128e+01    0.1853921    0.1042911  37.37 0.0009443244    1.641    0.391
        63 -10.8385    172.5499    213.5937   3.8193901489e+01   7.0369169706e+00    0.2289418    0.1277895   3.24  0.001124376    2.273    0.560
        64 -11.0747    145.8827    213.5613   4.3639043828e+01   1.0444586028e+01    0.3163234    0.1074172  32.74  0.001307269    2.619    0.618
        65 -11.0539    134.4712    213.1049   4.6051279872e+01   1.2022423978e+01    0.2698779    0.1424328  33.33  0.001167928    1.698    0.411
        66 -11.0321    229.7716    238.2769   3.1866445336e+01  -2.5540292232e+00    0.1958576     0.102176  -0.42  0.001219274    1.914    0.477
        67 -11.3082     97.9011    212.0747   5.4376993386e+01   1.7030000218e+01    0.2440882    0.1948946  47.35  0.001009825    1.246    0.197
        68 -10.6440    119.1340    212.3318   4.9404726425e+01   1.4194574043e+01    0.1854534    0.1026146  36.52 0.0005940566    1.633    0.388
        69 -11.2438     27.0439    211.5131   7.1943422244e+01   2.5280550801e+01    0.2275888    0.1687728 -55.33  0.001360166    1.608    0.378
        70 -11.1649     20.1845    211.1604   7.3626642984e+01   2.5995756383e+01    0.2053871    0.1647818 -72.15  0.001163928    1.385    0.278
        71 -11.9974    240.6297    208.9951   2.5801076662e+01   1.8208692533e-02    0.3258389    0.1775091 -45.49   0.00175054    2.431    0.589
        72 -10.5814    155.9938    211.7650   4.1246236749e+01   9.4402545508e+00     0.170948   0.09397329  28.41 0.0008897891    1.660    0.398
        73 -10.9824     82.3844    210.3083   5.7964028301e+01   1.9373619622e+01    0.2067326    0.1638578  89.53 0.0009351326    1.484    0.326
        74 -11.4271     91.3046    237.5798   5.8693580581e+01   1.2934905419e+01    0.2382614     0.167821  41.03 0.0008206598    1.263    0.208
        75 -10.8161    107.9760    209.5556   5.1648876296e+01   1.6215577573e+01    0.1986089    0.1170074  28.19 0.0005464201    1.518    0.341
        76 -14.3236    243.5620    189.1274   2.2150672766e+01   2.3058204990e+00     1.803343    0.4965525 -42.14  0.007629249    3.660    0.727
        77 -11.5919    213.5340    244.2825   3.5324703810e+01  -1.7554638318e+00    0.2859272    0.2017664 -47.44   0.00197953    2.267    0.559
        78 -10.9079     23.6806    203.2386   7.2316312712e+01   2.7463259256e+01     0.385879    0.1616022  20.22  0.001682027    2.462    0.594
        79 -11.2665     72.6917    201.5984   5.9457590612e+01   2.2470829618e+01    0.2518682    0.1984895  66.91 0.0007864329    1.340    0.254
        80 -10.8254     78.2154    237.4640   6.1643357209e+01   1.4468963285e+01    0.1706482   0.09265517  37.98 0.0006151862    1.502    0.334
        81 -11.4850    228.9221    201.0493   2.6301806397e+01   2.2814597178e+00    0.2751059    0.1277377 -29.20  0.001278897    1.831    0.454
        82 -10.8158    210.4504    199.9784   2.9111253865e+01   4.5188504532e+00    0.1760217   0.09608667 -33.24  0.001020181    1.589    0.371
        83 -10.2201     99.4727    200.4586   5.2521980546e+01   1.9223657670e+01    0.1351016    0.1220956  25.95 0.0001037236    1.011    0.011
        84 -10.3858    134.3584    199.7479   4.4110123056e+01   1.4530997592e+01     0.129385   0.09640386  51.05 0.0004324484    1.610    0.379
        85 -10.9989     63.1652    196.7771   6.1434977831e+01   2.4729134202e+01    0.2150105    0.1604388  52.03 0.0006563351    1.257    0.205
        86 -10.7355     84.0537    199.9837   5.6351251681e+01   2.1378816203e+01    0.2164847    0.1462948  58.58 0.0007261833    1.642    0.391
        87 -11.2655      1.8983    195.8115   7.7566171579e+01   3.1025239399e+01    0.2166834    0.1650546  84.78  0.001035971    1.228    0.186
        88 -11.1724     87.0788    248.2598   6.0623798765e+01   1.1513964223e+01    0.2282452    0.1642263  36.23  0.001481668    1.146    0.128
        89 -10.4492     76.9825    194.2507   5.7498597750e+01   2.3576813894e+01    0.1769412    0.1084224  30.38 0.0004430148    1.487    0.328
        90 -11.1740    209.6182    231.6939   3.4182960014e+01   2.2385181326e-01    0.2794713    0.2276499  69.75  0.001642669    3.652    0.726
        91 -12.3897    195.9160    231.2455   3.6483948088e+01   1.7205406685e+00    0.3719075    0.2673641  33.68  0.002555974    1.656    0.396
        92 -11.0901    224.3755    192.3052   2.5563519277e+01   4.0023920416e+00    0.2713194    0.1329875 -29.93  0.001203273    1.732    0.423
        93 -11.9448     68.6512    190.7326   5.9307652404e+01   2.5451347178e+01    0.3161792    0.2301974  66.10   0.00112408    1.470    0.320
        94 -11.2902     51.1048    191.8771   6.4184171642e+01   2.7289497929e+01    0.2177321    0.1603679  53.11 0.0006179808    1.251    0.201
        95 -12.0661     60.4799    234.2836   6.5449600664e+01   1.7060557703e+01     0.574321    0.3411504 -53.10  0.003232417    2.023    0.506
        96 -10.8951    235.4649    227.0257   2.9342863446e+01  -1.7289165570e+00    0.2192531   0.08319689 -35.60  0.001234711    2.262    0.558
        97 -10.7496     81.1676    189.6450   5.5821149591e+01   2.4076897487e+01    0.2236076    0.1495828  46.74  0.000728035    1.437    0.304
        98 -10.9668      2.6771    188.1160   7.7067075243e+01   3.2787880591e+01    0.2229887    0.1472441  40.43 0.0007614168    1.325    0.245
        99 -10.7395     59.1846    186.8028   6.1453303063e+01   2.7550129308e+01    0.1766886    0.1610504 -14.39 0.0005120445    1.270    0.213
       100 -10.4477     47.3192    187.2945   6.4788666954e+01   2.8813782543e+01    0.1327895    0.1037819 -28.01 0.0005309476    1.609    0.379
       101 -11.0354     22.5798    186.1249   7.1556753895e+01   3.1617509497e+01     0.261387    0.1863035  15.88  0.001433436    1.543    0.352
       102 -12.2415    225.4101    173.4373   2.2129873459e+01   6.6082989737e+00    0.4175484    0.2504688 -38.97  0.001833445    1.486    0.327
       103 -10.6511    223.7194    183.5454   2.4170095214e+01   5.3354401462e+00     0.260838    0.1493061 -34.26  0.001144317    1.457    0.314
       104 -11.5159    225.5267    179.0757   2.3109916867e+01   5.7673794156e+00    0.2453706    0.1163428 -38.55 0.0008705143    1.805    0.446
       105 -10.8820     70.1688    182.7646   5.7942899787e+01   2.7139134810e+01     0.220283    0.1742803  54.65 0.0007467058    1.229    0.187
       106 -11.4667    230.3058    180.3476   2.2603172501e+01   5.0113063239e+00    0.2557049    0.1232125 -32.32  0.001031431    1.698    0.411
       107 -11.7458     57.9584    180.0491   6.1049066386e+01   2.9335933734e+01    0.3275031    0.2321358  57.52 0.0008800948    1.394    0.283
       108 -10.8748     48.4815    181.0248   6.3849131247e+01   3.0213476280e+01    0.2145321    0.1762599  36.62 0.0006003222    1.145    0.127
       109 -10.8394     10.7023    181.5887   7.4580661142e+01   3.3752494460e+01    0.2330053    0.1271711  15.45  0.001122124    2.038    0.509
       110 -11.2597    219.4998    177.6785   2.3806125532e+01   6.7168002115e+00    0.3193086   0.09865364 -39.83  0.001371933    2.779    0.640
       111 -11.3487     36.2002    179.2292   6.7192250862e+01   3.1995237942e+01    0.2403369     0.162994  23.91  0.001075682    1.490    0.329
       112 -11.0928     21.9949    179.3643   7.1267284869e+01   3.3339366689e+01    0.3179777    0.1505851  24.01  0.001039118    2.062    0.515
       113 -10.8204     43.9903    178.2891   6.4863247212e+01   3.1396407055e+01    0.1955764    0.1705418  39.90  0.000561002    1.096    0.088
       114 -10.2818     66.7074    177.3005   5.8233088903e+01   2.8909944133e+01    0.1476713   0.09973931  59.87 0.0002841117    1.568    0.362
       115 -11.3374     28.5942    177.4129   6.9231414386e+01   3.3211050623e+01     0.326035    0.1412377  29.83  0.001404053    2.071    0.517
       116 -10.8216     61.4060    176.1792   5.9610814763e+01   2.9862277166e+01    0.1925633    0.1322755  89.45 0.0005134986    1.627    0.385
       117 -10.4530     49.0074    175.2597   6.3098031403e+01   3.1587953862e+01    0.1789662    0.1162992  28.48 0.0005121597    1.487    0.327
       118 -10.9595     39.4991    174.3573   6.5789241108e+01   3.2873125189e+01    0.2288448     0.126927  25.37 0.0009367457    1.778    0.438
       119 -10.6020     15.8115    174.3680   7.2712153863e+01   3.5134327558e+01     0.178359    0.1270272   6.11  0.000944018    1.687    0.407
       120 -10.6948     52.9879    173.0230   6.1686026877e+01   3.1682893972e+01    0.2343487    0.1488242  57.57 0.0005738586    1.601    0.375
       121 -10.8784    235.9981    231.3239   2.9896966959e+01  -2.2979503358e+00    0.1543726    0.1202625  -8.28  0.001251339    1.222    0.182
       122 -11.1277     25.4682    172.0165   6.9720193739e+01   3.4874791506e+01    0.2432268    0.1910095  -5.02 0.0008918223    1.583    0.368
       123 -11.2971     65.0336    170.0745   5.7786850823e+01   3.0916730489e+01    0.2403085    0.1568683  59.82 0.0006665882    1.650    0.394
       124 -10.6648     46.0101    170.4510   6.3465610790e+01   3.3148483318e+01    0.2098917    0.1327203  28.96 0.0004876831    1.529    0.346
       125 -10.3583    205.3794    169.7124   2.4675288570e+01   9.8025211026e+00    0.1102138   0.09945847 -78.87 0.0003081395    1.733    0.423
       126 -11.2841     56.9343    167.9341   5.9910511961e+01   3.2490513895e+01    0.2488707    0.1555467  62.03  0.001130606    1.742    0.426
       127 -11.6209     39.0141    168.2831   6.5338819476e+01   3.4476232088e+01    0.2023458    0.1696791  40.54 0.0006316969    1.137    0.121
       128 -10.7404     25.8235    167.4002   6.9243159495e+01   3.6027535469e+01    0.1847324    0.1329979   4.36 0.0009435835    1.685    0.407
       129 -10.3825     10.6416    166.6893   7.3755586141e+01   3.7511446797e+01     0.136944   0.09595748 -40.91 0.0007042529    1.738    0.425
       130 -10.2562     46.4768    164.5136   6.2665779778e+01   3.4622031884e+01    0.1445801    0.1311231  64.19 0.0001385291    1.019    0.018
       131 -10.9166    205.4614    162.0016   2.3216697289e+01   1.1035245333e+01    0.1890878    0.1062563 -36.82 0.0009204192    1.528    0.346
       132 -12.3951    112.2414    160.7673   4.2990375024e+01   2.6132977731e+01    0.3842311    0.2381171  33.36  0.001755452    1.586    0.369
       133 -11.1226     33.4574    160.0224   6.6220403013e+01   3.7208996084e+01    0.2234015    0.1803278  33.48 0.0006565794    1.229    0.186
       134 -11.3846    205.1743    154.7510   2.1870890693e+01   1.2260780614e+01    0.2835181    0.1568959 -32.65  0.001075943    1.589    0.371
       135 -11.1450    207.8663    144.8134   1.9471811663e+01   1.3490736967e+01    0.1972154    0.1510049 -15.73 0.0007099096    1.273    0.215
       136 -10.6353    115.9724    206.2765   4.9316561355e+01   1.5794217563e+01    0.1862574    0.1497467  26.11 0.0004710537    1.112    0.101
       137 -11.1997    208.5948    137.1436   1.7807085024e+01   1.4637384120e+01    0.2349897    0.1648826 -20.86 0.0009943717    1.415    0.294
       138 -10.3559    212.2598    133.3419   1.6465443375e+01   1.4686110298e+01    0.1268657   0.08767294 -15.83  0.000692833    1.590    0.371
       139 -11.1945    205.5964    129.3191   1.6656253022e+01   1.6406560773e+01    0.3656237    0.1377239 -40.49  0.001552455    2.238    0.553
       140 -11.7681    211.8607    128.2007   1.5465551770e+01   1.5582037801e+01    0.2966788    0.1713883 -40.75  0.001153546    1.456    0.313
       141 -11.7981    212.5399    121.2940   1.3920145258e+01   1.6589399270e+01    0.3908439    0.1927566 -27.40  0.001786091    2.206    0.547
       142 -10.4915     90.4388    205.9202   5.5457988424e+01   1.9270092056e+01     0.180335    0.1345972 -67.81 0.0007605963    1.532    0.347
       143 -11.6254    208.9037     99.1626   9.6281792775e+00   2.0757110279e+01    0.1978665    0.1513045 -51.62 0.0006442235    1.215    0.177
       144 -11.3366    112.1429     98.7368   2.8822102044e+01   4.0565038914e+01    0.3616291    0.2455885  69.49  0.001516655    1.953    0.488
       145 -10.8377     86.9425    204.5283   5.6164041920e+01   2.0019683570e+01    0.2629368    0.1148478  31.84  0.001135421    1.980    0.495
       146 -10.4799    227.6696    247.2652   3.3462265304e+01  -3.4176358221e+00   0.08575621   0.07170696  13.11 0.0004119055    1.576    0.365
       147 -11.5707     94.0304    246.5041   5.8945595239e+01   1.1033069797e+01      0.27697    0.1470684  43.84  0.001065106    1.747    0.428
       148 -13.1190    162.0664     53.8740   4.9064140150e+00   3.7528212539e+01    0.4452756    0.1802645 -36.90  0.001798826    2.244    0.554
       149 -12.1234     10.0770    204.5148   7.5835143193e+01   2.8368632859e+01    0.5624482    0.2559251  15.66  0.002598774    2.480    0.597
       150 -10.3528    128.4530    205.4625   4.6306526943e+01   1.4253906978e+01    0.1305426    0.1163893  18.01 0.0001752576    1.037    0.036
       151 -10.3437    121.6960    205.7234   4.7900229713e+01   1.5125135629e+01    0.1304322   0.09561942  -6.91 0.0003246079    1.545    0.353
       152 -14.6304    210.9772     41.1598   3.5601826113e+02   2.8721933038e+01    0.6544857    0.4067065 -53.30  0.003233308    1.328    0.247
       153 -11.9157    215.0158     78.6987   4.2617924011e+00   2.2786470413e+01    0.2319607    0.1620336 -33.14 0.0004716105    1.296    0.229
       154 -11.0617    225.5359    207.1990   2.7825024784e+01   1.8138990211e+00    0.2557355    0.1505432   1.46  0.001577966    1.751    0.429
