#   1 NUMBER                 Running object number                                     
#   2 MAG_AUTO               Kron-like elliptical aperture magnitude                    [mag]
#   3 X_IMAGE                Object position along x                                    [pixel]
#   4 Y_IMAGE                Object position along y                                    [pixel]
#   5 X_WORLD                Barycenter position along world x axis                     [deg]
#   6 Y_WORLD                Barycenter position along world y axis                     [deg]
#   7 A_WORLD                Profile RMS along major axis (world units)                 [deg]
#   8 B_WORLD                Profile RMS along minor axis (world units)                 [deg]
#   9 THETA_WORLD            Position angle (CCW/world-x)                               [deg]
#  10 FWHM_WORLD             FWHM assuming a gaussian core                              [deg]
#  11 ELONGATION             A_IMAGE/B_IMAGE                                           
#  12 ELLIPTICITY            1 - B_IMAGE/A_IMAGE                                       
         1 -12.8411     54.4641    147.1655   1.0370256597e+02   3.8546240197e+01     5.148624     1.112738 -62.90   0.01509566    4.099    0.756
         2 -14.5353     68.6852    144.3973   9.9100722905e+01   3.7435710785e+01      4.77381     2.257097  62.86   0.01009248    4.989    0.800
         3 -13.1311    200.0272     42.3425   4.1398918760e+01   3.0612510120e+01     1.041436    0.8786794 -47.55  0.003502046    1.156    0.135
         4 -13.5983    210.1914     32.6711   3.7931576304e+01   2.9573030706e+01    0.9391006    0.8039657   8.60  0.001645037    1.625    0.385
         5 -10.9161     12.3821     19.9484   8.6861447421e+01   7.0441482547e+01    0.3621578      0.11265 -31.28  0.001436654    3.598    0.722
         6 -12.8412    235.5887      6.7064   3.0165814831e+01   2.7155041185e+01    0.7891344    0.6121423 -79.00  0.004893806    1.074    0.069
         7  -8.9971    189.5181     14.9540   3.5938059106e+01   3.6163055702e+01    0.1752464    0.1182385 -34.82 0.0007149847    1.561    0.359
         8 -10.7121    140.2456    249.7463   9.7952505270e+01   3.6992251868e+00    0.3454448      0.18856  40.61  0.001327328    1.601    0.376
         9 -12.7767     54.8677    185.9801   1.0902176823e+02   2.8965676594e+01     1.149607     0.803811 -89.91  0.006246286    1.450    0.310
        10 -14.1169     41.4159    195.5191   1.1327806518e+02   2.8272015587e+01     3.982937     1.549779  65.98   0.01143825    4.559    0.781
        11 -17.1727     14.5468    242.5159   1.2230776342e+02   2.1024870703e+01     6.372827     2.192059  24.43    0.0272781    4.327    0.769
        12 -10.9581    192.7169    194.5143   7.7933088461e+01   5.2919763256e+00    0.7989562    0.4157581 -60.83  0.002625926    4.734    0.789
        13  -9.5281     59.4274    196.9634   1.0921504228e+02   2.5838990935e+01    0.2073965    0.1837813  36.39  0.001289313    1.214    0.176
        14  -9.1643     89.0646    210.6192   1.0396197836e+02   1.8801189425e+01    0.2079856    0.1722645 -88.59  0.001219718    1.261    0.207
        15 -11.0248    107.5421    204.0349   9.8743370230e+01   1.7486013105e+01    0.3547086    0.1932966 -57.69  0.001255132    1.932    0.482
        16  -7.8466     67.2748    194.2744   1.0702026633e+02   2.5465359101e+01    0.1233061    0.1017865 -33.07 0.0002652699    1.489    0.329
        17  -8.7876    151.5016    193.4828   8.6707070702e+01   1.2491473729e+01     0.206802    0.1343463  24.57 0.0009640005    1.619    0.382
        18 -10.2848    147.5481    187.6624   8.6543137877e+01   1.4385604815e+01    0.5778543    0.3643268 -76.31  0.002218822    3.083    0.676
        19  -9.9169    118.2022    191.1351   9.4154349578e+01   1.8624830520e+01    0.2155046    0.1965057 -13.74 0.0009982932    1.183    0.155
        20  -9.1528     79.6488    182.9971   1.0243750675e+02   2.6438652883e+01    0.3109688    0.1720337 -78.02  0.001312646    2.262    0.558
        21  -8.1935     76.4312    184.5349   1.0346999464e+02   2.6523353358e+01    0.1368733    0.1277615  84.75  7.55955e-05    1.009    0.009
        22 -10.2027     99.3713    180.8213   9.7098928549e+01   2.4011292366e+01    0.2740543    0.2411487 -39.08 0.0006122821    1.206    0.171
        23  -9.8508     64.6944    179.2271   1.0569821712e+02   2.9360523802e+01    0.3753247    0.2865864 -73.22  0.001586861    1.251    0.200
        24  -8.4054     89.0066    179.0206   9.9447867584e+01   2.6024348343e+01     0.167868    0.1616818  82.82 0.0004998873    1.002    0.002
        25 -10.8772     43.1251    177.2667   1.1090471859e+02   3.2395551367e+01    0.6462685    0.4716385   3.71  0.002959551    1.893    0.472
        26 -10.4218    186.9061    175.0727   7.5275836920e+01   9.9425938326e+00    0.4015894    0.2987961 -48.29  0.001226374    1.448    0.309
        27 -10.3622     92.5347    249.0227   1.0764360027e+02   1.0591631884e+01    0.3325561    0.1382441  39.84 0.0009331336    1.979    0.495
        28 -12.2490     81.3979    158.8768   9.8096671245e+01   3.2041535141e+01     1.152134    0.6671905  60.47  0.001713256    2.330    0.571
        29 -12.8675     69.8358    153.6403   1.0040456264e+02   3.4972517688e+01    0.6324842    0.4584477 -52.53  0.001428747    1.309    0.236
        30 -10.6700    110.8965    203.1147   9.7815676193e+01   1.7164450405e+01     0.266014     0.218981  71.71 0.0005044824    1.359    0.264
        31  -9.3706    110.8372    168.0357   9.1888645153e+01   2.5154370960e+01    0.2316754    0.1999018  80.46  0.000706008    1.319    0.242
        32  -9.1707     34.7059    171.3849   1.1235501516e+02   3.4698078753e+01    0.2182422    0.1682399  69.41 0.0007642792    1.271    0.213
        33  -8.1134    120.3325    165.7076   8.8985412764e+01   2.4062861669e+01      0.15156    0.1176681  71.45  0.000530889    1.634    0.388
        34 -10.0132     32.8809    156.8599   1.1111858830e+02   3.8435441535e+01    0.3009625    0.2090663  44.05  0.001678873    1.528    0.345
        35 -11.6802     88.7881    151.9607   9.4773586533e+01   3.2629249186e+01     0.709339    0.4663781 -22.96  0.003037835    2.141    0.533
        36 -10.2790    134.3066    147.2886   8.1500467866e+01   2.5748963239e+01    0.7617017    0.2200535 -50.91  0.002178249    3.686    0.729
        37 -10.0950    133.0000    140.4598   8.0276862615e+01   2.7558763784e+01    0.5596402    0.2167438 -51.06  0.001860652    2.691    0.628
        38  -8.6991    111.2607    149.6756   8.8107269155e+01   2.9446552882e+01    0.3181552    0.1628839  61.54 0.0009036519    4.029    0.752
        39  -9.1997    174.7128    149.1663   7.2305442370e+01   1.7417558847e+01     0.239439    0.1877079 -57.27 0.0007714852    1.451    0.311
        40  -9.9744     38.2298    146.0360   1.0819043925e+02   4.0602507637e+01    0.3310058    0.1819168  35.55  0.001360256    1.948    0.487
        41 -10.5332    102.3701    138.4603   8.8148620693e+01   3.3693151634e+01    0.6091421     0.385585 -15.14  0.002318343    2.612    0.617
        42 -10.1828    105.8337    131.2003   8.5511585509e+01   3.4821985390e+01    0.4364247    0.3231069 -55.09  0.001661297    1.350    0.259
        43 -11.5676     89.8617    137.7959   9.1603831717e+01   3.5941311026e+01    0.2939647    0.2576454 -36.76 0.0003980373    1.135    0.119
        44 -11.3970     68.6998    171.7378   1.0359744028e+02   3.0653947116e+01    0.4603759     0.299887 -31.17  0.002144166    2.063    0.515
        45 -10.8201     40.0060    127.7198   1.0479639479e+02   4.5000455108e+01    0.2718673    0.2288283  60.88  0.001039155    1.337    0.252
        46 -10.1531    135.3590    128.2371   7.6737976095e+01   2.9849607106e+01     0.417663    0.2505758 -48.06  0.001749385    1.651    0.394
        47 -11.2403     28.8291    128.5145   1.0838063395e+02   4.5848240333e+01    0.4813896    0.1897232 -53.46  0.002060759    2.102    0.524
        48  -9.4037    161.4090    128.2360   7.0367033443e+01   2.4473509534e+01    0.2247512     0.142208 -52.04 0.0009526364    1.689    0.408
        49  -9.9698    117.3334    123.3470   8.0364266956e+01   3.4519893666e+01    0.3168862    0.2262713   5.87 0.0008527523    1.916    0.478
        50 -10.3074    120.7347    121.2637   7.8898638880e+01   3.4333883160e+01    0.4304362    0.1886254 -33.96   0.00136367    3.095    0.677
        51  -9.2397     87.4549    120.8595   8.8516628497e+01   4.0441861986e+01    0.3874767    0.2575936  77.02  0.001521133    2.653    0.623
        52 -10.1446     98.9621    124.9320   8.6025377956e+01   3.7527317265e+01    0.3243574    0.2582158 -13.53  0.001372252    1.463    0.316
        53  -9.6817    111.5276    129.2078   8.3424375650e+01   3.4256088490e+01    0.3373492    0.2555459 -11.83 0.0008528532    1.652    0.395
        54 -11.7632     33.6265    118.2233   1.0517766054e+02   4.7966818399e+01    0.4770893    0.2789742 -60.79  0.002259375    1.448    0.310
        55  -9.2509    107.9695    118.1809   8.1725593500e+01   3.7482681801e+01    0.2230512    0.2114928 -12.66  0.000365541    1.043    0.041
        56 -11.4443     73.1084    167.1055   1.0171997907e+02   3.1192751466e+01    0.3986374     0.318552 -60.52 0.0008720756    1.192    0.161
        57  -9.9022    231.2837    113.6823   5.3646836126e+01   1.3057058929e+01    0.2585961    0.2260078 -46.52 0.0007982854    1.076    0.070
        58  -8.2462    193.3022    170.3048   7.2955538776e+01   9.7201357485e+00    0.1466532    0.1060156  -5.16 0.0002098843    1.595    0.373
        59  -9.2450    205.5081    110.1710   5.7038248904e+01   1.8742843257e+01    0.2403327    0.2031976  48.86 0.0005325572    1.289    0.224
        60  -9.5325    134.7601    105.9756   7.1119623182e+01   3.4801475455e+01    0.4571554    0.1412471 -42.04  0.001380527    3.198    0.687
        61 -10.6369    115.8746    108.8843   7.7026542996e+01   3.8060257244e+01     0.442048    0.3455757   9.14  0.002088699    1.520    0.342
        62 -10.2636    244.1971    108.6001   5.0672843213e+01   1.1529147323e+01    0.2721117   0.08528905 -40.20  0.001033818    2.632    0.620
        63 -11.4618     42.0457    104.0546   9.9580847673e+01   5.0594564919e+01     0.425732    0.2917264  39.17  0.001746752    1.682    0.405
        64  -8.5919    137.7281    104.5751   6.9978032705e+01   3.4458915852e+01    0.2006147    0.1494824  56.44 0.0003902943    1.492    0.330
        65 -10.8365     33.2971    109.1507   1.0362222395e+02   5.0216652422e+01    0.3314458    0.2001631 -79.36  0.001578577    1.925    0.480
        66  -8.9203     66.1841    104.3777   9.1362313972e+01   4.7583793814e+01    0.2050403    0.1308175  41.45 0.0009583436    1.754    0.430
        67 -10.2703    240.3275    169.2171   6.3947261970e+01   2.0429959960e+00    0.1789159    0.1490208  -4.13  0.000566408    1.132    0.116
        68 -10.5454     34.0466    100.0705   1.0154164684e+02   5.2331526283e+01    0.2499529    0.2097527  77.61 0.0006146254    1.468    0.319
        69  -9.1958     15.2723     89.5625   1.0621638678e+02   5.6290547805e+01    0.2174319    0.1181644  24.48  0.001131101    2.118    0.528
        70  -8.6669     75.1874     85.3723   8.3125250387e+01   5.0524115338e+01     0.192201     0.132671  43.50 0.0003961016    1.625    0.385
        71  -8.9090    125.3455     92.8838   6.9935876178e+01   3.9490419614e+01    0.2392908    0.1859864 -56.14 0.0009390981    1.439    0.305
        72  -9.5030    113.3712     82.8406   7.0275218343e+01   4.3988009597e+01    0.3930195    0.2792719  74.71  0.001658386    2.232    0.552
        73  -8.6903    158.6689     82.7181   5.9006766195e+01   3.3989882490e+01    0.1492709    0.1154997  18.14  0.000316915    1.609    0.378
        74  -8.5910     56.0674     66.3131   8.4227822329e+01   5.7292212126e+01     0.180991    0.1594355   1.07 0.0003633803    1.097    0.089
        75  -8.2427     82.6803     61.2904   7.2816343798e+01   5.3981609875e+01    0.1293999    0.1152031  85.72 0.0004059433    1.602    0.376
        76 -12.7731    189.5869     50.3301   4.4788458510e+01   3.1913847026e+01    0.9032832    0.7048163  41.51 0.0009705407    1.480    0.324
        77  -9.8642    142.3514    208.7900   9.1452956394e+01   1.0923629720e+01    0.1936881    0.1660578  38.52 0.0006276055    1.127    0.113
        78 -10.7779    111.6833    197.1979   9.6713400083e+01   1.8334873578e+01    0.5187926    0.3070767  -2.01     0.001787    3.965    0.748
        79 -16.1610      7.3776    203.2330   1.2139914795e+02   2.9824934392e+01     14.10848     1.211345 -75.61  0.008287229    9.421    0.894
        80 -11.2441    134.8965    211.4048   9.3560611969e+01   1.1608257187e+01    0.4087551    0.2802282  37.85  0.002134478    1.352    0.260
        81 -10.8507    122.2081    198.5964   9.4431993357e+01   1.6336280332e+01    0.3841173     0.271327 -77.20  0.001567827    1.875    0.467
