#   1 NUMBER                 Running object number                                     
#   2 MAG_AUTO               Kron-like elliptical aperture magnitude                    [mag]
#   3 X_IMAGE                Object position along x                                    [pixel]
#   4 Y_IMAGE                Object position along y                                    [pixel]
#   5 X_WORLD                Barycenter position along world x axis                     [deg]
#   6 Y_WORLD                Barycenter position along world y axis                     [deg]
#   7 A_WORLD                Profile RMS along major axis (world units)                 [deg]
#   8 B_WORLD                Profile RMS along minor axis (world units)                 [deg]
#   9 THETA_WORLD            Position angle (CCW/world-x)                               [deg]
#  10 FWHM_WORLD             FWHM assuming a gaussian core                              [deg]
#  11 ELONGATION             A_IMAGE/B_IMAGE                                           
#  12 ELLIPTICITY            1 - B_IMAGE/A_IMAGE                                       
         1 -13.7191      5.2892     10.5070   1.1952917829e+02   7.2927885241e+01     1.838567    0.7043422 -41.59   0.01020396    1.918    0.479
         2 -14.4504    199.3614     15.7552   6.5922158861e+01   3.3543488236e+01     2.799116     1.747101  29.72   0.01062321    2.269    0.559
         3 -13.6374    204.2624      9.0842   6.3546695365e+01   3.3005775931e+01     1.480165    0.6727233  50.56  0.001548968    2.409    0.585
         4 -11.8379     80.6534    247.8490   1.3949864352e+02   1.5346827645e+01    0.5003214    0.1938654  57.56  0.002583177    2.294    0.564
         5 -11.6856    138.9763    248.5308   1.2950689683e+02   6.6192421612e+00    0.3254481    0.2174501 -55.65  0.002147687    1.898    0.473
         6 -11.1869    119.8361    238.1414   1.3175800397e+02   1.1195322615e+01    0.3105096    0.1883151  88.09  0.001718515    2.326    0.570
         7 -12.8671    126.6016    244.2247   1.3120762122e+02   9.1893762289e+00    0.5671791    0.3981938  44.49  0.003798223    1.181    0.153
         8 -11.9639    106.2110    247.1734   1.3506901605e+02   1.1816664150e+01    0.3361427    0.2333343  43.70  0.001976011    1.288    0.223
         9 -11.6485     98.0206    248.4806   1.3659836143e+02   1.2803708667e+01     0.382426    0.2128616  59.17   0.00163476    1.504    0.335
        10 -11.0756    101.1425    246.1188   1.3584803709e+02   1.2728570082e+01    0.2450057    0.1783389  80.05 0.0003903039    1.358    0.264
        11 -15.8938      3.9376    237.1964   1.5132068308e+02   2.6170510831e+01     10.90578    0.8625709 -75.18   0.03321943    7.236    0.862
        12 -14.3436     47.2048    230.9734   1.4395619943e+02   2.2582302714e+01     1.592549    0.6558853  54.80  0.009112783    1.882    0.469
        13 -15.4232     52.0463    219.6587   1.4230336290e+02   2.4069462852e+01     5.680598     2.416715  42.63   0.02023623    2.047    0.511
        14  -9.7738    229.5303    230.0154   1.1120512936e+02  -5.3451988195e+00    0.1537001    0.1092393 -27.16 0.0007586737    1.557    0.358
        15 -11.0730     33.9295    229.3250   1.4610637623e+02   2.4430710037e+01    0.2269283    0.1768409  87.25 0.0009147428    1.255    0.203
        16 -10.5138    156.2197    228.3872   1.2394694910e+02   6.8480551218e+00    0.1834837   0.09517623  49.48 0.0005833785    1.679    0.405
        17  -9.7985     94.4261    216.7380   1.3416487833e+02   1.8798283180e+01    0.2378686    0.1472683  67.33 0.0008866994    1.537    0.349
        18  -8.9644    152.6999    213.0058   1.2246378006e+02   9.9093341468e+00    0.1652819    0.1501382  52.89 0.0004119238    1.075    0.070
        19 -10.9353     30.2565    205.7006   1.4526467104e+02   2.9295044020e+01    0.3061833    0.1220338  52.80  0.001045188    2.033    0.508
        20 -10.5305    193.0610    194.8994   1.1178771113e+02   5.6013437866e+00    0.8231962     0.404091 -62.24  0.002223411    8.083    0.876
        21 -11.5733     69.4705    195.9223   1.3687080055e+02   2.6458612419e+01    0.3533737    0.2366802 -48.33  0.001533587    2.064    0.515
        22 -11.7288     74.4402    188.7131   1.3506980109e+02   2.7258085418e+01    0.2639308    0.2265036 -63.68 0.0007673021    1.372    0.271
        23  -9.5271    120.2755    188.2384   1.2535039359e+02   2.0117090717e+01    0.2953843    0.1697394  28.91   0.00117187    2.361    0.576
        24 -13.2811     70.7242    174.0820   1.3413708140e+02   3.0908620605e+01    0.4660964    0.2749088 -47.00  0.002004516    2.237    0.553
        25 -11.0837     83.1196    176.4692   1.3170986611e+02   2.8601973549e+01    0.2342824     0.205261  81.95 0.0003833439    1.068    0.064
        26 -10.7347    126.2877    174.2426   1.2184502615e+02   2.1888575625e+01    0.3738994    0.1706496  37.12  0.001514925    2.364    0.577
        27 -12.4204     89.5838    167.4215   1.2899872716e+02   2.9590985848e+01     1.488051    0.5620941  53.95  0.004963656    3.039    0.671
        28 -13.0458     67.3524    144.1324   1.3080390376e+02   3.8149118512e+01     1.163559    0.6272216  86.21  0.004395186    2.574    0.612
        29 -12.6657     58.2130    132.8193   1.3137685222e+02   4.1991112155e+01     2.822238     0.816787 -73.65  0.005970473    9.589    0.896
        30 -11.5527     32.9188    155.8997   1.4057893520e+02   3.9539282810e+01    0.3462888     0.150262 -78.13  0.001689173    2.035    0.508
        31 -10.0612    101.5366    151.2552   1.2357091894e+02   3.1255034378e+01     0.282438    0.2602264 -62.32 0.0008123023    1.161    0.139
        32  -9.5852    104.1159    146.8231   1.2214030622e+02   3.1814093238e+01    0.3229786    0.2075398 -28.28  0.001198915    2.676    0.626
        33 -12.1133     90.4387    150.5738   1.2614266809e+02   3.3242123008e+01    0.2725548    0.2495601 -43.90  0.000443643    1.312    0.238
        34 -11.9757     43.8109    149.2249   1.3728072387e+02   3.9886117976e+01    0.3497658     0.268611  32.80  0.002194443    1.598    0.374
        35  -9.7518    134.2851    147.6951   1.1509432377e+02   2.5985304592e+01     0.509805    0.1319565 -53.08  0.001416449    4.445    0.775
        36 -11.6111     71.5056    239.0379   1.4036614859e+02   1.8064158932e+01    0.4102964    0.1952902  79.22  0.001804598    2.552    0.608
        37  -9.9024    111.7034    136.6339   1.1826747701e+02   3.2768986146e+01     0.300794    0.2381089 -17.60  0.001474505    1.810    0.447
        38 -10.5914     99.4161    133.7011   1.2078374063e+02   3.5633048297e+01    0.2650358    0.2300703 -30.41 0.0004158374    1.407    0.289
        39 -14.2227     10.7196    207.0446   1.4884385279e+02   3.1030431861e+01     1.956926     1.502135 -24.24   0.01257366    2.894    0.655
        40 -11.3035     49.9197    130.0055   1.3312354977e+02   4.3653458141e+01    0.2765837    0.2323096  81.20 0.0006342339    1.124    0.110
        41 -11.7663     44.5528    128.7894   1.3436224112e+02   4.4544010478e+01    0.4456094    0.2146216 -80.25  0.002016193    2.194    0.544
        42  -9.3386    108.2033    123.6507   1.1636923449e+02   3.6375012868e+01    0.1883812    0.1776369  47.62  0.000394875    1.137    0.120
        43 -11.3674     19.3472    124.1333   1.4039579379e+02   4.8032705347e+01    0.2108277    0.1653538  55.12 0.0006969468    1.382    0.277
        44 -11.0935    168.1756    113.3261   9.9295163824e+01   2.5851713603e+01     0.360029    0.3074099 -78.27 0.0007464687    1.332    0.249
        45  -9.0020    203.3316    111.3496   9.1710239379e+01   1.8021040303e+01    0.1586979    0.1181714  10.32 0.0007048171    1.771    0.435
        46 -10.8878    248.5449    249.0031   1.1105218354e+02  -1.0136003080e+01    0.2380105    0.1362562  33.32  0.001582579    1.385    0.278
        47 -11.9711     81.0867    241.5524   1.3891666366e+02   1.6333111081e+01     0.544123    0.2305687  69.13  0.002503142    3.171    0.685
