#   1 NUMBER                 Running object number                                     
#   2 MAG_AUTO               Kron-like elliptical aperture magnitude                    [mag]
#   3 X_IMAGE                Object position along x                                    [pixel]
#   4 Y_IMAGE                Object position along y                                    [pixel]
#   5 X_WORLD                Barycenter position along world x axis                     [deg]
#   6 Y_WORLD                Barycenter position along world y axis                     [deg]
#   7 A_WORLD                Profile RMS along major axis (world units)                 [deg]
#   8 B_WORLD                Profile RMS along minor axis (world units)                 [deg]
#   9 THETA_WORLD            Position angle (CCW/world-x)                               [deg]
#  10 FWHM_WORLD             FWHM assuming a gaussian core                              [deg]
#  11 ELONGATION             A_IMAGE/B_IMAGE                                           
#  12 ELLIPTICITY            1 - B_IMAGE/A_IMAGE                                       
         1 -16.5040    156.1318     32.3516   6.8942843445e+01   4.2447480535e+01    0.8148441    0.5373595   6.38   0.00351967    1.898    0.473
         2 -14.9083    223.1646     25.7657   5.6548579612e+01   2.5675988545e+01    0.6097624    0.4860612 -26.95  0.003253913    1.209    0.173
         3 -14.9821    149.9020     20.1692   6.5695356662e+01   4.5586286753e+01    0.6043983    0.3622182 -43.22  0.002645602    1.822    0.451
         4 -16.0508    197.6120     20.1085   5.8010851343e+01   3.2954045953e+01    0.8371431     0.360389  54.08  0.003244094    2.174    0.540
         5 -14.6963    248.3429     12.4114   5.0309051995e+01   2.0819735381e+01    0.5002064    0.3622443   1.02  0.002668954    1.560    0.359
         6 -16.0070    208.4056    141.8719   8.9211472240e+01   1.3422732670e+01     1.142612    0.8033735  46.61  0.006228623    1.346    0.257
         7  99.0000     28.2455    229.5619   1.3261581122e+02   2.7387263629e+01     2.498789      1.14831 -79.86   0.01850207    2.097    0.523
         8 -15.4122    207.5254    129.5783   8.6705115637e+01   1.5351504870e+01    0.8417531    0.6071503  28.27  0.004108318    1.357    0.263
         9 -18.4739    146.4503    179.5916   1.0762103059e+02   1.9442333042e+01     4.251878     2.490026 -64.57   0.02234242    2.403    0.584
        10 -16.7188    242.7461    171.6628   8.9331536105e+01   3.2792720858e+00     1.026759    0.6699464  52.01  0.005961242    1.766    0.434
        11 -15.1030     28.4135    101.8872   1.2299352208e+02   5.1004231014e+01      1.41362    0.3331396 -65.96  0.005837855    3.094    0.677
        12 -14.5943     19.2966    126.5430   1.2790166488e+02   4.6582403627e+01     1.004667    0.3963948 -53.66  0.005166882    2.849    0.649
        13 -14.8081     23.0835    120.2878   1.2642730012e+02   4.7560671018e+01    0.7644479    0.2863277 -50.15  0.003571969    3.383    0.704
        14 -13.5984     33.4934    134.6080   1.2543235811e+02   4.3675178388e+01    0.4101762    0.1252488  27.82   0.00172318    4.553    0.780
        15 -14.9332     60.5455    128.0285   1.1839588055e+02   4.2127370300e+01    0.7251965    0.4906151  68.24  0.004243898    1.467    0.319
        16 -14.1595     55.9049    120.6504   1.1849543000e+02   4.4223892799e+01    0.4797045    0.3210862  83.62  0.002875793    1.504    0.335
        17 -15.9185    190.9874    166.5187   9.7183432642e+01   1.3354930460e+01     0.654681    0.4002973  48.72  0.003014363    1.499    0.333
        18 -16.0043    101.1165    116.6203   1.0664448728e+02   3.8759103248e+01     1.536617    0.7318565  39.30  0.006751488    2.214    0.548
        19 -16.9760    210.7835     99.7959   7.9014933292e+01   1.8982895900e+01     2.164686       1.3287 -53.97  0.009274092    2.278    0.561
        20 -15.1341    196.3145    104.6435   8.2859156659e+01   2.1544141975e+01    0.6501991     0.412347  61.18  0.002946777    1.815    0.449
        21 -14.3267    186.5049    103.8929   8.4544531084e+01   2.3889768706e+01    0.5743511    0.4006119  57.92  0.002763048    1.526    0.345
        22 -16.0669    124.4565     97.5485   9.6633265080e+01   3.8438903813e+01     1.916721      1.16276  55.96  0.008803757    1.816    0.449
        23 -15.8401    111.4890     86.4165   9.7089971541e+01   4.3150108657e+01     1.320519    0.8822414 -73.19  0.006002377    2.094    0.523
        24 -14.9194     19.3612    101.5366   1.2535083133e+02   5.1813518246e+01    0.5086544    0.2565513  71.60  0.002768811    2.242    0.554
        25 -16.5569      6.3333     90.7926   1.2765871064e+02   5.5002704332e+01     1.058629    0.6361344 -86.49  0.006987818    1.360    0.265
        26 -15.4697      3.6830     80.1542   1.2721275858e+02   5.7424068532e+01    0.6486531    0.2997397 -77.48  0.003761774    1.687    0.407
        27 -15.5312    178.6478     87.8347   8.1869683961e+01   2.8330675276e+01     1.570822    0.6256217 -42.71  0.005548473    2.675    0.626
        28 -13.9659    154.5407     52.3575   7.6178381640e+01   3.9940263367e+01    0.4661548    0.2826924  49.06  0.002032141    1.625    0.385
        29 -14.3494    159.4742     47.0236   7.3355898372e+01   3.9525979238e+01    0.2938434    0.2036427  21.17   0.00121445    1.736    0.424
        30 -15.3230    184.3580    179.0162   1.0054595570e+02   1.2840064134e+01    0.5071747    0.2797789  48.08  0.002700715    1.596    0.373
        31 -17.7730    130.3390    214.3582   1.1494892894e+02   1.6844302330e+01     1.885085     1.515715  16.16    0.0123071    1.763    0.433
        32 -14.0570     46.9270    205.5517   1.2839984756e+02   2.9183354107e+01    0.5691389    0.2878383  56.13  0.003940684    1.509    0.337
        33 -19.7882     84.0319    163.0326   1.1770149807e+02   3.2111816162e+01     13.63287     3.715033 -63.33   0.05415069    3.871    0.742
