#   1 NUMBER                 Running object number                                     
#   2 MAG_AUTO               Kron-like elliptical aperture magnitude                    [mag]
#   3 X_IMAGE                Object position along x                                    [pixel]
#   4 Y_IMAGE                Object position along y                                    [pixel]
#   5 X_WORLD                Barycenter position along world x axis                     [deg]
#   6 Y_WORLD                Barycenter position along world y axis                     [deg]
#   7 A_WORLD                Profile RMS along major axis (world units)                 [deg]
#   8 B_WORLD                Profile RMS along minor axis (world units)                 [deg]
#   9 THETA_WORLD            Position angle (CCW/world-x)                               [deg]
#  10 FWHM_WORLD             FWHM assuming a gaussian core                              [deg]
#  11 ELONGATION             A_IMAGE/B_IMAGE                                           
#  12 ELLIPTICITY            1 - B_IMAGE/A_IMAGE                                       
         1 -12.2597    246.2925     58.2447   3.7800397649e+01   1.8567305770e+01     2.216523    0.6810228 -39.85  0.009416479    2.660    0.624
         2 -13.4853    240.1678     16.0560   2.9983902392e+01   2.5116135166e+01     2.366709     1.506534 -57.62   0.01550988    1.281    0.219
         3 -11.7484    218.4586     27.0826   3.4011727168e+01   2.8288661110e+01    0.9866101    0.5270479 -44.34  0.004209762    1.686    0.407
         4 -10.7442    146.9251     16.1072   3.9824122248e+01   4.5921745098e+01    0.3729049    0.3494609  33.58  0.002465953    1.214    0.177
         5  -9.8877     93.1172     15.3344   5.0439623840e+01   5.8432375833e+01    0.5043676     0.314342  34.57  0.002739423    1.511    0.338
         6  -9.3661     94.6096      7.7780   4.7141688611e+01   5.8792273918e+01    0.3306426    0.1661697 -16.94  0.001640403    2.366    0.577
         7  -9.6800    139.2838     13.9537   4.0385353189e+01   4.7948245772e+01     0.340596    0.1948722  23.71  0.001573004    2.633    0.620
         8  -8.9327    154.6908     12.7693   3.7740379271e+01   4.4395488789e+01    0.3549325    0.1972024 -61.43  0.001731139    2.165    0.538
         9  -9.0649    114.0358     13.5060   4.4866602605e+01   5.3918326334e+01     0.310292    0.2114817  68.27  0.001732448    1.392    0.281
        10 -10.0186    131.6838      8.3785   3.9907153049e+01   5.0250560993e+01    0.6404216    0.2884103 -51.80  0.002742145    3.046    0.672
        11  -9.2511     81.3797      9.5228   5.1344477985e+01   6.1461792201e+01    0.2852141    0.2217647  18.06  0.001799441    1.241    0.194
        12  -9.1947     74.7939      9.5312   5.3315782170e+01   6.2803176349e+01    0.2510032    0.1993377  15.21  0.001043101    1.189    0.159
        13  -8.7689     13.5441      9.8430   8.0683226320e+01   7.2311893915e+01    0.1807498    0.1492831  49.75  0.001192652    2.337    0.572
        14  -9.6439    184.5517      5.6594   3.2418081467e+01   3.8097676125e+01     0.443796    0.2552881 -54.01   0.00249368    1.708    0.415
        15  -8.3166    183.6650      1.3396   3.1475615249e+01   3.8699097681e+01    0.3740511    0.1087109  75.92  0.001448034    3.222    0.690
        16  -7.3611    161.3069      8.6915   3.5756015516e+01   4.3211833653e+01    0.1292955   0.08503889 -70.92 0.0003210401    1.612    0.380
        17  -8.8458    101.2013      6.2849   4.5040347628e+01   5.7457906694e+01    0.3001085     0.199798 -49.42  0.001670493    1.968    0.492
        18  -9.5896    146.1148      2.6613   3.6044000710e+01   4.7322018733e+01    0.4315835    0.2978592  82.79  0.002548418    1.325    0.245
        19  -8.4535     63.9699      6.0000   5.5289017052e+01   6.5236655827e+01    0.2047905   0.05989281  51.91 0.0008073461    2.977    0.664
        20  -7.7611    176.3175      4.6752   3.3011104114e+01   4.0077474116e+01    0.1303041   0.07925093 -68.69 0.0004465854    1.672    0.402
        21  -9.4428     47.7458      3.0480   5.9983188749e+01   6.8423769052e+01    0.4784669    0.2813362  62.12  0.002355365    3.030    0.670
        22  -8.4288    203.2846      2.0462   2.9925808153e+01   3.4262938529e+01    0.1678126    0.1336208 -73.30 0.0008446816    1.067    0.063
        23 -10.7450    228.1189    181.5623   6.6031957230e+01   1.2940778270e+00    0.9736836    0.7371361 -88.42  0.004593246    3.065    0.674
        24 -11.3085    187.3564    245.2094   8.5410163071e+01  -3.2439135500e+00    0.9949508    0.6981929  -9.79  0.005913093    1.444    0.307
        25 -11.0233    188.0628    232.2223   8.3181526805e+01  -1.2690058978e+00    0.8045081    0.6674487 -36.97  0.005044732    1.375    0.273
        26  -8.6280    205.1235    169.1510   6.7870026003e+01   7.2987375773e+00    0.2655066    0.1942322 -26.32 0.0005933704    1.294    0.227
        27 -10.8379    211.6254    171.9004   6.7170159425e+01   5.6712498385e+00    0.7242582    0.4854016 -59.33  0.003424003    2.130    0.531
        28 -10.0352    205.6798    164.4711   6.6783780992e+01   8.0861309135e+00    0.5265266    0.4056703  18.91  0.002813352    1.386    0.279
        29  -8.6636    145.7849    175.8356   8.2436175126e+01   1.6751795796e+01    0.2096468    0.1836879  69.35  0.000856535    1.363    0.266
        30 -10.7012    248.0299    165.9361   5.9544775152e+01   9.2461389659e-01    0.8742834    0.4338003 -28.36  0.004143377    1.967    0.492
        31 -11.2078    238.2111    164.6290   6.0900535831e+01   2.6384220380e+00    0.5729625    0.4188808 -40.30  0.002793368    1.265    0.209
        32 -11.2491    238.0802    156.2979   5.9239567172e+01   4.0915630154e+00     0.645682    0.3410444 -40.98  0.002846624    1.648    0.393
        33 -12.1543    232.6029    146.0201   5.8029278295e+01   6.7899437446e+00     1.494869    0.9641932 -66.27  0.006761746    2.615    0.618
        34  -8.6263    152.0498    157.6038   7.7090187170e+01   1.9630374346e+01    0.3277712    0.2039597  57.20  0.001321403    2.096    0.523
        35  -9.1112    141.3862    157.1377   7.9642653812e+01   2.1811543689e+01    0.2666722    0.2119578  24.69 0.0005734187    1.317    0.241
        36  -8.4512     23.1977    157.6138   1.1275699019e+02   3.9195757983e+01    0.1695486    0.1284761  -1.53 0.0009524486    1.720    0.419
        37  -7.6998     73.2633    156.3366   9.8280104118e+01   3.3795733529e+01    0.1498869     0.107995 -35.10 0.0002225305    1.585    0.369
        38  -8.9684    152.3179    151.2461   7.5615699915e+01   2.0996004546e+01    0.3775403    0.2617907 -20.21  0.001616982    1.812    0.448
        39  -8.4716    128.5242    151.4482   8.1741701939e+01   2.5618718575e+01    0.1537592    0.1525356  58.68 0.0001185655    1.049    0.047
        40  -8.4950     58.7814    146.3688   1.0085437596e+02   3.8299387993e+01    0.3166579    0.2174765  79.93  0.001468049    1.805    0.446
        41  -9.2303    128.0791    146.1784   8.0688995324e+01   2.6949519117e+01    0.2403591    0.2137446  -9.41 0.0005368349    1.207    0.172
        42  -9.0422    189.9542    138.9401   6.4336352365e+01   1.6033996968e+01    0.3779149    0.2909252 -80.85  0.001774332    1.889    0.471
        43  -8.7582    194.2116    140.8094   6.3900590797e+01   1.4819732420e+01    0.3895347    0.2446324 -63.09  0.001608626    2.317    0.568
        44  -9.9675    216.7464    139.1516   5.9282616492e+01   1.0837986276e+01    0.4253225    0.2973416 -78.02  0.001904549    2.500    0.600
        45 -10.3232    215.7941    134.5215   5.8437696067e+01   1.1870326255e+01    0.4911674    0.3691342 -33.46  0.002367888    1.215    0.177
        46  -9.6313    166.1421    136.6272   6.8953657749e+01   2.1373668168e+01     0.613014    0.3416437 -53.75  0.002423419    2.028    0.507
        47  -8.2792    113.0774    139.2024   8.3249021487e+01   3.1487639566e+01    0.2433444    0.2126727  -6.97 0.0008900092    1.263    0.208
        48  -8.9699    167.1229    129.3764   6.6995546159e+01   2.2703100414e+01    0.4403414     0.251837 -56.12  0.001729318    2.097    0.523
        49 -12.0859    245.5990    127.3739   5.2130457816e+01   7.8076982204e+00     1.379875    0.7104654 -50.33  0.006549905    1.951    0.487
        50  -7.8788    154.8077    124.5891   6.8692520224e+01   2.6347054780e+01    0.3172216      0.11904 -41.41  0.001030483    2.666    0.625
        51 -10.8838    224.6396    113.4519   5.2323543439e+01   1.3989838386e+01     1.021384    0.7134597 -81.79  0.004984344    2.125    0.529
        52  -8.8349     24.7641    117.7337   1.0692423000e+02   4.9131596999e+01    0.4002256    0.1670249  40.78  0.001671099    2.784    0.641
        53  -8.7598    171.8174    116.0594   6.2685738359e+01   2.4438409808e+01    0.3589122    0.2177952 -41.66 0.0008432472    1.591    0.372
        54 -10.2263    196.9469    108.2553   5.5793201699e+01   2.0526398189e+01    0.8172841    0.3758539 -52.60  0.003057868    2.535    0.605
        55 -10.0002    122.0001    109.0683   7.3197584589e+01   3.6739290499e+01    0.6206555    0.4103327 -51.33  0.002066606    1.574    0.365
        56  -9.1920    160.6020    108.5841   6.3268722922e+01   2.8420869452e+01    0.4177659     0.341159 -56.06  0.001411343    1.280    0.219
        57  -8.9483     97.3278    109.6385   8.0705205840e+01   4.1477188522e+01    0.2539554    0.2375175  87.72 0.0007784907    1.221    0.181
        58  -7.8157    105.3210    108.6710   7.7975712525e+01   4.0189316050e+01    0.1565401    0.1258308  83.88 0.0007048446    1.690    0.408
        59 -10.3855    234.5618     44.6399   3.6175266974e+01   2.2732205484e+01    0.7550591    0.5716609  28.91  0.004417473    2.200    0.545
        60 -11.6799    238.7033     94.5982   4.6222317009e+01   1.4496911444e+01      1.73859    0.9333614 -52.82  0.008513134    1.804    0.446
        61 -10.0777    122.3985     98.4216   7.0148130461e+01   3.8951550757e+01    0.6737501    0.5599419  -5.30  0.003296507    1.381    0.276
        62 -10.5617    215.2103     95.9400   4.9856796673e+01   1.8901016369e+01    0.8263547    0.3500406 -42.42  0.003031181    2.102    0.524
        63  -9.4819     57.4361    100.1128   9.1778039912e+01   5.0054621910e+01    0.4637201    0.2803617 -63.62  0.001670768    1.795    0.443
        64 -10.4081    248.3914     84.5610   4.2928239863e+01   1.4284239860e+01    0.9390524    0.4167868 -41.64  0.004523359    1.861    0.463
        65  -8.7183    196.7464     94.6799   5.2566170582e+01   2.3029378548e+01    0.3649981    0.2278569 -80.08   0.00146377    2.682    0.627
        66  -8.8737    106.4153     98.2421   7.4763865957e+01   4.2297322451e+01    0.4174686     0.258671 -27.72  0.001709457    1.956    0.489
        67  -9.6590     83.9952     83.9194   7.7807738994e+01   4.9600583266e+01    0.3708827    0.2454886 -58.09  0.001677815    1.828    0.453
        68  -7.8379    124.4549     86.5235   6.6145417606e+01   4.0923704815e+01    0.1498427    0.1481879  32.24 0.0001705872    1.038    0.037
        69  -8.5401    211.9636     83.3815   4.7457546612e+01   2.1684857266e+01    0.2799868    0.1703628 -54.23  0.001360126    1.628    0.386
        70  -9.1386    152.8738     78.0171   5.6721475855e+01   3.6000044510e+01    0.4167114     0.204441 -43.90  0.001661638    2.076    0.518
        71  -9.2991    142.0462     81.3455   6.0142935950e+01   3.7924518220e+01    0.3570249    0.2301707 -60.66  0.001126235    2.011    0.503
        72  -9.3596    242.7515    247.2688   7.5218341171e+01  -1.0651549709e+01    0.3124987    0.1073779 -29.31  0.001415321    2.938    0.660
        73 -10.3919    216.5182     73.3133   4.4503562167e+01   2.2332869094e+01    0.8893291    0.3611869 -48.88  0.003665647    2.370    0.578
        74  -9.0850    214.9983     64.2777   4.2648239094e+01   2.4035249098e+01    0.4338095    0.1874311 -34.72  0.001864228    2.321    0.569
        75  -9.5789    180.5467     79.2837   5.1574838597e+01   2.9331212538e+01    0.6240091    0.3586091 -69.43  0.002269159    2.792    0.642
        76  -7.6392     93.9730     81.0000   7.3567833885e+01   4.8354940564e+01    0.2432166   0.08310162  41.28 0.0006073369    2.907    0.656
        77  -7.8782     64.0060     80.0172   8.3840353603e+01   5.3690995175e+01    0.1759252    0.1587046 -12.96  0.001003667    1.019    0.019
        78 -11.1601    233.3257     57.8098   3.9058754749e+01   2.1171867890e+01    0.8345709    0.4615982 -71.63  0.003050914    2.186    0.542
        79  -9.6509    105.8740     71.7792   6.6917370402e+01   4.7733346569e+01    0.6049263    0.4420633 -80.30  0.002559642    2.307    0.567
        80  -9.5664    148.2063     70.2989   5.5538324280e+01   3.8423016554e+01    0.3450115     0.331656  62.13  0.001235448    1.006    0.006
        81  -8.0664      4.6806     70.7021   1.0581738765e+02   6.1589449003e+01    0.1339582   0.07055372 -37.60 0.0003500164    1.617    0.381
        82  -8.0902     81.9249     65.9843   7.2777127346e+01   5.3527739942e+01    0.2136269    0.1830718  85.70  0.001122443    1.706    0.414
        83  -8.0154     32.2136     65.8304   9.2555605574e+01   6.0627965200e+01     0.209726    0.1422013  67.07 0.0009631166    2.939    0.660
        84  -8.3238    203.3408     65.6629   4.4545081155e+01   2.6363086808e+01     0.197726    0.1305205  71.74  0.001010954    1.584    0.369
        85  -9.9801    200.2671     60.9900   4.3861114588e+01   2.7750437776e+01    0.6436109    0.3443718 -42.70  0.002423189    1.748    0.428
        86  -7.8849     47.2740     65.3784   8.5958969400e+01   5.9032812013e+01    0.1457713   0.09031171 -23.40 0.0007000748    1.698    0.411
        87  -7.6376     36.3095     63.3477   9.0015377817e+01   6.0722668413e+01    0.1438285   0.08565595 -24.75 0.0003476819    1.708    0.415
        88  -8.5360    148.1737     57.1880   5.1720560473e+01   4.0520706622e+01    0.4022568     0.199349 -52.02  0.001430529    2.515    0.602
        89  -8.6371    108.4990     55.7760   6.0876970754e+01   4.9907973059e+01     0.338947     0.232924 -60.54  0.001563061    2.066    0.516
        90  -8.4868     18.0125     55.4924   9.5947517004e+01   6.4003712600e+01    0.2016526     0.147539 -43.96  0.001169958    1.172    0.147
        91  -9.8646    233.4421    247.3013   7.6889678037e+01  -9.5659410695e+00    0.3031364    0.1601609  -5.11  0.001574732    2.196    0.545
        92 -10.7356    223.7818     42.8596   3.6879989670e+01   2.5183199127e+01    0.6873134    0.5411328 -38.71  0.004363186    1.331    0.249
        93 -10.6676    224.6539    240.0664   7.7314833594e+01  -7.4843874379e+00    0.8479408    0.4591798 -44.90  0.004536297    2.332    0.571
        94  -9.6412    250.0303     45.0774   3.4834679834e+01   1.9649367951e+01    0.4938547    0.1647333 -39.77  0.002034013    2.462    0.594
        95  -8.7655    250.4110     38.8134   3.3584446551e+01   2.0391113624e+01    0.2249442    0.1479577 -34.11  0.001389402    1.622    0.384
        96  -9.6619    201.4485     43.2299   3.9476433843e+01   2.9981991566e+01    0.6328442    0.3188958 -55.19  0.002970044    2.040    0.510
        97  -8.1580     57.5256     45.4652   7.4637311874e+01   6.1270807837e+01    0.2710877    0.1217879  36.38   0.00120526    2.156    0.536
        98  -9.6811    175.2736     43.1924   4.3020587763e+01   3.6028566934e+01    0.4783648    0.3020245  65.95  0.002453734    1.484    0.326
        99  -8.2391     85.3509     42.7572   6.3300764146e+01   5.6731434169e+01    0.2425954    0.1868945  35.85  0.001134421    1.178    0.151
       100  -7.6282     51.4566     43.4967   7.6425026662e+01   6.2514012130e+01    0.1322067    0.1116284  -2.74 9.823979e-05    1.017    0.017
       101  -9.7166    128.2818     39.1218   5.0386942946e+01   4.7773776135e+01    0.6718652    0.3252945 -45.52  0.002854548    2.433    0.589
       102  -8.3941    102.5841     41.8755   5.7727316521e+01   5.3259393641e+01    0.2423882    0.1566643  54.19  0.001204388    1.501    0.334
       103  -8.0435    143.5051     38.5107   4.7081713785e+01   4.4231608132e+01    0.1377557    0.1253864  69.66 0.0008104549    1.024    0.024
       104  -8.8154     94.2891     33.8811   5.7188438398e+01   5.6103863985e+01    0.2065989    0.1742636 -46.61  0.001206486    1.442    0.307
       105  -8.9673     43.2161     31.4822   7.5205040267e+01   6.5603742340e+01    0.4047142    0.2116269  21.23  0.002010195    1.989    0.497
       106  -9.4615    145.3520     25.4243   4.2825871778e+01   4.5332265641e+01    0.5144443    0.2817882 -67.43  0.002186103    2.738    0.635
       107  -8.5630    184.7742     26.2619   3.7407151161e+01   3.5891011274e+01    0.2598899    0.1722098 -33.18  0.001048072    1.645    0.392
       108  -8.1916     93.8415     27.1815   5.4790000463e+01   5.7015058957e+01    0.1963645    0.1788405  59.56  0.001225003    1.218    0.179
       109  -8.2798     60.7124     27.5586   6.6072547606e+01   6.3421677774e+01    0.1747421    0.1157253  47.41 0.0009545192    1.654    0.395
       110  -7.6903     33.0000     26.2513   7.7818085732e+01   6.7745582886e+01    0.1586879   0.09295213  26.34 0.0008931743    1.598    0.374
       111  -9.1553    151.8675     20.1027   4.0225876536e+01   4.4339598814e+01    0.2023921    0.1639629 -80.32 0.0005632701    1.252    0.201
       112  -9.0811     97.2076     48.1939   6.1549918265e+01   5.3500638865e+01     0.333589    0.2459193 -52.76  0.001517493    1.728    0.421
       113  -8.1531     53.2316    245.2207   1.1383238080e+02   1.5754666421e+01    0.1849661    0.0902624 -88.41 0.0008913248    2.486    0.598
       114  -9.7466    155.3153    241.8075   9.1564299695e+01   1.9848077365e+00    0.2562138    0.2089423 -13.16 0.0009236803    1.297    0.229
       115  -7.6156      9.4805    240.5630   1.2215705226e+02   2.1444754251e+01    0.1130021   0.08714943  68.38 0.0003805493    1.020    0.020
       116 -10.5578    243.7204    236.7767   7.3306413731e+01  -9.3625870073e+00    0.3392381    0.2132282 -38.86  0.002087298    1.773    0.436
       117 -10.1218    196.3490    163.7620   6.8499903777e+01   9.8949102894e+00    0.7301298    0.3781757  61.99   0.00218991    5.149    0.806
       118  -9.2751    149.4677    234.6378   9.1766075865e+01   4.1415523252e+00    0.2467369    0.1490283  29.13 0.0006319141    1.483    0.326
       119  -9.0189    156.5566     43.3925   4.6122837243e+01   4.0466983339e+01    0.3709061    0.2212802 -63.36  0.001576358    2.168    0.539
       120  -9.9239    142.2554    234.9439   9.3391055522e+01   5.1935353652e+00    0.2363414    0.2028063   5.82  0.001440826    1.169    0.144
       121 -12.8243    246.5787    206.8017   6.7547921758e+01  -5.3928919827e+00     2.573443    0.6916928 -40.09  0.009948464    3.373    0.703
       122 -11.1532    246.1360    179.4896   6.2497173311e+01  -1.0289984949e+00    0.7543956    0.3268798 -36.48  0.003533941    1.961    0.490
       123 -12.1171    225.4804    217.1152   7.3201929775e+01  -4.1692438311e+00     1.422071    0.6689032 -46.66  0.006561399    2.628    0.619
       124  -8.4080    126.3163    227.6643   9.5900019503e+01   9.0498025608e+00    0.1380607   0.09972293  62.64 0.0004641483    1.695    0.410
       125  -9.1591    156.5856    225.4944   8.8792313051e+01   4.7114260539e+00    0.2631359    0.2090469  -1.59 0.0007226669    1.310    0.237
       126 -10.4817    133.6946    249.3065   9.7225412605e+01   3.8919622198e+00    0.5155643    0.3684197  74.22  0.002788072    2.137    0.532
       127  -7.6911     33.2189    224.6391   1.1641657553e+02   2.2345532991e+01    0.1540441    0.1122753  24.97 0.0005683147    1.613    0.380
       128  -8.8586     94.7224    222.1855   1.0241191974e+02   1.4973313490e+01    0.2111617    0.1591495  75.35 0.0009450149    1.494    0.331
       129  -7.8962     17.5484    215.4969   1.1909635009e+02   2.5946426626e+01    0.1206066    0.0983768  76.46 5.795583e-05    1.023    0.022
       130  -7.8590    175.9776    197.0155   7.9541268553e+01   6.9648486977e+00    0.1750299    0.1547932 -19.87 0.0009912447    1.092    0.085
       131  -9.9940    231.3367    188.8368   6.6866752165e+01  -4.2256616834e-01    0.7623054    0.2400478 -41.89  0.002919141    2.952    0.661
