#   1 NUMBER                 Running object number                                     
#   2 MAG_AUTO               Kron-like elliptical aperture magnitude                    [mag]
#   3 X_IMAGE                Object position along x                                    [pixel]
#   4 Y_IMAGE                Object position along y                                    [pixel]
#   5 X_WORLD                Barycenter position along world x axis                     [deg]
#   6 Y_WORLD                Barycenter position along world y axis                     [deg]
#   7 A_WORLD                Profile RMS along major axis (world units)                 [deg]
#   8 B_WORLD                Profile RMS along minor axis (world units)                 [deg]
#   9 THETA_WORLD            Position angle (CCW/world-x)                               [deg]
#  10 FWHM_WORLD             FWHM assuming a gaussian core                              [deg]
#  11 ELONGATION             A_IMAGE/B_IMAGE                                           
#  12 ELLIPTICITY            1 - B_IMAGE/A_IMAGE                                       
         1 -15.7853     26.1763     94.5117   1.2194311419e+02   5.3048739740e+01     1.723484     1.291422  -0.63   0.01155314    1.939    0.484
         2 -15.4152      6.5743     71.8376   1.2439954525e+02   5.9233782241e+01     1.110842    0.6454673 -62.79  0.003423795    1.320    0.243
         3 -15.2245    119.8183     54.8648   8.4420457437e+01   4.7413732674e+01     1.357138    0.9516163  19.82  0.001990454    1.728    0.421
         4 -15.2498    122.2564     37.0094   7.7345149082e+01   4.9704391018e+01     1.600267    0.7122937  39.57  0.004803169    2.457    0.593
         5 -14.4067    112.0732     40.5563   8.1350789409e+01   5.1410960918e+01     1.926812    0.9872724  -7.81  0.005999541    4.265    0.766
         6 -13.8487    188.2170     25.2805   6.0314569193e+01   3.4453051284e+01     1.783809    0.7775585 -50.17  0.005345534    3.110    0.678
         7 -12.7778    186.0612     14.4392   5.7088767381e+01   3.6127448672e+01    0.4110353    0.3431063   4.52  0.001591923    1.245    0.197
         8 -15.4028     42.4572      8.4730   9.1343374115e+01   6.8475627796e+01     1.753637     1.137965 -21.57  0.009809077    1.387    0.279
         9 -13.9221      9.2177      3.2754   1.0506453043e+02   7.2733176772e+01    0.7935792    0.7114367  66.70  0.004506248    1.782    0.439
        10 -15.2775      8.2571     29.3888   1.1497370214e+02   6.7898076680e+01    0.8712134    0.7983295 -69.76  0.006958162    1.265    0.210
        11 -15.3674     14.3134     19.8455   1.0918673841e+02   6.9342386444e+01     1.060075    0.5377606 -38.67  0.004021838    1.659    0.397
        12 -14.0255     24.8427     14.0873   1.0198299191e+02   6.9513543129e+01    0.4901441    0.3923512  15.54  0.002019067    1.441    0.306
        13 -14.7456    166.1869     30.1583   6.5489441994e+01   3.9731036057e+01     1.527566    0.8667371  68.91  0.003851553    1.940    0.484
        14 -14.6767    145.7973     30.8022   6.9627222168e+01   4.4897037341e+01     1.137538    0.6565745  58.83  0.004204547    1.733    0.423
        15 -13.0542    139.3307     21.6019   6.7506293416e+01   4.7638059576e+01    0.6388336    0.5674859 -86.02  0.001695253    1.352    0.260
        16 -14.3149     29.7162     32.4344   1.0678699620e+02   6.5652543776e+01     1.115344    0.6850074  39.83  0.006688698    2.088    0.521
        17 -15.8225     99.6332     12.8593   7.3334134186e+01   5.7944336125e+01     1.492584    0.8201604  50.03  0.003078373    1.797    0.444
        18 -12.6769    218.7332     15.3211   5.3439311471e+01   2.7443635358e+01    0.3635296      0.31059  59.76  0.001177764    1.162    0.140
        19 -12.4144    214.1004      9.9361   5.2356420517e+01   2.9133607074e+01    0.5316272    0.3368784  66.53   0.00178463    1.536    0.349
        20 -12.5512    222.8315      5.2100   5.0130085472e+01   2.7305696222e+01    0.6275741    0.3504821 -24.49   0.00295039    1.735    0.424
        21 -11.7755    126.0176      8.8175   6.5174673415e+01   5.2322947902e+01    0.2565509    0.2053751  -7.73  0.001379716    1.224    0.183
        22 -11.3601    153.5352      8.1560   5.9748656828e+01   4.5383203888e+01    0.2572559    0.1956089  59.79   0.00047404    1.257    0.204
        23 -11.0812    229.3995      4.6749   4.9384520234e+01   2.5694164139e+01    0.2138168    0.1404964 -54.37 0.0005873215    1.587    0.370
        24 -12.0533    120.6134      4.0253   6.4296595712e+01   5.4102766165e+01    0.3264253    0.2074108  75.68  0.001251518    1.979    0.495
        25 -10.9073    117.5439      1.4397   6.3833375786e+01   5.5079933213e+01    0.2026625    0.1150391  48.37    4.058e-05    1.592    0.372
        26 -11.7854     67.5924      3.7343   7.8939524859e+01   6.5304192974e+01    0.2797398    0.2089996  11.30  0.001407856    1.258    0.205
        27 -11.9353     26.3778      3.9264   9.6530874218e+01   7.1081330156e+01    0.2136155    0.1555133   0.89  0.001264885    1.421    0.296
        28 -10.6512    192.9333      2.9969   5.2541174178e+01   3.5311497549e+01     0.168096    0.1636103   9.22 0.0004584347    1.052    0.049
        29 -12.5141     80.4351      1.9115   7.3730969082e+01   6.3142639484e+01    0.5856414    0.1786258  48.49  0.002266302    3.041    0.671
        30 -11.2672     62.4801      1.5225   7.9632315617e+01   6.6458506690e+01    0.2023697    0.1645333  10.44 0.0007433633    1.112    0.101
        31 -11.4722     59.4771      1.5113   8.0752283712e+01   6.6959378087e+01    0.2439274    0.1697186  18.17  0.001099611    1.422    0.297
        32 -10.8375    232.8613      1.4595   4.8206706259e+01   2.5104083558e+01     0.196959    0.1291877  73.70 0.0006354408    1.527    0.345
        33 -13.1588     94.5001    218.7649   1.2136373684e+02   2.1933445955e+01    0.2816643    0.1832266  50.54   0.00163621    1.187    0.158
        34 -12.9053     57.7405    246.4086   1.2913667819e+02   2.2506420394e+01     0.518612    0.2976212  31.61  0.003680359    2.376    0.579
        35 -13.8215     28.4061    246.2000   1.3335813615e+02   2.5614493506e+01    0.3858339     0.230826  69.49  0.002915052    1.217    0.178
        36 -11.8760      2.7656    249.9844   1.3701383004e+02   2.7472081927e+01    0.2571425     0.105216  48.34  0.002081115    1.660    0.398
        37 -14.1925      9.1683    245.7331   1.3601773385e+02   2.7487471228e+01    0.5809547    0.2659276  58.54  0.003153823    1.436    0.304
        38 -13.3112    201.6430    191.2925   9.9222770316e+01   8.6788193050e+00    0.5137839    0.3163481  21.56  0.002230398    1.743    0.426
        39 -10.3901     81.5102    193.4749   1.2127343349e+02   2.7618358926e+01    0.1098013   0.08675601  64.22 0.0001019057    1.006    0.005
        40 -10.6123    107.6035    193.1831   1.1644647637e+02   2.4032585095e+01    0.1401422    0.1049628 -49.22 0.0009460416    1.691    0.409
        41 -12.9720    198.4006    182.4235   9.8290848400e+01   1.0337374136e+01    0.3074173    0.2534432  39.75  0.001774545    1.124    0.110
        42 -12.9178    194.9693    177.7978   9.8092374528e+01   1.1548341774e+01    0.2865426    0.2584618  30.69  0.001463143    1.130    0.115
        43 -12.0051    122.4957    181.8881   1.1222700815e+02   2.3580183813e+01    0.3771067    0.2203936  78.40  0.001787433    2.954    0.661
        44 -12.4232     98.6801    187.2531   1.1742691136e+02   2.6298658112e+01     0.292366     0.226742   9.27  0.001842268    2.171    0.539
        45 -12.6313     48.9350    181.4364   1.2620296143e+02   3.3626895754e+01     0.328677    0.2205041 -57.41  0.002328578    1.812    0.448
        46 -11.9779     84.2440    178.9783   1.1924907489e+02   2.9726235549e+01    0.1413497   0.09029691 -69.15 0.0008934732    1.631    0.387
        47 -10.6025    101.0000    176.0055   1.1562738600e+02   2.7872911359e+01    0.1348691    0.1143453  64.06   -0.0213525    1.009    0.009
        48 -12.9654    134.6861    172.3545   1.0848979839e+02   2.3134544590e+01    0.3098736    0.2445937 -80.44  0.001936276    1.536    0.349
        49 -12.9507    179.9918    171.0124   9.9609685414e+01   1.5227229616e+01    0.3881302    0.1975942  49.28  0.001900848    1.799    0.444
        50 -13.8542    124.0146    166.9799   1.0979032697e+02   2.5824653532e+01    0.6029077    0.3873016 -75.62  0.003230832    2.130    0.531
        51 -12.4935    236.3819    159.8795   8.7639958461e+01   6.0700499106e+00     0.484363    0.1326584  44.08  0.001839914    3.067    0.674
        52 -12.6313     26.3935    156.9393   1.2859250504e+02   4.0398995689e+01    0.3940751    0.2373205  63.37  0.002737875    1.446    0.309
        53 -12.5870     77.4683    157.3113   1.1805791521e+02   3.4584506579e+01    0.3809642     0.242202  42.22  0.001183839    1.530    0.346
        54 -13.2491     74.3620    153.1588   1.1819285971e+02   3.5786383852e+01    0.6163833    0.3779746  35.49  0.003637751    1.778    0.437
        55 -12.9929    122.0912    156.0108   1.0845958752e+02   2.8062727863e+01    0.3591971    0.2566207  11.41  0.001864124    2.277    0.561
        56 -12.9649    111.1936    155.5064   1.1066849779e+02   2.9950362313e+01    0.4831277     0.300385  78.81  0.002381944    2.353    0.575
        57 -11.6115     55.3848    156.1650   1.2256646845e+02   3.7546784594e+01    0.2716583    0.2032417 -18.47   0.00166182    2.528    0.604
        58 -13.2721    205.3338    155.4066   9.2045108847e+01   1.2534957536e+01    0.4404489    0.2493456  53.50  0.002143002    1.884    0.469
        59 -12.5295    189.4575    156.1926   9.5094778227e+01   1.5529081068e+01    0.3316756    0.1705716  49.72  0.001556168    1.835    0.455
        60 -12.0772     85.4944    153.4368   1.1584156575e+02   3.4218964834e+01    0.3868296    0.2244175 -45.60  0.002094075    2.171    0.539
        61 -12.1226    103.5395    150.0012   1.1144541381e+02   3.2184737236e+01     0.318526    0.2630549 -28.55  0.001973517    1.627    0.386
        62 -11.8997    136.8218    211.1259   1.1332898260e+02   1.6915593171e+01    0.1721293    0.1311918  59.64 0.0008416389    1.216    0.178
        63 -13.2781    189.5734    150.0898   9.3859685142e+01   1.6383287189e+01    0.4112906    0.2976631  30.45   0.00227456    1.292    0.226
        64 -11.2022     44.7654    145.2272   1.2366676861e+02   4.0842952339e+01    0.1392331     0.120723 -64.06 0.0004781479    1.315    0.239
        65 -13.0102    149.1210    141.7467   1.0021217624e+02   2.5685878855e+01    0.4341936    0.3621848  53.41  0.002551253    1.150    0.131
        66 -13.2981     43.6050    138.6045   1.2320122784e+02   4.2277837168e+01    0.6003398    0.3228996 -42.29  0.003154223    2.862    0.651
        67 -11.7412     39.0072    136.5018   1.2400421121e+02   4.3168891727e+01    0.2485159     0.122641  60.60   0.00136462    2.143    0.533
        68 -11.5242    246.4604    135.2982   8.0884035536e+01   6.9864454384e+00    0.2116092    0.1717713  70.07  0.001205763    1.833    0.454
        69 -11.7940     62.1935    134.1063   1.1839114569e+02   4.1084247376e+01    0.3610076    0.2030629  47.13  0.001163578    1.744    0.427
        70 -11.0814     11.1284    134.1988   1.2999120042e+02   4.6083259180e+01    0.1448642    0.1169278 -84.96 0.0003512977    1.121    0.108
        71 -12.0937    138.0470    132.9352   1.0081367864e+02   2.9359597941e+01      0.21468    0.1665808   8.73  0.001127683    1.718    0.418
        72 -13.0227    132.5450    131.5388   1.0174221638e+02   3.0651595253e+01      0.42734     0.314244 -85.69  0.002181422    1.881    0.468
        73 -14.7268    104.5582    123.3292   1.0655188916e+02   3.7177974019e+01     1.600075    0.8938677  36.57   0.00776738    1.931    0.482
        74 -14.9894    107.1361    106.9226   1.0247885999e+02   4.0008467678e+01     1.531111     1.025574 -39.28  0.007862605    1.605    0.377
        75 -14.3428     92.8740    110.0784   1.0676967443e+02   4.1739246536e+01     1.212128    0.8878489  43.12   0.00688516    1.407    0.289
        76 -11.8916     60.1854    125.3017   1.1761970580e+02   4.3122301163e+01    0.4062042    0.2654244 -28.24  0.002133567    2.643    0.622
        77 -13.2554     62.0867    102.5748   1.1338402873e+02   4.7639228465e+01     1.137591    0.4252159 -62.99   0.00485508    2.571    0.611
        78 -14.2207     48.0725     96.5800   1.1615069030e+02   5.0529251728e+01     1.126924     1.051054  31.51  0.008106842    1.286    0.222
        79 -14.7821     28.1599    123.9837   1.2514971469e+02   4.6729693757e+01     1.605278    0.2760369 -55.83  0.005714885    5.106    0.804
        80 -13.5558      5.6601    118.6519   1.2994848630e+02   4.9580692581e+01    0.6400427    0.4414973 -61.99  0.004739473    1.412    0.292
        81 -14.3145      2.5585     97.1221   1.2870066512e+02   5.4184090255e+01      1.14497    0.3697704 -79.34   0.00470144    2.695    0.629
        82 -15.0686     17.8721    111.0715   1.2624442770e+02   5.0241252873e+01    0.8256342    0.7800431  52.48  0.004183688    1.316    0.240
        83 -12.1721    235.5010    248.8066   1.0233495272e+02  -2.2823337948e+00    0.2106792    0.1057324  38.77  0.001424753    1.393    0.282
        84 -13.4686    180.7824    121.3864   8.9303128783e+01   2.2575635637e+01    0.5278847    0.4273667 -18.66  0.002773055    1.303    0.232
        85 -13.4064     85.0176    115.4954   1.0983016156e+02   4.1827939440e+01    0.8459914    0.5256169  24.68  0.003702137    2.216    0.549
        86 -12.3013    194.5104    113.7864   8.4826031256e+01   2.0737978161e+01    0.2773774    0.1985261  46.62  0.001206672    1.332    0.249
        87 -12.4690     45.5254    110.2038   1.1905701766e+02   4.7915404965e+01    0.4600703    0.3103396 -51.53  0.002869075    1.499    0.333
        88 -12.4949    121.0844    111.5903   1.0011019418e+02   3.6569581361e+01    0.3500354    0.2283411  62.21  0.001478126    1.845    0.458
        89 -11.9507    174.8606    110.8574   8.7957420667e+01   2.5564252339e+01    0.1970063    0.1802834 -77.76   0.00108355    1.326    0.246
        90 -12.5290    184.9919    124.2957   8.9153246924e+01   2.1212402714e+01    0.3395681    0.2506402  36.13  0.001106773    1.270    0.213
        91 -11.3389    222.2286    109.5841   7.8861192428e+01   1.5196250347e+01    0.2089843    0.1199105  40.23  0.000956012    1.662    0.398
        92 -12.0197    236.3982    108.2095   7.6229640646e+01   1.2308447634e+01    0.1990809    0.1202063 -34.23 0.0009562143    1.692    0.409
        93 -13.2165    123.5402    102.1560   9.7286220275e+01   3.7924937201e+01     0.974616    0.3422427  44.34  0.003520559    2.848    0.649
        94 -13.3565    136.9769     96.5774   9.2635111461e+01   3.6273958284e+01    0.5511688    0.3814396 -34.17  0.002693941    1.504    0.335
        95 -11.4127    167.1698    103.0630   8.7581579851e+01   2.8565840588e+01    0.3491924    0.1933643 -42.63  0.001497495    1.917    0.478
        96 -12.7942    136.0084    103.4099   9.4609330558e+01   3.5207290610e+01     0.583306    0.3460834  49.89  0.001636556    1.689    0.408
        97 -13.1047     97.4385     93.1019   1.0174968943e+02   4.4457517920e+01    0.5490559    0.4413576  68.28  0.002191285    1.434    0.303
        98 -10.6895     76.0386     95.5042   1.0814287112e+02   4.7280863075e+01    0.1736679    0.1277451  39.26 0.0004063279    1.478    0.323
        99 -14.5121    188.2969     84.3097   7.8302349883e+01   2.6634064336e+01      1.19984    0.8433635  89.72  0.004332504    2.296    0.564
       100 -14.3148    178.5981     85.7537   8.0583171093e+01   2.8733892986e+01     1.938721    0.5426231 -41.73  0.005633458    4.000    0.750
       101 -13.3625    163.8738     71.3047   7.9384467828e+01   3.4549716610e+01    0.8092512    0.4062672  42.65  0.002452246    2.020    0.505
       102 -14.7316    161.0306     80.5358   8.2726458841e+01   3.3735119641e+01     1.716655    0.7408173  34.47  0.005490669    3.359    0.702
       103 -13.8521    169.7667     77.2702   7.9938050706e+01   3.2184637441e+01    0.8256672    0.5537704 -29.58  0.002998642    1.503    0.335
       104 -11.6742     89.8244     87.5863   1.0246549654e+02   4.6836008725e+01    0.3840697    0.2176233  53.69  0.001788653    2.115    0.527
       105 -12.6613    131.0040     85.5535   9.1090030847e+01   3.9560164333e+01    0.5716137    0.3812369  70.36  0.002506249    2.149    0.535
       106 -11.9109    125.5149     86.7128   9.2772958720e+01   4.0477058125e+01    0.4720781    0.3179657  73.90  0.002055383    2.278    0.561
       107 -12.2243    241.2282     83.8286   6.9432019367e+01   1.4277689680e+01    0.3817395    0.2923144 -84.98  0.001931292    1.935    0.483
       108 -13.2137    237.6691     79.9144   6.8935865503e+01   1.5557314423e+01    0.4048245    0.3817889  64.75  0.001995014    1.230    0.187
       109 -10.7149     98.4300     84.2117   9.9214212674e+01   4.6079427629e+01    0.1859458    0.1260036 -59.26 0.0003819564    1.582    0.368
       110 -14.0889     63.0938     57.7563   1.0244609371e+02   5.6862474921e+01    0.9595445    0.6475475 -32.07  0.005305505    1.531    0.347
       111 -14.7603     39.4163     67.7800   1.1299428412e+02   5.7538326306e+01     2.336357    0.5243151  30.24  0.008512455    5.077    0.803
       112 -14.4756     86.4750     66.5040   9.7660207909e+01   5.1621609981e+01     1.508728    0.8690358 -23.88  0.004077396    2.569    0.611
       113 -13.6829     56.5154     78.9754   1.1012953464e+02   5.3312573936e+01    0.6103417    0.3963449 -44.12  0.002362126    1.485    0.327
       114 -14.0272     60.8874     75.7518   1.0802618579e+02   5.3453509124e+01    0.7104528    0.4192165 -54.21 0.0007614619    1.478    0.323
       115 -13.9844    170.9338    242.3761   1.1134459562e+02   7.8602522424e+00    0.8241168     0.366147  40.84  0.004991884    1.647    0.393
       116 -13.9704    216.0448     80.2184   7.2318118756e+01   2.0552875713e+01    0.6867293    0.4877866  22.90  0.003329198    1.505    0.336
       117 -12.9355    210.7004     77.7214   7.2510479663e+01   2.2167973775e+01    0.5093376    0.3279558 -49.27  0.002279565    1.883    0.469
       118 -13.2202    134.7979     79.6347   8.8469294251e+01   3.9831683844e+01    0.9286901     0.463426  56.58  0.003427726    2.339    0.572
       119 -13.6357    133.7972     67.5175   8.5034006490e+01   4.2190077412e+01     1.149384    0.7423708  36.82  0.004744879    1.636    0.389
       120 -14.5294    101.6598     50.3686   8.7866893130e+01   5.1904387781e+01    0.9700343    0.6594492  64.08  0.001731726    2.026    0.506
       121 -14.3000     91.3183    231.9485   1.2300102934e+02   2.0462588546e+01    0.4907449    0.2764917  77.86  0.003258482    2.116    0.527
       122 -12.8433    147.3337    238.8668   1.1468503795e+02   1.1762836322e+01    0.3253382    0.2153987  70.32  0.002227951    1.957    0.489
       123 -11.9557    113.8898     80.3786   9.3987120371e+01   4.3990286324e+01    0.3664024    0.3180943 -52.39  0.001655841    1.171    0.146
       124 -11.7764     90.5961     80.2787   1.0035793136e+02   4.8194870489e+01    0.3827015    0.2916894   8.74  0.002027977    1.744    0.427
       125 -12.1898     41.8546     77.1442   1.1425529366e+02   5.5314034415e+01    0.2909677    0.2209236 -62.18  0.001039837    1.107    0.097
       126 -13.8592    199.8773     70.1705   7.2208724156e+01   2.5844806206e+01    0.8115155    0.4355404  56.27  0.001991165    1.857    0.461
       127 -14.3045      5.6384     63.6908   1.2342756709e+02   6.0999525071e+01    0.5951782    0.4971968 -25.59  0.004023839    1.457    0.314
       128 -11.9027    158.0824     63.8843   7.8318540148e+01   3.7119974068e+01    0.4948459    0.1893889 -42.35  0.001669344    2.846    0.649
       129 -13.2638    236.8790    230.0201   9.9539461471e+01  -9.6672149659e-01    0.3734606    0.3255479 -68.76  0.002759488    2.408    0.585
       130 -11.8867    100.1957     64.5744   9.3031078504e+01   4.9594496143e+01    0.3451966    0.3026535 -24.07  0.001393354    1.112    0.100
       131 -13.8572     74.9734     74.2483   1.0333197292e+02   5.1850842833e+01    0.9614581    0.6725732  14.05  0.004871493    1.968    0.492
       132 -13.5424     79.4899     60.1667   9.7869861277e+01   5.3989889210e+01     0.680465    0.4801163 -23.02  0.003592651    1.625    0.385
       133 -11.7263     85.9115     50.0609   9.2514484540e+01   5.4846125829e+01    0.3509076    0.1835963 -35.21  0.001402505    1.850    0.460
       134 -13.8484    177.7817     57.7887   7.2457829124e+01   3.3124113493e+01    0.7748079    0.6527077 -64.11  0.002372771    1.421    0.296
       135 -12.6669     39.1309     60.5254   1.1136063102e+02   5.9086517155e+01    0.3012437    0.2024027  59.07  0.001741052    2.018    0.504
       136 -12.5163     24.5602     59.9891   1.1627433663e+02   6.0496502958e+01    0.3109636    0.1825337 -56.42  0.000996189    1.340    0.254
       137 -11.9041     30.6241     58.5205   1.1382541344e+02   6.0297852410e+01    0.2811494    0.1465442 -58.85  0.001129659    1.539    0.350
       138 -11.6406    248.4226     56.2105   6.1318457296e+01   1.5890532475e+01    0.2020673    0.1156712 -33.88 0.0007628319    1.632    0.387
       139 -13.6252     66.8834     49.6238   9.8596698296e+01   5.7933358683e+01    0.6342958     0.468983 -49.14  0.002732364    1.256    0.204
       140 -12.0931      5.9029     50.8068   1.2101339385e+02   6.3674791170e+01    0.2882167    0.1663213 -47.65  0.001416223    1.489    0.328
       141 -11.3603    136.2309     49.9683   7.8630773864e+01   4.4518667045e+01    0.2595437    0.2103075  40.04 0.0008885317    1.215    0.177
       142 -11.0582     23.2967     50.0308   1.1441146128e+02   6.2668945488e+01    0.1672891    0.1241689 -57.47 0.0004970523    1.074    0.069
       143 -11.5406    194.9116     23.7349   5.8876557947e+01   3.2840716305e+01    0.3783032    0.2658641  -4.23  0.001279586    1.542    0.351
       144 -14.1945     96.1134    237.8721   1.2271463356e+02   1.9028681201e+01    0.6391438    0.3136667  47.68  0.001535246    1.488    0.328
       145 -12.7595     24.8309    217.1267   1.3258631208e+02   3.0208435337e+01     0.515026    0.2454927  64.06   0.00376165    1.616    0.381
       146 -12.6242    198.6970     37.3964   6.2604343409e+01   3.0339076063e+01    0.5361264    0.3552391  88.89  0.001974983    1.969    0.492
       147 -14.0392    217.8748     41.9711   6.1282463952e+01   2.4881352579e+01     1.425461    0.6232321  66.42  0.004426415    2.448    0.591
       148 -12.5491    154.5334     46.4960   7.3364609451e+01   4.0593403765e+01    0.5446171    0.2539169  52.67  0.002022275    2.044    0.511
       149 -13.2874    158.4644     43.5039   7.1540940852e+01   4.0020721406e+01    0.7822663    0.3689611  54.68  0.003059411    2.025    0.506
       150 -11.0918    143.2257     46.3945   7.5774512804e+01   4.3391979224e+01    0.2130236    0.1466928  67.68 0.0009570496    1.725    0.420
       151 -13.6002      9.0739     42.6765   1.1806437340e+02   6.5168009702e+01    0.6572788    0.3659596  22.59  0.004131042    2.265    0.558
       152 -11.1803    169.2486     43.0832   6.9316035834e+01   3.7317664314e+01    0.2641273    0.2027566  81.34 0.0007880146    1.577    0.366
       153 -11.7055     25.5086     43.0295   1.1173056572e+02   6.3921670549e+01    0.1848766   0.09434852 -56.93 0.0004982711    1.560    0.359
       154 -12.5051    245.9041     37.0968   5.6564188365e+01   1.8552245757e+01    0.4695596      0.28256 -71.86  0.001280323    2.341    0.573
       155 -11.9836    241.0238     36.2420   5.6867314944e+01   1.9801335146e+01    0.4614357    0.2086618  70.89  0.001873054    2.522    0.604
       156 -13.0996     75.8852     37.4036   9.1147136200e+01   5.8796317841e+01    0.3477399    0.2757742  31.73 0.0007941089    1.354    0.262
       157 -12.7215     70.4403     36.6340   9.2717325099e+01   5.9802807028e+01    0.3761078    0.2680148   3.42  0.001987519    1.717    0.418
       158 -12.5873    104.9051     36.4922   8.1781810280e+01   5.3551978555e+01     0.421907     0.201065 -26.24   0.00170587    2.222    0.550
       159 -12.7268    205.2987     40.3955   6.2558268501e+01   2.8276824041e+01    0.5128155    0.3533566 -79.81  0.002193861    1.944    0.485
       160 -12.8350     46.4123     33.9364   1.0058638749e+02   6.3599193482e+01    0.5625597    0.3167197 -33.72  0.003007912    1.686    0.407
       161 -13.3984     56.0170     27.5897   9.4398352197e+01   6.3511576170e+01    0.4578125     0.324589  34.83  0.001468101    1.597    0.374
       162 -13.9291     20.3425    224.5232   1.3361288582e+02   2.9511284116e+01    0.3719188    0.2698521  63.62  0.001787939    1.123    0.109
       163 -13.5399     23.9898    230.7558   1.3333969137e+02   2.8240033056e+01    0.2197805    0.1719586  84.44   0.00155675    1.318    0.241
       164 -13.6970     26.7367    226.3546   1.3273089875e+02   2.8624097764e+01    0.3471614    0.2112403  85.22  0.002106761    1.403    0.287
       165 -13.1098     57.3780    203.8507   1.2644339164e+02   2.8880954069e+01    0.4182898    0.2156083  86.35  0.002645318    2.098    0.523
       166 -13.1062     53.0486    214.1456   1.2789626352e+02   2.7735856113e+01    0.3218895    0.1426575  59.82  0.002046954    1.904    0.475
       167 -14.1166     66.8351    223.1585   1.2627077727e+02   2.4771224329e+01     0.655852    0.4195943  42.13  0.004987462    1.470    0.320
       168 -13.1251    152.1785     31.5787   6.8616800316e+01   4.3183153555e+01    0.4776789    0.3279723 -21.15  0.001392322    1.465    0.318
       169 -13.6481     98.7466    215.5282   1.2035007678e+02   2.1837995163e+01    0.3675254    0.3037211 -84.80  0.002961799    1.332    0.249
       170 -11.4478    249.0055    225.4949   9.7055659868e+01  -2.4045120642e+00    0.1722054   0.08039818  39.98  0.001042391    1.618    0.382
       171 -11.5626    211.2131     33.4497   5.9667122313e+01   2.7535488720e+01    0.2547845    0.1972526 -22.78 0.0003129179    1.271    0.213
       172 -11.7732    216.3795     29.2333   5.7766464450e+01   2.6660442175e+01    0.2626621    0.1750093 -33.00 0.0006619366    1.461    0.316
       173 -10.5827     89.2798     30.3159   8.3955773208e+01   5.7605922272e+01    0.1387407   0.09959691   1.71 0.0002253901    1.574    0.365
       174 -11.6305     97.5000     27.0661   8.0117644939e+01   5.6489695077e+01    0.2509959     0.235885  16.77  0.001435525    1.116    0.104
       175 -11.6780    201.0223    215.9622   1.0312959860e+02   5.9936948503e+00    0.1873007    0.1130519  23.12  0.001136298    1.697    0.411
       176 -12.5264    215.3289     20.8523   5.5432276746e+01   2.7786226669e+01    0.3276189    0.2470584   9.02  0.001019717    1.457    0.314
       177 -10.9822    223.0351     21.5221   5.4759517212e+01   2.5748496923e+01    0.2096074    0.1373242  67.47 0.0005336358    1.541    0.351
       178 -11.3222     85.3540    215.7372   1.2263610018e+02   2.3588391698e+01    0.2045141   0.09516974  50.76  0.001263953    1.675    0.403
       179 -11.9326    156.2379    214.5071   1.1040763086e+02   1.3413058023e+01    0.3251881    0.1592009  36.53  0.001802658    1.843    0.457
       180 -14.0265      8.9352    210.7870   1.3477603352e+02   3.2657076764e+01    0.5574594    0.4238855  42.48  0.005101424    1.551    0.355
       181 -11.5606     70.7366     16.8608   8.4248141682e+01   6.2972276106e+01    0.2183256    0.1962114  -0.31 0.0004383103    1.106    0.096
       182 -10.7041    201.9864     11.5190   5.4167339373e+01   3.2162207028e+01    0.2161929    0.1362139  66.23 0.0006840248    1.534    0.348
       183 -13.5516     16.5395    196.3363   1.3289389176e+02   3.4311264752e+01    0.6828756    0.2040008 -68.00  0.003902493    3.108    0.678
       184 -14.2954     30.3487    168.6050   1.2871019303e+02   3.7857115256e+01    0.6109464    0.5143359 -83.86  0.001899381    1.248    0.199
       185 -13.6996     22.5998    181.2569   1.3100504598e+02   3.6325275462e+01     0.450544    0.3220807  85.99  0.002209308    1.137    0.121
       186 -11.2951    245.8836     16.1309   5.1010273354e+01   2.0635214784e+01    0.2238909    0.1736288 -50.82  0.001257237    1.285    0.222
       187 -15.3733      8.0367    183.8295   1.3370940727e+02   3.7162070309e+01     1.095132    0.6974242  76.60  0.008899435    1.167    0.143
       188 -15.6353     15.7071    175.4781   1.3190039567e+02   3.7963023438e+01     2.126698    0.8344303  76.72   0.01179148    2.628    0.619
       189 -12.6441     45.4957    208.7840   1.2879213811e+02   2.9411040685e+01    0.2654515    0.1325512  86.39    0.0017488    2.023    0.506
       190 -14.4071     62.8226    214.9664   1.2634137511e+02   2.6488279052e+01    0.6015958    0.3603019  66.66  0.004400177    1.399    0.285
       191 -11.1870    149.6689    206.8807   1.1056592455e+02   1.5474625808e+01    0.2082762    0.1307721  38.24 0.0009448567    1.371    0.270
       192 -10.3872    123.9923    205.9994   1.1497181739e+02   1.9612729266e+01    0.1307045    0.1042436  52.96 0.0009430615    1.008    0.008
       193 -13.6522     39.5529    195.3466   1.2891962185e+02   3.2239661916e+01    0.5132603    0.2696655  59.58  0.003555365    1.539    0.350
       194 -10.5407    212.3271    200.3437   9.8899261894e+01   5.8090017206e+00    0.1253714   0.07562979  19.97 0.0005923533    1.743    0.426
       195 -13.9376    164.6039    195.4864   1.0635871914e+02   1.4560111676e+01    0.5561358    0.3760909 -73.92  0.003061795    2.630    0.620
