#   1 NUMBER                 Running object number                                     
#   2 MAG_AUTO               Kron-like elliptical aperture magnitude                    [mag]
#   3 X_IMAGE                Object position along x                                    [pixel]
#   4 Y_IMAGE                Object position along y                                    [pixel]
#   5 X_WORLD                Barycenter position along world x axis                     [deg]
#   6 Y_WORLD                Barycenter position along world y axis                     [deg]
#   7 A_WORLD                Profile RMS along major axis (world units)                 [deg]
#   8 B_WORLD                Profile RMS along minor axis (world units)                 [deg]
#   9 THETA_WORLD            Position angle (CCW/world-x)                               [deg]
#  10 FWHM_WORLD             FWHM assuming a gaussian core                              [deg]
#  11 ELONGATION             A_IMAGE/B_IMAGE                                           
#  12 ELLIPTICITY            1 - B_IMAGE/A_IMAGE                                       
         1 -14.8000    166.0963     40.4752   7.6537000308e+01   3.9041820440e+01     1.294795     1.072025   1.84  0.004080985    1.436    0.304
         2 -14.5783    181.9739      7.5642   6.4062172559e+01   3.8722456582e+01     1.459031    0.8502776  61.37   0.00601585    1.555    0.357
         3 -12.0423    125.0055    247.0837   1.3060046827e+02   8.6403332824e+00    0.2348897    0.1490659 -60.35  0.001472665    1.963    0.490
         4 -19.9975     68.2668    172.6465   1.3356055077e+02   3.1581104741e+01     17.48374     6.687301 -68.26   0.07377255    2.559    0.609
         5 -11.8262    161.4591    197.5342   1.1681026218e+02   1.0708026546e+01    0.2839584    0.2330173  64.35  0.001611219    1.315    0.239
         6  -9.8758    150.6786    247.2290   1.2596095977e+02   4.5562293886e+00    0.1288258    0.1103743 -35.50 0.0005003544    1.537    0.349
         7 -11.4955    169.8469    195.1931   1.1470532073e+02   9.5565397078e+00    0.2058389    0.1755155  57.41  0.001206626    1.209    0.173
         8 -11.5093    119.2496    243.2241   1.3123739164e+02   1.0144783944e+01     0.169498    0.1341839  66.51 0.0006152578    1.181    0.153
         9 -11.4977     13.9999    240.9781   1.4936233650e+02   2.4334375638e+01    0.3018649    0.1062261 -75.38  0.001752001    2.598    0.615
        10 -11.1174    153.7423    184.9323   1.1627162828e+02   1.4471534205e+01    0.2507545    0.1996843 -78.40  0.001347389    1.548    0.354
        11 -12.9851    207.4780    178.3262   1.0412583470e+02   5.2520713854e+00    0.5704571    0.4064661   9.59  0.002341108    1.637    0.389
        12 -12.2376    112.8568    169.6463   1.2276482047e+02   2.5200692990e+01    0.4174865    0.3769294 -40.62  0.001162749    1.326    0.246
        13 -10.7638    112.1262    176.3930   1.2402736699e+02   2.3875441196e+01    0.2631601    0.1789706  68.81  0.001140154    1.599    0.375
        14 -10.3132     11.0000    241.8818   1.4987735748e+02   2.4482274757e+01    0.1665693   0.09479911  81.12 0.0009649916    1.345    0.256
        15 -10.0769    131.7779    236.2991   1.2814224007e+02   9.2737287058e+00    0.1114762   0.08084116  68.83 0.0002533403    1.459    0.314
        16 -10.3148      1.9922    181.9961   1.4858394468e+02   3.6778878387e+01    0.1720271    0.1235264  78.18 0.0008412919    1.029    0.028
        17 -10.7014    219.3004    177.3465   1.0171796996e+02   3.1844403830e+00    0.1410161   0.09793507   5.75 0.0002103508    1.683    0.406
        18 -13.1295    166.9992    188.0232   1.1403464186e+02   1.1365640341e+01    0.4655613    0.4528369 -14.62   0.00203216    1.129    0.114
        19 -11.6822    193.8056    164.9620   1.0408859154e+02   1.0209434164e+01    0.3561285    0.3160958  86.86  0.001204966    1.423    0.297
        20 -12.0167      8.9947    175.2972   1.4677625993e+02   3.7590823233e+01     0.207617    0.1547825  60.85  0.000621944    1.239    0.193
        21 -11.2994    203.2718    171.3401   1.0353465626e+02   7.2189217513e+00    0.4129032    0.2391842  37.39  0.001565597    1.665    0.399
        22 -12.4894    138.3572    171.1932   1.1719063299e+02   2.0146796572e+01    0.6146445    0.4254517  81.69  0.002831332    1.995    0.499
        23 -11.7194    125.7233    171.9447   1.2018939642e+02   2.2375968262e+01    0.3092657    0.2403102 -74.40  0.001164294    1.397    0.284
        24 -13.1085    195.7253    170.0241   1.0474622919e+02   8.9351655764e+00    0.5876746    0.4421586 -48.13  0.001886809    1.496    0.331
        25 -10.5566    219.1503    224.1475   1.1022885681e+02  -3.4402920285e+00    0.1504778    0.1338692  36.21 0.0003769015    1.298    0.230
        26 -11.9615    163.4620    188.4690   1.1484712159e+02   1.1959676497e+01    0.2826573    0.2746809  23.07 0.0009187427    1.095    0.087
        27 -10.8078    110.2392    222.9319   1.3070308611e+02   1.5010046559e+01     0.169544    0.1379827  70.15 0.0004129677    1.127    0.112
        28 -11.9391    142.9288    167.7393   1.1552215585e+02   1.9970005881e+01    0.3126566    0.2366367 -85.39  0.001210839    1.664    0.399
        29  -9.4919     15.2115    215.0407   1.4792094090e+02   2.8959626094e+01    0.1423723    0.1125401 -84.98 0.0007124037    1.336    0.251
        30 -11.0610    201.5445    166.0433   1.0278331439e+02   8.4623422094e+00    0.2728985     0.174529 -51.56  0.001044245    1.905    0.475
        31 -10.4299    201.0376    162.4804   1.0213756292e+02   9.1805657818e+00    0.3463186    0.1938333  27.34  0.001060426    2.248    0.555
        32 -10.5617      1.2705    214.8929   1.5033344139e+02   3.0318963482e+01    0.1328713   0.06928039 -77.30 0.0004545188    1.698    0.411
        33 -12.0822    116.1667    212.0417   1.2821358583e+02   1.6044001868e+01    0.2525659    0.1825101  88.45 0.0009974197    1.569    0.363
        34 -10.7875    107.9539    207.2674   1.2928386321e+02   1.8292994320e+01    0.1864942    0.1577568  59.74 0.0004996574    1.036    0.035
        35 -10.5197    111.5486    213.4693   1.2932262292e+02   1.6533097407e+01    0.1640822     0.115824 -87.45 0.0001980783    1.604    0.376
        36 -10.5233      1.4833    165.5288   1.4770655474e+02   4.0293510206e+01    0.1128117   0.08440356  88.78  0.000325289    1.059    0.055
        37 -10.5975    222.4516    161.7822   9.7945795128e+01   5.0544955893e+00    0.2466826    0.1279967 -40.65 0.0007643658    1.977    0.494
        38 -12.0641    161.8963    153.7900   1.0846951890e+02   1.8957193104e+01    0.4764395    0.3359294 -88.49  0.002036414    2.230    0.552
        39 -13.9257    135.7564    127.3146   1.0867201253e+02   3.0118568872e+01     1.777019    0.3347143 -49.91  0.003987514    6.147    0.837
        40 -10.6763    174.6994    149.0944   1.0465353781e+02   1.7167117144e+01     0.258697     0.203832  58.15 0.0006199563    1.337    0.252
        41 -13.1490    144.1454    145.8667   1.1083379986e+02   2.4323990299e+01    0.5807575    0.3722166 -67.16   0.00246388    2.014    0.503
        42 -10.7394    109.5271    210.5137   1.2936693280e+02   1.7417166829e+01    0.2398894    0.1726315  66.52 0.0005579523    1.307    0.235
        43 -11.9071    163.8503    203.1839   1.1725244253e+02   9.2835184785e+00    0.2851981    0.2312674  72.61 0.0003354491    1.476    0.323
        44 -11.6138    157.7079    202.0446   1.1831114237e+02   1.0602386827e+01    0.5486445    0.3525881  76.16  0.002151824    2.652    0.623
        45 -10.1123    171.8352    137.8575   1.0272891568e+02   2.0012958854e+01    0.2084058     0.183192 -88.33 0.0006343802    1.312    0.238
        46 -11.7511    160.3047    128.0114   1.0296997976e+02   2.4590431969e+01    0.3666469    0.2820149 -63.03  0.001709705    1.473    0.321
        47 -10.8500    154.6753    196.2329   1.1799077263e+02   1.2197725678e+01    0.3752622    0.2435007  78.11  0.001661162    2.588    0.614
        48 -11.7204    168.9109    202.5113   1.1612698907e+02   8.4732708820e+00    0.2052088    0.1788903  69.97 0.0006499818    1.311    0.237
        49 -14.1979    133.4686    145.5227   1.1330836278e+02   2.6586458963e+01     1.728725    0.4578281 -54.55  0.004513102    4.986    0.799
        50 -12.9266     30.8105    118.8033   1.3592303101e+02   4.8438228629e+01    0.3225869    0.2697474 -51.04  0.001085292    1.276    0.216
        51 -11.8469    134.6032    105.5413   1.0345530935e+02   3.5109246655e+01    0.5032474    0.1543146 -44.55   0.00150717    3.238    0.691
        52 -10.6754    167.6765    112.6766   9.7442749480e+01   2.6020450779e+01    0.3281442    0.2318304 -81.94  0.001335676    2.119    0.528
        53 -10.4089    139.2420    201.0008   1.2194333855e+02   1.4131422617e+01    0.1961491    0.1607552  80.15 0.0005818837    1.347    0.257
        54 -10.9596    133.6194    249.0442   1.2925643912e+02   6.9940745857e+00    0.2161315    0.1233445 -50.59  0.001026406    2.267    0.559
        55 -10.7001    205.5150    110.1932   8.9121014118e+01   1.7570810222e+01    0.2689919    0.2140082  52.29 0.0006051296    1.295    0.228
        56 -10.4821     19.0449    108.6315   1.3789137874e+02   5.1794532982e+01    0.1557281    0.1438972 -64.54 0.0008651572    1.193    0.162
        57 -13.1577    128.9407    143.5074   1.1398559159e+02   2.7938579782e+01    0.5921143    0.2857313  53.40  0.001878508    2.281    0.562
        58 -13.1427    180.5820    193.4178   1.1223282214e+02   7.8482757877e+00    0.4370223     0.359159 -82.51  0.001824106    1.698    0.411
        59 -11.2092    170.4916    185.0811   1.1278296013e+02   1.1225899055e+01    0.2623503    0.2412199  62.29 0.0007888285    1.153    0.133
        60 -10.7090     98.7397     80.9127   1.0644327245e+02   4.7803054579e+01    0.2352475    0.2084766  43.96 0.0004728604    1.183    0.155
        61 -10.4595    145.4912     80.4645   9.3523314879e+01   3.7685415206e+01    0.1540221    0.1523081  27.74 8.727558e-05    1.025    0.025
        62 -13.6725    174.9002    193.2643   1.1334673617e+02   8.9423421674e+00      0.66394    0.4340834 -60.87  0.002579483    2.100    0.524
        63 -14.3857    154.1393     55.4464   8.3681220420e+01   3.9917534002e+01     1.254557     1.001328  54.00 0.0009639764    1.216    0.178
        64 -10.2961    160.0168    249.2623   1.2452295931e+02   2.7739823689e+00    0.1644724    0.1290566  42.69 0.0008662786    1.023    0.022
        65 -12.9299    170.0628     32.8084   7.3434526416e+01   3.9016611271e+01      0.41278     0.379715  26.03 0.0009595996    1.199    0.166
        66 -10.6693     13.6363     60.0065   1.3102689042e+02   6.3076774020e+01     0.165861    0.1569955 -76.11 0.0004857285    1.240    0.193
        67 -11.0314    138.7735     31.6966   7.8886053521e+01   4.7228286920e+01    0.3668369    0.2321639  82.71  0.001584879    2.086    0.521
        68 -13.3910    175.3481    186.0961   1.1196996950e+02   1.0109167505e+01    0.5904832    0.4063762 -66.84  0.002516943    2.115    0.527
