#   1 NUMBER                 Running object number                                     
#   2 MAG_AUTO               Kron-like elliptical aperture magnitude                    [mag]
#   3 X_IMAGE                Object position along x                                    [pixel]
#   4 Y_IMAGE                Object position along y                                    [pixel]
#   5 X_WORLD                Barycenter position along world x axis                     [deg]
#   6 Y_WORLD                Barycenter position along world y axis                     [deg]
#   7 A_WORLD                Profile RMS along major axis (world units)                 [deg]
#   8 B_WORLD                Profile RMS along minor axis (world units)                 [deg]
#   9 THETA_WORLD            Position angle (CCW/world-x)                               [deg]
#  10 FWHM_WORLD             FWHM assuming a gaussian core                              [deg]
#  11 ELONGATION             A_IMAGE/B_IMAGE                                           
#  12 ELLIPTICITY            1 - B_IMAGE/A_IMAGE                                       
         1 -14.2802     68.3215    144.4484   1.0605745343e+02   3.7378488796e+01     3.645673     1.695044 -84.96  0.007033635    4.736    0.789
         2 -13.9303    225.9079     16.0593   3.7578202948e+01   2.6804192358e+01      1.14606    0.9407268  36.04  0.002969569    1.622    0.384
         3 -13.8296    208.4935     33.5638   4.3666322803e+01   2.8832280979e+01      1.39203     1.141838 -24.50  0.006314066    1.371    0.271
         4 -12.5239    215.8096     26.3438   4.1025272461e+01   2.7967693371e+01     0.542403    0.4330857  28.96  0.001305504    1.679    0.404
         5  -9.1281    132.5661     10.7369   4.8037930963e+01   5.0337825196e+01    0.1718743    0.1247736 -38.27  0.000555832    1.545    0.353
         6 -10.9624      1.9937      3.9991   9.3386124919e+01   7.3966578103e+01    0.2604201    0.1393985 -48.25  0.001606497    1.872    0.466
         7 -13.7914    200.0389     39.4684   4.6280631376e+01   3.0135909280e+01     1.420921     1.186781  18.33  0.004818639    1.527    0.345
         8  -9.8258     44.1387      1.3402   6.9445022022e+01   6.9544491325e+01    0.1573488    0.1030338  45.71 0.0009427115    1.794    0.442
         9 -11.1459    192.8594    193.4111   8.5224752693e+01   4.6999853963e+00    0.7541915    0.4318371 -54.95  0.003285876    2.575    0.612
        10 -10.0168    174.4040    249.2547   9.8094137710e+01  -9.9913711834e-01    0.2098734    0.1697489  61.75   0.00100115    1.634    0.388
        11 -13.6742     48.6131    220.5569   1.1962049281e+02   2.2685855885e+01     1.415017    0.7681647 -85.20  0.006928897    1.809    0.447
        12 -15.4281     81.0542    246.9967   1.1566215232e+02   1.3470896423e+01      9.19614     3.006783  29.46   0.02729939    7.067    0.858
        13 -13.7006     87.2299    227.9712   1.1265384419e+02   1.6094508091e+01     1.530799    0.9187217  50.57  0.004368857    1.402    0.287
        14 -13.9581      3.7603    180.9110   1.2576346918e+02   3.5635785811e+01     2.124611    0.4830477 -79.16    0.0080922    3.809    0.737
        15 -13.4613     23.2808    224.2570   1.2465323785e+02   2.4800776865e+01     1.162883    0.4624427  64.80  0.003927549    2.344    0.573
        16 -15.2367      8.5247    239.1205   1.2799147043e+02   2.3471872325e+01     1.958365     1.247264 -81.57   0.01452065    1.457    0.313
        17 -14.6913      9.5526    207.5365   1.2622011043e+02   2.9500210718e+01     1.200067     1.060854 -36.38  0.003945145    1.780    0.438
        18 -16.0531     33.9472    185.1358   1.1965503774e+02   3.1887907216e+01     8.522814     3.170511  81.22   0.02784666    5.023    0.801
        19  -9.2966     63.4968    197.4514   1.1439946687e+02   2.5645326873e+01    0.1961934     0.162897 -72.33  0.001130371    1.233    0.189
        20 -10.2934    138.3483    171.6839   9.3067668237e+01   1.9199398684e+01     0.313393    0.2186472  71.81  0.001133544    1.988    0.497
        21 -13.4963     63.9130    160.6196   1.0973467301e+02   3.4048956614e+01    0.5764681    0.3516629 -44.73  0.001468414    1.919    0.479
        22 -11.5846     76.5492    164.5434   1.0710575101e+02   3.1367447034e+01     0.303266    0.2822352  83.65  0.000470504    1.050    0.047
        23 -14.1386     80.4651    157.6767   1.0501844605e+02   3.2432871495e+01     3.449049     1.284226  53.97  0.003229354    4.027    0.752
        24 -13.1887     40.4764    234.8288   1.2219490323e+02   2.0869254345e+01    0.7993303    0.3456872  77.20  0.003979463    2.629    0.620
        25  -9.1283    159.2901    162.7074   8.6340196357e+01   1.6998116264e+01     0.144861    0.1204999  81.96 0.0001555553    1.548    0.354
        26  -9.6474     66.2374    195.0003   1.1352808262e+02   2.5817923868e+01    0.2308845    0.2026102  73.35  0.001154442    1.057    0.054
        27  -9.3464    174.5335    149.4775   7.9961819740e+01   1.6582944891e+01    0.1523402    0.1457857   2.59 2.621873e-05    1.001    0.001
        28 -10.4280    134.0000    146.5050   8.8941928526e+01   2.5629998259e+01    0.7146533    0.1692373 -51.21  0.001822624    4.710    0.788
        29 -11.1151     48.2726    145.5820   1.1167405123e+02   3.9605823801e+01    0.2225103    0.1827766  12.45  0.001303711    1.566    0.361
        30 -10.7851     98.0003    143.5092   9.7767671112e+01   3.3047673294e+01    0.3426886    0.3077451  20.33 0.0008745836    1.251    0.201
        31  -9.8080    101.2485    139.9668   9.6158444721e+01   3.3338460110e+01    0.4190084    0.2825453  -9.07  0.001460588    2.618    0.618
        32 -11.6565     31.9990    143.9527   1.1578763993e+02   4.1698268071e+01     0.391839    0.2640295  49.82  0.002013141    1.564    0.361
        33 -12.2796     86.1108    142.1451   1.0075211652e+02   3.5326433951e+01    0.3073835    0.2587418 -50.24 0.0004592308    1.184    0.156
        34  -9.0756     72.0573    188.3086   1.1143332208e+02   2.6509120360e+01    0.1793824    0.1490656  62.64 0.0003990678    1.088    0.081
        35 -13.2969     33.9860    207.8704   1.2151459850e+02   2.6968499718e+01    0.5950904    0.4453549 -40.46  0.001123132    2.062    0.515
        36 -12.0137     61.6326    179.9867   1.1283550636e+02   2.9798244607e+01    0.4168067    0.2946115 -34.28  0.002012813    2.069    0.517
        37 -12.3612     46.5239    130.3344   1.0984862614e+02   4.3529224931e+01     0.608843    0.3297546  57.16  0.002769904    2.293    0.564
        38 -10.0778    116.1232    125.9466   8.8913761873e+01   3.3915886166e+01    0.3250144     0.260045 -72.32  0.001552134    1.426    0.299
        39 -10.6080    135.2853    121.7343   8.2724023734e+01   3.0961435557e+01    0.5165004    0.1336924 -51.46   0.00121025    5.227    0.809
        40 -10.8447    107.6651    131.3787   9.2521701833e+01   3.4239262925e+01     0.577346    0.3290959  43.80  0.002154352    1.799    0.444
        41  -9.8329    106.4499    120.0877   9.0205708098e+01   3.7137394180e+01     0.226122     0.207188  15.36  0.000355747    1.178    0.151
        42 -10.3544     96.4973    128.1348   9.4933515550e+01   3.7009223696e+01    0.2885418      0.25117 -30.20  0.001483207    1.241    0.194
        43  -9.3973     83.8038    118.0211   9.6369080656e+01   4.1556436416e+01    0.2425745    0.1697425  89.31  0.001067751    2.009    0.502
        44  -9.7222    168.1152    113.3825   7.2521824395e+01   2.5399450757e+01    0.3207927    0.2066688 -58.40  0.001295549    1.924    0.480
        45 -10.0836    205.3148    110.5274   6.4136430346e+01   1.7413186589e+01    0.3463773     0.260595  29.37  0.001085215    1.524    0.344
        46  -9.7444     29.8778    107.8752   1.1114607035e+02   5.0623359921e+01    0.1736814    0.1431785  79.50 0.0006523323    1.322    0.243
        47 -10.1734    134.4960    104.2833   7.8276588247e+01   3.4966881335e+01     0.519927     0.154358 -43.65  0.001505521    3.321    0.699
        48 -11.1558    243.0154    102.0036   5.5853616683e+01   1.0803906346e+01    0.2308046    0.1598844 -62.49  0.001144949    1.757    0.431
        49 -10.5659    244.4677     89.4902   5.2738333154e+01   1.2515818367e+01    0.1388746    0.1214133 -42.79 4.914719e-05    1.008    0.008
        50 -10.4516    249.8566     87.8618   5.1644183172e+01   1.1672709829e+01    0.1972324    0.1444048 -54.45 0.0007322892    1.340    0.254
        51  -9.2081     73.0373     84.0091   9.1089765566e+01   5.1161195104e+01    0.2137296    0.1748968  77.74  0.000614335    1.690    0.408
        52  -9.7400    160.1659     81.8028   6.5482134206e+01   3.3449670396e+01    0.2175326    0.1852377  17.83 0.0005475492    1.319    0.242
        53  -8.8168    184.3478     77.3407   5.9245032056e+01   2.8291244697e+01    0.1604413    0.1188448  18.65 0.0007045796    1.792    0.442
        54  -9.3644     61.8320     71.8003   9.1436468563e+01   5.5440601803e+01    0.2074827    0.1683197 -20.78 0.0005084521    1.190    0.160
        55  -9.2586     46.9177     62.0767   9.4116282352e+01   5.9381631059e+01    0.1776548    0.1666666 -43.27 0.0002917088    1.205    0.170
        56 -10.5826     13.4373     60.2480   1.0731885923e+02   6.2741705643e+01    0.2148876    0.1752904 -57.40 0.0004371747    1.151    0.132
        57 -10.7846     73.3579    231.1816   1.1570898786e+02   1.7423650884e+01    0.3882358    0.1929211  36.04  0.001891142    1.944    0.485
        58 -11.9513     66.7785    174.3714   1.1090664787e+02   3.0416602114e+01    0.3191326    0.2526962 -47.90  0.001148573    1.458    0.314
        59 -13.4525     32.5447    247.8432   1.2439102774e+02   1.9375366649e+01    0.9559243    0.6888694  41.70  0.007086178    1.458    0.314
        60 -10.2299    137.0395     43.3506   5.8473875304e+01   4.5452039182e+01    0.2843279    0.2161937 -78.88  0.001364043    1.745    0.427
        61  -9.6926      3.6759     37.9681   1.0561586500e+02   6.7871686998e+01    0.2490866    0.1539084  54.19  0.001345584    3.044    0.671
        62 -10.2067      1.6304     19.2127   1.0027098201e+02   7.1478343025e+01     0.168963   0.07259598 -43.77 0.0009497365    1.678    0.404
        63 -10.1693    189.6978     15.3194   4.1079102313e+01   3.5565875865e+01    0.2393723    0.1879275 -71.79 0.0007492749    1.234    0.190
        64  -9.2295     99.3423    180.9820   1.0402380572e+02   2.4049304430e+01    0.1904329    0.1724877 -79.42 0.0004806139    1.097    0.088
        65  -8.5835    160.2661    199.6721   9.3230130371e+01   9.4856480417e+00    0.1311215    0.1086451  76.47 0.0002012161    1.573    0.364
        66  -9.4141     62.3376    201.0538   1.1503042873e+02   2.5017253901e+01    0.1782508    0.1393968  86.18 0.0005327775    1.147    0.128
