#   1 NUMBER                 Running object number                                     
#   2 MAG_AUTO               Kron-like elliptical aperture magnitude                    [mag]
#   3 X_IMAGE                Object position along x                                    [pixel]
#   4 Y_IMAGE                Object position along y                                    [pixel]
#   5 X_WORLD                Barycenter position along world x axis                     [deg]
#   6 Y_WORLD                Barycenter position along world y axis                     [deg]
#   7 A_WORLD                Profile RMS along major axis (world units)                 [deg]
#   8 B_WORLD                Profile RMS along minor axis (world units)                 [deg]
#   9 THETA_WORLD            Position angle (CCW/world-x)                               [deg]
#  10 FWHM_WORLD             FWHM assuming a gaussian core                              [deg]
#  11 ELONGATION             A_IMAGE/B_IMAGE                                           
#  12 ELLIPTICITY            1 - B_IMAGE/A_IMAGE                                       
         1 -14.8995    161.7563     42.6738   2.9017824798e+02   6.3412161447e+00   0.06315954   0.04341117 -51.45  0.003773088    1.415    0.293
         2 -14.6206    174.7979      9.7490   2.8983266739e+02   6.6455010179e+00   0.05310044   0.04698177 -48.56  0.003943861    1.114    0.102
         3 -11.8073    189.8514     14.6895   2.8969064064e+02   6.5011924931e+00   0.01189277  0.008646984 -50.75 0.0008057342    1.344    0.256
         4 -12.6202    197.5172      7.0298   2.8955743959e+02   6.5450262705e+00   0.01357849   0.00876492  45.23  0.001392092    1.623    0.384
         5 -10.3427    150.8536    243.3682   2.9149776172e+02   4.0848943634e+00  0.008528957  0.008070936 -10.52 0.0004743409    1.096    0.088
         6 -20.0737     77.0766    175.2849   2.9193367578e+02   5.2978712091e+00    0.8874901    0.3544241 -65.29   0.07133129    2.588    0.614
         7 -10.6831    135.9696    196.5005   2.9138882280e+02   4.7127758556e+00   0.01816246   0.01086527  75.14   0.00158559    2.548    0.608
         8 -11.4542     16.4691    250.1249   2.9306730880e+02   4.7806187869e+00  0.009593037   0.00634707 -62.99 0.0009937149    1.481    0.325
         9 -12.3569    153.7676    185.6366   2.9112161348e+02   4.7355875954e+00   0.01433617   0.01103324 -69.32  0.001376736    1.315    0.239
        10 -13.8512    207.2752    178.1845   2.9046837675e+02   4.5122495372e+00   0.04772444   0.02643599 -69.98   0.00448135    1.946    0.486
        11 -12.3710    203.9544    172.2616   2.9047087079e+02   4.5999186777e+00    0.0266731    0.0174786 -52.61  0.002802047    1.475    0.322
        12 -11.1814     21.7685    240.1537   2.9294805359e+02   4.8655579938e+00  0.009223883  0.007841117 -60.69 0.0009368281    1.148    0.129
        13 -11.1727     31.5879    183.5155   2.9250098532e+02   5.4644735951e+00   0.02004018   0.01546174 -79.25  0.002139839    1.392    0.282
        14 -10.4622     24.9309    185.5300   2.9258880570e+02   5.4794310891e+00   0.01068689  0.008097766 -45.88 0.0004422239    1.318    0.241
        15 -10.9208     27.1305    180.0867   2.9253148056e+02   5.5297674094e+00   0.01706915   0.01044533 -20.65  0.001559335    2.300    0.565
        16 -11.6353    200.3925    179.7635   2.9055607019e+02   4.5338382929e+00    0.0127984  0.008954918  79.75  0.000535282    1.811    0.448
        17 -13.5431    195.6969    170.5726   2.9055475444e+02   4.6672335699e+00   0.03157346   0.01980563 -71.11  0.001924715    1.696    0.410
        18 -12.1023    193.5348    165.4872   2.9054906494e+02   4.7385204282e+00   0.01500479   0.01343845 -16.45  0.001200245    1.189    0.159
        19 -14.1717    138.8188    171.8546   2.9120985778e+02   4.9813099433e+00   0.04215201   0.02081054  37.50  0.003870405    2.000    0.500
        20 -14.6717    142.9425    168.2735   2.9114159212e+02   4.9988926994e+00   0.05126978   0.02769809  48.49  0.004730514    2.083    0.520
        21 -13.2235    177.5650    171.0652   2.9076402400e+02   4.7664539615e+00   0.02457476   0.01425382 -83.62  0.002201428    2.322    0.569
        22 -11.8322     26.2408    173.5331   2.9250278465e+02   5.6107053637e+00   0.01333848   0.01132404 -62.05 0.0003060809    1.152    0.132
        23 -11.2541    131.2689    237.1346   2.9168359369e+02   4.2700041450e+00   0.01643388  0.007735081 -60.53  0.001461077    2.029    0.507
        24 -12.3508    122.7228    165.8356   2.9135740333e+02   5.1438684851e+00   0.02063591     0.009845  43.60  0.001296983    2.217    0.549
        25 -11.6701    201.1218    164.4054   2.9045629402e+02   4.7071034567e+00   0.02189727   0.01454593 -77.66  0.002236434    1.699    0.411
        26 -10.1486      7.7327    237.7861   2.9309390325e+02   4.9735518974e+00  0.008063938   0.00571207 -70.70 0.0007726734    1.456    0.313
        27 -10.6984     30.1381    232.5628   2.9280786121e+02   4.9053020236e+00  0.009982545  0.008652009 -29.22  0.000869775    1.215    0.177
        28 -10.9242    222.4734    161.6734   2.9019713794e+02   4.6150201226e+00   0.01379654  0.009536644  73.94 0.0007917202    1.846    0.458
        29 -11.5118    139.0647    250.2222   2.9167253299e+02   4.0736821762e+00   0.01294976    0.0114354 -16.94  0.001557932    1.215    0.177
        30 -13.0575    164.2680    157.0318   2.9083183980e+02   5.0055782777e+00   0.01573776   0.01435507 -35.28 0.0009511663    1.115    0.103
        31 -14.7497    134.5280    147.0235   2.9111098655e+02   5.2931970964e+00    0.0733477   0.02729268 -73.67  0.004687739    4.377    0.772
        32 -14.2283    136.0914    129.2833   2.9098754287e+02   5.4892446073e+00   0.08969565   0.02048009 -67.19  0.004446563    6.907    0.855
        33 -10.5793     22.9857    156.0867   2.9243646835e+02   5.8312513028e+00  0.009640888  0.009497598 -42.55 0.0004484759    1.016    0.016
        34 -10.0853    192.3272    153.3124   2.9049027078e+02   4.8862095814e+00  0.006942869  0.004876372 -28.18  0.000704206    1.666    0.400
        35 -10.5108     25.9404    228.4172   2.9283115309e+02   4.9773918689e+00  0.007149266  0.006065088 -16.27 0.0002196668    1.296    0.228
        36 -14.5904    143.4538    144.2271   2.9099265100e+02   5.2739434314e+00    0.0527422   0.02564442 -75.90   0.00430124    2.712    0.631
        37 -11.2649     27.3609    145.5875   2.9232427981e+02   5.9275541220e+00   0.01359078   0.01122068 -29.62 0.0007047886    1.297    0.229
        38 -12.5358    174.0310    148.8792   2.9067212264e+02   5.0433344519e+00   0.01805894   0.01430551 -69.59  0.001429165    1.275    0.216
        39 -11.4659    174.0235    140.4963   2.9062226037e+02   5.1402624798e+00   0.00995415  0.006412835  29.61  0.001020279    1.563    0.360
        40 -10.5790      9.2224    137.4402   2.9248288310e+02   6.1260265000e+00   0.01198354  0.006667805  18.08  0.001105589    2.055    0.513
        41 -11.3379     17.9248    156.3177   2.9249556135e+02   5.8576632497e+00   0.02197486   0.01047305 -62.26   0.00196406    2.038    0.509
        42 -12.8473    160.6174    127.8988   2.9069986283e+02   5.3634212529e+00    0.0188165   0.01511892 -76.46  0.001768519    1.301    0.231
        43 -11.8501     22.4633    221.0210   2.9282701594e+02   5.0829517805e+00   0.01350031  0.008490645 -43.59 0.0009392122    1.644    0.392
        44 -12.1171    140.7673    120.9197   2.9088443368e+02   5.5588858013e+00   0.01724064   0.01003079  56.40  0.001333595    2.146    0.534
        45 -11.5015     23.6147    215.2971   2.9278003620e+02   5.1425675442e+00  0.009833119  0.007268816 -49.86 0.0006506337    1.326    0.246
        46 -13.1018     11.3449    206.0171   2.9286493779e+02   5.3204272013e+00   0.02640794   0.01633365  17.59  0.002216402    1.806    0.446
        47 -10.8744    205.3472    110.2165   2.9008506314e+02   5.3086939385e+00   0.01347867  0.009545789  17.99 0.0009831894    1.525    0.344
        48 -12.2734    163.8098    202.9763   2.9111042191e+02   4.4770789057e+00   0.01677304   0.01357605  69.01 0.0006538692    1.384    0.278
        49 -12.8657    161.4887    197.5392   2.9110450937e+02   4.5533525744e+00   0.02008774    0.0149269  87.11  0.002164764    1.591    0.372
        50 -12.7661    157.6620    201.7928   2.9117334973e+02   4.5262854091e+00   0.02664446   0.01639877  59.80   0.00186339    2.051    0.513
        51 -11.8386    154.4864    195.9808   2.9117494111e+02   4.6118326232e+00   0.02166625   0.01241029  63.65  0.001891339    2.501    0.600
        52 -10.4402    137.9018    244.2907   2.9165057810e+02   4.1489799613e+00   0.01677172   0.01125194  83.64  0.001015612    1.949    0.487
        53 -11.7637    168.8851    202.1846   2.9104796133e+02   4.4568997113e+00   0.01030366  0.008800206  67.88 0.0008777801    1.270    0.213
        54 -14.3825    150.5598     57.2411   2.9039293472e+02   6.2378881099e+00   0.05268718   0.03853843 -39.24 0.0009948657    1.435    0.303
        55 -10.8202    139.3219    200.9865   2.9137731351e+02   4.6415442063e+00   0.01245278   0.01055865  79.66 0.0006060493    1.294    0.227
        56 -12.9949    165.4631     34.1083   2.9008478724e+02   6.4185945955e+00   0.01763906    0.0175721 -35.90 0.0008306053    1.018    0.018
        57 -10.7562     13.6563     60.0270   2.9197231453e+02   6.9955534470e+00    0.0108528  0.008822235  44.97 0.0005040783    1.266    0.210
        58 -11.2378    133.8863    245.6072   2.9170407192e+02   4.1569251164e+00   0.01016774  0.008001071 -53.39 0.0003004096    1.236    0.191
        59 -12.2480    125.1279    243.3404   2.9179028216e+02   4.2336641627e+00   0.02521374  0.008026954 -59.04  0.001389906    2.838    0.648
