#   1 NUMBER                 Running object number                                     
#   2 MAG_AUTO               Kron-like elliptical aperture magnitude                    [mag]
#   3 X_IMAGE                Object position along x                                    [pixel]
#   4 Y_IMAGE                Object position along y                                    [pixel]
#   5 X_WORLD                Barycenter position along world x axis                     [deg]
#   6 Y_WORLD                Barycenter position along world y axis                     [deg]
#   7 A_WORLD                Profile RMS along major axis (world units)                 [deg]
#   8 B_WORLD                Profile RMS along minor axis (world units)                 [deg]
#   9 THETA_WORLD            Position angle (CCW/world-x)                               [deg]
#  10 FWHM_WORLD             FWHM assuming a gaussian core                              [deg]
#  11 ELONGATION             A_IMAGE/B_IMAGE                                           
#  12 ELLIPTICITY            1 - B_IMAGE/A_IMAGE                                       
         1 -12.0971     39.8397     30.4388   9.1457513474e+01   6.5685009069e+01    0.7329299    0.4034297   1.19   0.00129651    2.634    0.620
         2 -11.7480     76.3469     21.3991   7.3198042808e+01   6.1662946714e+01    0.4656283    0.3844003 -28.24    0.0019721    1.266    0.210
         3 -10.3222     59.0198     24.3096   8.0875927817e+01   6.4130531418e+01    0.2392228    0.1875647 -14.55  0.001069586    1.071    0.067
         4 -10.8958     41.8080     19.7927   8.5962783948e+01   6.7199762012e+01    0.4530753    0.2500125  -4.13  0.002120274    2.481    0.597
         5 -10.6431     41.8159     14.0792   8.3249930080e+01   6.8053306630e+01    0.2300724    0.1880326  22.09 0.0009851491    1.347    0.258
         6 -11.7306     34.7112     12.9274   8.5913214768e+01   6.9101029278e+01    0.4978093    0.2367371 -47.05   0.00244591    2.587    0.613
         7 -11.8526     30.1573      7.2494   8.5227316459e+01   7.0452052284e+01    0.4552526    0.3061943  32.26  0.002970243    1.723    0.420
         8 -10.3442     16.5723      3.5473   9.0225001385e+01   7.2398723010e+01    0.1904415   0.08455083 -37.24 0.0001574276    1.786    0.440
         9  -9.8429     22.2379      9.4881   9.0280501416e+01   7.0967179180e+01    0.3338302    0.1934474  -4.99  0.001219966    1.863    0.463
        10 -10.4364     23.8031      5.0509   8.7240917869e+01   7.1463197819e+01    0.1675164   0.09320305 -33.44  0.001015276    1.467    0.319
        11 -10.3026     15.2602      8.7508   9.3520037848e+01   7.1725586887e+01    0.3394471    0.1324934 -24.62  0.001411897    3.259    0.693
        12 -11.0778     13.9988     16.1589   9.7542022510e+01   7.0619806313e+01    0.2512858    0.1971667  16.16  0.001088581    1.497    0.332
        13  -9.7591     26.7431     16.0049   9.1156210623e+01   6.9500784807e+01     0.261546    0.1309808 -44.54  0.001440535    1.827    0.453
        14 -11.6841    234.5726     15.0319   4.1710294936e+01   2.4400123750e+01    0.2911249    0.2137811 -86.12  3.29361e-05    1.306    0.234
        15 -11.5299     89.6136     13.9621   6.5611464092e+01   6.0027435105e+01    0.4050491    0.3246206 -50.50   0.00100955    1.677    0.404
        16 -10.3594     93.2519      8.4577   6.2104539488e+01   5.9861702903e+01    0.3843341    0.1954503  -9.61  0.001740731    2.229    0.551
        17 -10.6049     69.5405     13.5669   7.1943676381e+01   6.3880379899e+01    0.2891558    0.2046014  56.41  0.001301708    1.898    0.473
        18  -9.4686    203.2583     12.0175   4.4016709951e+01   3.2406356350e+01    0.1639389    0.1173594 -28.46 0.0003620497    1.467    0.318
        19  -9.6817    104.8530     10.2094   5.9815977471e+01   5.7176499855e+01     0.193765    0.1351948  31.21 0.0004460948    1.332    0.249
        20  -9.6583      4.3366     10.2018   1.0002327075e+02   7.2317510995e+01    0.1463115   0.08518558 -51.64 0.0003641239    1.620    0.383
        21 -10.3225     88.8923      7.6050   6.2946958204e+01   6.0852528609e+01    0.3058012    0.1755078 -18.01   0.00125382    1.730    0.422
        22  -9.8239    152.2199      9.4372   4.9975587393e+01   4.5796580201e+01    0.1974027    0.1297004  81.88 0.0009454123    1.659    0.397
        23  -9.1210     45.6263      9.3084   7.9205330174e+01   6.8199189717e+01     0.105152   0.09776992 -55.38 0.0004513671    1.773    0.436
        24 -11.0667    193.7677      7.0839   4.3682238505e+01   3.5322727965e+01    0.3379485    0.1797365 -21.09  0.001418561    2.108    0.526
        25 -10.7607     40.9494      7.1407   8.0142787176e+01   6.9125221035e+01    0.2747574    0.1757564  -9.61  0.000771777    1.417    0.294
        26  -9.9544     36.7587      5.7840   8.1338024023e+01   6.9852485944e+01    0.2051877    0.1489628 -48.80 0.0005654183    2.131    0.531
        27 -10.0791    218.2388      6.9647   4.1176245905e+01   2.9202259033e+01    0.1691474    0.1073593 -30.98 0.0006406298    1.594    0.373
        28 -10.1063    210.4901      7.5095   4.2054355153e+01   3.1059482993e+01    0.1349785    0.1203468 -79.96 0.0001558603    1.001    0.001
        29  -9.3299    183.6537      7.6333   4.5013139142e+01   3.7864352875e+01    0.1509184   0.09420149  37.56  0.000228578    1.867    0.464
        30 -10.2685    144.3360      6.6852   5.0311184308e+01   4.8052473436e+01    0.2775157    0.1515342  15.81  0.000935254    2.507    0.601
        31 -11.0484     70.8100      5.8229   6.7748348501e+01   6.4542105399e+01    0.3021177    0.2392305  -9.24  0.001293327    1.156    0.135
        32  -9.6418     11.2099      7.0796   9.4872011548e+01   7.2325690580e+01    0.1572059    0.1223813 -59.15   0.00106862    1.967    0.492
        33 -10.0963      2.3729      6.4903   9.9448009631e+01   7.3060119337e+01    0.1969876    0.1345418   3.77 0.0008232669    1.521    0.342
        34  -9.4862      2.0621      3.3022   9.8136003798e+01   7.3595627792e+01    0.1899782   0.09458072 -12.97  0.001100837    2.175    0.540
        35 -11.8495     57.2211      3.0212   7.1227658056e+01   6.7196408451e+01    0.3979758     0.257304   2.97  0.002332887    1.462    0.316
        36 -10.6291    130.1762      3.3666   5.1589772382e+01   5.1862556264e+01    0.2486713    0.1959599  71.35 0.0006999343    1.287    0.223
        37  -9.9222    120.9691      4.0691   5.3647638163e+01   5.4026110851e+01    0.2043644    0.1749255  35.34 0.0003695956    1.047    0.045
        38 -10.2052    101.0112      2.2578   5.7342324696e+01   5.8767981890e+01      0.25689    0.1768427  64.48 0.0005626437    1.572    0.364
        39  -9.4175    112.5872      3.2520   5.5087231411e+01   5.6064770956e+01    0.1297379    0.1017446 -77.52 0.0006938767    1.729    0.422
        40 -11.1457     90.3929      2.4367   6.0160326570e+01   6.1034548870e+01    0.2414145    0.2174555  74.45 5.063258e-05    1.431    0.301
        41 -10.4621    174.6379      2.4205   4.4543605018e+01   4.0672397927e+01    0.4846869     0.132366  65.83  0.001689966    2.973    0.664
        42 -11.1607     80.1275      1.7507   6.2779175857e+01   6.3181551708e+01    0.3243476    0.1602155  48.51  0.001159902    1.839    0.456
        43  -9.6307     67.0840      1.6343   6.6927504958e+01   6.5648604444e+01    0.1723039    0.1343448  25.16 0.0003725694    1.122    0.109
        44 -10.3189     10.0043      1.7429   9.2873738962e+01   7.3244385837e+01    0.1651512     0.119376 -19.38 0.0006137636    1.040    0.038
        45  -9.9715    187.0515      1.3336   4.2778575151e+01   3.7583078213e+01    0.1956987    0.1167543  75.22            0    1.545    0.353
        46  -9.4988    153.9249      1.1797   4.6913307370e+01   4.6095957445e+01    0.1878605    0.0963404  69.55 0.0004735301    1.796    0.443
        47 -10.9791     20.3545      2.2806   8.7558106603e+01   7.2212826571e+01    0.2600636    0.1658861  -0.75 0.0006713491    1.473    0.321
        48 -10.6864    248.5062    129.4933   6.8037264273e+01   4.6952470025e+00    0.1410455    0.1231526 -15.83 -2.863614e-05    1.002    0.002
        49 -11.9258     17.9786    248.7906   1.3027816471e+02   2.1860906572e+01    0.4088499    0.2110322  25.96  0.002254708    4.012    0.751
        50 -11.8107     10.9611    244.6523   1.3115060304e+02   2.3267835585e+01    0.2146605    0.1690554  36.96  0.001613575    1.821    0.451
        51 -10.9762      1.7802    248.6060   1.3265733572e+02   2.3504348751e+01    0.2750544     0.126224 -86.88  0.001951204    1.807    0.446
        52 -11.0690      6.2079    249.5861   1.3205136804e+02   2.2914774664e+01    0.1665975     0.129431  51.08   0.00146243    1.508    0.337
        53 -12.0923      6.3470    241.3130   1.3170416205e+02   2.4287394946e+01    0.4141297    0.2423772 -51.55  0.002676091    3.310    0.698
        54 -11.1052      1.7105    239.1614   1.3231310777e+02   2.5098094091e+01    0.2523716    0.1350695  74.48  0.001888583    1.327    0.246
        55  -9.6623     20.3074    125.0200   1.2064393367e+02   4.6875332591e+01    0.1753007    0.1215101 -75.41  0.000144284    1.132    0.116
        56 -12.1462     23.6394    121.1548   1.1928292364e+02   4.7499102426e+01     0.575048    0.2831202  70.50  0.002114899    2.724    0.633
        57 -12.1162     17.1054    114.9928   1.2023480313e+02   4.9444768797e+01    0.3895277    0.2124821 -41.45   0.00203221    2.155    0.536
        58  -9.7909     17.7346    121.9994   1.2094561640e+02   4.7776977187e+01     0.169394    0.1251425 -74.55  0.000413719    1.055    0.052
        59  -9.8821      8.1676    121.2130   1.2333258677e+02   4.8652068485e+01    0.1618458    0.1121564  81.17 0.0004284669    1.337    0.252
        60  -9.8561     72.2803    112.9927   1.0429256501e+02   4.4047210371e+01    0.1926124    0.1593735 -62.42 0.0002638894    1.075    0.070
        61  -9.9002     25.6850    113.6962   1.1770117667e+02   4.9067366699e+01    0.1248406   0.07916494 -46.53 0.0003360112    1.620    0.383
        62 -10.9523     65.6754    110.6578   1.0571184743e+02   4.5501776825e+01     0.292401    0.2301463  80.70 0.0008410563    1.443    0.307
        63 -12.0307      4.2357    108.8198   1.2297351819e+02   5.1730015372e+01    0.3375204    0.2694961 -15.57  0.002262423    1.721    0.419
        64 -11.1433     57.0372    108.0517   1.0770872606e+02   4.7212269999e+01    0.2536561    0.1930956  31.01  0.001445229    1.543    0.352
        65 -10.3300     52.1515    104.8616   1.0851953526e+02   4.8540669798e+01     0.205694    0.1643512 -87.24 0.0007446167    1.309    0.236
        66 -10.9070     18.7281    104.5740   1.1834338964e+02   5.1736295975e+01     0.191927    0.1253702   9.74  0.001133367    2.150    0.535
        67  -9.6819    187.0011    103.2754   7.2569085050e+01   2.2772886411e+01    0.2169708    0.1979626  52.34 0.0005583391    1.135    0.119
        68 -10.2419     62.1772     97.9444   1.0398715204e+02   4.8945960890e+01    0.2412805    0.1300528 -40.26    0.0010852    1.966    0.491
        69  -9.6039    100.8480     96.8388   9.2066312503e+01   4.3175210225e+01    0.2059654    0.1768766 -81.99  0.001065387    1.345    0.256
        70  -9.3895     91.5655     96.5752   9.4716984203e+01   4.4872155230e+01    0.1453227    0.1343043 -51.06 2.903777e-05    1.017    0.017
        71 -10.4012      3.3719     95.6320   1.2156718849e+02   5.4776671373e+01    0.2108221    0.1528822 -61.52 0.0004453964    1.135    0.119
        72  -9.6475     78.9455     94.6624   9.8023613018e+01   4.7346727318e+01    0.1833204     0.178525  -6.21  0.000361929    1.123    0.110
        73 -11.0852     18.2802     94.9811   1.1699496815e+02   5.3982695419e+01    0.2289688      0.15919  40.91  0.001141297    1.745    0.427
        74 -11.7350     10.9129     91.2888   1.1866913639e+02   5.5319861759e+01    0.4580497    0.1787507 -70.34 0.0003618634    2.024    0.506
        75 -10.5934     11.3741     85.1690   1.1753872789e+02   5.6680138199e+01    0.2265209    0.1409121 -83.53 0.0006950074    1.578    0.366
        76  -9.8084    125.0395     93.2877   8.4302486288e+01   3.9152895365e+01     0.207756    0.1980881  43.18 0.0002001434    1.089    0.082
        77 -10.1814     44.0193     92.7023   1.0851855716e+02   5.2270991502e+01    0.2924964    0.1120101 -43.79  0.001172551    2.674    0.626
        78 -10.6728     57.4658     92.0478   1.0409380228e+02   5.0904394868e+01    0.2380118    0.1869694  -5.90 0.0009438728    1.607    0.378
        79  -9.9260     29.4830     92.0433   1.1299677658e+02   5.3788363252e+01     0.222518    0.1660925  43.39  0.001142673    1.614    0.381
        80 -10.4371     24.8626     89.6576   1.1401739285e+02   5.4713662200e+01    0.2454062    0.1790762 -72.81  0.001526207    1.202    0.168
        81 -10.1956     76.9876     88.8702   9.7109490370e+01   4.8960017291e+01    0.2945877    0.2025138  22.14   0.00145521    1.785    0.440
        82 -10.1404     64.9485     88.2849   1.0077995716e+02   5.0809134691e+01    0.2499679    0.1745277 -52.29 0.0007008301    1.243    0.196
        83 -10.6460     18.4522     87.5443   1.1568158966e+02   5.5673805787e+01    0.3623429    0.1909077 -56.37  0.001474885    1.462    0.316
        84  -9.0194    150.2867     88.2793   7.6414100228e+01   3.4477600040e+01    0.1547685     0.123831   9.31 0.0002614226    1.518    0.341
        85 -11.6991     54.8315     83.9697   1.0298534846e+02   5.3070300047e+01    0.2985892    0.1987076 -56.76 0.0006869589    1.303    0.233
        86  -9.9466     38.7371     85.7244   1.0872070249e+02   5.4405607877e+01    0.2667839    0.1479037 -83.85  0.001165517    2.678    0.627
        87  -9.4218    113.7746     85.6024   8.5134050476e+01   4.3123378508e+01    0.1555133    0.1129849 -19.60 0.0006093585    1.645    0.392
        88  -9.3223     71.5714     85.5160   9.7926207774e+01   5.0514862313e+01    0.1410713    0.1238186 -48.42 8.348368e-05    1.019    0.019
        89 -10.8196      3.8919     82.4458   1.1949612902e+02   5.7720738950e+01     0.367055    0.1701199 -70.78   0.00198463    1.670    0.401
        90 -10.2113    124.4534     82.7854   8.1323669456e+01   4.1460877405e+01    0.3090234    0.2409939  35.01  0.001139575    1.352    0.260
        91  -9.1037    124.6281     79.2851   8.0189422205e+01   4.2127842708e+01    0.1550482    0.1238975 -87.46 0.0007017758    1.708    0.415
        92 -10.0228     89.3528     80.7110   9.0918451163e+01   4.8760734289e+01    0.2558938    0.1682329 -57.23 0.0005843549    1.620    0.383
        93 -10.9248     64.4358     79.4406   9.8599796121e+01   5.2864627980e+01    0.4014324    0.2356618 -57.95  0.001538642    1.633    0.388
        94  -9.0595     42.2903     81.7381   1.0663044149e+02   5.4961371077e+01    0.1178843   0.09577522  84.34 0.0001570425    1.496    0.331
        95 -10.5923     10.0837     79.1787   1.1692953456e+02   5.8106467900e+01     0.242187    0.1519748 -56.75 0.0007205232    1.220    0.180
        96 -11.0980     27.6977     77.3010   1.1059179311e+02   5.7295329853e+01    0.3074864    0.1979685 -11.03 0.0005280728    2.082    0.520
        97 -11.3333     17.3809     75.1217   1.1368966935e+02   5.8551319264e+01    0.4515855    0.2659651  -4.72   0.00251529    2.382    0.580
        98 -10.2272    176.5341     76.9833   6.7253288540e+01   3.0148664908e+01    0.3103572    0.2164682  38.18  0.001369052    1.562    0.360
        99 -10.8652     55.5687     75.4607   1.0050344615e+02   5.4882645349e+01    0.3045075    0.2931262 -52.25  0.001183492    1.149    0.130
       100 -10.5673      6.1784     75.7031   1.1762412302e+02   5.9102880164e+01    0.3337063   0.08369081 -45.81  0.001344492    3.375    0.704
       101  -9.5992    160.5249     75.4445   7.0173740115e+01   3.4419472745e+01    0.1549641    0.1529794  -7.26 1.119044e-06    1.005    0.005
       102 -10.2052     71.6063     74.9594   9.4923610950e+01   5.2833741178e+01    0.3921786    0.1822639  34.07  0.001667624    2.438    0.590
       103  -9.9263     36.9963     75.2503   1.0689429770e+02   5.6937666146e+01    0.2097793    0.1677455 -56.40 0.0008023059    1.062    0.058
       104 -10.4460     35.9064     71.9389   1.0646320028e+02   5.7774410765e+01    0.4584499    0.2323317 -23.84   0.00188852    2.999    0.667
       105  -9.3174    136.5296     74.4592   7.5547638685e+01   4.0380870626e+01    0.1542348     0.149798 -13.78 3.104587e-05    1.006    0.006
       106 -10.0735     92.5819     72.7656   8.7452052287e+01   4.9865756900e+01    0.2532155    0.1773009 -59.05 0.0007487494    1.661    0.398
       107  -9.3913     81.4495     73.2197   9.1149814231e+01   5.1678937314e+01    0.1956695    0.1295499 -55.46 0.0007233215    1.572    0.364
       108  -9.5453    216.8398     72.1992   5.8737874852e+01   2.0920734535e+01    0.1945328    0.1710794   0.90 0.0004432209    1.276    0.217
       109 -10.5898    106.3524     72.0664   8.3039120680e+01   4.7394729076e+01    0.3533442    0.2072428  47.48  0.001474599    1.835    0.455
       110  -8.9836     29.3025     70.6861   1.0851369088e+02   5.8635083323e+01    0.1174815   0.09179965  86.36 0.0003715454    1.615    0.381
       111 -10.0948     79.8934     68.8925   9.0292675463e+01   5.2833601516e+01    0.2238544    0.1820473 -17.21 0.0007619167    1.266    0.210
       112 -10.5193     46.6290     69.1534   1.0189746110e+02   5.7297488179e+01    0.2488595     0.192516  10.22 0.0007899879    1.520    0.342
       113 -10.6887     10.5650     67.4712   1.1453110704e+02   6.0672213924e+01     0.299203    0.1808977 -72.30  0.001360561    1.495    0.331
       114 -11.9705      9.3484     60.8839   1.1357612163e+02   6.2172027909e+01    0.5277219      0.15195 -44.35  0.001696668    2.813    0.645
       115 -10.5542     34.5794     65.0014   1.0515145865e+02   5.9411884471e+01    0.2832641    0.2128553 -33.08 0.0007497965    1.253    0.202
       116 -10.0324     39.4836     62.5313   1.0264592264e+02   5.9469639450e+01    0.2103026    0.1415341 -19.39 0.0006177373    1.693    0.409
       117 -10.3974     41.5059     59.0025   1.0085146016e+02   6.0006770597e+01    0.3180372    0.1156762 -42.54  0.001329885    2.395    0.582
       118  -6.2108     38.4882     59.5200   1.0215019616e+02   6.0205528569e+01    0.1879104    0.1788581  17.16 0.0006599773    1.278    0.217
       119 -11.1973     14.3070     64.1680   1.1245908748e+02   6.1164099112e+01    0.3688292    0.2169652 -82.04 0.0009380581    2.069    0.517
       120  -9.8307    133.2034     65.6148   7.3512514556e+01   4.2789645467e+01    0.2277772    0.1371211  39.17 0.0005888594    1.761    0.432
       121  -9.7627     96.8194     64.1456   8.3281437884e+01   5.0805321534e+01    0.1935667    0.1610537  -3.62 0.0002551314    1.269    0.212
       122  -9.3955     75.9404     64.5812   9.0213632474e+01   5.4347460187e+01    0.1811708    0.1365769  30.78 7.231432e-05    1.446    0.308
       123 -10.8666     63.2925     62.4479   9.3910789332e+01   5.6653363656e+01     0.467202    0.2928362 -17.09  0.002208957    2.086    0.521
       124 -10.9256     53.4483     62.1193   9.7357597343e+01   5.8003566891e+01    0.2149894    0.2056998 -16.42  0.000370859    1.169    0.145
       125  -9.4075    193.3763     61.8335   5.9655615588e+01   2.8399216244e+01    0.1997903    0.1451568 -19.13 0.0002452855    1.520    0.342
       126  -9.4367    192.8096     58.6356   5.8820227014e+01   2.9040443359e+01     0.214692    0.1750428 -62.99 0.0003144993    1.307    0.235
       127  -9.9843    100.7871     60.9137   8.0946954233e+01   5.0654850210e+01    0.2791641    0.1983853 -54.84  0.001329536    1.662    0.398
       128 -11.4188     12.9888     41.2171   1.0704399473e+02   6.6042717280e+01    0.6602923    0.3602551  49.17  0.003379466    3.286    0.696
       129 -13.1549      5.6454     50.7544   1.1267612808e+02   6.4521264796e+01    0.3713499    0.1981011 -47.16 0.0005104921    1.411    0.291
       130 -11.4812     13.5141     48.6907   1.0895253251e+02   6.4492940875e+01    0.4635642    0.3187213   0.24  0.001027052    1.729    0.422
       131 -13.9081     19.9733     57.6751   1.0875482141e+02   6.2176273521e+01    0.4269185    0.2793349 -57.54  0.001089481    1.234    0.190
       132 -10.6011     91.6948     55.2994   8.1790728612e+01   5.3435837650e+01    0.2454358    0.1954702  38.05 0.0002515952    1.322    0.244
       133 -10.9816     83.4987     56.8237   8.5012233458e+01   5.4622208836e+01    0.2861812    0.2139651 -53.77 0.0009339801    1.520    0.342
       134 -11.7480     88.4094     52.8807   8.1970924574e+01   5.4482096522e+01    0.5213717    0.3585911  -4.58  0.001217648    1.814    0.449
       135  -9.6271    131.1256     58.2532   7.1553886321e+01   4.4567966563e+01    0.2447722    0.1828729 -89.52  0.001077682    1.984    0.496
       136  -8.9646     48.3396     58.2574   9.8041683525e+01   5.9410893017e+01    0.1302442   0.08846107 -21.74 0.0002503896    1.581    0.367
       137 -11.3588     18.4632     52.5808   1.0800341721e+02   6.3354969145e+01    0.2343041    0.1458537 -37.72 7.508267e-05    1.386    0.279
       138  -9.8015    158.2045     56.1906   6.4592357040e+01   3.8285025148e+01    0.2073095    0.1779795 -68.12  0.000392329    1.315    0.240
       139 -10.1921     33.3303     55.0472   1.0281687242e+02   6.1633503268e+01    0.2852057    0.1224744 -33.31 0.0009894964    2.646    0.622
       140 -11.6662    114.5369     53.7774   7.4396900503e+01   4.9083464049e+01    0.3423104    0.3269776  28.02 0.0007531897    1.086    0.079
       141 -10.0795    106.0833     53.3133   7.6652071235e+01   5.0959688307e+01    0.2880158    0.1793105  53.91 0.0009508473    1.829    0.453
       142 -12.0807     66.0175     52.5580   8.9570314079e+01   5.8230397599e+01    0.5527788    0.2356026  33.60  0.002338786    2.645    0.622
       143 -10.1649    122.1857     51.3682   7.1453729687e+01   4.7785454774e+01    0.2509296    0.1887303  58.95 0.0007804011    1.469    0.319
       144  -9.9792     98.1224     48.8260   7.7389022557e+01   5.3347378247e+01    0.2985779    0.1712839 -26.25 0.0007732835    1.819    0.450
       145 -10.3778     76.1627     49.0158   8.4664788506e+01   5.7310557212e+01    0.4002434    0.2222703 -24.72  0.001778021    2.040    0.510
       146 -10.4444     78.9985     45.7474   8.2444254281e+01   5.7417280251e+01    0.1922637    0.1805364 -36.20 0.0002499366    1.220    0.180
       147 -10.8142     57.5062     47.0829   9.0752522789e+01   6.0470593925e+01    0.3396254    0.2036836 -54.87 0.0009247209    1.935    0.483
       148  -9.6004     53.0069     48.5210   9.2995911671e+01   6.0786894001e+01    0.1805916    0.1270149  25.25   0.00102656    1.576    0.365
       149  -9.1284    193.2853     47.6264   5.5519356798e+01   3.0552141942e+01     0.160669    0.1067941 -59.99 0.0007017178    1.713    0.416
       150  -9.5194    154.7552     47.5985   6.2488687501e+01   4.0486396566e+01    0.1933137    0.1460599  70.64 0.0002466565    1.444    0.307
       151  -9.7189    135.7666     46.2183   6.6220099234e+01   4.5409545069e+01    0.2025069    0.1674021  15.72 0.0004844023    1.285    0.222
       152 -11.7825     26.9478     43.9322   1.0194411522e+02   6.4453547983e+01    0.3866209    0.3416406 -23.21   0.00207756    1.170    0.146
       153 -10.8358     22.7250     38.5574   1.0196867726e+02   6.5857176607e+01    0.1892548    0.1816769 -57.69 0.0005719608    1.366    0.268
       154 -11.6750     26.6709     35.5289   9.9181595898e+01   6.6099799687e+01    0.3864464    0.2109261 -33.22  0.001048619    1.587    0.370
       155  -9.8786    159.5174     41.9276   5.9650325599e+01   4.0092326869e+01    0.2196086    0.1469903 -30.53 0.0003409362    1.517    0.341
       156  -9.8833     69.8190     41.6392   8.4090433703e+01   5.9647222322e+01    0.2709273    0.1628672 -17.68 0.0008375265    1.933    0.483
       157 -10.9980      3.3977     41.8466   1.1134668838e+02   6.6467380370e+01    0.3080837    0.1785912  -8.18  0.001905334    2.069    0.517
       158  -9.4943    182.1559     40.9874   5.5316612283e+01   3.4359180964e+01     0.344045    0.1934426 -78.86  0.001225727    2.971    0.663
       159 -11.5501    139.9500     40.6088   6.3276591819e+01   4.5213675010e+01    0.3355745    0.2687159 -53.19 0.0003692871    1.419    0.296
       160  -9.7287     43.0092     40.7294   9.4138548310e+01   6.3468169366e+01    0.1661547    0.1417375  -7.57  0.000609099    1.159    0.138
       161 -10.3518     34.2988     41.2807   9.7955961264e+01   6.4291166092e+01    0.3457918    0.1498681  28.22  0.001260986    2.648    0.622
       162 -10.3019    128.0008     38.6694   6.5357522583e+01   4.8383828247e+01    0.3000329    0.2372942  49.99 0.0003723718    1.238    0.192
       163 -12.0735    121.5956     37.2936   6.6431330595e+01   5.0082215240e+01    0.4842857    0.4254566 -56.47  0.001924022    1.344    0.256
       164  -9.7300    115.2320     38.9743   6.8722950428e+01   5.1289856857e+01    0.2035603    0.1795451  -5.70  0.000469367    1.090    0.083
       165 -10.5428     14.6510     34.9644   1.0434225617e+02   6.7157951033e+01     0.389193    0.1814773 -27.18  0.001583389    2.301    0.565
       166 -10.8514     19.6301     32.0289   1.0107306713e+02   6.7346806722e+01    0.2956576    0.1700014  -3.00  0.001453159    2.097    0.523
       167 -11.0672      3.1091     35.0091   1.0955934343e+02   6.7845512212e+01    0.4029266    0.2276693 -36.48   0.00256105    1.454    0.312
       168 -11.0888     38.9289     35.3860   9.3818245296e+01   6.4908484331e+01    0.2693492    0.1871004  -0.86  0.001343302    1.547    0.354
       169  -9.8673    229.6647    248.0232   9.4278563889e+01  -8.1905403742e+00    0.1524733    0.1207404  11.82  0.000704608    1.122    0.109
       170 -11.1603     96.6229     32.9905   7.1647638410e+01   5.6149784031e+01    0.3672518     0.211591 -33.42  0.001741796    1.693    0.409
       171  -9.7542    134.2446     34.2160   6.2264368912e+01   4.7496431604e+01    0.2023035    0.1750244  23.53 0.0003278333    1.143    0.125
       172  -9.2886    144.8335     32.8130   5.9478128918e+01   4.5058178614e+01    0.1977208    0.1693347 -71.08 0.0004848409    1.359    0.264
       173  -9.2488     50.4416     33.5518   8.8290244977e+01   6.3847982046e+01    0.1270884    0.1060203 -22.93 0.0002295422    1.062    0.059
       174  -9.3447     73.2734     32.3120   7.9038537390e+01   6.0618447030e+01      0.13511   0.09349751  -2.32 0.0002169128    1.554    0.357
       175  -9.4986    166.4887     30.9442   5.4774729367e+01   3.9748569370e+01     0.214123    0.1450189 -27.40 0.0005312318    1.532    0.347
       176 -10.3189    129.1739     30.8849   6.2193870161e+01   4.9163232251e+01     0.236682    0.2025298 -21.18 0.0005750566    1.187    0.157
       177  -9.6851     25.6288     29.6950   9.7469161384e+01   6.7269910086e+01    0.1537085   0.09693021 -50.45 0.0004403776    1.487    0.328
       178 -10.8275      8.0445     28.6388   1.0526195777e+02   6.8794799249e+01    0.2248548    0.2100973  89.50  0.001734567    1.554    0.357
       179 -10.0692     70.0000     28.9478   7.8778633407e+01   6.1685575700e+01    0.2089946   0.06822265 -35.65 0.0004589363    2.832    0.647
       180  -9.7358    146.9265     26.6246   5.6884692123e+01   4.5302812359e+01    0.2001883    0.1775618  55.30 0.0005451312    1.075    0.070
       181  -9.6349     57.6717    248.2119   1.2403626036e+02   1.7430677389e+01     0.194836   0.06273007  43.57  0.001012854    2.384    0.581
       182 -10.4816    113.3918     25.1328   6.3802214276e+01   5.3585123911e+01    0.2543153    0.2242388  44.14 0.0003967994    1.124    0.110
       183  -9.1774     18.3182     26.2998   9.9550849832e+01   6.8504186811e+01    0.1808123   0.06640239 -35.61 0.0007656167    2.430    0.588
       184  -9.6909    193.6578     25.6649   4.9037762357e+01   3.3332047787e+01    0.1511742    0.1037676  34.28 0.0007050569    1.760    0.432
       185  -9.5716    153.7455     25.6015   5.5247349647e+01   4.3687275892e+01     0.200116     0.136777  77.08  0.000594169    1.616    0.381
       186  -9.7510    224.9638    246.7124   9.4873240036e+01  -7.3582413814e+00    0.1659801    0.1159295  26.14   0.00113376    1.086    0.080
       187 -10.7596      1.9556     21.9637   1.0589541681e+02   7.0389006623e+01    0.2506403    0.1252903 -51.66 0.0007497984    1.502    0.334
       188 -11.3664     30.5370     21.2532   9.1722524126e+01   6.8257957051e+01    0.2475382    0.1812325 -23.86 0.0008820044    1.069    0.065
       189 -11.2300     14.3868     21.5325   9.9575250067e+01   6.9660388686e+01    0.2584213    0.2039735  21.30  0.001867985    1.564    0.361
       190  -9.3797    175.5622     21.4543   5.0306663370e+01   3.8514824079e+01    0.1415509    0.1336316  84.01 0.0001065607    1.023    0.023
       191  -9.5055    165.0164     20.9677   5.1773157012e+01   4.1310364791e+01    0.1712771    0.1625363 -23.68 0.0006794335    1.118    0.105
       192  -9.5603     84.7202     21.3878   7.0422650909e+01   6.0099492013e+01    0.1877735     0.112133  35.85 0.0006485461    1.615    0.381
       193  -9.3465    136.3689    245.7155   1.1030391297e+02   6.6356034726e+00    0.1217435   0.07470629  60.92 0.0007018201    1.700    0.412
       194  -9.4705    202.4880    240.1082   9.7766747182e+01  -3.1475277532e+00     0.148241    0.1146063 -25.86 0.0006081198    1.511    0.338
       195  -9.9598     97.9681     25.9891   6.8358407147e+01   5.6839269359e+01    0.2041321    0.1779145  11.40            0    1.025    0.024
       196  -9.4476     60.5877    241.0000   1.2305518058e+02   1.8282387251e+01    0.2199958   0.05071165  39.50 0.0009095719    3.734    0.732
       197  -9.8283    148.5243    239.0109   1.0731637593e+02   5.7063855857e+00    0.1538993    0.1208432 -53.05 0.0009869788    1.588    0.370
       198 -11.1351     14.1576    238.7263   1.3040516813e+02   2.3957673911e+01    0.1721417   0.09710932  77.92  0.000480943    1.327    0.246
       199  -9.2118     91.0000    237.0403   1.1748063316e+02   1.4861524679e+01    0.1608456   0.06275813 -64.44 0.0007956196    2.895    0.655
       200 -12.3092     25.9637    235.6458   1.2839854240e+02   2.3265392568e+01    0.3437784    0.2720231  48.24  0.002655669    1.479    0.324
       201 -10.9599      1.5880    226.1108   1.3180548990e+02   2.7393351807e+01    0.2966342   0.07606697 -85.57  0.001369915    3.704    0.730
       202 -10.7409     20.0527     17.0721   9.4907078244e+01   6.9961452899e+01    0.2041821    0.1742507   4.84 0.0008913146    1.333    0.250
       203 -11.9694      4.1638    232.6501   1.3167946904e+02   2.5993495164e+01    0.2480066    0.1327799  65.22  0.001820489    1.326    0.246
       204  -9.5104    199.5503     17.4861   4.5957558895e+01   3.2757935803e+01    0.1384766    0.1281514 -84.32 0.0001216935    1.007    0.007
       205 -10.4109    108.3381     16.3825   6.1528192736e+01   5.5750210348e+01    0.2172998    0.1687397 -10.51  0.001206823    1.283    0.221
       206  -9.6557     82.4749     17.5032   6.9407062837e+01   6.1021328470e+01    0.1348071    0.1133927   8.47 6.855634e-05    1.019    0.019
       207 -12.2444      9.7039    228.2853   1.3062245460e+02   2.6234424838e+01    0.3269878    0.2214759  76.04  0.001163293    1.040    0.039
       208  -9.5376    209.5230    229.5168   9.4891437032e+01  -2.9405593886e+00    0.1225974   0.09781335  25.24 0.0001039038    1.016    0.016
       209 -10.3792    140.7531    228.5134   1.0741849192e+02   8.5989851836e+00    0.2251327    0.1530447 -47.13  0.000890566    1.808    0.447
       210  -9.4115    223.2957    226.6981   9.1999532016e+01  -4.7843813257e+00    0.1042944   0.09278143  52.28 0.0006994607    1.576    0.366
       211  -9.7414    250.6963     15.3132   4.0409532597e+01   2.0661154787e+01    0.1380813   0.07992913 -59.63 0.0002815046    1.616    0.381
       212 -10.5318    154.5082     15.0184   5.1505608836e+01   4.4659813499e+01    0.2664278    0.1958947  63.23 0.0004593843    1.263    0.208
       213  -9.9259    249.1807    234.1028   8.8809915801e+01  -9.5288553547e+00    0.1735385    0.1192726  13.41  0.000451224    1.166    0.142
       214 -10.0070    190.8611     13.8100   4.5949449058e+01   3.5382568810e+01    0.2134192    0.1801188  51.62 0.0007457246    1.215    0.177
       215  -9.4528    162.3221     13.3001   4.9687362492e+01   4.2822449629e+01    0.1487952   0.09775607  37.47 0.0003245725    1.627    0.385
       216  -9.9788      2.3019    219.9353   1.3142556724e+02   2.8445233429e+01    0.1741841   0.04951363  79.09 0.0007034389    4.337    0.769
       217 -10.8099      8.7488    218.3692   1.3030576484e+02   2.8130580662e+01    0.2338852    0.1855268   1.03   0.00168024    2.701    0.630
       218  -9.4828     56.4954     10.5034   7.5326958389e+01   6.6430104734e+01    0.1256807     0.101935  -2.03 -0.0001025363    1.029    0.029
       219  -9.7064      3.4925    211.5238   1.3084385824e+02   2.9897795094e+01    0.1059927   0.07281417  76.27 3.622268e-05    1.002    0.002
       220 -10.0539     20.1510    209.8245   1.2791418333e+02   2.8624159261e+01    0.1755971    0.1037819  67.56 0.0008687291    1.311    0.237
       221 -10.1023      2.9921    205.6650   1.3064319606e+02   3.1056078407e+01    0.1305049   0.08768755  -6.71 0.0007050322    4.458    0.776
       222 -10.1710     10.1595    203.3924   1.2928853258e+02   3.0840182621e+01    0.1479345   0.07298851  52.26 0.0005847042    1.687    0.407
       223  -9.8532     23.1314    197.1612   1.2657432367e+02   3.0812641859e+01     0.159576    0.1287898 -85.53 0.0004896625    1.241    0.194
       224 -10.7339     13.9036    192.6929   1.2798590717e+02   3.2610548136e+01    0.1939308     0.117827  83.54 0.0004215443    1.270    0.213
       225 -10.2852      6.6102    191.4965   1.2924928430e+02   3.3515255917e+01    0.1996667    0.1278825  75.11 0.0003404918    1.176    0.150
       226  -9.3626     22.5051    179.5890   1.2542573644e+02   3.4497617577e+01    0.1149509   0.08731627  82.47 -0.0002420609    1.017    0.017
       227 -10.8707      5.4129    167.5792   1.2797296438e+02   3.8569314725e+01    0.2363979    0.1333582  87.36  0.001494768    1.393    0.282
       228  -9.6147    226.6863    164.0417   7.9525193830e+01   3.4553058459e+00    0.1976968    0.1648556 -12.29 0.0006222926    1.110    0.099
       229  -9.9131     14.4924    164.0147   1.2584309967e+02   3.8574877873e+01    0.1650033   0.06566516 -56.99 0.0008105562    2.582    0.613
       230  -9.2174     41.2918    157.6676   1.1936247652e+02   3.7374885403e+01    0.1300931   0.07922998  74.88 0.0003640417    1.632    0.387
       231  -9.8319    247.4825    155.5040   7.4041140280e+01   9.0038083972e-01     0.137347     0.116994  -5.45 4.434655e-05    1.006    0.006
       232 -10.4984      2.7163    153.4376   1.2752015040e+02   4.1827382523e+01    0.1924288   0.09563073  37.84  0.001155651    2.179    0.541
       233  -9.4732    237.7722    150.0126   7.4489741251e+01   3.5503839110e+00     0.183789    0.1066315 -31.94 0.0005104447    1.609    0.379
       234 -10.0879     24.0237    150.4918   1.2254725416e+02   4.0723206077e+01    0.1526843    0.1165681  38.78 0.0006184608    1.545    0.353
       235 -10.0574     16.1335    150.3094   1.2431836467e+02   4.1456045531e+01    0.1880591    0.1140442  15.58  0.001084135    2.557    0.609
       236  -9.0355    228.3325    152.3341   7.6673467575e+01   5.0053736016e+00    0.1501672    0.1027692   6.80 0.0007052229    1.732    0.423
       237  -9.7246      7.9881    146.9881   1.2585273403e+02   4.2849909656e+01    0.2494932   0.08556058  65.93 9.584799e-05    4.139    0.758
       238 -10.2310     22.6899    142.9371   1.2208196368e+02   4.2555950031e+01    0.1793671    0.1232497 -78.13 0.0007479417    1.151    0.131
       239  -9.7867     33.9545    142.2711   1.1930604765e+02   4.1658644223e+01    0.1643529    0.1387959 -88.01 0.0003048799    1.068    0.064
       240  -9.4272     24.5308    138.9679   1.2121055870e+02   4.3301221460e+01     0.174393   0.07061745 -53.43 0.0008083957    2.430    0.588
       241 -10.5497    213.5182    134.3507   7.5261685566e+01   1.1065397261e+01    0.4495723    0.2760244  68.16  0.001785067    2.652    0.623
       242  -9.7078      8.7238    135.3567   1.2463575291e+02   4.5400593825e+01    0.1222043   0.07060063  76.59 0.0007007373    1.653    0.395
       243 -10.6541      2.2657    132.8921   1.2594179961e+02   4.6406469623e+01    0.2527888    0.1620067  63.74  0.001646962    1.551    0.355
       244  -9.6860     35.2408    130.8481   1.1753463733e+02   4.4188424325e+01    0.1725513    0.1223088 -56.42 0.0005167911    1.346    0.257
       245 -10.9932     11.4322    129.5356   1.2339743182e+02   4.6522585265e+01    0.2846162    0.1826036  51.91  0.001800892    1.677    0.404
