#   1 NUMBER                 Running object number                                     
#   2 MAG_AUTO               Kron-like elliptical aperture magnitude                    [mag]
#   3 X_IMAGE                Object position along x                                    [pixel]
#   4 Y_IMAGE                Object position along y                                    [pixel]
#   5 X_WORLD                Barycenter position along world x axis                     [deg]
#   6 Y_WORLD                Barycenter position along world y axis                     [deg]
#   7 A_WORLD                Profile RMS along major axis (world units)                 [deg]
#   8 B_WORLD                Profile RMS along minor axis (world units)                 [deg]
#   9 THETA_WORLD            Position angle (CCW/world-x)                               [deg]
#  10 FWHM_WORLD             FWHM assuming a gaussian core                              [deg]
#  11 ELONGATION             A_IMAGE/B_IMAGE                                           
#  12 ELLIPTICITY            1 - B_IMAGE/A_IMAGE                                       
         1 -14.7795    157.1596     51.2531   8.0639252571e+01   3.9522140629e+01     1.136012     1.085104 -37.27  0.003411223    1.118    0.106
         2 -15.0677    168.5527     21.9845   7.0143980698e+01   4.0488767441e+01     1.011593    0.8507324  74.73  0.003565379    1.067    0.063
         3 -12.0849    197.0272      6.9939   6.2458926091e+01   3.5124025579e+01    0.2187712    0.1338188 -70.38 0.0009041133    1.712    0.416
         4 -13.7014    189.7140     14.2532   6.5120837987e+01   3.6138764492e+01    0.4575948    0.2917899 -60.02  0.001823186    1.661    0.398
         5 -10.5605     30.6202    246.4160   1.4711275449e+02   2.0330245375e+01    0.1131426   0.07475834  73.63 0.0003110445    1.097    0.089
         6 -14.6031    199.1092    244.8592   1.1601609951e+02  -5.7948495521e+00    0.7604454     0.743996  15.22   0.00541245    1.242    0.195
         7 -13.6589    186.6578    236.5051   1.1706529690e+02  -2.4010875850e+00    0.6696902    0.4567774  73.39  0.003276806    2.547    0.607
         8 -13.1773    190.8160    249.3435   1.1826658741e+02  -5.0568190992e+00    0.8284279    0.2257044  41.10  0.003142233    3.055    0.673
         9 -14.6071    186.9821    242.8802   1.1800259000e+02  -3.4442600517e+00     1.085444    0.5584268  40.61  0.004107339    1.637    0.389
        10 -11.0104    140.6023    249.8850   1.2783355802e+02   3.4192043971e+00    0.3587655    0.1860605  46.86  0.001861896    1.578    0.366
        11 -20.5238     83.9840    179.0911   1.2981517622e+02   2.7342819438e+01     15.73997     6.873908 -63.52   0.06625042    2.211    0.548
        12 -10.5506    158.0207    243.8490   1.2370015410e+02   1.4247812419e+00    0.2924973    0.1582919 -37.08  0.001154653    2.573    0.611
        13 -12.3635    194.5735    172.0639   1.0355475268e+02   7.5927568168e+00    0.5322953    0.3576885 -57.18  0.001905955    1.776    0.437
        14 -11.8240    192.3354    165.2543   1.0256794751e+02   9.4070641702e+00    0.4419951    0.3333146 -68.69  0.002079093    1.703    0.413
        15 -12.7298    224.3564    173.3290   9.7920878056e+01   1.3757709681e+00     0.304978    0.2697544  55.51  0.001049867    1.289    0.224
        16 -13.2810    162.5298    167.7615   1.0956567750e+02   1.5201655595e+01      0.44965    0.3839015  56.31  0.001631357    1.161    0.139
        17  -9.9724     27.5377    227.3671   1.4633285991e+02   2.4363492241e+01    0.1125532   0.08252172  75.75 0.0001393528    1.037    0.036
        18 -12.9976    189.1322    154.5935   1.0089790066e+02   1.2247730265e+01    0.6299648    0.5400532  24.55  0.002279673    1.257    0.204
        19 -12.6296    207.4218    220.8472   1.1041594713e+02  -3.5722441450e+00    0.2704107    0.2362613 -37.19 0.0007854459    1.295    0.228
        20 -11.7161     23.0908    155.7892   1.4076368444e+02   4.0322288141e+01     0.313426    0.2040669 -56.29  0.001128304    1.484    0.326
        21 -12.8869    166.7288    155.1502   1.0591145938e+02   1.7015615751e+01    0.4568408    0.3156594  69.17  0.001796334    1.856    0.461
        22 -11.0295    202.3117    220.3177   1.1131259868e+02  -2.5817085752e+00    0.1353667   0.09707756   8.32 0.0003802823    1.643    0.391
        23 -12.4706    174.1532    148.6167   1.0278489602e+02   1.6786109608e+01    0.5077485    0.3569989 -61.25  0.001512052    1.638    0.389
        24 -11.2705    217.4260    216.8369   1.0777991103e+02  -4.6903886470e+00    0.3761428    0.1180161 -47.15  0.001264347    4.446    0.775
        25 -10.8885     15.0000    218.0864   1.4785763168e+02   2.7584684939e+01    0.1627363   0.05072209 -75.56 0.0005737506    2.667    0.625
        26 -11.4988     12.4105    134.9159   1.4083851466e+02   4.5969384424e+01    0.2949077    0.1777238 -27.80  0.001636226    2.483    0.597
        27 -10.8264     19.5329    134.7751   1.3904948450e+02   4.5438033918e+01    0.2509593     0.162702   6.49  0.001204875    2.348    0.574
        28  -9.8841     40.2866    245.2404   1.4544286078e+02   1.9383479567e+01   0.08962606   0.08105787  80.98 0.0004795511    1.459    0.314
        29 -13.1196    160.5784    128.0392   1.0099065685e+02   2.4267334693e+01     0.526674    0.3857161 -57.18  0.001540336    1.444    0.308
        30 -11.1981      9.6647    212.1532   1.4838895539e+02   2.9326347048e+01    0.1511806   0.09421176 -81.89 0.0003640102    1.276    0.216
        31  -4.5760     16.8566    209.3694   1.4692079981e+02   2.9176646672e+01    0.1592544    0.1209518  85.12  0.001153065    1.075    0.070
        32 -11.3211    231.3481    113.7507   8.3383693581e+01   1.0883975457e+01    0.2637212    0.2569268 -74.22 0.0007723045    1.064    0.060
        33 -11.4423    167.6528    112.7094   9.5507846960e+01   2.5873907032e+01    0.3856947    0.2904346 -84.30  0.001091177    1.735    0.424
        34 -11.2009    205.2460    110.5965   8.7239466067e+01   1.7392213560e+01    0.3625851    0.2916515  19.97  0.001081168    1.586    0.370
        35 -13.1039     11.4977    206.1569   1.4765464151e+02   3.0379580531e+01    0.4319513    0.3034086  32.87  0.002907704    1.905    0.475
        36 -10.9145    222.9967    198.6970   1.0330777076e+02  -2.7501503013e+00    0.1882973    0.1624671  22.79 0.0003550324    1.077    0.072
        37 -11.8872     15.7393    194.7437   1.4601692533e+02   3.2369110565e+01    0.1881808     0.142022 -79.03  0.000595402    1.195    0.163
        38 -11.5497     23.4779    191.0901   1.4421368460e+02   3.2381037002e+01    0.1991674    0.1452942 -63.59  0.001190196    1.443    0.307
        39 -11.3466    152.0200    239.3334   1.2422321369e+02   3.2328499442e+00    0.3221021    0.2770536 -18.66  0.001430615    1.522    0.343
        40 -12.0300     17.6425    187.8873   1.4508550096e+02   3.3662235983e+01    0.2676361    0.1607974 -73.65  0.001053041    1.362    0.266
        41 -11.6187    105.4030     82.3132   1.0290802866e+02   4.5734261142e+01    0.2444717     0.239479  76.71  0.000380128    1.131    0.116
        42 -14.6278    147.1784     65.6049   8.7047574386e+01   3.9682311249e+01     1.140701     1.029808  43.42  0.001340513    1.081    0.075
        43 -12.6559    237.4809    185.3269   9.7954014789e+01  -3.1321440359e+00    0.4192271    0.1683152  36.74  0.001659942    2.686    0.628
        44 -13.5676    161.3190     42.3159   7.7207485487e+01   3.9764752524e+01    0.4998518    0.4800889  78.00 0.0008272597    1.051    0.048
        45 -11.4096     13.5327     59.8976   1.2719846944e+02   6.1952693862e+01    0.1747757    0.1594911  -1.09 0.0004129015    1.305    0.234
        46 -12.0019    211.2185    237.9239   1.1261986513e+02  -6.8114613294e+00    0.1841031    0.1667387  44.89 0.0009802462    1.284    0.221
        47 -14.2101    237.5809    174.3479   9.5686134848e+01  -1.2987333870e+00    0.8327158    0.5204642  48.49  0.004127892    1.762    0.432
        48 -12.1816    203.5067    174.2773   1.0219532132e+02   5.3354889299e+00    0.7351491    0.3348878 -58.85  0.002140664    4.791    0.791
