#   1 NUMBER                 Running object number                                     
#   2 MAG_AUTO               Kron-like elliptical aperture magnitude                    [mag]
#   3 X_IMAGE                Object position along x                                    [pixel]
#   4 Y_IMAGE                Object position along y                                    [pixel]
#   5 X_WORLD                Barycenter position along world x axis                     [deg]
#   6 Y_WORLD                Barycenter position along world y axis                     [deg]
#   7 A_WORLD                Profile RMS along major axis (world units)                 [deg]
#   8 B_WORLD                Profile RMS along minor axis (world units)                 [deg]
#   9 THETA_WORLD            Position angle (CCW/world-x)                               [deg]
#  10 FWHM_WORLD             FWHM assuming a gaussian core                              [deg]
#  11 ELONGATION             A_IMAGE/B_IMAGE                                           
#  12 ELLIPTICITY            1 - B_IMAGE/A_IMAGE                                       
         1 -11.7868     71.8020     42.6263   8.2314309405e+01   5.9469591941e+01    0.5877168    0.3104232  52.25  0.002540929    2.740    0.635
         2 -12.1721     42.6975     20.5111   8.4809317188e+01   6.7303046271e+01    0.5456974    0.3179544  33.14  0.002017149    1.829    0.453
         3 -12.2511    216.2146     14.2846   4.1953799115e+01   2.9312744321e+01    0.5048859    0.4577408  26.44  0.003125277    1.383    0.277
         4 -11.1574     65.3287     10.7822   7.0820658721e+01   6.5231382962e+01    0.2371257    0.1938602  16.25 0.0005176082    1.067    0.063
         5 -10.5139     49.8429     11.0873   7.7159666194e+01   6.7670192266e+01    0.1944469    0.1524722  18.18 0.0004976808    1.183    0.155
         6 -13.5456    186.7995      7.0430   4.3154548358e+01   3.7415396346e+01    0.9586767    0.5285639 -77.99  0.004272791    2.148    0.534
         7 -11.8674     57.6688      8.0686   7.2423770855e+01   6.6836663391e+01    0.4254702    0.3039483  21.34  0.002229379    1.251    0.201
         8 -11.6881     43.3952      8.4287   7.8652673055e+01   6.8938074045e+01    0.3071706    0.2234061  35.45  0.001033716    1.535    0.348
         9 -10.6361     25.6056      7.7581   8.6925244785e+01   7.1207294033e+01    0.2257537    0.1380941 -26.57 0.0008954137    1.328    0.247
        10 -10.3618    109.5150      8.5225   5.6553919765e+01   5.6511946930e+01    0.1331863    0.1203366  36.64 0.0008096323    1.046    0.044
        11 -11.0210     52.0022      5.0212   7.3168714897e+01   6.8097196112e+01    0.1870402    0.1506393  -0.07 0.0005010712    1.042    0.040
        12 -11.6391    165.3521      1.8670   4.4249967250e+01   4.3367993342e+01    0.4505298    0.1756829  69.14  0.001824783    2.259    0.557
        13 -10.4855    224.6673    211.6714   8.6938662958e+01  -3.1692074390e+00    0.2392651    0.1554675  -4.22  0.001321311    1.713    0.416
        14 -10.5407    232.7487    210.9919   8.5370383492e+01  -4.3684562863e+00    0.1537919   0.09899176 -27.75 0.0008869891    1.576    0.366
        15 -11.7497    222.2593    214.2414   8.7825304712e+01  -3.1299153561e+00    0.3095983    0.1152807  41.98  0.001351113    2.474    0.596
        16 -10.7432    115.7599    209.2056   1.0805281521e+02   1.5881557645e+01    0.2933277    0.1568752 -67.02   0.00142055    2.255    0.557
        17 -10.4095     49.0328    202.5148   1.2093102507e+02   2.6783150353e+01    0.2375246    0.1368334  81.23  0.001149861    1.638    0.389
        18 -10.7200     41.7356    200.8390   1.2223497635e+02   2.7985231798e+01    0.2741553     0.150703 -65.55  0.001156765    1.802    0.445
        19 -10.6615    112.3970    197.6246   1.0720026097e+02   1.8704799849e+01    0.2451655    0.1208359 -75.43 0.0009545421    3.251    0.692
        20 -12.3536    160.0088    191.7374   9.6095502269e+01   1.1430140148e+01    0.7125661    0.5033935  79.55  0.003207592    2.214    0.548
        21 -10.5703    183.4804    182.9236   8.9591789507e+01   8.6080665806e+00    0.3644991    0.1385114 -42.06  0.001384624    2.823    0.646
        22 -10.2491    224.2319    183.2874   8.1711213896e+01   1.0154334139e+00    0.1998728    0.1016536 -44.99 0.0008865844    2.358    0.576
        23  -9.9425    215.3073    193.7900   8.5401573033e+01   9.8079739433e-01    0.2464394    0.1130513 -44.59  0.001064617    2.616    0.618
        24 -10.1466    191.8295    178.0252   8.6936187819e+01   7.8752408657e+00    0.2214445    0.1702039 -73.98  0.001087598    2.025    0.506
        25 -10.2356     12.5239    175.4864   1.2621178457e+02   3.6317054266e+01    0.1159751   0.08760812  85.32 0.0001754365    1.020    0.020
        26 -10.4919     38.2473    174.6155   1.2067223985e+02   3.3994676095e+01    0.1469728    0.1174874  28.71 0.0009503736    1.608    0.378
        27 -11.7260     55.5728    167.9288   1.1605841114e+02   3.3495776506e+01    0.4578304    0.2428566  84.14  0.002132144    2.219    0.549
        28 -10.1856    167.6762    168.3596   9.0081114858e+01   1.4404997480e+01    0.1484019    0.1162858  84.77  0.000704337    1.777    0.437
        29 -10.1922     92.3499    160.6639   1.0625152129e+02   2.9982760013e+01    0.1515042   0.09979308  73.10 0.0007046588    1.785    0.440
        30 -11.4618    121.2440    168.0701   1.0057721079e+02   2.3391831946e+01    0.4606114     0.127862 -58.02  0.001316081    4.610    0.783
        31 -10.7932     22.3959    159.8248   1.2283349318e+02   3.8893203884e+01    0.2677332    0.1438393  61.44  0.001485206    1.809    0.447
        32 -11.7389    106.3640    157.4530   1.0226964043e+02   2.8396280620e+01    0.6381283    0.4218827  87.91  0.002871557    2.020    0.505
        33 -10.8622    167.3883    157.5239   8.7908731878e+01   1.6605447496e+01     0.321492        0.239  78.45  0.001304792    1.932    0.482
        34 -10.4161    218.4211    156.2394   7.7177568083e+01   6.4704158657e+00    0.3519549    0.1295812 -39.76  0.001298662    2.670    0.626
        35 -11.1087    119.1398    156.8810   9.9039541609e+01   2.6251882720e+01    0.4481559    0.2586682  49.26  0.001987514    1.722    0.419
        36  -9.8121     23.4811    153.5249   1.2199720333e+02   4.0225242507e+01    0.1232868   0.09608823  88.82 7.114784e-05    1.027    0.027
        37 -10.6231    189.7750    150.2677   8.1516107556e+01   1.3360133546e+01    0.3583367    0.1984467 -54.38  0.001415417    2.359    0.576
        38 -11.3710    107.7157    145.8814   9.9776332139e+01   3.0824269818e+01    0.5659201     0.294609  67.82  0.001830129    3.802    0.737
        39 -10.3457    148.6618    145.3185   8.9552667947e+01   2.3015854108e+01    0.2426538    0.1855305  86.39 0.0009940078    1.754    0.430
        40 -10.0714    181.9585    141.9669   8.1277733254e+01   1.6620345660e+01    0.2417614    0.1926494 -84.92  0.001131341    1.744    0.427
        41 -11.2329     83.2974    131.6354   1.0346201435e+02   3.8241077437e+01    0.4991899    0.2907696 -87.92  0.001962346    2.688    0.628
        42 -10.7512     58.7017    123.8710   1.0888751821e+02   4.3519732656e+01    0.3320902    0.1582738 -82.28  0.001197786    3.275    0.695
        43 -11.1101     43.3488    122.8286   1.1306102851e+02   4.5520268383e+01    0.5662614    0.2782753  89.12  0.002246716    3.032    0.670
        44 -11.2466     27.0386    120.8275   1.1734346552e+02   4.7544691720e+01    0.6018567    0.2478728  84.11  0.001936597    5.039    0.802
        45 -11.7884    193.3206    118.4904   7.3228414211e+01   1.8641289304e+01    0.5591804    0.4569018 -81.13  0.001977781    1.577    0.366
        46 -10.7650     15.0685    120.9442   1.2065119315e+02   4.8462878177e+01    0.3452047    0.1802067  22.23  0.001886097    2.450    0.592
        47 -12.3055    100.1201    129.1430   9.8362849740e+01   3.6081101970e+01    0.7793064    0.4176575  67.27  0.002614058    3.551    0.718
        48 -11.6428    141.1729    112.9999   8.3626523243e+01   3.1640147721e+01    0.3862226    0.2916136 -18.37  0.001728388    1.656    0.396
        49 -10.7402    108.4098    112.6557   9.2272023902e+01   3.8437473963e+01    0.6045418    0.2753404 -64.01  0.001882126    3.544    0.718
        50 -10.8952     79.0923    113.2193   1.0085884680e+02   4.3286412815e+01    0.3917857    0.2240962 -87.60  0.001387325    3.400    0.706
        51 -11.8206    159.8940    110.9364   7.8536865561e+01   2.7856156763e+01    0.7107191    0.3735403 -54.70  0.002581971    2.339    0.572
        52 -10.9932    174.2532    110.9221   7.5287181150e+01   2.4522374593e+01    0.3742411    0.2730093 -48.36  0.001145256    1.401    0.286
        53 -10.6357     91.8212    111.0642   9.6629426345e+01   4.1767034295e+01    0.4015184     0.193673 -62.64  0.001510041    2.408    0.585
        54 -11.3420     14.1328    109.4347   1.1948464921e+02   5.1213534479e+01     0.538188    0.2051646 -76.68  0.002404855    2.350    0.574
        55 -12.0217     44.4649    100.8489   1.0886736473e+02   5.0646823668e+01    0.6572092    0.3665622 -87.84  0.002853989    2.595    0.615
        56 -11.9104    140.1986    100.5871   8.0525546990e+01   3.4513997254e+01    0.4279325    0.3246515  61.96  0.001966835    1.479    0.324
        57 -12.2092    127.5280    100.5901   8.3837466919e+01   3.7293692471e+01    0.5725858    0.3098378 -54.97  0.002194269    2.101    0.524
        58 -11.1950     82.4280    100.7488   9.6935423704e+01   4.5710300229e+01    0.2614068    0.2580767 -25.18 0.0006512503    1.085    0.078
        59 -10.6053     94.6957     97.1470   9.2268099552e+01   4.4491943766e+01    0.2436579    0.1873781 -68.84  0.001149659    1.461    0.315
        60 -11.1414     62.7076     95.2774   1.0182187215e+02   4.9825502449e+01    0.3802391    0.1734609 -73.30  0.001212584    4.128    0.758
        61 -12.5636    170.3484     91.1579   7.0747716155e+01   2.9309003271e+01    0.4527888    0.4011891 -62.88  0.001000591    1.200    0.167
        62 -12.3226    108.0127     99.0668   8.8854580199e+01   4.1603468960e+01    0.7801237    0.5198554 -88.41   0.00299264    2.737    0.635
        63 -11.9199     42.3955     87.9448   1.0685822264e+02   5.3876014344e+01    0.6262828    0.3508134 -11.73  0.002531355    3.103    0.678
        64 -11.0320     45.1896     81.8485   1.0449563117e+02   5.4983846790e+01    0.2762108    0.2055214 -63.45 0.0007262475    1.243    0.195
        65 -10.8771     34.0311     87.3637   1.0956180819e+02   5.4806062767e+01    0.4645113    0.1607803 -63.15  0.001909157    2.430    0.589
        66 -11.1814     87.2387     87.4759   9.1918705516e+01   4.7948441285e+01    0.3800003    0.2340139  69.93  0.001422137    3.176    0.685
        67 -11.1538    104.6495     83.2656   8.5318758898e+01   4.5702481391e+01    0.4440732    0.2877725 -68.26  0.001816888    2.288    0.563
        68 -10.8060     23.8895     80.2276   1.1158957754e+02   5.7272380845e+01    0.3140865    0.1512273 -82.10  0.001326887    2.950    0.661
        69 -10.0474      1.8197     77.8437   1.1880600472e+02   5.9152041140e+01    0.1860364    0.1189774 -53.88 0.0006929244    1.251    0.201
        70 -11.4629     82.3290     73.6554   8.9425215855e+01   5.1760688643e+01    0.4503905    0.2506304 -65.22  0.001710099    2.916    0.657
        71 -10.9555     62.3283     70.5059   9.5367897456e+01   5.5438094529e+01    0.2537681    0.1138701 -50.70   0.00108449    1.980    0.495
        72 -12.2525    223.5629     70.5915   5.5552037940e+01   1.9920238917e+01    0.2936665     0.270964 -79.28 0.0002766066    1.096    0.087
        73 -10.1392    140.5111     82.9965   7.5335057690e+01   3.8035393823e+01    0.2498499    0.1524982 -40.29  0.001041704    1.620    0.383
        74 -10.6514     51.9600     70.9952   9.9252653249e+01   5.6643718683e+01    0.2109877    0.1810655 -42.10  0.001040064    1.006    0.006
        75 -11.3754     28.0625     52.4458   1.0319088401e+02   6.2989591792e+01    0.4212164    0.1850636 -33.79  0.001449141    2.395    0.582
        76 -11.9090     21.1149     51.5499   1.0582301371e+02   6.3722877099e+01    0.5189303    0.3134772 -62.98  0.002994965    1.571    0.363
        77 -11.7966     19.4475     59.5017   1.0859785466e+02   6.2168069132e+01    0.3426898     0.248086 -18.73  0.001654263    1.488    0.328
        78 -13.1515     28.1072     60.5145   1.0543012264e+02   6.1293348297e+01     1.167694    0.4288354  41.77  0.002853132    4.002    0.750
        79 -10.2843    195.4162     67.8641   5.9266596798e+01   2.7199677116e+01    0.2607937    0.1814145  54.26  0.001216814    1.453    0.312
        80 -12.4319    237.0303     63.6325   5.1963844471e+01   1.7870252515e+01    0.5124353    0.2775028  84.07  0.002078053    2.733    0.634
        81 -12.5570     35.6370     57.4282   1.0157640587e+02   6.1276158380e+01     0.740531    0.4252055 -23.84  0.003801968    2.022    0.505
        82 -10.0064    100.6578     61.3187   7.9448617430e+01   5.0881108002e+01    0.1440348     0.118547 -82.47 0.0007049436    1.717    0.418
        83 -11.3828      8.6131     56.3997   1.1218534321e+02   6.3499495445e+01    0.4256165     0.254382 -78.47     0.002434    1.875    0.467
        84 -10.1341    161.6665     53.3390   6.1226541387e+01   3.8078632378e+01    0.1607114     0.115887 -69.40 0.0005382829    1.747    0.428
        85 -11.1260    148.8840     52.0323   6.3499442319e+01   4.1503789076e+01    0.3067776    0.2083796  50.51  0.000464427    1.423    0.297
        86 -10.3571     92.3048     50.6639   7.8290461782e+01   5.4437832948e+01    0.1365554    0.1143802 -72.63 0.0004480552    1.669    0.401
        87 -10.8246    157.0553     44.9936   5.9479992470e+01   4.0505125488e+01    0.2718221    0.2034412  58.75 0.0004729374    1.291    0.225
        88 -11.8234    220.1584    248.5597   9.3745888175e+01  -7.1029315391e+00    0.3618126     0.214818  50.13  0.002072121    2.192    0.544
        89 -12.3853     41.1205     38.1319   9.2842299235e+01   6.4507509569e+01     0.509307     0.322851   8.23  0.001642473    1.811    0.448
        90 -10.4617    140.5558     37.5127   6.0414215555e+01   4.5710915604e+01    0.1459676    0.1379069  36.11 0.0002074709    1.018    0.017
        91 -11.7020    120.4709     34.4293   6.4020338502e+01   5.0966024660e+01    0.3251502    0.2798959  62.32 0.0007308011    1.240    0.194
        92 -10.6367     50.0688     34.6973   8.7693955464e+01   6.4031949709e+01    0.3157238    0.1590232  30.88  0.001579035    2.129    0.530
        93 -11.5805      7.7895     43.2898   1.0926572940e+02   6.6267852210e+01    0.4700668    0.2476384  37.58  0.002657903    2.603    0.616
        94 -10.7211    102.5640     29.5858   6.6964512122e+01   5.5630566339e+01     0.461238    0.3467115  67.86  0.002402946    1.683    0.406
        95 -12.1328    203.0514     21.2789   4.5207873853e+01   3.1775145495e+01    0.4825175    0.2272242 -86.15  0.001772231    3.074    0.675
        96 -12.3791     21.8391    238.9817   1.2823426455e+02   2.2851681665e+01    0.4654837     0.183903  63.09  0.002443851    2.037    0.509
        97  -9.8633     46.5432     16.5052   8.1229942336e+01   6.7393051237e+01    0.1909492    0.1405207   5.74 0.0009435983    1.240    0.194
        98 -11.4377    239.1769     20.5881   4.1327193588e+01   2.3155906890e+01    0.4179074    0.2088581  73.53 0.0009606305    1.990    0.497
        99 -10.0410      2.5052    240.4486   1.3137677555e+02   2.4525646079e+01    0.1027813   0.06745744  69.77 0.0002486991    1.017    0.017
       100 -10.0575     88.5046     17.9914   6.6290562057e+01   6.0032453461e+01     0.177856    0.1047513 -48.50 0.0007195603    2.442    0.591
       101 -10.6331     12.9860    227.5977   1.2914026593e+02   2.5818224138e+01    0.1952464    0.1036268  76.08  0.000533427    1.466    0.318
       102 -10.0917    104.4445    224.9602   1.1221913118e+02   1.4731742558e+01    0.1685998    0.1177558 -69.07  0.001027335    1.594    0.373
       103 -10.9189     95.9595    224.9881   1.1386802709e+02   1.6005824970e+01    0.2107619    0.1225567  65.41  0.001147384    1.754    0.430
       104 -11.2375    231.5561    223.5165   8.7757441024e+01  -5.7978858505e+00    0.2563076    0.1021458  39.14  0.001221808    2.208    0.547
       105 -11.2979    226.8467    221.7056   8.8284252445e+01  -4.8424881834e+00     0.199825    0.1679894 -64.34  0.001242015    2.128    0.530
       106 -11.0151    149.3022    221.6129   1.0296815035e+02   8.0529665883e+00    0.4088079     0.199104 -40.89  0.001929222    2.662    0.624
       107 -10.4102    211.2198    217.4551   9.0398364819e+01  -1.7760655992e+00    0.2350447   0.09273391 -48.80 0.0008835707    4.354    0.770
       108 -11.0611    239.5591    215.1965   8.4918631572e+01  -5.9702228758e+00    0.3967019   0.09526782 -41.97     0.001224    6.573    0.848
