#   1 NUMBER                 Running object number                                     
#   2 MAG_AUTO               Kron-like elliptical aperture magnitude                    [mag]
#   3 X_IMAGE                Object position along x                                    [pixel]
#   4 Y_IMAGE                Object position along y                                    [pixel]
#   5 X_WORLD                Barycenter position along world x axis                     [deg]
#   6 Y_WORLD                Barycenter position along world y axis                     [deg]
#   7 A_WORLD                Profile RMS along major axis (world units)                 [deg]
#   8 B_WORLD                Profile RMS along minor axis (world units)                 [deg]
#   9 THETA_WORLD            Position angle (CCW/world-x)                               [deg]
#  10 FWHM_WORLD             FWHM assuming a gaussian core                              [deg]
#  11 ELONGATION             A_IMAGE/B_IMAGE                                           
#  12 ELLIPTICITY            1 - B_IMAGE/A_IMAGE                                       
         1 -14.5539    171.6183     65.2068   8.7982937223e+01   3.3251959629e+01     10.03474      3.48501 -52.29  0.007116176    6.523    0.847
         2 -14.5449    222.7201     36.1757   7.2359568360e+01   2.4299874597e+01     5.090562     1.729812 -37.20   0.01640458    2.444    0.591
         3 -12.0838    209.6413      3.2633   6.4425023761e+01   3.0886323195e+01    0.7027006    0.4387908 -78.21  0.003548334    1.597    0.374
         4 -13.7801    136.9192     32.9133   8.3869991386e+01   4.7346083975e+01     4.938643     2.572189  48.34   0.00203658    1.890    0.471
         5 -13.2456    237.1942     36.9919   7.1195551750e+01   2.0885349414e+01     1.563993    0.6675364  75.39  0.006626942    2.782    0.641
         6 -11.7767    205.5241     58.3429   8.0484526005e+01   2.5705808349e+01     1.665966    0.6824346 -60.27   0.00394379    7.256    0.862
         7 -14.2184    242.3508    117.1278   8.9821876137e+01   1.0073450300e+01      6.34243     1.558237 -28.18   0.01803436    3.936    0.746
         8 -14.7102    245.7469     18.9051   6.6002424972e+01   2.0895708842e+01     1.300613    0.8761988 -32.14  0.003633508    1.289    0.224
         9 -15.2364    238.6461      4.0094   6.2767151356e+01   2.3890353899e+01     5.621435    0.1451469  68.01   0.01530496    7.052    0.858
        10 -10.0326    125.4551     14.6266   7.8804051929e+01   5.2776460634e+01    0.3454232    0.3212413  82.93  0.001479933    1.072    0.067
        11 -12.0156    119.2554      9.8697   7.7978485390e+01   5.4988207631e+01    0.7765732    0.5286568  54.70  0.002561567    1.351    0.260
        12 -10.5652      5.5207     11.4996   1.3453189110e+02   7.6032271135e+01    0.2804378    0.1738642 -47.74  0.001693925    1.309    0.236
        13 -10.8548      8.6303      9.1870   1.3098563113e+02   7.6357232375e+01    0.3010128    0.2015561  28.94  0.001848761    1.729    0.422
        14  -8.8288     53.4789     11.9014   1.0138911501e+02   7.0269602507e+01    0.1992976    0.1254467 -36.07 0.0007460988    1.540    0.351
        15 -10.4480    104.8238      3.0042   7.7853207731e+01   5.9559925362e+01    0.3220844     0.282805   4.94  0.001786193    1.198    0.165
        16  -8.4789    138.8432      1.9388   7.1180921703e+01   5.0286041117e+01    0.2311967    0.1883552  44.14 0.0005383305    1.243    0.195
        17  -9.6380    112.7759      3.2998   7.6274254455e+01   5.7399049039e+01    0.2957756    0.2065458  -0.61  0.001422417    1.638    0.389
        18  -9.1972     12.1848      1.6034   1.2395311411e+02   7.7654599343e+01    0.1632611    0.1049951  -1.93 0.0007325257    1.697    0.411
        19  -9.0819     96.0219    247.2433   1.3797109906e+02   1.5720332697e+01    0.1509771   0.06689339  37.37 0.0008829687    1.598    0.374
        20 -10.1775    192.0214    144.0506   1.0409252550e+02   1.5929391598e+01    0.2085524    0.1871034  20.95 0.0004511074    1.041    0.040
        21  -9.5136    131.5433    139.6946   1.1647178112e+02   2.8680676947e+01    0.2967171    0.2689217  88.67  0.001681191    1.234    0.190
        22  -9.8059    200.4933    141.0612   1.0187101609e+02   1.4737843551e+01    0.1973789    0.1292529 -30.49  0.001006894    1.565    0.361
        23 -12.0990    191.6776    134.2507   1.0206542871e+02   1.7499637317e+01     0.777755    0.4220448 -53.38  0.003160989    2.908    0.656
        24 -10.9696    177.0730    137.7868   1.0573739215e+02   1.9884093909e+01    0.4272695    0.2467823  33.10  0.001856492    1.759    0.432
        25 -10.1682    160.4695    128.7966   1.0732147738e+02   2.4866171508e+01    0.3860362    0.3196821  17.86  0.002051764    1.277    0.217
        26 -10.0292     65.6936    246.0505   1.4352750944e+02   1.9616039610e+01    0.1861155    0.1366004  48.86 0.0003608346    1.081    0.075
        27 -12.5140    186.3426    120.9566   1.0009211066e+02   2.0706056276e+01    0.7665553    0.6782765  25.42  0.004361291    1.060    0.056
        28  -9.1738    154.1919    126.0866   1.0813354827e+02   2.6687091697e+01    0.2867442    0.1955249  70.31  0.001248798    2.088    0.521
        29  -8.4753    128.0549    124.5060   1.1417816963e+02   3.2441435007e+01     0.201023    0.1981163  72.09 0.0003711398    1.070    0.065
        30  -9.8659    134.8499    121.8102   1.1183261118e+02   3.1591462875e+01    0.5388057    0.1614997 -50.48    0.0016054    4.018    0.751
        31 -10.5484    167.8363    113.6779   1.0214911767e+02   2.5967687732e+01     0.490551     0.374566  57.75  0.001239914    1.384    0.277
        32  -8.3385     90.6795    241.6863   1.3856011617e+02   1.7199123293e+01   0.09906676   0.07694183  17.11  0.000378285    1.654    0.395
        33  -9.8883    135.3908    107.6112   1.0828429514e+02   3.4339028984e+01    0.5437683    0.3245477 -31.85  0.002246202    2.059    0.514
        34 -10.0658     69.2469    237.8981   1.4237973135e+02   2.0429759582e+01     0.260607   0.09826881  59.12  0.001320776    2.734    0.634
        35 -10.8092     93.4441    234.4572   1.3747514976e+02   1.7911975008e+01    0.2280678    0.1941886  -2.04   0.00170239    1.731    0.422
        36  -8.9463    141.3170    103.0209   1.0560080944e+02   3.3931257423e+01    0.2788895    0.2108763  23.64 0.0008490434    1.558    0.358
        37  -8.8377    205.6449    147.3086   1.0223075236e+02   1.2864057745e+01    0.1225181    0.1080845  87.79 0.0002109286    1.724    0.420
        38  -9.8087    147.2551     98.0752   1.0282628274e+02   3.3527243358e+01    0.3630394    0.3046244  17.21 0.0008783929    1.352    0.260
        39  -9.5788    119.0477     96.2320   1.0973211585e+02   4.0267986051e+01    0.5023741     0.299587 -71.39  0.001653805    2.860    0.650
        40  -9.3328    133.9999     95.3806   1.0542097985e+02   3.7111994877e+01    0.3391491    0.2649959  53.51 0.0007250755    1.251    0.201
        41  -8.3809    207.9629     92.6815   8.9273700657e+01   2.0325433469e+01     0.194058    0.1751478  39.98 0.0004454955    1.125    0.111
        42 -10.6439    157.3132     90.2384   9.8318572505e+01   3.2601732122e+01    0.5682749    0.3784804  26.37  0.002403687    1.911    0.477
        43  -9.9160    213.4443     88.6661   8.7391496253e+01   1.9684422615e+01    0.2890921    0.1651102 -33.88  0.001051205    1.648    0.393
        44  -8.7046    199.9719     88.0203   8.9389354595e+01   2.2817421044e+01    0.2136702    0.2065343 -47.99 0.0004967262    1.098    0.089
        45 -11.0437    163.5142     84.0210   9.5194034151e+01   3.2192683333e+01    0.8848544    0.5029165 -68.55  0.002661887    3.768    0.735
        46 -11.3242    155.0255     79.4309   9.5706618369e+01   3.5093418341e+01    0.4028743    0.3240251 -30.00 0.0006015939    1.299    0.230
        47  -9.6329    140.8515     86.9745   1.0129081519e+02   3.7160850321e+01     0.314261    0.2843279 -74.82  0.001225918    1.209    0.173
        48  -8.3867    206.8063     83.0525   8.6978160870e+01   2.1973994325e+01    0.2219563    0.1818342 -53.52 0.0007391396    1.337    0.252
        49  -8.0882    211.7791     80.3716   8.5515549277e+01   2.1219533228e+01    0.1921588    0.1251781  45.29 0.0003273874    1.591    0.372
        50  -8.4625    202.3197     79.9708   8.6874514206e+01   2.3456034541e+01    0.2538903    0.1986284 -75.89   0.00094919    1.622    0.383
        51  -9.9792    190.7481     52.9029   8.1049473927e+01   3.0126201834e+01    0.8100765    0.3200721 -51.96  0.002549287    3.557    0.719
        52 -10.1493    185.7366     47.3682   8.0136525426e+01   3.2168490436e+01    0.5292769    0.4611453  20.53  0.001556652    1.286    0.222
        53 -10.0781    184.5789     40.8315   7.8294827548e+01   3.3330301591e+01    0.5378554    0.3724604  -1.63  0.001454998    1.831    0.454
        54 -12.0986    206.1855     65.4378   8.2351080061e+01   2.4589311774e+01      1.83142     0.946591 -75.11  0.005424334    5.042    0.802
        55 -10.0355     74.6578    235.8177   1.4120890029e+02   2.0092907531e+01    0.1599482     0.110256  40.91 0.0009116452    1.140    0.123
        56 -10.8583    188.3567     65.6146   8.5153136870e+01   2.8934954693e+01    0.4114968    0.2985069  36.38  0.001159652    1.518    0.341
        57 -10.7065    193.5910     61.9342   8.3252152899e+01   2.8154872013e+01    0.4143595    0.2875226  36.28  0.001116973    1.628    0.386
        58  -9.1797     89.3107    227.3186   1.3771464190e+02   1.9551705399e+01    0.1018151   0.08252937  13.34 0.0003849559    1.642    0.391
        59  -8.7971    222.8617     74.1124   8.2325947052e+01   1.9581097630e+01    0.2044656    0.1726068 -50.82 0.0002583876    1.235    0.191
        60 -10.6984     67.9493    144.3675   1.3425947402e+02   3.8409276566e+01    0.6512879    0.3285667  56.26  0.002809292    2.017    0.504
        61  -8.1723     69.6102     66.7758   1.1783617861e+02   5.6486937267e+01    0.2009872    0.1354379 -65.43 0.0004786184    1.617    0.382
        62  -9.1258    142.4677     66.4305   9.4556962052e+01   4.0555877377e+01     0.359105    0.2348259 -75.45  0.001365426    2.416    0.586
        63  -8.4603     43.3631    224.8240   1.4667411382e+02   2.5508604227e+01    0.1396373    0.1098579  64.17  0.001090941    1.169    0.145
        64 -10.5802    137.5654     56.2754   9.2309098310e+01   4.3571745448e+01    0.6064861    0.2839611 -47.07 0.0009468326    2.392    0.582
        65  -9.7750    134.9664     48.4569   9.0147092058e+01   4.5543040811e+01    0.3073631    0.2388505 -55.15 0.0002463969    1.402    0.287
        66  -8.5910    184.4119     55.2124   8.2722125628e+01   3.1433626833e+01    0.2205668    0.1293384 -41.48 0.0005134156    1.679    0.404
        67  -8.8585     63.6473     51.9064   1.1534809432e+02   6.0808492081e+01    0.2359019    0.2291565 -20.72 0.0005653278    1.032    0.031
        68  -9.7431     61.9424     47.1942   1.1435001765e+02   6.2110362168e+01    0.4706701    0.2264466 -58.41  0.001713344    2.431    0.589
        69 -13.0938     13.8660    203.0316   1.5173413597e+02   3.2291540495e+01    0.8274561    0.5966039  56.92  0.004068866    1.028    0.027
        70  -8.9896    174.3779     48.9461   8.2427764055e+01   3.4942321182e+01    0.2834179    0.2124784 -88.47 0.0006581897    1.522    0.343
        71  -8.7411    197.3167     44.0912   7.7520785396e+01   2.9606799092e+01    0.3245862    0.1721458 -50.86  0.001119518    2.030    0.507
        72  -8.8590    201.3247    146.3015   1.0281086135e+02   1.3817009531e+01    0.1394419   0.09428561  13.93 0.0007029438    1.636    0.389
        73  -8.4992    205.5545     40.1211   7.5332496935e+01   2.8017373555e+01    0.2608469    0.1216334 -33.52  0.001081838    1.941    0.485
        74  -8.4009    198.4182    153.2000   1.0474734994e+02   1.3365310100e+01    0.1673279    0.1244492 -40.46 0.0004170387    1.561    0.359
        75  -8.3332    172.1486     35.6384   7.8480948324e+01   3.7325808894e+01    0.2406681    0.1838719 -81.53 0.0007737766    1.420    0.296
        76  -7.9385     68.6485     30.7934   1.0425538560e+02   6.4193064598e+01    0.1966022    0.1277388 -48.35 0.0005185378    1.627    0.386
        77  -8.7732     56.2976     26.7793   1.0812968514e+02   6.7181807691e+01    0.2771786    0.1171951 -50.61  0.001063646    2.670    0.625
        78  -8.0378    188.4873     26.3587   7.3281707812e+01   3.4043964398e+01    0.1978496    0.1250571 -42.04 0.0009140055    1.515    0.340
        79 -12.0953    207.7693     50.7904   7.8075796936e+01   2.6142535392e+01    0.8458924    0.7244648  45.78  0.004636687    1.244    0.196
        80 -13.0267     31.0374    192.5917   1.4764391955e+02   3.2611846784e+01      1.65754    0.8879431  67.33    0.0100993    1.599    0.374
        81 -12.9405     54.7287    170.6236   1.4058613069e+02   3.4401208960e+01     1.313751    0.9689371  11.41  0.002436594    1.892    0.471
        82  -9.3240     97.0972     12.8620   8.4812180614e+01   6.0503034336e+01    0.2241674    0.2025128 -72.10  0.001230073    1.257    0.204
        83  -8.9491    191.1411    191.8526   1.1308672124e+02   9.3000986885e+00    0.3414789    0.2008246 -60.98  0.001386456    4.893    0.796
        84  -9.6747    186.3374    192.6390   1.1411154027e+02   9.9773688222e+00    0.2110908    0.1734674  28.67 0.0002781101    1.088    0.081
        85 -10.6547    218.4196    189.9430   1.0791625415e+02   5.2107121269e+00    0.6287295    0.2752003  51.99   0.00256084    3.985    0.749
        86  -8.2882    189.7106    180.8389   1.1151617645e+02   1.1012294584e+01    0.2286179    0.1374734  47.21  0.000776018    1.692    0.409
        87  -8.8431    134.2964    147.9835   1.1740297432e+02   2.6534298764e+01    0.3995607    0.1328054 -53.43  0.001329219    3.850    0.740
        88 -12.9755     45.6703    178.7090   1.4343740029e+02   3.3793467142e+01    0.8619837    0.7544243  38.39  0.001738072    1.281    0.220
        89  -8.0455    203.4640    160.5337   1.0525379837e+02   1.1416758831e+01     0.130158    0.1108404  18.22 0.0002103414    1.028    0.028
