#   1 NUMBER                 Running object number                                     
#   2 MAG_AUTO               Kron-like elliptical aperture magnitude                    [mag]
#   3 X_IMAGE                Object position along x                                    [pixel]
#   4 Y_IMAGE                Object position along y                                    [pixel]
#   5 X_WORLD                Barycenter position along world x axis                     [deg]
#   6 Y_WORLD                Barycenter position along world y axis                     [deg]
#   7 A_WORLD                Profile RMS along major axis (world units)                 [deg]
#   8 B_WORLD                Profile RMS along minor axis (world units)                 [deg]
#   9 THETA_WORLD            Position angle (CCW/world-x)                               [deg]
#  10 FWHM_WORLD             FWHM assuming a gaussian core                              [deg]
#  11 ELONGATION             A_IMAGE/B_IMAGE                                           
#  12 ELLIPTICITY            1 - B_IMAGE/A_IMAGE                                       
         1 -16.0577     54.9522    124.6920   1.2659272340e+02   4.3097041917e+01     3.253966    0.6552927 -52.80   0.01052845    4.648    0.785
         2 -16.4222     78.0366     39.1113   9.7733498861e+01   5.8880109716e+01     1.539737     1.075255  23.12  0.007368883    1.520    0.342
         3 -16.7851     16.1497     31.1062   1.2257762926e+02   6.7504064802e+01     0.957937    0.4761231 -50.09  0.004664318    1.510    0.338
         4 -16.3411      6.9115      6.2026   1.1946345613e+02   7.3121956348e+01      1.23734    0.6708078 -29.19  0.007449395    1.630    0.387
         5 -15.5926      7.2171    180.9860   1.4216419371e+02   3.5800812080e+01    0.7856426    0.5149484  75.07  0.006023483    1.182    0.154
         6 -14.9643    178.0194    242.4899   1.1538245015e+02   4.9179092346e+00    0.9004091    0.6040643   2.21  0.006020234    1.899    0.473
         7 -20.6291    148.8330    142.3265   1.0555574112e+02   2.4803356366e+01     10.32108     5.896713 -43.46   0.04771964    1.897    0.473
         8 -17.4220     73.2018    175.0528   1.2813577503e+02   3.0380154417e+01       2.1997     1.515045  11.63   0.01257471    2.200    0.545
         9 -13.8911     98.8969    179.1054   1.2297965604e+02   2.6175633604e+01    0.2351381    0.1743788  83.89 0.0007012486    1.528    0.346
        10 -15.8726     52.5418    165.5412   1.3176901623e+02   3.4656942013e+01     1.388671    0.4359326  51.01  0.005927797    3.146    0.682
        11 -14.6002     33.5035    136.0950   1.3350846549e+02   4.2681075732e+01    0.5143504    0.4221176 -18.03   0.00350066    1.688    0.407
        12 -15.6170     18.4807    145.2759   1.3786741028e+02   4.1961254677e+01    0.9073963    0.4088586  83.38  0.004827468    2.185    0.542
        13 -16.4878     29.6445    150.2630   1.3565961611e+02   4.0014001564e+01     1.247261    0.5740729 -88.71  0.006589975    2.149    0.535
        14 -14.7092     18.7507    158.0918   1.3864729671e+02   3.9318305840e+01    0.3681526     0.189354 -87.80  0.002189114    1.707    0.414
        15 -14.5295    204.9856    153.7073   9.5907849986e+01   1.2051356492e+01    0.2788785    0.1946296 -26.36 0.0004575531    1.481    0.325
        16 -12.3153     64.8762    154.4884   1.2779216807e+02   3.5522475864e+01     0.174623    0.1120821  36.78 0.0009737003    1.529    0.346
        17 -13.0075     67.1187    143.6467   1.2593014265e+02   3.7542120708e+01    0.3858219    0.1766338  53.06  0.001771087    2.360    0.576
        18 -15.1102    118.5635    241.4933   1.2572069304e+02   1.3421261829e+01     1.500639    0.4060613  34.07  0.006024892    3.865    0.741
        19 -14.7454     10.9156    128.5860   1.3850059273e+02   4.6025443954e+01    0.8084347    0.3353205 -74.32  0.004387226    1.959    0.489
        20 -15.5132     19.7423    116.8836   1.3526069390e+02   4.7979157557e+01     1.060902    0.3084821 -72.89  0.004606394    2.774    0.640
        21 -15.7721     24.4634     90.6697   1.3090771919e+02   5.3574605923e+01     1.893694    0.5448728 -56.32  0.008092117    2.672    0.626
        22 -13.3281    103.0306    124.8401   1.1351746147e+02   3.6532560104e+01    0.2868719    0.2394174 -27.97 0.0008803766    1.371    0.270
        23 -13.7827     93.3319    248.4924   1.3064465540e+02   1.5717528359e+01    0.6227688    0.2459404  62.12  0.002978271    3.771    0.735
        24 -14.1560     35.1502    102.9942   1.2928283783e+02   4.9929537750e+01    0.3060644    0.1857065 -74.57  0.001726861    1.456    0.313
        25 -14.4024     30.8661    114.9461   1.3201159651e+02   4.7570906850e+01    0.5648618    0.3271626 -41.80  0.003112601    2.067    0.516
        26 -17.4205     65.8090    232.9523   1.3429067315e+02   2.1245667258e+01     2.031418     1.155328  71.78   0.01409043    1.756    0.431
        27 -13.9842     91.2236    241.8878   1.3051729529e+02   1.6901994331e+01    0.4142058      0.31343  71.88  0.003332694    1.339    0.253
        28 -15.7253     86.6082    215.1886   1.2920804386e+02   2.1543832746e+01     2.022977    0.9989741  71.96   0.01030453    2.951    0.661
        29 -15.0682      3.6541     80.7038   1.3639673338e+02   5.7012913215e+01    0.6825193    0.2007114 -72.21  0.003081988    2.490    0.598
        30 -15.2785     79.2213    192.6962   1.2861987542e+02   2.6329487580e+01      1.04043    0.4497634  58.53  0.004993734    2.603    0.616
        31 -17.9445     57.4180    204.7535   1.3392422506e+02   2.6783332761e+01     3.445674     1.212916  54.74    0.0173004    2.611    0.617
        32 -16.8459     99.7400     91.8371   1.0705977072e+02   4.4277695958e+01     3.823811      1.22011  34.69   0.01218188    3.623    0.724
        33 -15.2250     26.9913    217.5717   1.4016301126e+02   2.7717553385e+01    0.5090405    0.3360815 -84.02  0.003634581    1.493    0.330
        34 -15.1195     62.7161     65.3783   1.1238953322e+02   5.5703392908e+01     1.150045    0.9746649 -88.46  0.006672983    1.461    0.315
        35 -15.8213     71.4787     55.3928   1.0609387411e+02   5.6665474308e+01    0.9666601    0.6117142 -36.76  0.003690359    1.489    0.328
        36 -13.7142     22.3274     70.2576   1.2852784535e+02   5.8401142303e+01    0.5080017    0.3606237  -4.68  0.003157406    1.761    0.432
        37 -13.5426     32.6455     52.4170   1.2078078499e+02   6.1709905122e+01      1.12714    0.2007733 -49.98  0.003871536    3.654    0.726
        38 -14.9204     26.8908     47.8442   1.2207210686e+02   6.3163963147e+01    0.7730194    0.4376929 -45.51  0.004314331    1.471    0.320
        39 -16.1719     16.9491     61.6048   1.2903835049e+02   6.0696528961e+01     1.169605    0.7260506 -43.34  0.007053502    1.489    0.328
        40 -16.2631     17.6365     53.1793   1.2717253421e+02   6.2562776820e+01    0.9433444    0.4413738 -48.65  0.005004814    1.736    0.424
        41 -13.6751    114.2883     70.1583   9.6407291287e+01   4.6079520303e+01    0.2920123    0.2568328 -46.87 0.0005457635    1.203    0.169
        42 -16.2562    206.7067    184.8671   1.0157609748e+02   7.4314453404e+00    0.8647162    0.6127538  -0.08  0.004140616    1.433    0.302
        43 -14.2345      7.0046     48.5486   1.3069639337e+02   6.4118055828e+01    0.2583024    0.1492843 -67.41  0.001547817    1.353    0.261
        44 -15.3918    105.2746     41.9692   8.9296262747e+01   5.3194165769e+01    0.9805742    0.6975409 -73.56  0.004087882    2.661    0.624
        45 -13.8507     62.0829     40.8858   1.0478781941e+02   6.0982940978e+01    0.4602326    0.3163862  46.63  0.002412142    1.851    0.460
        46 -14.2698    118.6034    201.7274   1.2158719528e+02   1.9352029194e+01    0.3833175    0.1465208  48.03  0.001416015    2.378    0.579
