#   1 NUMBER                 Running object number                                     
#   2 MAG_AUTO               Kron-like elliptical aperture magnitude                    [mag]
#   3 X_IMAGE                Object position along x                                    [pixel]
#   4 Y_IMAGE                Object position along y                                    [pixel]
#   5 X_WORLD                Barycenter position along world x axis                     [deg]
#   6 Y_WORLD                Barycenter position along world y axis                     [deg]
#   7 A_WORLD                Profile RMS along major axis (world units)                 [deg]
#   8 B_WORLD                Profile RMS along minor axis (world units)                 [deg]
#   9 THETA_WORLD            Position angle (CCW/world-x)                               [deg]
#  10 FWHM_WORLD             FWHM assuming a gaussian core                              [deg]
#  11 ELONGATION             A_IMAGE/B_IMAGE                                           
#  12 ELLIPTICITY            1 - B_IMAGE/A_IMAGE                                       
         1 -12.3689    166.1322     44.4906   7.6048237831e+01   3.8273184870e+01     1.255383     1.042583  21.27  0.005610638    1.456    0.313
         2 -11.8957    182.5750     11.5770   6.4593979548e+01   3.8161702269e+01     0.918478    0.6823818 -61.72   0.00540317    1.384    0.278
         3  -9.3535    119.9012      9.1667   7.4001027158e+01   5.3147640597e+01    0.3557956    0.2773645  18.27  0.001687609    1.352    0.261
         4  -9.8450    204.2270     10.5603   6.1831138361e+01   3.3069654945e+01    0.2185796    0.2019258  52.35 0.0006343576    1.319    0.242
         5 -11.2630    178.6058     14.7483   6.5931422811e+01   3.8796258464e+01    0.6839222    0.3643824 -42.52  0.003235414    1.980    0.495
         6  -9.1721    231.4558     16.2914   6.0393776360e+01   2.6088937640e+01    0.2853822    0.2199069 -35.50  0.001157074    1.503    0.334
         7  -8.4713      9.0100    228.4630   1.4901201319e+02   2.6032514381e+01    0.2320331    0.1018646 -71.00 0.0005543394    1.975    0.494
         8  -7.7515    176.4366    250.4843   1.2034714085e+02  -2.9770629806e+00    0.1260816    0.1053851  36.11 9.497334e-05    1.015    0.015
         9  -9.1975    138.8804    249.6321   1.2738148964e+02   3.5517353414e+00     0.354117    0.2678496 -61.32  0.001587534    1.560    0.359
        10  -9.4574    138.8970    243.8299   1.2661790474e+02   4.5502751204e+00    0.3915645    0.2826663  85.32  0.001584163    1.742    0.426
        11  -9.3095    133.6812    250.0460   1.2842187920e+02   4.3582259379e+00    0.2496855    0.2047509  58.20 0.0008445471    1.059    0.056
        12  -9.7378    133.9729    246.2251   1.2787983295e+02   4.9712630507e+00    0.3515526    0.2143558 -47.66  0.001919766    2.023    0.506
        13 -18.4547     63.5027    229.5985   1.3944523347e+02   1.9249037359e+01      4.57217     3.602499  84.42   0.01622318    1.090    0.082
        14  -9.4902    127.3805    188.8204   1.2066410314e+02   1.7580082545e+01    0.4088623    0.2706418  84.21  0.001432639    2.082    0.520
        15  -8.6137    195.5582    183.4159   1.0479456407e+02   5.1820786847e+00    0.2982755    0.2256041 -47.44  0.001519846    1.391    0.281
        16  -8.5464    164.2370    180.1952   1.1080435507e+02   1.2178913044e+01    0.2993817    0.2063726  83.87  0.001236204    2.281    0.562
        17  -8.6800    139.0779    180.1672   1.1644407415e+02   1.7244868164e+01    0.4138955     0.207493  41.34  0.001196554    1.963    0.491
        18  -7.9716    212.3882    178.2252   1.0035404036e+02   2.8363499267e+00    0.1999719    0.1316893 -49.76 0.0009419165    1.663    0.399
        19  -9.9633    204.8079    176.6518   1.0152701999e+02   4.6278666000e+00    0.3681645      0.35299  82.17  0.001175722    1.188    0.158
        20  -8.9726    197.5981    177.7658   1.0321699367e+02   5.8609123072e+00    0.2508489     0.182154  65.09  0.001058841    1.762    0.433
        21 -10.1154    126.2395    173.6920   1.1819522710e+02   2.1197806563e+01    0.5776353    0.3016798  57.85   0.00224004    2.292    0.564
        22  -9.4544    120.6701    171.3461   1.1906824135e+02   2.2795811222e+01    0.3622411    0.2520119  75.91 0.0006031761    1.768    0.435
        23 -10.1141    168.4865    208.3526   1.1516189767e+02   5.6927174704e+00    0.2618343    0.2272799  45.50 0.0002790146    1.062    0.059
        24 -10.3051     17.0271    167.2237   1.4268276409e+02   3.8343989977e+01    0.4975866    0.3040619 -87.73  0.001968052    1.381    0.276
        25  -8.1448    204.0500    161.8301   9.8511298478e+01   7.6436971357e+00    0.2279921    0.2048194 -84.20 0.0009403444    1.309    0.236
        26  -9.1876    190.4850    156.4683   1.0010531244e+02   1.1591039145e+01    0.4192672    0.2910478 -58.00  0.001525761    1.640    0.390
        27  -9.6951    193.5663    166.9716   1.0176474179e+02   8.8121188400e+00    0.4150764     0.296494 -35.88  0.001498288    1.433    0.302
        28  -9.3159    190.4510    161.9503   1.0132357686e+02   1.0480478576e+01    0.4017025    0.3705913 -77.03  0.001001554    1.192    0.161
        29  -9.1643    153.2725    165.1092   1.1018788656e+02   1.7699855458e+01    0.3176129    0.2759502  84.86  0.001039273    1.251    0.201
        30 -10.4839    167.6098    225.9082   1.1829593223e+02   2.6298004496e+00    0.4127698    0.2911974 -32.93  0.001100737    1.726    0.421
        31  -9.0637    139.9839    163.6699   1.1298180669e+02   2.0764200497e+01      0.29777    0.2359032  89.78  0.000520963    1.475    0.322
        32  -9.7819    145.8973    157.1791   1.1021959145e+02   2.1013886164e+01    0.5206422    0.3864114  58.65  0.001516338    1.412    0.292
        33  -8.9419      3.0212    158.1419   1.4485120146e+02   4.1557655888e+01    0.2957534    0.1551566 -39.56    0.0012345    2.829    0.647
        34  -9.2212    155.8475    154.1239   1.0722644381e+02   1.9589896559e+01    0.3337558    0.2391935  89.50 0.0004745678    1.990    0.498
        35  -9.1705    204.1935    166.8318   9.9567896734e+01   6.6385128706e+00    0.4511078    0.2388958 -31.74  0.001700037    2.155    0.536
        36  -9.1990     22.6312    156.1648   1.4022815040e+02   4.0359869232e+01    0.2998603     0.205541 -87.95  0.001018265    1.259    0.206
        37  -9.5623    125.7115    136.5645   1.1056792717e+02   2.9917482325e+01    0.4091702     0.198948  59.34  0.001352595    3.037    0.671
        38 -10.9517    134.0086    146.3952   1.1072163299e+02   2.5948082692e+01     1.436789    0.5638756 -61.77  0.003783503    4.707    0.788
        39  -9.9444    130.0812    135.6779   1.0925610702e+02   2.9229367176e+01    0.4819404    0.2893454  62.14   0.00148927    2.138    0.532
        40  -8.8318    153.1924    201.9942   1.1728069120e+02   9.8667067474e+00    0.5170478    0.2625443 -66.34  0.001890975    3.222    0.690
        41  -9.3384    144.5672    147.3877   1.0838028137e+02   2.3511943646e+01    0.5145273    0.3115037 -80.28  0.001724205    3.209    0.688
        42  -9.6927      9.5796    146.5360   1.4218326271e+02   4.3672025745e+01    0.4264903    0.2545773 -43.74  0.001969802    1.969    0.492
        43  -9.3886    128.3009    146.4907   1.1215322182e+02   2.7089060983e+01    0.3554919    0.1825863 -58.68  0.001343991    2.144    0.534
        44  -8.6328    181.0233    145.6708   9.9663671670e+01   1.5904363267e+01    0.2511512    0.2136074 -46.05 0.0005993887    1.166    0.142
        45 -10.1808    122.7301    143.2848   1.1284158905e+02   2.8949370202e+01    0.3748198    0.3549801  42.70  0.001353132    1.117    0.105
        46  -9.4385    136.4764    201.4931   1.2080351739e+02   1.3144932400e+01    0.5894977    0.2731963  34.84  0.002297953    2.457    0.593
        47  -7.5039    203.2513    142.6584   9.4363127038e+01   1.1611290138e+01    0.1510314     0.116585 -69.21 0.0002842197    1.574    0.365
        48 -10.9566    114.8022    136.9701   1.1346244048e+02   3.1974732320e+01    0.6313683     0.578616  42.04   0.00192055    1.151    0.131
        49 -10.0916    106.3533    136.3508   1.1553213622e+02   3.3705995981e+01    0.3546568    0.2854472 -73.68 0.0002970534    1.294    0.227
        50 -11.5800    108.8182    132.8838   1.1410647098e+02   3.4066492642e+01     1.415474    0.5723615  58.67   0.00344889    6.172    0.838
        51  -9.4607     33.4460    140.3892   1.3555260172e+02   4.2998081388e+01    0.2901625    0.1966101 -30.20  0.001387289    2.021    0.505
        52 -10.0623    227.3971    139.2028   8.9027434643e+01   7.1226223697e+00    0.2476774    0.2364888 -74.97 0.0002397426    1.124    0.110
        53  -9.3401    136.0151    196.6860   1.2009432563e+02   1.4246921858e+01    0.3048927    0.2335246 -66.06 0.0007840003    1.392    0.281
        54  -8.7965      4.7905    138.4370   1.4241899640e+02   4.5859232604e+01    0.2198701    0.1323679 -73.51 0.0006287287    1.265    0.210
        55 -10.1692    194.5872    198.3645   1.0794382558e+02   2.5669388722e+00    0.4762492    0.3665598 -55.85  0.002053107    1.529    0.346
        56 -10.0350    192.4832    193.9901   1.0752740948e+02   3.7829346175e+00    0.7576055    0.3944422 -61.44  0.002700155    3.505    0.715
        57  -7.6474    156.6483    129.2597   1.0123333037e+02   2.4916776287e+01    0.1595574    0.1237235  83.04 0.0006972051    1.609    0.379
        58  -9.1087    120.6318    128.5335   1.0999096212e+02   3.2795485049e+01    0.2684541    0.1816317 -31.30  0.001152797    1.803    0.445
        59  -9.0169    109.3121    124.5972   1.1204777622e+02   3.5905156161e+01    0.2664245    0.2436833 -38.17 0.0004378532    1.123    0.110
        60 -10.0771    171.9458    196.6473   1.1231303700e+02   7.2887713653e+00    0.6135578    0.3554361 -68.23  0.002279771    2.964    0.663
        61  -7.8432    174.1699    123.1203   9.5738030614e+01   2.2216912180e+01    0.2084357    0.1813028 -76.14 0.0002904611    1.242    0.195
        62  -9.0769    245.5698    120.7001   8.1835115355e+01   6.7714555466e+00    0.2181025    0.2139374  15.73 0.0004155074    1.144    0.126
        63  -8.3661     38.6937    118.9993   1.3069260886e+02   4.7461927657e+01    0.1871401    0.1401573 -61.76  0.000297172    1.107    0.097
        64  -7.6952    114.2321    118.4145   1.0921734236e+02   3.6375895990e+01    0.2025042    0.1436161  55.79 0.0002671916    1.555    0.357
        65 -10.1061     71.8408    114.4266   1.2019015161e+02   4.4501914288e+01    0.2990924    0.1757611  37.45  0.001427073    1.871    0.465
        66  -7.8984    161.2239    200.2441   1.1525237302e+02   8.6680656729e+00    0.1883575    0.1600315  75.77 0.0004091507    1.311    0.237
        67  -7.4621     17.2946    113.6860   1.3584381168e+02   5.0549159365e+01    0.1176172   0.08364861  81.58 0.0002938017    1.599    0.374
        68  -9.1815     97.2186    111.7981   1.1225821061e+02   4.1045430831e+01    0.2493921    0.2211488  39.13 0.0009283571    1.197    0.165
        69  -8.9443    114.0063    111.0081   1.0739618417e+02   3.8081920863e+01    0.2334228    0.1852478  86.14 0.0004004398    1.607    0.378
        70 -10.3259     68.0846    104.0955   1.1890367300e+02   4.7377388065e+01    0.3757854     0.294782  17.54  0.001116279    1.492    0.330
        71 -10.8523     62.0131    108.9491   1.2185346228e+02   4.7095769331e+01    0.5505314    0.4011944  11.00   0.00224832    1.757    0.431
        72  -7.5609    199.7703     97.9846   8.4226327990e+01   2.1150381436e+01    0.1906968    0.1233144 -40.28 0.0008402514    1.513    0.339
        73  -8.4789     69.0285     94.8197   1.1631103942e+02   4.9287486588e+01    0.2698177    0.1542142  33.52  0.001014274    1.934    0.483
        74 -11.4076     11.6826    206.8031   1.4711912919e+02   3.0178666576e+01    0.4943153    0.3905638  43.82  0.002721564    1.550    0.355
        75  -8.4583     18.3546     88.0500   1.3093201458e+02   5.6099895500e+01    0.2131593    0.1461824 -22.66 0.0009327967    1.630    0.386
        76  -8.9568     26.6179     87.0817   1.2805122796e+02   5.5665405590e+01    0.3420815    0.1795472   7.86  0.001729452    2.683    0.627
        77  -8.7744    184.0712     75.9957   8.1440515403e+01   2.8930399236e+01    0.2170761    0.2043164 -86.46            0    1.008    0.008
        78  -9.8783    239.8575     64.6712   7.0074697198e+01   1.7513816063e+01    0.2647772      0.22636  60.22 0.0006264512    1.314    0.239
        79  -8.5473    125.8771     61.9235   8.9996976136e+01   4.5183756767e+01    0.2091724    0.1960515  25.18 0.0003540278    1.033    0.032
        80  -8.6476    244.0582     60.6696   6.8675226062e+01   1.7199651939e+01    0.1852468    0.1615234 -82.29 0.0004534042    1.078    0.073
        81 -11.1581    153.9493     58.7583   8.2557621917e+01   3.9159213731e+01    0.4640596    0.4170539 -79.39  0.001120564    1.186    0.157
        82  -9.6301    156.7598    192.4741   1.1479886156e+02   1.1119144266e+01    0.6687049    0.3837515 -74.09  0.002047314    3.300    0.697
        83 -10.2840    170.4543     36.6283   7.3084912321e+01   3.8253304122e+01    0.3698573    0.3340391  12.29 0.0009414352    1.324    0.245
        84 -10.3568    136.7507     38.8683   8.0149744223e+01   4.6089684568e+01    0.2385839    0.2207601  35.71 0.0002686317    1.055    0.052
        85  -7.9590     14.0712     24.0000   1.1469163217e+02   6.8271482651e+01    0.1541089   0.05648126  23.78 0.0007979356    2.911    0.657
        86  -8.0222    151.2105    242.7657   1.2408445356e+02   2.6082508373e+00    0.1673644    0.1430465  20.99 0.0007120722    1.331    0.249
        87  -8.0080      5.4229    190.8808   1.4711383326e+02   3.4153894129e+01    0.1502236   0.08064853 -67.14 0.0005031304    1.615    0.381
        88 -10.2661    185.5784    225.7992   1.1469080660e+02  -5.9725249737e-01    0.6707017    0.2312306 -50.30  0.002445318    3.802    0.737
        89  -9.9986    156.6950    229.5794   1.2106660800e+02   3.9483280445e+00    0.4051087    0.2558821  44.78  0.002127332    1.380    0.275
