#   1 NUMBER                 Running object number                                     
#   2 MAG_AUTO               Kron-like elliptical aperture magnitude                    [mag]
#   3 X_IMAGE                Object position along x                                    [pixel]
#   4 Y_IMAGE                Object position along y                                    [pixel]
#   5 X_WORLD                Barycenter position along world x axis                     [deg]
#   6 Y_WORLD                Barycenter position along world y axis                     [deg]
#   7 A_WORLD                Profile RMS along major axis (world units)                 [deg]
#   8 B_WORLD                Profile RMS along minor axis (world units)                 [deg]
#   9 THETA_WORLD            Position angle (CCW/world-x)                               [deg]
#  10 FWHM_WORLD             FWHM assuming a gaussian core                              [deg]
#  11 ELONGATION             A_IMAGE/B_IMAGE                                           
#  12 ELLIPTICITY            1 - B_IMAGE/A_IMAGE                                       
         1 -15.1975    235.0608     29.9180   5.6542449347e+01   2.4649419881e+01     2.632447    0.5656403 -39.77   0.01008173    3.933    0.746
         2 -14.1860    248.2814     18.1351   5.3276555626e+01   2.3469984319e+01     1.846038    0.5597032 -42.86  0.008849642    2.757    0.637
         3 -14.2019    249.4950     60.4119   6.0955416109e+01   1.7497182809e+01     1.976223     0.577072 -37.37  0.007308718    3.799    0.737
         4 -14.2335    241.7213     52.9828   6.0329943535e+01   2.0138221466e+01     1.159582    0.3986331 -44.19  0.005144123    2.472    0.595
         5 -13.2940    247.3818     42.5904   5.7796031327e+01   2.0483396991e+01    0.8978773     0.471625 -45.08  0.005041231    1.704    0.413
         6 -10.4720      1.3847      8.2242   1.0553905913e+02   7.1485704292e+01    0.1345827   0.08511542 -39.29 0.0009484112    1.728    0.421
         7 -10.1933    110.8519      5.1735   6.7099940391e+01   5.4592606749e+01    0.1630009    0.1149569  39.76  0.000229477    1.299    0.230
         8  -9.7207     50.7228      3.6653   8.2374277683e+01   6.5974287459e+01    0.1153472   0.06795157  17.51 0.0003205414    1.607    0.378
         9 -10.5185    202.1071    242.2848   1.0513987024e+02  -7.0319648566e+00    0.2202589    0.1765764 -75.04  0.001229444    2.105    0.525
        10 -11.4736    193.2728    248.4467   1.0792665811e+02  -6.7085205945e+00    0.3720026    0.2204159 -45.89  0.001968356    1.890    0.471
        11 -10.3510    240.0286    240.3639   9.7585028966e+01  -1.2103473788e+01    0.1922475    0.1670361 -49.64  0.001013245    1.640    0.390
        12 -10.6286    248.4290    239.8028   9.5976782176e+01  -1.3103084268e+01    0.2198075    0.1044003 -41.58  0.001131408    2.111    0.526
        13 -11.2557    230.3242    236.5343   9.8703575792e+01  -1.0204497473e+01    0.3217538    0.2197071 -54.83  0.001640733    2.166    0.538
        14 -11.5186    191.3567    236.2354   1.0627075270e+02  -4.3336390961e+00    0.5356957    0.3757088 -83.41   0.00235258    3.289    0.696
        15 -10.8675    206.3647    236.6810   1.0333600426e+02  -6.7430627406e+00    0.2567728    0.2227881  75.27  0.001533041    1.789    0.441
        16 -11.5507    216.5317    233.5207   1.0079441609e+02  -7.7410644142e+00     0.372683    0.2816407 -38.75  0.002235483    1.374    0.272
        17 -10.6700    250.6259    245.2416   9.6528486219e+01  -1.4166411212e+01    0.2137447   0.09991409 -40.09 0.0009813417    2.097    0.523
        18 -10.3847    240.3099    231.4988   9.5972912130e+01  -1.0782687532e+01    0.1938484    0.1445663 -51.21  0.001151749    1.801    0.445
        19 -10.3345    225.5115    231.5049   9.8718544506e+01  -8.7208181581e+00    0.2038963    0.1165889 -49.49 0.0008911813    2.151    0.535
        20 -10.2940    201.6337    231.8102   1.0342709273e+02  -5.1821839934e+00    0.1776019    0.1221292 -49.85 0.0009466192    1.694    0.410
        21 -11.2730    235.1233    229.0416   9.6482807099e+01  -9.6837121787e+00    0.3614627    0.1704049 -41.26  0.001604762    2.044    0.511
        22 -10.6289    229.5406    228.2830   9.7383685641e+01  -8.7738695766e+00    0.2259671    0.1157437 -44.34 0.0009950796    2.028    0.507
        23 -10.3967    211.6929    227.4568   1.0065835498e+02  -5.9891054926e+00    0.2301641    0.1127122 -41.02  0.001072468    2.009    0.502
        24 -11.6474    246.6772    225.9670   9.3837332065e+01  -1.0770970139e+01    0.2949108    0.2702923  36.67  0.001604361    1.482    0.325
        25 -12.1090    240.3230    220.9860   9.4074470679e+01  -9.1083080822e+00    0.6320715    0.2733843 -44.98  0.002886869    2.381    0.580
        26 -11.0907    198.8668    226.5666   1.0305595736e+02  -3.8194736635e+00    0.2567485    0.1794013 -58.98  0.001315503    1.945    0.486
        27 -10.3387    223.0302    226.2971   9.8255882703e+01  -7.5000220324e+00    0.1805751    0.1570807   1.01 0.0007527825    1.054    0.051
        28 -10.5985    205.9714    225.4947   1.0143717622e+02  -4.7581514216e+00    0.2494316    0.1825391 -54.65  0.001352806    1.718    0.418
        29 -11.4695    217.1467    222.9152   9.8773217113e+01  -6.0419737506e+00     0.418422    0.2598506 -53.15  0.001679671    2.067    0.516
        30 -10.7166    217.0000    211.9698   9.6775874575e+01  -4.0922767784e+00    0.2860637     0.191012 -46.22  0.001506766    1.561    0.359
        31 -10.8101    228.1337    221.7771   9.6468144579e+01  -7.4937778594e+00    0.2675984     0.204065  54.51  0.001515129    1.905    0.475
        32 -10.2885    190.5101    225.9828   1.0465897183e+02  -2.3570712529e+00    0.2031821    0.1306679 -42.48  0.001033658    1.593    0.372
        33 -12.2958    247.8486    216.5394   9.1915311914e+01  -9.4257240857e+00    0.5511369      0.26591 -41.98  0.002351553    1.934    0.483
        34 -10.6786    193.2597    218.9892   1.0283446132e+02  -1.5156737096e+00     0.314543    0.1671783 -57.58  0.001292115    2.726    0.633
        35 -11.1031    219.4290    216.7965   9.7207270063e+01  -5.3283959233e+00    0.5247862    0.1971574 -44.81  0.002118618    2.665    0.625
        36 -11.2343    233.0422    212.6527   9.3866536459e+01  -6.6700571665e+00    0.3707031    0.1776042 -40.63  0.001608122    1.922    0.480
        37 -11.4233    240.3497    207.9717   9.1658216228e+01  -6.9438049055e+00     0.432178    0.2570001 -56.81  0.002027485    2.553    0.608
        38 -11.2474    235.0169    203.0332   9.1688717195e+01  -5.2974118155e+00     0.351743    0.2312121 -57.09  0.001070834    2.077    0.518
        39 -10.9463    231.4881    198.5404   9.1473426942e+01  -3.9565478522e+00    0.3773637     0.183778 -48.26  0.001300318    2.157    0.536
        40 -10.9979    231.0000    194.0139   9.0685591836e+01  -3.0608300274e+00    0.3426942    0.1633344 -41.44  0.001546501    1.892    0.471
        41 -10.4603    192.6308    209.8351   1.0126956289e+02   3.3402252347e-01    0.1988216    0.1297479 -53.33 0.0009513636    1.745    0.427
        42 -11.3999    246.8935    206.4426   9.0209730546e+01  -7.6259924911e+00    0.4927188    0.2289285 -54.92  0.001837698    3.983    0.749
        43 -11.1306    243.2567    201.0588   8.9833817054e+01  -6.1836549059e+00    0.3696599    0.1971132 -39.95  0.001859966    1.658    0.397
        44 -10.9090    229.4614    207.0024   9.3467292429e+01  -5.1493191237e+00    0.2926629    0.1190234 -46.90  0.001195088    2.569    0.611
        45 -10.1803    224.6239    207.8156   9.4529940386e+01  -4.5462361397e+00    0.1894632     0.117638 -48.68 0.0009475063    1.744    0.427
        46 -10.2855    217.4503    204.9545   9.5357784355e+01  -2.8906198158e+00    0.2091732    0.1241453 -40.92  0.001026131    1.586    0.370
        47  -9.9961    202.3523    204.2153   9.8206375228e+01  -2.4542963520e-01    0.1940254    0.1261579 -50.28 0.0009396638    1.655    0.396
        48 -10.1996    197.4576    204.0098   9.9165445467e+01   6.3368023352e-01    0.2201422    0.1329118 -42.93  0.001038002    1.616    0.381
        49  -9.9918    173.0000    203.9336   1.0433897927e+02   4.9906791414e+00    0.2299948   0.08162627 -47.50 0.0006816796    2.847    0.649
        50  -9.9862    187.3299    203.6602   1.0120799559e+02   2.4751244184e+00    0.1411331    0.1158362  84.56 0.0005856054    1.740    0.425
        51 -11.1913    250.1572    200.6313   8.8549234766e+01  -7.1093155806e+00     0.373866    0.1609458 -40.76  0.001725069    2.022    0.505
        52  -9.9213    223.5196    201.4808   9.3528211313e+01  -3.2303493196e+00    0.1352681    0.1199126 -18.75 0.0008099258    1.025    0.024
        53 -10.2385    202.2959    197.6497   9.6944419300e+01   1.0363656788e+00    0.1363209    0.1140588 -81.70 0.0004092214    1.682    0.405
        54  -9.7239    176.3108    197.6549   1.0241434972e+02   5.6964813781e+00    0.1459185    0.1180278  86.31 0.0007045562    1.705    0.413
        55 -11.8342    246.3953    193.2151   8.7786668112e+01  -5.2852099899e+00    0.4198919    0.2769242 -54.89  0.001886016    1.874    0.466
        56 -11.1419    224.2790    192.4293   9.1623324235e+01  -1.6845346505e+00     0.362049    0.1662563 -48.61  0.001424271    2.270    0.559
        57  -9.8812    219.2874    194.6338   9.3002963255e+01  -1.2738947152e+00    0.1327385    0.1090486 -71.82 0.0007022342    1.700    0.412
        58  -9.8144    209.3244    194.6918   9.4954794949e+01   3.9707749879e-01    0.1330322    0.1136991 -87.20 0.0003242675    1.650    0.394
        59 -10.7315    244.1135    188.1707   8.7208203907e+01  -4.0516143767e+00    0.1976276    0.1802417 -49.71  0.001172684    1.274    0.215
        60 -11.2171    237.0567    187.2025   8.8258918539e+01  -2.7803831836e+00      0.33443    0.1805957 -39.10   0.00122901    1.630    0.386
        61 -10.7055    230.1250    187.2094   8.9510854603e+01  -1.6690582115e+00    0.2511292    0.1744099 -63.30  0.001079086    2.042    0.510
        62 -10.1666    215.3703    187.1858   9.2280147154e+01   8.0869943886e-01    0.2014037    0.1235542 -51.07 0.0007229284    1.725    0.420
        63 -10.2972    241.5122    173.0263   8.4678649719e+01  -8.9492902035e-01    0.3230605    0.2240512 -87.21  0.001413487    3.099    0.677
        64 -12.0281    247.7613    178.4697   8.4693992444e+01  -2.8772941972e+00    0.6292579    0.2776738 -53.29  0.002470182    2.980    0.664
        65 -10.7454    223.9300    183.9260   9.0002162642e+01  -2.5546190802e-02    0.3212705    0.1828013 -52.88  0.001304774    1.977    0.494
        66  -9.9550    189.7469    184.9794   9.7008978943e+01   5.8579227027e+00    0.1962543    0.1214801 -43.80  0.000882679    1.555    0.357
        67  -9.8855    210.3107    183.3192   9.2486397394e+01   2.4490600044e+00    0.1458222    0.1070921  -9.18 0.0003082872    1.644    0.392
        68 -10.2873    197.5867    182.7680   9.4927871204e+01   4.8614839707e+00    0.2111918    0.1341256 -53.31 0.0009551969    1.691    0.408
        69 -10.3428    183.5811    182.8041   9.7876800444e+01   7.4756020156e+00    0.2143822    0.1393172 -55.88 0.0009525237    1.695    0.410
        70 -11.5813    241.2988    180.4470   8.6185411430e+01  -2.2217184702e+00    0.4706357    0.2201762 -48.74  0.002058214    2.153    0.536
        71 -11.3707    235.5710    181.1765   8.7334480097e+01  -1.4366193271e+00    0.2443589    0.2112045 -68.16  0.001064896    1.468    0.319
        72 -10.5774    219.0275    177.9913   8.9725053360e+01   1.9589249050e+00    0.2768508    0.1696704 -43.12  0.001330505    1.493    0.330
        73 -10.1675    197.6016    176.7954   9.3694811745e+01   6.0881956059e+00    0.2123414    0.1336972 -53.49 0.0009477081    1.691    0.409
        74 -10.2677    210.5062    176.0289   9.0958368098e+01   3.8638391989e+00    0.2252434    0.1325564 -44.67   0.00102607    1.584    0.369
        75 -10.4447    232.5620    174.3106   8.6496792641e+01   3.4320590596e-01    0.2595506    0.1205524 -45.26  0.001042011    1.956    0.489
        76 -10.5832    223.5693    173.2527   8.7911165661e+01   2.0856765605e+00    0.2764845    0.1241874 -47.36  0.001123559    2.128    0.530
        77  -9.9879    188.2717    172.6507   9.4767218653e+01   8.7372334893e+00    0.1483051     0.118052 -77.53 0.0003481152    1.627    0.386
        78 -11.2066    237.2996    168.9342   8.4582904146e+01   5.6056891433e-01    0.4115911    0.1947858 -50.17  0.001754277    2.153    0.536
        79 -10.9013    234.2036    164.2617   8.4172195129e+01   1.9683747304e+00    0.3066258    0.1610659 -53.93 0.0009844359    2.134    0.531
        80 -11.1565    246.0308    169.3344   8.3182832142e+01  -9.4646260532e-01    0.3027029    0.1967996 -56.35  0.001544056    1.756    0.430
        81 -10.4196    205.4965    169.4784   9.0578885817e+01   6.1118633837e+00    0.2823142    0.1297225 -53.71  0.001034678    2.559    0.609
        82 -10.9388    218.8049    168.2990   8.7776205526e+01   3.8999195841e+00    0.3649817    0.1900039 -48.39  0.001381047    1.849    0.459
        83 -10.0377    229.3770    166.1889   8.5413899166e+01   2.4357711305e+00    0.2077087     0.118112 -50.24 0.0009492454    1.733    0.423
        84 -10.5142    191.4857    165.9805   9.2676289421e+01   9.5301125220e+00    0.2403629    0.1415805 -45.32  0.001038144    1.608    0.378
        85 -10.3213    199.4856    165.0015   9.0830155006e+01   8.1794626401e+00    0.2363821     0.138406 -45.07  0.001034325    1.600    0.375
        86 -10.5856    239.9335    164.1047   8.3158961137e+01   1.0241557178e+00    0.2122658    0.1741599 -59.59   0.00121931    1.341    0.255
        87 -11.2824    212.8465    162.4926   8.7683968280e+01   6.1528275419e+00    0.5697197    0.1822762 -48.38  0.001849946    3.164    0.684
        88 -10.4867    246.8483    162.5710   8.1702242999e+01   1.6259054166e-01    0.2632906    0.1679872 -52.65  0.001146497    1.581    0.367
        89 -11.0340    245.8254    157.4213   8.0837899274e+01   1.2824671500e+00    0.3452799    0.1992462 -45.74  0.001395657    1.506    0.336
        90 -10.8715    241.7221    153.3476   8.0682995402e+01   2.7371004050e+00    0.3338686    0.2094111 -50.79  0.001114636    1.500    0.333
        91 -11.2963    243.9804    149.1893   7.9473617280e+01   3.1265034144e+00    0.4115687    0.2228599 -48.85  0.001603735    1.670    0.401
        92 -10.6824    205.3922    161.7390   8.8961389498e+01   7.7182410029e+00    0.3562811    0.1706978 -48.52   0.00142065    2.020    0.505
        93 -10.2456    221.5741    161.7537   8.5903403571e+01   4.6894482155e+00    0.2034813    0.1247557 -51.07 0.0009440255    1.608    0.378
        94 -11.0374    237.6440    158.9415   8.2499079761e+01   2.3851847272e+00    0.3295643    0.2069706 -54.33   0.00126207    1.661    0.398
        95 -10.3495    227.6957    171.1664   8.6732301078e+01   1.7711450922e+00     0.223591    0.1608917 -54.95  0.001115811    1.490    0.329
        96 -10.5797    226.4888    157.0146   8.4031274993e+01   4.7261371267e+00    0.3136856    0.1228742 -47.67  0.001149648    2.407    0.585
        97 -10.0463    222.2234    156.9286   8.4775710981e+01   5.5216881945e+00    0.1970812    0.1067512 -44.19 0.0005928571    1.653    0.395
        98 -10.5369    216.0841    156.6270   8.5835218971e+01   6.7241489311e+00    0.2652251    0.1850661 -52.29  0.001309151    1.406    0.289
        99 -10.4229    196.7770    157.0105   8.9654928143e+01   1.0383187388e+01    0.2127318    0.1166504 -44.53  0.000884906    1.704    0.413
       100 -10.8274    233.3990    154.0612   8.2218394771e+01   4.0571773308e+00    0.3213536    0.2036938 -60.40  0.001326679    1.889    0.471
       101  -9.9750    187.6190    155.2045   9.1140940021e+01   1.2607228150e+01    0.2236563    0.1369585 -36.20  0.000949302    1.681    0.405
       102 -10.9108    250.3764    151.4595   7.8919912587e+01   1.6234067820e+00    0.7628807    0.1520096 -47.48    0.0020377    5.403    0.815
       103 -13.5505    241.0130    123.0501   7.4581479691e+01   8.5276114872e+00      1.21545    0.3376038 -42.87   0.00419347    3.074    0.675
       104 -10.5889    247.1714    143.8908   7.7898435512e+01   3.5615360255e+00    0.2754845    0.1636327 -53.09 0.0009622329    1.622    0.383
       105 -11.4700    243.6038    140.1311   7.7690436338e+01   4.8830522234e+00    0.4284991    0.2037963 -46.93  0.001405018    1.826    0.452
       106 -11.4007    242.1887    134.0424   7.6664350395e+01   6.2716278581e+00    0.4292047    0.1876398 -47.17  0.001189051    1.993    0.498
       107 -10.3068    205.5209    153.9702   8.7266878242e+01   9.2918155460e+00    0.2333593    0.1363315 -43.95  0.001027278    1.576    0.365
       108 -10.3024    228.3026    151.6570   8.2595313493e+01   5.4391741401e+00     0.260906    0.1167768 -43.46 0.0009359525    1.968    0.492
       109 -10.3754    229.4782    148.0275   8.1633767399e+01   5.9280799373e+00     0.277541    0.1243555 -39.33  0.001093319    2.051    0.513
       110 -10.6869    157.2435    153.2317   9.7443455462e+01   1.9327618578e+01    0.2572827    0.1260817 -57.90 0.0008854486    2.465    0.594
       111 -11.8604    235.3980    147.3685   8.0499122541e+01   4.9800599517e+00    0.4603808    0.3023672 -54.82   0.00144194    1.522    0.343
       112 -10.2930    215.3720    149.1744   8.4376373609e+01   8.3544241580e+00     0.219633    0.1232663 -52.31 0.0009452589    1.787    0.440
       113 -10.7748    223.5579    146.7278   8.2385711918e+01   7.2821278833e+00     0.290459    0.2241804 -59.32   0.00152673    1.334    0.250
       114 -10.6594    207.6980    145.4473   8.4996367297e+01   1.0610173566e+01    0.2754224    0.1247061 -43.16   0.00107152    2.027    0.507
       115 -10.2848    214.4428    142.9374   8.3200830276e+01   9.7864341596e+00    0.2116542    0.1160455 -61.74 0.0008074164    2.506    0.601
       116 -11.0328    230.0444    140.8772   8.0037800900e+01   7.2056463196e+00    0.3943193    0.1744667 -47.17  0.001603551    2.031    0.508
       117 -10.4336    181.8564    142.0385   8.9396036186e+01   1.6642441982e+01     0.265117     0.175267 -70.06  0.001081215    2.067    0.516
       118 -10.3951    250.4351    140.2314   7.6662396640e+01   3.6746724814e+00    0.2659378    0.1131621 -46.94  0.001138538    2.024    0.506
       119 -10.7098    248.9166    135.7262   7.5984276849e+01   4.7645867038e+00    0.3121354    0.1672213 -50.88  0.001074233    1.696    0.410
       120 -11.6401    248.4253    129.9420   7.4889366283e+01   5.9119969033e+00    0.3847932    0.2835687 -65.72  0.001672859    1.448    0.309
       121 -11.1661    249.4773    124.0072   7.3538593950e+01   6.8059482209e+00    0.3135018    0.1962507 -47.15 0.0008773073    1.338    0.253
       122 -11.4487    247.8991    118.8003   7.2711865954e+01   8.0341122245e+00    0.4283808    0.1943024 -47.72  0.001328728    1.877    0.467
       123  -9.5089    203.6535    141.3063   8.4852186454e+01   1.2270876736e+01    0.1514805    0.1151425 -80.91 0.0007042636    1.697    0.411
       124 -10.5271    238.4233    140.2421   7.8532642224e+01   5.7882782808e+00    0.2295574        0.195 -59.87 0.0009481768    1.161    0.139
       125 -11.9194    234.8091    135.6961   7.8169620920e+01   7.3113032692e+00    0.5342762     0.252465 -51.23  0.001723722    2.042    0.510
       126 -10.3335    224.4412    140.0614   8.0815544402e+01   8.4213164894e+00    0.2278946    0.1262764 -44.33  0.001027088    1.599    0.374
       127 -10.1118    166.3054    140.6320   9.2466428755e+01   2.0264226284e+01    0.1639049    0.1229289 -81.67 0.0007035243    1.750    0.428
       128 -10.4522    218.5829    138.2702   8.1450202207e+01   9.9055175289e+00    0.2818238    0.1265564 -46.25  0.001124624    2.013    0.503
       129 -10.4541    208.4155    137.7394   8.3169093789e+01   1.2033887398e+01     0.295811    0.1297219 -47.96  0.001127056    2.145    0.534
       130 -10.4764    172.8156    138.0299   9.0413649205e+01   1.9441315658e+01    0.2643493    0.1774432 -70.87  0.001079398    2.007    0.502
       131 -10.1065    192.7773    136.9295   8.5989788191e+01   1.5426385074e+01    0.2103761    0.1183494 -43.10 0.0008744657    1.675    0.403
       132 -10.1394    187.7661    136.0280   8.6793085852e+01   1.6674482140e+01    0.2092471    0.1216916 -45.21 0.0008769937    1.621    0.383
       133 -10.3825    225.2625    133.7656   7.9332753315e+01   9.4893350120e+00    0.2604095    0.1592947 -46.57 0.0009599563    1.449    0.310
       134 -10.6083    179.5817    132.7715   8.7733336838e+01   1.9120134199e+01    0.2253006    0.1398512 -54.70 0.0009489454    1.660    0.398
       135 -10.6387    220.9452    128.9775   7.9031814373e+01   1.1264286623e+01    0.2316556    0.1656903 -71.02  0.001129213    1.666    0.400
       136  -9.8907    212.2360    129.2394   8.0599818294e+01   1.2962783035e+01    0.2410503     0.103416 -52.05 0.0008773123    2.436    0.590
       137 -10.9941    199.8660    126.3291   8.2205636869e+01   1.6115179319e+01    0.2977958    0.1846807 -62.94   0.00104207    1.929    0.482
       138 -11.2873    235.0397    123.4582   7.5573549085e+01   9.5768026974e+00    0.2753587    0.1668537 -55.06 0.0008277684    1.581    0.367
       139  -9.9368    169.7063    124.3377   8.7844108065e+01   2.3080077531e+01    0.1593298     0.120292 -78.85 0.0005009796    1.648    0.393
       140 -10.5800    179.6419    124.6779   8.5814514116e+01   2.0821013225e+01    0.3389223    0.1807952 -50.78   0.00128943    1.867    0.464
       141  -9.8763    188.2973    123.6327   8.3814278861e+01   1.9147876001e+01     0.159593    0.1150059 -74.56 0.0005831615    1.727    0.421
       142  -9.9916    186.3955    129.1941   8.5492262900e+01   1.8405472263e+01    0.2255979    0.1351798 -54.25 0.0009445084    1.712    0.416
       143 -10.7266    227.9373    125.4439   7.7115269872e+01   1.0570467477e+01    0.2862428      0.17324 -55.02  0.001183097    1.610    0.379
       144 -10.9336    230.7664    116.0409   7.4668959302e+01   1.1788431104e+01    0.2859815    0.1461453 -50.01  0.001038846    1.768    0.434
       145 -10.3205    140.3283    118.6508   9.3270117119e+01   3.0772869391e+01     0.163816    0.1238764 -86.37 0.0007048916    1.761    0.432
       146 -10.2267    186.0000    114.9990   8.2232174568e+01   2.1410789545e+01     0.254204   0.08254803 -42.75 0.0008023079    2.942    0.660
       147  -9.3992    173.6582    114.3315   8.4571344099e+01   2.4295748893e+01    0.1616028    0.1184241 -81.55 0.0007051217    1.750    0.428
       148 -11.0023    247.7318    112.7019   7.1502109855e+01   9.1609268221e+00    0.2802028    0.1510644 -50.50 0.0008502376    1.602    0.376
       149 -10.3826    243.6565    109.3314   7.1382855258e+01   1.0526084818e+01     0.206934     0.116064 -54.99 0.0008716655    1.658    0.397
       150 -11.7103    241.6826    106.3284   7.1042848271e+01   1.1438441935e+01    0.2643522     0.112206 -46.38 0.0007942568    2.006    0.501
       151 -10.1458    183.0000    108.9860   8.1382307849e+01   2.3280921785e+01    0.2523809   0.08269121 -42.33 0.0008022452    2.941    0.660
       152 -10.3530    160.5786    108.3034   8.5887161719e+01   2.8474815357e+01    0.3004306    0.1430812 -47.57   0.00113101    2.091    0.522
       153  -9.7649    189.5327    108.5031   8.0010208196e+01   2.1918647390e+01    0.1506699    0.1375304 -69.30 0.0008095795    1.031    0.030
       154 -12.1660    244.5983     97.7577   6.8900640341e+01   1.2386309647e+01    0.4317438    0.1209861 -47.01  0.001544919    3.038    0.671
       155 -11.9198    248.0061    106.7639   7.0266535387e+01   1.0164611041e+01     0.347195    0.1521813 -52.54  0.001154295    2.128    0.530
       156 -10.2988    222.4556    105.0135   7.3583735489e+01   1.5503048561e+01     0.223587    0.1243162 -45.29  0.001031535    1.607    0.378
       157 -11.0342    229.3056    103.2106   7.2163088040e+01   1.4434503844e+01    0.2711578    0.2024196 -66.36  0.001093992    1.301    0.231
       158 -10.5702    238.5383    102.2612   7.0642253130e+01   1.2770526343e+01     0.266892    0.1112812 -46.76 0.0009786912    2.060    0.515
       159 -10.8941    167.2917    100.8087   8.2548623537e+01   2.8449961537e+01    0.3107603    0.1229391 -48.28  0.001070116    2.601    0.616
       160 -11.9548    248.5003     98.0079   6.8443232364e+01   1.1599503073e+01    0.4323553    0.1879012 -31.73  0.001614581    3.413    0.707
       161 -11.3979    247.5206     92.0610   6.7378681512e+01   1.2803503132e+01    0.3560563    0.1838534 -59.63  0.001674423    1.975    0.494
       162 -12.4112    211.8356     94.1580   7.2844457463e+01   1.9717831641e+01    0.7615428    0.2283184 -52.08  0.002256587    4.174    0.760
       163 -10.1745    194.8348     97.3538   7.6407105187e+01   2.2867536926e+01    0.2120694    0.1727973 -61.15 0.0009143371    1.164    0.141
       164 -11.1180    236.4976     90.0386   6.8392254395e+01   1.5306788095e+01    0.3615253    0.1964049 -43.18  0.001651834    1.650    0.394
       165 -12.1836    235.0202     95.0287   6.9627215944e+01   1.4739371722e+01     0.409886    0.2352193 -60.49  0.001606796    1.769    0.435
       166 -12.1184    231.4349     90.7537   6.9225190693e+01   1.6205856623e+01    0.3653845    0.2081567 -47.90  0.001062739    1.536    0.349
       167  -9.9846    202.6190     97.8373   7.5178839481e+01   2.1053908184e+01    0.2160901    0.1213076 -52.08 0.0009488717    1.722    0.419
       168 -11.0142    188.9762     93.0316   7.6421929344e+01   2.4983995982e+01    0.3558368    0.1971093 -50.65  0.001400342    1.777    0.437
       169  -9.9561    133.6822    109.3538   9.2543638454e+01   3.4219874523e+01    0.1605647    0.1224845 -84.78 0.0007046498    1.745    0.427
       170 -10.5101    242.1361     92.9445   6.8246133970e+01   1.3693664826e+01    0.2153043    0.1525875 -63.34 0.0009095499    1.287    0.223
       171 -11.2969    175.7206     87.8672   7.7610717451e+01   2.8956528494e+01    0.2979051    0.2225845 -51.05 0.0007530473    1.312    0.238
       172 -11.7708    239.1535     81.1393   6.6225580609e+01   1.6273051991e+01    0.1949827     0.147054 -54.26 0.0007419072    1.138    0.121
       173 -12.3371    247.0794     86.4427   6.6312799230e+01   1.3833928769e+01    0.5067081    0.3729257 -68.11  0.003013228    1.231    0.188
       174 -11.1453    242.8384     82.5486   6.6054020738e+01   1.5308315184e+01    0.3149541    0.1523782 -50.28   0.00150743    1.777    0.437
       175 -13.3627    240.3784     75.6547   6.4965948981e+01   1.6924162676e+01    0.6223877    0.3228637 -57.41  0.002488134    1.807    0.447
       176 -11.4629    225.9796     87.4881   6.9289406556e+01   1.7892268304e+01    0.2741644    0.1621014 -56.46 0.0009435794    1.587    0.370
       177 -10.4641    188.5430     87.2833   7.5119206094e+01   2.6124163173e+01    0.2746741    0.1304247 -45.82  0.001024268    2.024    0.506
       178 -10.3951    224.4321    248.4313   1.0186225917e+02  -1.1225559641e+01    0.1982834    0.1126568 -48.86  0.001025083    2.288    0.563
       179 -10.4336    242.2979    248.0410   9.8496571063e+01  -1.3527095797e+01     0.169893    0.1324621 -16.39 0.0007870058    1.113    0.101
       180 -11.2972    225.1546     81.8956   6.8210470975e+01   1.9016098252e+01    0.2180649    0.1600269 -67.84 0.0006961771    1.275    0.216
       181 -10.8076    159.2374     81.8028   7.9330889713e+01   3.3854160701e+01    0.2709763    0.1771424 -45.24  0.001257975    1.544    0.352
       182 -10.0985    150.5059     79.5100   8.0568722508e+01   3.6271387039e+01    0.1458956    0.1381692  82.42 0.0008104175    1.028    0.028
       183 -10.2732    201.1440     77.9875   7.0843505077e+01   2.4890589388e+01    0.2432325    0.1377343 -62.02 0.0009673636    1.994    0.498
       184 -10.1616    174.5050     77.9681   7.5358492167e+01   3.0983476806e+01    0.2194105     0.138873 -42.38  0.001031213    1.587    0.370
       185 -10.8936    130.3899     78.2086   8.4844856755e+01   4.1038804316e+01    0.2068535    0.1340871 -50.45  0.000948921    1.685    0.406
       186 -10.3496    211.2990     76.5511   6.8994145243e+01   2.2881619541e+01    0.2399608    0.1161818 -41.13 0.0009049411    1.983    0.496
       187 -10.4979    157.4796     75.9575   7.8149263052e+01   3.5278090974e+01    0.2201021    0.1416656 -41.24 0.0009436721    1.593    0.372
       188 -13.4169    230.3349     68.6187   6.4750726561e+01   2.0098421403e+01    0.7383026    0.2435274 -36.92  0.002750085    3.312    0.698
       189 -10.7355    163.4578     71.5186   7.5792829977e+01   3.4635113831e+01    0.2945918    0.1385732 -39.57  0.001208694    2.179    0.541
       190  -9.6746    218.3072     68.6230   6.6286011001e+01   2.2646321347e+01    0.1468285   0.08888923 -68.96 0.0007028446    1.779    0.438
       191  -9.9109    187.4846     68.5017   7.0780119997e+01   2.9554203351e+01    0.1406881    0.1254469 -83.92 -1.336291e-05    1.011    0.011
       192  -9.9802    182.4612     68.4907   7.1605354021e+01   3.0713581181e+01    0.1426181    0.1252303 -82.72 0.0001821128    1.058    0.055
       193 -11.1794    238.6106     67.2349   6.3482940981e+01   1.8617084702e+01    0.1729349    0.1145353 -37.21  0.000647292    1.642    0.391
       194 -10.3637    203.4805     66.4780   6.7861159388e+01   2.6245608084e+01     0.250334    0.1064915 -49.85  0.001030658    2.299    0.565
       195 -10.2286    222.1371     71.1529   6.6323502242e+01   2.1421218869e+01    0.1941262    0.1353111 -65.75 0.0008947013    1.338    0.253
       196 -12.3078    192.4910     55.4703   6.6919573210e+01   3.0411053139e+01    0.4023452    0.1841422 -47.23  0.001781832    2.139    0.532
       197 -10.9810    153.3981     59.6668   7.4602105291e+01   3.8845699751e+01    0.2597286    0.1272106 -42.30  0.001118775    2.122    0.529
       198 -13.9306    226.5167     52.2669   6.1835897399e+01   2.3378636801e+01    0.7112538    0.4091338 -43.63  0.003837374    1.648    0.393
       199 -10.7905    157.9763     61.7816   7.4282194472e+01   3.7461188461e+01    0.2514557    0.2028987 -45.58  0.001386178    1.291    0.225
       200 -10.4621    169.1337     44.4120   6.7802335915e+01   3.7353940824e+01    0.2184409    0.1512436 -45.62  0.001187406    1.506    0.336
       201 -12.1820    247.8441     75.5339   6.4065240498e+01   1.5470200465e+01    0.6689611    0.2294615 -38.65  0.002675084    2.912    0.657
       202 -10.8786    168.6019     36.8310   6.5974108984e+01   3.8455464027e+01    0.1826929    0.1125307 -49.54 0.0009492194    1.710    0.415
       203 -12.6997    223.7270     35.0267   5.8638161675e+01   2.6349172079e+01    0.2941253    0.2056274 -54.83  0.001825628    1.295    0.228
       204  -9.8638    125.5187     30.4888   7.1909116497e+01   4.9018719937e+01    0.1292884    0.1131994  54.12 0.0008102843    1.006    0.006
       205 -10.6850    232.7625    247.3081   1.0011529161e+02  -1.2181336228e+01    0.2524335    0.1544588 -50.34  0.001200292    2.285    0.562
       206 -10.3302    140.6516     16.6875   6.5121297930e+01   4.7078682140e+01    0.1312359   0.08166593  40.50 0.0007046212    1.717    0.418
       207 -10.2504    218.4178    248.1805   1.0296130833e+02  -1.0352974143e+01    0.1611128    0.1148814 -47.24 0.0009449613    1.735    0.424
       208 -10.7063    210.5062    248.0126   1.0445681276e+02  -9.1993046730e+00    0.1544509     0.113825 -67.28 0.0008100084    2.496    0.599
       209 -11.5372    176.1099    246.0831   1.1102476787e+02  -3.6282343254e+00    0.4703722    0.2168013 -40.87  0.002129964    2.376    0.579
       210 -10.4593    224.7210    243.1445   1.0090564649e+02  -1.0456746396e+01    0.1811807    0.1553074 -43.18 0.0009530985    1.470    0.320
