#   1 NUMBER                 Running object number                                     
#   2 MAG_AUTO               Kron-like elliptical aperture magnitude                    [mag]
#   3 X_IMAGE                Object position along x                                    [pixel]
#   4 Y_IMAGE                Object position along y                                    [pixel]
#   5 X_WORLD                Barycenter position along world x axis                     [deg]
#   6 Y_WORLD                Barycenter position along world y axis                     [deg]
#   7 A_WORLD                Profile RMS along major axis (world units)                 [deg]
#   8 B_WORLD                Profile RMS along minor axis (world units)                 [deg]
#   9 THETA_WORLD            Position angle (CCW/world-x)                               [deg]
#  10 FWHM_WORLD             FWHM assuming a gaussian core                              [deg]
#  11 ELONGATION             A_IMAGE/B_IMAGE                                           
#  12 ELLIPTICITY            1 - B_IMAGE/A_IMAGE                                       
         1 -11.6141     47.3261      2.3332   3.2886443485e+01   6.8616480841e+01    0.3775195    0.2633013  12.36  0.001498329    1.299    0.230
         2  99.0000     30.9373     21.3297   4.9054736178e+01   6.8704914988e+01    0.9667533     0.737633 -48.29  0.006375895    1.777    0.437
         3 -14.3376      9.3602     68.1530   7.4599365741e+01   6.2146540382e+01     1.988777     1.078825 -56.40   0.01123538    1.490    0.329
         4 -14.0935     94.7797     71.5873   4.3286553015e+01   5.0185358245e+01     2.094848     1.477404 -68.36   0.00841599    2.030    0.507
         5 -12.0198     50.4370     32.9880   4.5324037951e+01   6.4382331152e+01     1.014113    0.8301165  59.88  0.006259936    1.843    0.458
         6 -12.8525     56.9239      4.2665   3.0185544960e+01   6.6813054409e+01    0.4044961    0.2733959  48.39 0.0007975018    1.429    0.300
         7 -14.2256     11.0300     37.1870   6.5136420923e+01   6.8108534715e+01     1.579969     1.117292 -44.10  0.008814841    1.246    0.197
         8 -11.5168     78.6140      9.7934   2.5580541891e+01   6.2236556160e+01    0.3983594    0.2285728  37.39  0.001383845    1.564    0.360
         9 -13.4716     58.3358     64.9020   5.3757589901e+01   5.7748292685e+01     1.450707     0.840333 -32.66  0.007051735    1.786    0.440
        10 -14.3094     39.7800     54.2814   5.7719181104e+01   6.2215465447e+01     2.535952     1.382139   6.11   0.01020933    2.587    0.613
        11 -14.0703     65.1029     24.5103   3.6139930017e+01   6.3160996089e+01     2.935982     1.017168 -29.90   0.01211779    3.181    0.686
        12 -12.2635     72.9123     25.1074   3.3668896065e+01   6.1673213657e+01    0.4872159    0.3001502 -29.39 0.0004067865    1.708    0.414
        13 -12.1936     79.8589     23.1238   3.0622370203e+01   6.0583477844e+01    0.6417249    0.4987603 -15.46  0.003365134    1.352    0.260
        14 -12.1658     10.9812     24.8270   6.0630857043e+01   7.0214457672e+01     0.592568    0.3302461  10.81  0.002481361    1.812    0.448
        15 -13.5513    184.0304     57.2492   1.8661309181e+01   3.1952305194e+01     2.375762      1.24059 -72.01   0.00650225    2.987    0.665
        16 -12.7957    174.9191     40.8482   1.5782402316e+01   3.6527514674e+01     1.637657     1.035483  13.89   0.00653513    3.525    0.716
        17 -14.1815    203.0853     60.6896   1.6711652223e+01   2.6923824226e+01     3.038054      1.21996 -57.64  0.009496729    3.269    0.694
        18 -13.8551    196.0208     35.5834   1.1593103323e+01   3.2180247522e+01     1.580562     1.480181  75.88  0.004905806    1.227    0.185
        19 -13.0489    234.5721     47.6214   1.0012147447e+01   2.1875899433e+01      1.01353    0.7666544 -58.93  0.002741467    1.108    0.097
        20 -12.9807    225.9493     22.7174   5.5838509693e+00   2.7033520962e+01     0.480661    0.4053484 -62.04  0.001130788    1.174    0.148
        21 -11.9459    233.0746      3.9588   1.2129914267e+00   2.7688661777e+01    0.6437587    0.2631347 -34.94  0.002532628    2.493    0.599
        22 -13.0261    223.0308      8.7448   2.9125001848e+00   2.9303055551e+01    0.9511015    0.3947051 -79.93  0.001511869    2.805    0.643
        23 -11.7771    210.8619     21.2858   6.6601104938e+00   3.0549926175e+01    0.5276895    0.3089031  60.46  0.002511216    1.760    0.432
        24 -12.4397    203.8226     18.8195   6.7928709387e+00   3.2443570556e+01    0.5412336     0.421998 -81.31   0.00105992    1.056    0.053
        25  99.0000    133.7782     39.9686   2.2825571160e+01   4.6629957961e+01    0.9997672    0.8052922 -52.67  0.005610117    1.347    0.258
        26 -12.2101    160.8268     38.4728   1.7351010608e+01   4.0277783201e+01     1.076861    0.7342343  27.02  0.004533598    2.168    0.539
        27 -13.9682    116.3451     63.0904   3.4328125240e+01   4.7162940078e+01     1.286437    0.9926684  51.38  0.002670755    1.246    0.197
        28 -11.8522    220.2271     29.4212   7.5432542739e+00   2.7447159010e+01     2.875692     1.008035  82.42   0.01014153    4.034    0.752
        29 -13.1122     50.8904     20.9586   4.0062051733e+01   6.5970488471e+01     1.374277    0.7880086  44.36  0.004726298    1.796    0.443
        30 -13.9347    244.3956      8.4710   1.3190618678e+00   2.4845977851e+01      1.06892    0.4642099 -82.20   0.00532109    2.369    0.578
        31  -8.8284    244.0238     18.3311   3.2413514541e+00   2.3760577096e+01    0.3775218    0.2126738 -67.00  0.002213411    1.503    0.335
        32 -11.2537    241.7299     22.3855   4.2103716840e+00   2.3734500330e+01     0.469362    0.2440925 -81.78  0.002513227    1.894    0.472
        33 -13.0489    176.2705     23.5555   1.1065716121e+01   3.8378928390e+01    0.3096803    0.2859879  70.65  0.000589577    1.187    0.158
        34 -11.1371    154.7346     17.9077   1.2501954360e+01   4.4207748468e+01    0.4204488    0.2160053 -45.54 0.0008091104    2.071    0.517
        35 -10.9751    149.9989     13.0420   1.1806982580e+01   4.5848710892e+01    0.2231002    0.1792643 -82.02 0.0007455197    1.216    0.177
        36 -10.3189    192.6695     18.2383   7.8096405517e+00   3.5095687147e+01    0.3333917    0.2415513 -24.33  0.001937004    1.775    0.436
        37 -12.6267     24.5824     40.0360   5.9570669312e+01   6.6433465160e+01     1.177765    0.4852228 -43.45  0.002571151    2.081    0.519
        38 -11.2168     94.1468     15.9980   2.3768710008e+01   5.8432515978e+01    0.2989772    0.1638651  47.93   0.00155668    1.554    0.356
        39 -10.3564    187.3983     13.3000   7.1864851860e+00   3.6880629215e+01    0.2865097    0.1397456 -67.55  0.001048062    2.321    0.569
        40 -10.0492    132.0271     10.0533   1.3734894873e+01   5.0422095476e+01    0.4464952    0.2973811 -68.33  0.001556073    1.810    0.448
        41 -10.2089    125.0429      9.8844   1.4898766081e+01   5.2077717455e+01    0.3259593    0.2490264  13.05  0.001235628    1.624    0.384
        42 -10.1167    121.1037      4.6754   1.3896124777e+01   5.3449341966e+01    0.2015408    0.1748506  15.78 0.0004358001    1.333    0.250
        43 -11.6770    115.8131     10.2316   1.6759627690e+01   5.4181277097e+01    0.4614031    0.2923865   0.25  0.001816741    2.143    0.533
        44 -10.6552    120.6594      8.9937   1.5409784183e+01   5.3177324265e+01    0.2231324    0.1896919  64.80 0.0002165188    1.033    0.032
        45 -10.3617     87.9666     11.8417   2.3789107684e+01   6.0140720460e+01     0.236817    0.1878731  59.36  0.001491883    1.246    0.197
        46 -10.0244    108.9587     10.3378   1.8204417676e+01   5.5727541907e+01    0.2567637    0.1668441 -35.85  0.001447967    1.762    0.432
        47 -12.8274    172.9787      6.7304   7.1325324725e+00   4.0966553122e+01    0.3988484    0.3265208  -5.88  0.001991405    1.703    0.413
        48 -10.4973    101.2000      7.6194   1.8921313202e+01   5.7694468484e+01    0.3263676    0.2001268 -19.19  0.001234085    1.899    0.473
        49  -9.9741     45.4035      9.6030   3.7153955402e+01   6.8172656590e+01    0.2063791    0.1355287  28.95  0.001307446    1.313    0.239
        50 -10.4743     26.5498      9.7573   4.5847258659e+01   7.0785134023e+01    0.2576437    0.1534693   7.76  0.001193429    1.709    0.415
        51  -9.3732    165.4573      9.0762   8.6295219210e+00   4.2529640364e+01    0.1728422    0.1257738 -33.78  0.001022044    1.569    0.363
        52  -9.9656    146.1944      6.9313   1.0587830748e+01   4.7342109728e+01    0.3727868    0.2075445   8.33  0.001629153    3.402    0.706
        53 -11.6213    193.6408      7.5002   5.1751502446e+00   3.6038207996e+01    0.2644994    0.1990655  77.07 0.0006656027    1.175    0.149
        54  -9.9228     12.6394      7.3449   5.2020642297e+01   7.2645692543e+01    0.1310346    0.0826529 -24.54 0.0008834419    1.339    0.253
        55 -11.0104      2.7720      6.0151   5.7085665513e+01   7.3717335979e+01    0.2276096    0.1403775   6.07  0.001060126    1.456    0.313
        56  -9.8649    210.8073      6.1112   3.3354633854e+00   3.2280021408e+01    0.1681673    0.1338673  50.89 0.0007047704    1.644    0.392
        57  -9.6854     90.5153      6.4968   2.1033299374e+01   6.0093650028e+01    0.2205969    0.1141453  71.99   0.00101475    2.494    0.599
        58 -10.2669    183.5335      3.7295   5.2670800389e+00   3.8770770911e+01    0.2496243    0.1642425 -82.02 0.0006860642    1.361    0.265
        59  -9.5623    187.0423      1.2144   4.3243567271e+00   3.8196646096e+01    0.1850129   0.09098451  64.16  0.000689541    1.796    0.443
        60 -10.0363    135.1199      2.7831   1.0983143589e+01   5.0332705394e+01    0.2655567    0.1505325  26.92   0.00128882    2.522    0.603
        61 -10.3034    111.4829      4.0968   1.5497507802e+01   5.5698695506e+01     0.242446    0.1613275  69.47  0.001009724    1.378    0.275
        62 -10.6605    216.8690      2.3802   2.0623310899e+00   3.1334499137e+01    0.4120252    0.1824502  78.28   0.00211771    1.970    0.492
        63 -10.0528    207.1747      2.9299   2.9441983263e+00   3.3426329824e+01    0.1403756    0.1323804  80.38 0.0007868665    1.348    0.258
        64  -9.7635    143.5914      2.7315   9.7297524209e+00   4.8332932606e+01    0.1484731    0.1124242 -50.78 0.0002147549    1.448    0.309
        65 -12.1342     85.7556      1.4223   2.0223277078e+01   6.1511158456e+01    0.3911003    0.1057565  57.36  0.001166411    2.904    0.656
        66  -9.9271    250.2694      1.4394   3.5963605671e+02   2.4457080290e+01    0.1401759   0.08416089 -80.29 0.0002655327    1.345    0.256
        67  -9.2992    177.2776      1.1816   5.2744792063e+00   4.0480803145e+01    0.1129427   0.07567056  62.47 0.0002818199    1.401    0.286
        68  -9.6334    236.7171    145.9923   3.0696247259e+01   4.9791901996e+00    0.1897439    0.1541995 -37.93 0.0003281099    1.076    0.071
        69  -9.4278    184.6857    134.6850   3.7700762950e+01   1.7403791927e+01    0.1509612     0.121219  -1.24 0.0004445071    1.643    0.391
        70  -9.7200     96.8369    125.7840   5.7523401413e+01   3.7841606513e+01    0.2088636     0.177114  84.03 0.0003862818    1.304    0.233
        71  -9.5190    152.8462    124.1659   4.2207009248e+01   2.6640621905e+01    0.2003772     0.183134 -15.37 0.0002787475    1.242    0.195
        72 -13.1783     79.8459     59.3876   4.4133320785e+01   5.5248389725e+01    0.7631756    0.5663954  19.42  0.004067294    1.452    0.311
        73  -9.9899    220.7888    121.3487   2.8028749371e+01   1.2489664452e+01    0.1907758    0.1306144  41.66 0.0005476163    1.710    0.415
        74 -10.6042    181.1861    117.7684   3.4425769457e+01   2.1646090058e+01    0.4496302    0.2121028 -41.36  0.001301599    2.070    0.517
        75 -12.6367     81.6757     49.6167   4.0096009138e+01   5.6558731262e+01    0.6152285    0.4527299   6.62  0.003275723    1.582    0.368
        76 -11.8189     75.9718     52.0214   4.2896281831e+01   5.7211225153e+01    0.2962461    0.2203564 -44.40 0.0003186728    1.450    0.311
        77 -12.6043     47.7202     94.9115   6.6126196892e+01   5.2725852329e+01    0.4698541    0.2957796  43.36    0.0023583    1.823    0.451
        78 -10.5046    249.8812     94.1806   1.8024038156e+01   1.1555337822e+01    0.3045649    0.1724253 -53.67 0.0008831444    1.592    0.372
        79 -10.5748    206.1509     94.6391   2.4328548741e+01   2.0502326095e+01    0.2595882    0.1819752 -54.12  0.001294188    1.340    0.254
        80 -12.3505    116.7798     92.9709   4.3224651712e+01   4.1369130401e+01    0.4232275    0.3195269 -32.88 0.0008007084    1.432    0.302
        81 -10.7642    182.0139     93.9921   2.8392311231e+01   2.6126247485e+01    0.2445439     0.203697 -74.97  0.001257328    1.225    0.183
        82 -11.7913    185.6754     92.4784   2.7332796746e+01   2.5556911986e+01     0.343127    0.2435311 -74.95  0.001590678    1.663    0.399
        83  -9.9204     89.3853     93.7541   5.1630100844e+01   4.6663977499e+01    0.2021735    0.1338861 -38.87 0.0002617601    1.539    0.350
        84 -10.6054    172.9375     91.0003   2.9378913314e+01   2.8821056092e+01    0.2771102    0.2391436 -85.19 0.0009306931    1.176    0.149
        85 -10.5947    167.7835     89.9567   3.0139771885e+01   3.0238174212e+01    0.3476279    0.2221944  60.37 0.0006383558    1.599    0.374
        86 -11.5757     96.2283     90.8205   4.8651046840e+01   4.6016523565e+01    0.5173297    0.4153315  58.14   0.00130002    1.380    0.275
        87 -10.0090     79.2722     91.2161   5.4209207637e+01   4.9000512454e+01    0.2768354    0.1780901 -28.82 0.0007754029    1.859    0.462
        88 -11.3191    222.7083     88.4255   2.0384324063e+01   1.7994334313e+01    0.3243808    0.1991464  69.08  0.001581685    1.821    0.451
        89 -11.0807    225.8820     85.2045   1.9222129043e+01   1.7868803567e+01    0.2596352    0.2089028 -30.11 0.0004923057    1.416    0.294
        90 -10.2401    203.5944    115.9487   2.9742436980e+01   1.7084379184e+01    0.4431696    0.2085472  66.62  0.001494033    3.499    0.714
        91 -12.2980     47.6579     85.2819   6.3743389609e+01   5.4914661607e+01    0.5148401     0.253791  19.62   0.00211831    2.551    0.608
        92 -11.6487    238.1881     86.3781   1.7852227894e+01   1.5131931936e+01    0.3518765    0.2571347  67.96 0.0008572048    1.494    0.331
        93 -11.5983    231.9336     84.4731   1.8249833343e+01   1.6725497900e+01    0.4763491    0.2928055 -82.52   0.00173882    2.138    0.532
        94 -11.6871    175.7821     85.5180   2.7407124480e+01   2.9166342199e+01    0.4981226     0.338211  27.25  0.001510486    2.264    0.558
        95 -11.7196    161.6795     84.4435   2.9926959480e+01   3.2725719740e+01    0.7409551    0.5148762  40.17  0.003415458    1.640    0.390
        96 -12.3366    168.5950     79.8286   2.7296115805e+01   3.1912681687e+01    0.5911058    0.4300153 -52.58  0.001546161    1.366    0.268
        97 -10.7293     30.7297     85.1403   7.0066051679e+01   5.6766324464e+01    0.2420393    0.2043226 -53.93 0.0006633878    1.074    0.069
        98 -11.4037    249.4482     82.8474   1.5737529492e+01   1.3484397262e+01    0.3748322    0.3544966 -52.98   0.00251908    1.236    0.191
        99 -12.1736     83.2955     83.9680   5.0791767165e+01   4.9862333734e+01    0.2789531    0.2387321  33.57  0.000478205    1.189    0.159
       100 -12.6974    177.1099     70.5818   2.3269932223e+01   3.1472803943e+01     1.462036    0.4217665 -47.89   0.00441795    3.833    0.739
       101 -10.9359     89.8365    114.0251   5.6813727170e+01   4.1932946459e+01    0.2888708    0.2068694  -1.00  0.001244101    2.100    0.524
       102 -11.2827    137.9590    112.4307   4.2885653163e+01   3.2538401898e+01    0.4598096    0.1958775  37.36  0.001482931    2.960    0.662
       103 -10.9397     65.4767    112.4835   6.4168325478e+01   4.6223108918e+01    0.2154465    0.1317628  44.75 0.0009851384    1.785    0.440
       104  -9.1727    211.0168    112.0000   2.7551721186e+01   1.6249807032e+01    0.2280028   0.08307257  53.24  0.000806556    2.971    0.663
       105 -12.4854    210.0851     46.7931   1.2536817621e+01   2.7382162168e+01    0.8343059    0.4779407 -66.05  0.004064443    1.813    0.448
       106 -13.1777    242.3383     60.5470   1.1910999554e+01   1.8371064442e+01    0.9951542    0.5863959  60.15  0.000510879    1.877    0.467
       107 -10.7403     38.4731    110.4853   7.2705830121e+01   5.0065481273e+01    0.2424357    0.1251556 -75.63 0.0008460396    2.245    0.555
       108 -13.5352    210.2629     59.5393   1.5472574203e+01   2.5455710969e+01     2.147141     1.008685 -75.74  0.001823514    4.296    0.767
       109 -13.7071    218.6983     55.7576   1.3546450774e+01   2.4132968355e+01       1.1293    0.9119478 -86.01   0.00285452    1.128    0.114
       110 -11.2375    195.8819    107.8275   2.9219340490e+01   2.0329337448e+01    0.4739567    0.2867677 -63.95  0.001803655    2.058    0.514
       111 -11.7397    161.9823    106.9621   3.5792540575e+01   2.8234928920e+01    0.3813307    0.2231466 -50.43  0.001580031    1.722    0.419
       112 -11.6633    215.1333     42.0188   1.0862828196e+01   2.6908526285e+01    0.3959268    0.2332098  81.84 0.0008756002    1.685    0.407
       113 -12.9058    221.8432     38.5236   9.3653560605e+00   2.5891710232e+01     0.976799    0.5132663  89.88 0.0008507715    2.104    0.525
       114 -11.6821    154.7083    106.3782   3.7277043355e+01   3.0034311060e+01    0.7285919    0.4756015   9.32  0.002483763    3.412    0.707
       115 -12.5651    155.3709     97.0039   3.4660896092e+01   3.1794225380e+01    0.9237575    0.6272045  59.94  0.004166628    1.525    0.344
       116  -9.9263    210.2950    105.7582   2.6239827803e+01   1.7564798578e+01    0.2392334    0.2126181  61.80  0.001348227    1.209    0.173
       117 -12.4643    249.7655     72.2513   1.3525157813e+01   1.5096709173e+01      2.26879    0.1429765 -39.60  0.005181611    8.301    0.880
       118 -12.2882    114.5220     80.3100   4.0155836834e+01   4.4416642812e+01    0.5816305    0.5086402 -22.98  0.002557062    1.232    0.188
       119 -11.7539    221.7477     79.6964   1.8554658841e+01   1.9674803865e+01    0.3162323    0.2286137 -78.35  0.001685481    1.451    0.311
       120 -10.5694    232.8176     79.0744   1.6960697446e+01   1.7431925920e+01    0.3428661    0.1897849  73.34   0.00162596    2.121    0.529
       121 -10.5107    161.8698     77.5180   2.8009659971e+01   3.3941949270e+01    0.2490945    0.2046753 -49.19 0.0006369987    1.212    0.175
       122 -10.5690    155.9198     76.5401   2.8967629382e+01   3.5547411198e+01    0.3525946    0.2651458  78.42  0.001299343    1.458    0.314
       123 -10.2520     63.1126     70.4420   5.3727250588e+01   5.5950938181e+01    0.3242932    0.1918976  29.45  0.001572036    1.781    0.439
       124 -12.3216     72.4175     73.6266   5.1367245400e+01   5.3845239033e+01    0.6572754    0.5795038  55.22  0.003791869    1.319    0.242
       125 -12.2900    227.3707     73.0489   1.6331670615e+01   1.9555127250e+01     0.518177    0.3612673  10.00  0.002236499    3.314    0.698
       126 -11.4841    233.4695     72.1569   1.5380815942e+01   1.8410164352e+01    0.3504627    0.2733653  26.54  0.001906331    2.073    0.518
       127 -11.2489    240.9214     71.7310   1.4409379416e+01   1.6942266044e+01    0.5271182    0.2721442 -51.88  0.002602764    1.688    0.408
       128 -11.4453    134.6674     70.8192   3.2085447187e+01   4.1622334552e+01    0.7528421    0.5207273 -61.86  0.003471589    1.728    0.421
       129 -12.0282    145.3988     66.6798   2.8415037925e+01   3.9791186535e+01      1.01472    0.7418323  11.11  0.003879864    2.094    0.523
       130 -11.5059    154.1212     62.2651   2.5319487348e+01   3.8416598235e+01    0.8473957    0.4877045 -48.34  0.003769742    1.811    0.448
       131 -10.2654    183.2076    104.3619   3.0750803643e+01   2.3861851482e+01    0.4904362    0.2513516 -61.10  0.001735886    2.750    0.636
       132 -11.8354    144.3565     44.9806   2.2213054106e+01   4.3401740071e+01    0.5483084     0.326604  46.80  0.001292463    1.694    0.410
       133 -12.8774    148.9037     40.6103   2.0047267844e+01   4.2899196347e+01    0.5693284    0.3503914 -52.72  0.002744807    1.793    0.442
       134 -11.0960    144.4344    103.3654   3.8904252755e+01   3.3024484194e+01    0.3613906    0.3342816  15.64  0.001127941    1.233    0.189
       135 -10.6309    161.4813     66.9863   2.5193652852e+01   3.5854292833e+01    0.3296524     0.264336 -42.91 0.0007604399    1.280    0.219
       136 -11.9385    166.8458     64.6417   2.3535425865e+01   3.4938814554e+01    0.5686426    0.5281932  56.04  0.002070626    1.149    0.130
       137 -11.4862    140.9084     96.4824   3.7905059853e+01   3.5259864290e+01    0.5844843    0.3698919 -59.47  0.001319942    1.836    0.455
       138 -11.5728    127.6067     58.5796   3.0050513594e+01   4.5341155019e+01    0.5076978    0.2843504  38.26  0.002058674    2.044    0.511
       139 -11.7438    147.6849     83.2198   3.2632165170e+01   3.6286247803e+01    0.7662678    0.6590568  71.15  0.003982483    1.166    0.142
       140 -11.1362    162.2443     56.9779   2.2273455274e+01   3.7277330560e+01    0.5780991    0.4289668 -11.78  0.002824718    1.895    0.472
       141  -8.6588    159.0452     54.2219   2.2091409945e+01   3.8479531363e+01    0.9893019    0.5644337 -15.87  0.003851846    3.035    0.671
       142 -10.8235    136.0723     52.9205   2.6347928628e+01   4.4232430835e+01    0.6627035    0.4726353 -59.82  0.002666876    1.618    0.382
       143 -11.4570    100.4198     53.9849   3.5774321094e+01   5.2123045744e+01    0.6302946    0.4638351  47.32  0.001964371    1.298    0.229
       144 -10.7914     99.2504     47.6824   3.3946052634e+01   5.3352621160e+01    0.2976474    0.2292975  -0.42  0.001588239    1.535    0.348
       145 -10.5371    174.5185     55.3487   1.9692412451e+01   3.4539343224e+01    0.3640682    0.2046508 -56.00 0.0007952446    1.928    0.481
       146 -10.0522    170.3703     56.5540   2.0714724270e+01   3.5363143550e+01    0.2728532    0.1935131  75.72  0.001003231    1.399    0.285
       147 -14.2428    131.4585     95.5696   4.0022517556e+01   3.7598267275e+01     2.043448     1.031365  33.68  0.007151545    2.756    0.637
       148 -11.4953    247.0571     42.3261   7.7293831618e+00   2.0033482659e+01    0.4816732    0.2448818 -56.31  0.002337002    1.677    0.404
       149 -10.0952    250.4905     49.0505   8.7594931090e+00   1.8404185824e+01    0.3032713    0.1420598 -44.51  0.001552348    1.767    0.434
       150 -10.7212     41.2288     44.4393   5.3657008199e+01   6.3807115413e+01    0.2947501    0.2483973  43.38  0.001366819    1.514    0.340
       151  -9.8791     39.0469     40.3176   5.3075040972e+01   6.4778024028e+01      0.73653     0.352137  17.39  0.003338913    2.723    0.633
       152  -9.9429    121.0583     44.7844   2.7215441789e+01   4.8952087574e+01    0.2816927    0.1623596 -59.67  0.001119831    2.560    0.609
       153  -9.7336    105.2195     43.3535   3.0768711797e+01   5.2710926198e+01    0.1891332    0.1236717  60.22 0.0008741674    1.589    0.371
       154 -10.4867     94.0068     41.3533   3.3237951310e+01   5.5375276977e+01    0.2750954    0.1968483 -15.35 0.0007791384    1.599    0.374
       155 -10.1852    100.2338     41.5163   3.1501675698e+01   5.4045676404e+01    0.2828999    0.2356547   2.14  0.001628755    1.310    0.237
       156 -10.8180    245.5853     50.0972   9.4337066584e+00   1.9241040717e+01     0.297337     0.199167  87.07 0.0004435145    1.470    0.320
       157 -13.0700    129.1647     89.5146   3.8912614915e+01   3.9351726085e+01     1.544666    0.5967561  36.63  0.004219634    3.998    0.750
       158 -10.4606    142.1573     57.1089   2.6293657521e+01   4.2129682354e+01      1.31957    0.9473101  21.69  0.006204054    1.953    0.488
       159 -11.4221    122.5015     33.4746   2.3165744822e+01   5.0127153775e+01    0.4067258    0.2260904 -51.99 0.0007854513    2.280    0.561
       160 -11.2200    123.8723     29.1433   2.1442021528e+01   5.0334630707e+01    0.2647312    0.2480312  63.39 0.0009854507    1.051    0.048
       161 -11.1422     92.0445     33.9707   3.1116037824e+01   5.6790084158e+01    0.3968627    0.2291791  34.19  0.001601702    1.797    0.444
       162 -10.9638    112.3573     32.6853   2.5247988756e+01   5.2552484115e+01    0.3876172    0.2237308  55.54 0.0006071836    1.559    0.359
       163 -10.4745     75.1053     33.5808   3.6303025826e+01   6.0167254534e+01    0.2745538    0.1934431  39.01 0.0007970107    1.303    0.232
       164  -9.2059    152.4253     33.5654   1.7362788038e+01   4.2957453801e+01     0.136501    0.1208651  80.38 0.0002406041    1.020    0.019
       165 -12.7539    199.2777     48.1863   1.4221757839e+01   2.9680412018e+01     1.100786    0.7158884  15.22  0.004357585    3.829    0.739
       166 -10.1743    104.4173     28.2035   2.5639743875e+01   5.4868096325e+01    0.3891878    0.1613722 -40.72  0.001403799    2.755    0.637
       167  -9.2482     80.7729     30.1786   3.3114312724e+01   5.9540910537e+01    0.1811126    0.1705955  51.23 0.0009588493    1.214    0.177
       168 -11.4090     86.3112     28.4962   3.0750203313e+01   5.8656339446e+01    0.3706841    0.2175582  42.49 0.0008522262    1.531    0.347
       169  -9.9721    128.3118     27.3801   1.9947909649e+01   4.9498574181e+01    0.3074579    0.1518399 -36.76   0.00141794    2.182    0.542
       170  -9.3488    114.3655     28.2745   2.3258036911e+01   5.2631607617e+01    0.1414156   0.09050897  35.38  0.000486847    1.669    0.401
       171  -9.9740    168.3377     26.7225   1.2973011527e+01   3.9921956139e+01    0.2693701    0.1808009 -79.36  0.001410928    1.559    0.359
       172 -11.1647    234.3639     24.1278   5.1557050490e+00   2.5056176686e+01    0.4100431    0.2320445  78.62   0.00155613    1.645    0.392
       173 -12.1061    121.2006     87.2478   4.0367993365e+01   4.1583736962e+01    0.5782348    0.4252739 -84.93  0.002059841    1.913    0.477
       174 -11.1183    247.1610     22.6038   3.8355785559e+00   2.2598033004e+01    0.2287613    0.1744872  76.43   0.00102728    1.374    0.272
       175 -12.4455    125.1027     84.8612   3.8633622888e+01   4.1192234981e+01    0.7863547    0.4628584 -27.50  0.003137739    2.238    0.553
       176 -12.3025    134.5102     82.6236   3.5584628318e+01   3.9484626164e+01    0.6822863    0.5408293  43.78  0.001150486    1.277    0.217
       177  -9.5170    151.4410     20.4805   1.3735594138e+01   4.4727330317e+01     0.224253    0.1158282  66.82  0.001065397    1.688    0.408
       178  -9.5955    144.6982     26.3462   1.6564501651e+01   4.5700214181e+01    0.2032667    0.1125417 -88.18 0.0008411917    2.550    0.608
       179 -10.7309    148.0955     24.2897   1.5380890890e+01   4.5114025950e+01    0.2989458    0.2040922  35.56 0.0009727232    1.781    0.438
       180 -10.8848    134.4622     24.7090   1.7903436798e+01   4.8344052510e+01    0.4970989    0.2501489  73.81  0.002170329    2.177    0.541
       181  -9.4837    153.2740     24.9858   1.4745985702e+01   4.3780403950e+01    0.1712488    0.1599838 -83.71 0.0003758178    1.101    0.092
       182  -9.8757    121.8586     17.1573   1.7893736421e+01   5.2120226222e+01    0.2215133    0.1679141 -65.41 0.0006698102    1.574    0.365
       183  -9.7266    123.9322     24.4724   1.9893387913e+01   5.0858188750e+01    0.1940391    0.1551354  56.83  0.000535488    1.101    0.092
       184 -10.1039    123.9222     21.0438   1.8767241847e+01   5.1235043412e+01    0.1907033    0.1736397  66.28            0    1.048    0.046
       185 -10.5308    114.1382     22.9540   2.1481099547e+01   5.3288324334e+01    0.3014747    0.1784401  57.94  0.001124032    1.483    0.326
       186 -11.3497     99.5391     22.0929   2.4662619077e+01   5.6631783520e+01    0.4385149    0.2362138  64.35  0.001382612    1.982    0.496
       187  -9.6998     90.4247     26.8606   2.8917880931e+01   5.8015610359e+01    0.1655533    0.1278073 -23.55 0.0009725211    1.396    0.284
       188 -10.0851    119.4764     21.9484   1.9981525964e+01   5.2171725591e+01    0.2294181    0.1710845  80.64 0.0004809355    1.451    0.311
       189 -11.2348    132.9693     77.5001   3.4473553645e+01   4.0807606335e+01    0.3487152    0.2578575  61.15  0.000325384    1.379    0.275
       190 -10.9389    109.5064    104.0465   4.8357982164e+01   4.0490033561e+01    0.2366307    0.1495823 -47.84  0.000840222    1.562    0.360
       191 -12.3688     75.4263    103.2700   5.8694401267e+01   4.6901307067e+01    0.5426521    0.2969027 -72.05  0.001168251    2.902    0.655
       192  -9.3006    163.3387     20.7240   1.2050488480e+01   4.1821646688e+01    0.1367655   0.09023584 -76.27 0.0003572644    1.613    0.380
       193 -10.4908    129.9405     19.2988   1.7036556369e+01   5.0004644894e+01    0.2537498    0.1641294  62.60 0.0005157598    1.341    0.254
       194  -9.1390    103.2688     19.3154   2.2719181667e+01   5.6115427828e+01    0.1295491   0.08888578  29.10 0.0004868926    1.553    0.356
       195 -11.4135    226.2412     98.8378   2.2198011200e+01   1.5446839044e+01    0.5927364    0.2213899 -48.18   0.00225973    2.491    0.599
       196  -9.9009    138.9917     17.8584   1.4975148908e+01   4.8001445720e+01    0.1937729    0.1597898   6.51 0.0006811426    1.535    0.349
       197 -10.3747    165.1804    102.1061   3.3849341387e+01   2.8479343489e+01    0.2295621    0.2166722 -13.31 0.0006843975    1.209    0.173
       198 -12.7393     87.5947     98.5644   5.3523972183e+01   4.5917620591e+01    0.6609575    0.4083833  28.20  0.002900449    1.876    0.467
       199  -9.4249    160.0143     13.9768   1.0658355138e+01   4.3344305332e+01    0.1501821    0.1252476  80.21 0.0009268575    1.015    0.014
       200  -8.8749    141.4313     13.4659   1.3242059062e+01   4.7861346639e+01    0.1310149    0.1103505  59.99 0.0006992041    1.100    0.091
       201  -9.9424    244.3333     98.5142   1.9631416305e+01   1.1891538475e+01    0.3281262    0.1570174 -29.72   0.00134111    2.690    0.628
       202 -10.9336    142.9740     79.4713   3.2652968895e+01   3.8100738164e+01    0.2413406    0.2086544 -18.23 5.749536e-05    1.352    0.261
       203 -11.5623     81.0186     98.7486   5.5690118689e+01   4.7020430551e+01    0.3232474    0.2349629  27.95  0.001254986    1.500    0.333
       204 -11.0208     33.9018    100.1824   7.2210933742e+01   5.2994584833e+01    0.1985971     0.172879 -86.21 0.0006486163    1.241    0.194
       205 -10.9422    170.0190     97.4786   3.1641334155e+01   2.8264322489e+01    0.4817451     0.351592 -76.33  0.002200265    1.655    0.396
       206 -11.7794    102.3513     96.1904   4.8307641525e+01   4.3660890270e+01    0.3124382    0.2968643  13.85 0.0005609082    1.096    0.088
       207  -9.1783    212.2724     11.6162   4.4043920655e+00   3.1351879616e+01    0.1342943   0.07232423 -63.36 0.0006995567    1.707    0.414
       208 -12.3595    106.8592     96.6442   4.7098239874e+01   4.2657988217e+01    0.4626356    0.3084542 -25.95  0.001657093    1.929    0.482
       209 -12.6438    107.8844     92.4324   4.5608584109e+01   4.3351428031e+01    0.6075189      0.31354  45.47  0.002322442    1.948    0.487
       210 -12.2717     11.9953     97.2574   7.9384264094e+01   5.5480622500e+01    0.4602737    0.2668345 -47.74   0.00173769    1.494    0.331
       211 -10.5385    200.0066     96.1665   2.5709801019e+01   2.1596419716e+01    0.6630312    0.2294208 -52.81  0.002009127    3.756    0.734
       212 -11.9954    184.7162     69.1158   2.1589255123e+01   2.9895499966e+01    0.6290791    0.4281686 -61.55  0.003045437    1.513    0.339
       213 -13.7068    194.4621     86.2330   2.4242067338e+01   2.4658010413e+01    0.8693563     0.736348  75.61  0.003707885    1.179    0.152
       214 -11.8077    204.0862     78.4839   2.0822220899e+01   2.3799440918e+01    0.3277104    0.2397897  57.93  0.001008311    1.433    0.302
       215 -11.5813    199.9687     75.7833   2.0805007886e+01   2.5199938343e+01    0.3677938    0.3403508  20.68 0.0008354236    1.402    0.287
       216 -13.3685     80.7091     41.6321   3.7498504114e+01   5.7971907460e+01     1.029664    0.5807372  47.24  0.004895126    1.721    0.419
       217 -12.8726    189.2769     78.1211   2.3105157925e+01   2.7291185760e+01    0.6554778    0.3596027 -41.77  0.002483187    1.758    0.431
       218 -12.0388    193.1525     75.3602   2.1778561153e+01   2.6855036180e+01    0.4003753    0.3109554  85.09  0.001737915    1.309    0.236
       219 -13.0984      4.3862     54.9194   7.3538420464e+01   6.5174018540e+01    0.8440238    0.4827391 -54.99  0.005082505    1.431    0.301
       220 -11.0355     36.6505    248.5080   8.9059656765e+01   1.7679387803e+01    0.2249316    0.1308605 -86.23  0.001357653    1.616    0.381
       221 -14.4889     64.2705     85.7633   5.7838788018e+01   5.2574002771e+01     1.915599     1.312203  -7.73  0.004012054    1.967    0.492
       222 -11.9355     90.5564     51.2900   3.7824520818e+01   5.4572222161e+01    0.2761174    0.2335569 -46.50 0.0002353086    1.316    0.240
       223 -11.2909    113.7117    246.2744   7.3437754096e+01   7.3058651151e+00    0.2887734     0.255038  -6.53  0.001288775    1.493    0.330
       224 -14.4981     44.0126     73.0239   6.1785780812e+01   5.7995727170e+01     1.771897     1.236208  19.48  0.009910814    1.542    0.351
       225 -10.2614    180.7840    243.5945   5.9351725460e+01  -2.7856052036e+00    0.1834222    0.1038311  43.33 0.0009509749    1.705    0.414
       226  -9.5805    218.3577    239.6870   5.1529780577e+01  -7.7067401798e+00    0.1093252    0.0954768  57.57 0.0007043607    1.742    0.426
       227 -10.7961     88.1808    238.8299   7.7921386298e+01   1.2654643974e+01    0.1613538    0.1534773  27.15   0.00045113    1.320    0.242
       228  -9.8867     15.7415    238.6157   9.2380417338e+01   2.2055078972e+01    0.1041302   0.07926089 -62.17 0.0006971452    1.677    0.404
       229  -9.6725    101.1782    176.0251   6.6354274142e+01   2.4662484378e+01    0.1923327    0.1761655  87.07            0    1.038    0.037
