#   1 NUMBER                 Running object number                                     
#   2 MAG_AUTO               Kron-like elliptical aperture magnitude                    [mag]
#   3 X_IMAGE                Object position along x                                    [pixel]
#   4 Y_IMAGE                Object position along y                                    [pixel]
#   5 X_WORLD                Barycenter position along world x axis                     [deg]
#   6 Y_WORLD                Barycenter position along world y axis                     [deg]
#   7 A_WORLD                Profile RMS along major axis (world units)                 [deg]
#   8 B_WORLD                Profile RMS along minor axis (world units)                 [deg]
#   9 THETA_WORLD            Position angle (CCW/world-x)                               [deg]
#  10 FWHM_WORLD             FWHM assuming a gaussian core                              [deg]
#  11 ELONGATION             A_IMAGE/B_IMAGE                                           
#  12 ELLIPTICITY            1 - B_IMAGE/A_IMAGE                                       
         1 -11.7855     58.5657    132.6218   1.0390887819e+02   4.1709651172e+01       1.1126    0.4923521 -76.06  0.003866434    3.185    0.686
         2 -12.5914    199.0169     40.0193   4.4083161956e+01   3.0451679334e+01     1.046007    0.9789137  73.97  0.003991868    1.130    0.115
         3 -12.6182    209.3652     29.8197   4.0278883771e+01   2.9292595121e+01    0.8822099    0.7694021   8.08  0.001896119    1.553    0.356
         4 -10.7895    237.0251      2.7862   3.1744971906e+01   2.6147099595e+01     0.580568    0.3021845  87.09  0.003203751    1.789    0.441
         5 -10.2800    235.2046      6.6120   3.2673498770e+01   2.6131831383e+01    0.3775796    0.2286511 -84.76  0.001655587    1.500    0.333
         6 -10.7441    230.8040      4.3195   3.2500534544e+01   2.7327494071e+01    0.6302086    0.2486549 -49.03  0.003075391    2.154    0.536
         7 -11.1693     84.3948    220.9841   1.0991039942e+02   1.7362306332e+01    0.6839068    0.3903206  49.08  0.001112396    1.526    0.345
         8 -12.6530     44.7292    199.7528   1.1627435945e+02   2.7209446819e+01     2.419109    0.9850599  63.92    0.0034531    3.037    0.671
         9 -14.1315     55.0392    188.0274   1.1275011099e+02   2.8617352096e+01     13.63044      4.38512  57.39   0.04055543    5.134    0.805
        10  -9.4839    194.1695    196.7012   8.2457493070e+01   3.5999838307e+00    0.4069639    0.2237581 -60.78  0.001493963    3.824    0.738
        11  -9.5109     70.9655    215.2899   1.1215196668e+02   2.0450431657e+01    0.1811929     0.145524  54.55 0.0005092591    1.105    0.095
        12 -12.1008     27.9924    215.3773   1.2102654376e+02   2.5711838092e+01     1.957305    0.6007193 -85.96  0.007142092    4.335    0.769
        13  -8.5952     99.4666    180.8724   1.0110057441e+02   2.3816475515e+01    0.2145755    0.1845623  45.91 0.0005483794    1.135    0.119
        14 -15.8316      6.4086    204.1088   1.2456297540e+02   3.0239609968e+01     18.33674     1.359122 -76.52   0.04328125   10.423    0.904
        15 -10.0251    109.1001    201.9932   1.0203839940e+02   1.7521146644e+01    0.4809611    0.2436926 -46.16  0.002103081    2.324    0.570
        16  -7.5501    149.3560    176.7037   8.8347424479e+01   1.5769029912e+01    0.1514414    0.1162174  72.37 0.0003332724    1.696    0.411
        17 -10.2189     68.7716    174.4550   1.0774495160e+02   3.0004065986e+01    0.3195043    0.2703235 -39.45 0.0008137054    1.436    0.304
        18 -10.6852     73.8034    169.2626   1.0572919399e+02   3.0544898521e+01    0.5058736    0.3414628 -29.75  0.002353242    2.208    0.547
        19 -13.2475     56.0903    239.7092   1.1737537859e+02   1.7487203988e+01    0.9162932    0.7254577  19.39  0.006029268    1.811    0.448
        20 -10.3630     97.2487    169.0848   9.9707904098e+01   2.6953585885e+01    0.5896073    0.2462176  48.90  0.002169665    2.580    0.612
        21  -8.4052    138.2019    168.3910   8.9351576739e+01   1.9719392269e+01    0.2209697    0.1353657  50.43  0.000944881    1.707    0.414
        22  -9.2750     33.6228    165.8323   1.1543196140e+02   3.6345849239e+01     0.454926    0.2088787  50.91  0.002121447    2.228    0.551
        23 -14.7255      3.7845    246.9083   1.2715357852e+02   2.1966055317e+01     1.099286    0.7814142 -77.12  0.003812163    1.503    0.335
        24 -12.0732     70.5066    155.5926   1.0446836482e+02   3.4365366914e+01    0.5664834    0.4839163 -31.05  0.001222141    1.412    0.292
        25 -11.9454     68.8287    144.3299   1.0303043923e+02   3.7404306940e+01    0.8835481     0.594163  77.43  0.002734577    1.831    0.454
        26  -9.1398     54.0475    149.5283   1.0799111129e+02   3.8047022476e+01    0.2244431    0.1707284 -70.58 0.0009679103    1.173    0.148
        27  -9.7417    134.1901    145.7963   8.5559132633e+01   2.5643396970e+01    0.6615945    0.2156074 -53.94  0.001900003    3.658    0.727
        28  -9.2097     38.4839    146.0792   1.1176041096e+02   4.0672966757e+01    0.2847424    0.2151392  75.13 0.0007397318    1.327    0.247
        29  -9.5942     55.2333    143.8224   1.0677506098e+02   3.9324365353e+01    0.4272406    0.1706222 -49.32  0.001658252    2.529    0.605
        30  -9.2738     33.2753    142.0974   1.1265752473e+02   4.2186240940e+01    0.3541421    0.2063836 -57.07  0.001830594    1.538    0.350
        31  -9.4016    102.8095    139.2332   9.2466877072e+01   3.3226418436e+01    0.5363437    0.3321959 -24.57  0.002037716    2.598    0.615
        32 -10.7305     90.1614    138.9530   9.5959047329e+01   3.5480077846e+01    0.3040079    0.2711886 -33.37  0.000456106    1.217    0.178
        33 -14.6231     21.1467    249.9286   1.2436551033e+02   1.9638363184e+01     4.672921     1.248947  28.42    0.0126619    9.306    0.893
        34  -9.0034    105.8171    130.7832   8.9736647479e+01   3.4726801681e+01    0.3677138    0.2938664 -48.56  0.001712804    1.216    0.177
        35 -10.5874     31.6193    129.6221   1.1138049342e+02   4.5434723381e+01    0.4273705    0.2680292 -59.50  0.002293972    1.360    0.265
        36  -9.4728    112.0891    129.9246   8.7778965445e+01   3.3748823152e+01    0.3815354     0.262999  33.91  0.001258171    1.552    0.356
        37  -9.6379     43.2838    129.5672   1.0792067590e+02   4.4273511947e+01    0.3023239    0.1628555  37.06  0.001442357    2.013    0.503
        38  -9.4666     98.9909    125.7766   9.0525169560e+01   3.7183658212e+01     0.339532    0.2756662   2.53 0.0008161457    1.543    0.352
        39  -7.6435     93.2569    125.6388   9.2167520646e+01   3.8227904090e+01    0.1530195    0.1173069 -89.02 0.0003001882    1.624    0.384
        40 -10.5773     88.8735    153.9511   9.9227149630e+01   3.1991331380e+01    0.6179627    0.4352553 -13.28  0.001732767    2.284    0.562
        41  -8.8998    117.0097    124.4851   8.5098693577e+01   3.4075380421e+01    0.2394292    0.1558831  39.41 0.0006743573    1.584    0.369
        42  -9.9632     53.1452    116.8505   1.0257502740e+02   4.6311417271e+01    0.2778085    0.2340552 -64.11   0.00123012    1.066    0.062
        43 -10.0391     33.1851    119.1555   1.0927436248e+02   4.7876978621e+01    0.2446854    0.1978657  87.29  0.001446028    1.266    0.210
        44  -8.1157    108.0241    118.7898   8.6216320352e+01   3.7176042385e+01    0.2041759    0.1946619  30.65            0    1.089    0.082
        45 -10.6110     32.5913    111.2311   1.0810469878e+02   4.9879716567e+01    0.3003729    0.2272955 -31.75  0.001725543    1.451    0.311
        46  -8.7228    135.0000    109.0185   7.6206051993e+01   3.3810075026e+01    0.6274863   0.08928983 -44.09  0.001250573    6.914    0.855
        47  -7.8678    205.5872    110.2182   6.1042767697e+01   1.7506481548e+01     0.204445    0.1377649 -28.20 0.0006806553    1.543    0.352
        48  -9.9320    115.3211    109.1330   8.1609471609e+01   3.7970844271e+01    0.3133754    0.2781805   6.65  0.001578421    1.247    0.198
        49 -10.2372     48.9435    107.1140   1.0193487548e+02   4.9195928746e+01    0.3203925    0.1810073  42.43  0.001505848    2.025    0.506
        50  -8.4795    235.3272    102.6984   5.4393928115e+01   1.2526631165e+01    0.1417074    0.1014503 -65.26 0.0004660669    1.642    0.391
        51  -8.3107     32.3466    204.0260   1.1929034426e+02   2.7674067481e+01    0.2034763    0.1205824  81.44  0.001152671    1.534    0.348
        52  -8.1030    128.3247     96.2878   7.4401177049e+01   3.8022317635e+01    0.1581041    0.1243525   5.79 0.0003062979    1.607    0.378
        53 -10.9431     82.2350    160.7773   1.0219608512e+02   3.1360074187e+01    0.6925989    0.3916658  61.14 0.0006997213    2.203    0.546
        54  -8.9814    234.4693     85.9896   5.0643170477e+01   1.5467931216e+01     0.210015    0.0947756 -53.56 0.0006073251    2.534    0.605
        55  -8.0507    158.4762     82.4599   6.2975920806e+01   3.3719869896e+01    0.1531897    0.1495797 -76.72 0.0001806421    1.025    0.025
        56  -7.4910     70.6821     82.2889   8.8116576931e+01   5.2080132385e+01    0.1354362    0.1145904  80.88 0.0002333414    1.595    0.373
        57  -7.8797     53.5564    220.4280   1.1627931896e+02   2.1666940217e+01    0.1463584    0.1067387 -72.06  0.000124573    1.393    0.282
        58 -10.0933     48.7211    216.2798   1.1691020905e+02   2.3136693540e+01    0.4264113    0.2873461  78.61  0.001648766    1.332    0.249
        59 -12.2243    188.3357     48.2944   4.7762085116e+01   3.1918659850e+01     1.004829    0.7639174  10.48  0.002785676    1.877    0.467
        60  -9.6808     95.3500    241.7589   1.0989267813e+02   1.1722201292e+01    0.2921655    0.1974561 -79.06  0.001743934    1.701    0.412
        61  -8.5043     77.1084    224.5045   1.1181433296e+02   1.7686944121e+01    0.2122461    0.1693881 -81.92 0.0009411194    1.265    0.209
        62  -9.6582    156.4782    218.5610   9.4149130226e+01   6.2328125725e+00    0.3664857    0.1210874  35.19  0.001318705    2.941    0.660
        63  -9.7956     63.2455    198.4550   1.1203267876e+02   2.5170547368e+01    0.6314059    0.2959176 -46.16  0.002283185    3.035    0.670
        64  -9.0595    143.3851     48.2447   5.5756763476e+01   4.3104822480e+01    0.2640347    0.2014892 -68.15 0.0004758066    1.582    0.368
        65  -9.5896     59.0689    229.5047   1.1595595099e+02   1.9109945929e+01    0.2501315    0.1803237 -74.98 0.0004240147    1.410    0.291
        66  -8.9557     59.3894    220.4655   1.1508685510e+02   2.0913926727e+01    0.2406982     0.195474 -21.12  0.001210006    2.024    0.506
