#   1 NUMBER                 Running object number                                     
#   2 MAG_AUTO               Kron-like elliptical aperture magnitude                    [mag]
#   3 X_IMAGE                Object position along x                                    [pixel]
#   4 Y_IMAGE                Object position along y                                    [pixel]
#   5 X_WORLD                Barycenter position along world x axis                     [deg]
#   6 Y_WORLD                Barycenter position along world y axis                     [deg]
#   7 A_WORLD                Profile RMS along major axis (world units)                 [deg]
#   8 B_WORLD                Profile RMS along minor axis (world units)                 [deg]
#   9 THETA_WORLD            Position angle (CCW/world-x)                               [deg]
#  10 FWHM_WORLD             FWHM assuming a gaussian core                              [deg]
#  11 ELONGATION             A_IMAGE/B_IMAGE                                           
#  12 ELLIPTICITY            1 - B_IMAGE/A_IMAGE                                       
         1 -14.3737    160.0247     48.4195   8.4037429218e+01   3.9167628172e+01     1.894842     1.264116  12.66  0.005852624    1.867    0.464
         2 -14.2288    171.8935     32.4999   7.6233989424e+01   3.8283661891e+01      1.06886    0.9154333  -9.08  0.003137157    1.138    0.122
         3 -13.3754    175.6169     25.3781   7.3114582791e+01   3.8151692813e+01    0.6037995    0.4806299   4.71  0.001060579    1.289    0.224
         4 -12.2958    189.7391     14.6689   6.7374722960e+01   3.5530979816e+01    0.2981648    0.2648517  38.37  0.001051753    1.109    0.098
         5 -13.1912    188.5843      2.5247   6.3432927223e+01   3.6951025787e+01    0.7502133    0.3958925  70.01  0.002484039    1.883    0.469
         6 -11.8306    186.8866    221.1047   1.1732118842e+02   7.6663695092e+00    0.1647212    0.1290773  45.27  0.001004196    1.236    0.191
         7 -18.5804     61.7566    242.6910   1.3935350258e+02   2.1793234631e+01     5.344497     3.978655  49.41   0.04820436    1.252    0.201
         8 -19.1642     50.4621    105.1570   1.2876301110e+02   4.7981172615e+01      16.0635    0.7926165 -64.43    0.0262888   17.543    0.943
         9 -11.4312    143.7358    200.5172   1.2199677858e+02   1.6933261848e+01    0.3225621    0.1446244  49.62  0.001686625    1.979    0.495
        10 -11.6643    135.9757    196.8825   1.2292960853e+02   1.8656455874e+01    0.3228803    0.2130817  80.17  0.001856636    2.294    0.564
        11 -12.6064    112.2833    196.1827   1.2715793802e+02   2.2287596220e+01    0.4716769    0.2994058  19.21  0.002580293    2.688    0.628
        12 -13.2324    105.7990    192.5503   1.2794483985e+02   2.3788505800e+01    0.6973096    0.4545752   7.94  0.003319463    3.979    0.749
        13 -10.5241    176.8277    195.6629   1.1546394221e+02   1.2294900840e+01    0.2171889     0.155903 -79.28  0.001201851    2.759    0.638
        14 -11.1540    158.8564    194.7223   1.1851446645e+02   1.5353418263e+01    0.1966519    0.1482166  86.51 0.0009305433    2.024    0.506
        15 -12.3900    207.6530    185.3892   1.0849105055e+02   8.4020252917e+00      0.35348    0.2564345  15.02  0.001112315    1.312    0.238
        16 -12.3638    212.1499    181.5465   1.0706716975e+02   8.0881843062e+00    0.3141018     0.231269  11.74  0.001120407    1.291    0.225
        17 -11.8638     35.5777    184.1518   1.4016478199e+02   3.3706036392e+01    0.2456305     0.129012  49.52  0.001678509    1.567    0.362
        18 -10.7713    223.9805    184.0227   1.0552172451e+02   5.8032554215e+00    0.1906495    0.1168536  18.72            0    1.584    0.369
        19 -10.9543    165.3512    208.1353   1.1920608075e+02   1.2535800359e+01    0.2164121    0.1335226  44.70 0.0006459201    1.305    0.234
        20 -11.9812    179.9034    193.3576   1.1457838177e+02   1.2084580912e+01    0.4777023    0.3046156 -66.85   0.00240062    3.345    0.701
        21 -11.8454    198.6917    178.0842   1.0878824829e+02   1.0838515965e+01    0.2961516    0.2522338 -43.64 0.0009274934    1.530    0.346
        22 -11.5725    178.9766    174.3472   1.1168815872e+02   1.4799492550e+01    0.2247802    0.1847036 -15.18  0.001094626    1.364    0.267
        23 -11.6149    144.2221    168.0835   1.1727286403e+02   2.1796338237e+01    0.5323455    0.1901088  48.98  0.002176956    2.724    0.633
        24 -11.4421    130.1149    206.1656   1.2509638557e+02   1.8186510621e+01    0.1711956    0.1589208  78.84 0.0009079892    1.221    0.181
        25 -11.2426    228.3993    171.1893   1.0247212997e+02   6.4814286018e+00    0.1600315    0.1107142 -34.36 0.0007928113    1.729    0.421
        26 -12.6768    138.2074    171.3651   1.1896685966e+02   2.2271038742e+01    0.4997007    0.3219901  49.11  0.002892686    1.387    0.279
        27 -10.7828    225.4327    166.5029   1.0207989167e+02   7.5393126765e+00    0.1266365    0.1029847  18.28 6.169203e-05    1.019    0.019
        28 -10.3593      2.8364    176.6156   1.4563774796e+02   3.7929519381e+01   0.08779375   0.05345791 -74.10 0.0003085218    1.584    0.369
        29 -11.6568    102.3512    162.4351   1.2491747888e+02   2.9475704486e+01    0.2061451    0.1911833  68.43 0.0003978138    1.090    0.083
        30 -12.0462     11.8129    205.2032   1.4529240409e+02   3.2358741341e+01    0.2577492    0.1900864  88.99  0.002116442    1.284    0.221
        31 -12.5535     24.4809    157.0247   1.4046423127e+02   3.9744086157e+01    0.4025072    0.2516357  36.74   0.00215838    1.731    0.422
        32 -12.1387    133.6217    145.2723   1.1557494419e+02   2.7553173151e+01     0.879108    0.2374638 -53.12  0.002784541    4.818    0.792
        33 -12.4762      4.4407    112.2686   1.4156349536e+02   5.0336735314e+01    0.3973037    0.2941689 -60.30    0.0018121    1.410    0.291
        34 -13.4804      3.3423    128.7943   1.4301780472e+02   4.6992821509e+01    0.9829753     0.405969 -89.98  0.005518997    2.056    0.514
        35 -13.4037      4.6437    137.6602   1.4329810647e+02   4.5121684199e+01    0.5991269    0.4815965 -79.76  0.004893259    1.232    0.188
        36 -11.4667      3.3584    144.7431   1.4398465946e+02   4.3818691390e+01    0.2114479     0.136317  64.21 0.0006958641    1.295    0.228
        37 -12.1849      7.7551    143.5469   1.4300402615e+02   4.3731933162e+01     0.274203    0.2089627  25.42  0.001693188    1.765    0.433
        38 -10.9766    174.4211    148.9271   1.0789579017e+02   1.9400426464e+01    0.2595915    0.2190052  54.04 0.0007537685    1.258    0.205
        39 -12.0658    120.2602    205.0219   1.2670689682e+02   1.9792222780e+01    0.2064609    0.1383773  39.00 0.0006385639    1.338    0.253
        40 -12.2407    114.2115    140.0445   1.1889681712e+02   3.1837541721e+01    0.4160385    0.2392584 -38.90  0.002012654    2.203    0.546
        41 -13.8061    196.1322    195.7728   1.1214355406e+02   9.0992949455e+00    0.7092454    0.4617466  47.61  0.002189191    1.459    0.315
        42 -12.6084    103.9821    140.3079   1.2124121326e+02   3.3425546298e+01    0.2685192    0.2214008  53.16 0.0005034801    1.150    0.131
        43 -12.0320    188.3463    186.5196   1.1202183516e+02   1.1545718288e+01    0.3575637    0.3429535  -3.10  0.001660554    1.255    0.203
        44 -11.5685    105.8311    130.8331   1.1918131309e+02   3.5008612854e+01    0.3275614    0.2884009 -77.17  0.001212675    1.122    0.109
        45 -11.5599    107.8135    126.8136   1.1797396699e+02   3.5492259016e+01    0.2503861    0.2314773 -28.70 0.0007038204    1.246    0.198
        46 -11.4833    119.2591    130.4766   1.1600206336e+02   3.2840110855e+01    0.2728227    0.2475233  17.12 0.0007412527    1.257    0.204
        47 -12.0925    135.6168    122.4402   1.1061347411e+02   3.1427595220e+01    0.5822752    0.2281015 -50.92  0.002193744    2.847    0.649
        48 -11.3458    160.5105    128.1879   1.0640882807e+02   2.5530773328e+01    0.2726906    0.1955407  44.92  0.001419276    1.327    0.246
        49 -11.8835    124.9230    126.7810   1.1397121779e+02   3.2563070162e+01    0.5505542    0.3153872  71.95  0.002060664    3.504    0.715
        50 -11.9510     12.9947    142.2749   1.4181952822e+02   4.3584048200e+01    0.2461022    0.1757971  51.29 0.0006863853    1.374    0.272
        51 -12.1043     23.3298    126.2117   1.3823210980e+02   4.6023515930e+01    0.2014179    0.1639753  24.39  0.001053135    1.629    0.386
        52 -13.2614     90.0221    122.3505   1.2144700744e+02   3.9189439530e+01    0.5046408    0.3984251  67.67  0.001957334    1.302    0.232
        53 -10.8441    113.1681    119.3184   1.1521927148e+02   3.6100973312e+01    0.2136222    0.1792594 -42.93   0.00036117    1.246    0.198
        54 -12.2394     22.8127    119.3833   1.3770328679e+02   4.7500967676e+01    0.2279535    0.1521361 -72.76  0.001175834    1.249    0.200
        55 -10.7283      8.4175    149.8935   1.4324910719e+02   4.2445113737e+01    0.3877698    0.1790769 -63.61  0.002417659    2.107    0.525
        56 -11.5340    169.5411    115.2253   1.0152814377e+02   2.5897422523e+01     0.526799    0.3482417 -70.58  0.002140495    2.820    0.645
        57 -10.9530    205.4519    110.1601   9.3271405800e+01   1.8950266713e+01    0.3226965    0.1931645  38.71  0.001019276    1.621    0.383
        58 -11.3623     93.8260    109.8610   1.1810055002e+02   4.1233584150e+01    0.2013967    0.1816011 -34.43 0.0007284093    1.240    0.194
        59 -12.1563    119.1092    214.6865   1.2793481546e+02   1.8554407087e+01     0.275098    0.1893283  82.86  0.001150617    1.818    0.450
        60 -10.8407    134.4942    102.9716   1.0635397563e+02   3.5377268405e+01    0.2232245    0.1394365 -43.16  0.001035009    1.596    0.373
        61  -9.6202    147.2931     78.3198   9.6538679658e+01   3.7277308306e+01    0.1537951    0.1163567   7.31 0.0003808465    1.608    0.378
        62 -10.1723     13.5063     59.9205   1.3253442704e+02   6.1198298614e+01    0.1764093   0.09170149 -69.56 0.0003881057    1.492    0.330
        63 -11.1047    160.3897    248.4268   1.2469569292e+02   8.5660264931e+00    0.1792612   0.09957283 -53.81  0.001239543    2.713    0.631
        64 -10.9467     17.5391    237.9526   1.4562586618e+02   2.6896120243e+01   0.08447561   0.06675255 -63.11  0.000784778    1.965    0.491
        65 -11.3632    181.8887    234.6893   1.1982730836e+02   6.9538066169e+00    0.1811341    0.1033244  31.34  0.001199306    1.497    0.332
        66 -10.6598    131.3858     28.8565   8.3075323444e+01   4.9057578446e+01    0.2431484    0.2079134  69.34 0.0005357911    1.361    0.266
        67 -11.4682    195.7458    225.5756   1.1648373667e+02   5.8489250505e+00    0.2206668   0.07881426  39.31  0.001137593    2.119    0.528
