#   1 NUMBER                 Running object number                                     
#   2 MAG_AUTO               Kron-like elliptical aperture magnitude                    [mag]
#   3 X_IMAGE                Object position along x                                    [pixel]
#   4 Y_IMAGE                Object position along y                                    [pixel]
#   5 X_WORLD                Barycenter position along world x axis                     [deg]
#   6 Y_WORLD                Barycenter position along world y axis                     [deg]
#   7 A_WORLD                Profile RMS along major axis (world units)                 [deg]
#   8 B_WORLD                Profile RMS along minor axis (world units)                 [deg]
#   9 THETA_WORLD            Position angle (CCW/world-x)                               [deg]
#  10 FWHM_WORLD             FWHM assuming a gaussian core                              [deg]
#  11 ELONGATION             A_IMAGE/B_IMAGE                                           
#  12 ELLIPTICITY            1 - B_IMAGE/A_IMAGE                                       
         1 -11.2475     14.9381     36.0085   1.1004030259e+02   6.8879241647e+01     1.177563    0.6098689 -53.06   0.00145502    1.560    0.359
         2 -11.9601     50.6164     93.6032   1.0838797079e+02   5.1732102710e+01      2.73331     1.274477 -44.72     0.011528    2.498    0.600
         3 -11.9201     20.2822     56.0682   1.1249898013e+02   6.3798530302e+01     1.795343    0.7326499 -59.69  0.004985104    1.935    0.483
         4 -12.1373    118.0357     49.5800   7.3442640155e+01   4.8908582156e+01     1.476069     1.001269 -49.73  0.006731408    1.580    0.367
         5 -13.2587     15.5487    105.0356   1.2172909596e+02   5.2424745867e+01     2.464869    0.9921927 -58.76   0.01170547    2.272    0.560
         6 -13.2229     55.3078     67.4534   1.0057029976e+02   5.7309454686e+01     2.916317     1.574594  49.89   0.01310635    2.203    0.546
         7 -11.6972     57.4273      5.3410   7.2706799023e+01   6.9098266233e+01     2.852057     1.317854  34.03    0.0118991    2.608    0.617
         8 -13.2142     80.6603     54.5347   8.6862558434e+01   5.6014714891e+01     2.056919     1.897013  54.42   0.00700386    1.164    0.141
         9 -12.1647    101.9268     55.5977   8.0245819915e+01   5.1485141681e+01     1.547741     1.035971 -12.28  0.006454646    2.173    0.540
        10 -11.9995     37.0945     41.6040   1.0037906980e+02   6.5506845914e+01     1.487496    0.9479843 -13.46  0.007245293    2.246    0.555
        11 -12.5343     55.0822     36.5673   8.9993205448e+01   6.4111282373e+01    0.8989733     0.821606  75.39  0.004295066    1.332    0.250
        12 -11.6572     50.8530     24.6830   8.6531834932e+01   6.7094716291e+01    0.7880557    0.5547186 -17.18 0.0002544075    1.617    0.382
        13 -12.6571     71.4286     30.6185   8.0489499404e+01   6.2385498500e+01      2.38428     1.104268  47.69  0.009942333    2.310    0.567
        14 -11.5344     23.8743     28.6187   1.0253044254e+02   6.9766837572e+01     1.190957    0.3455581 -59.48  0.004426402    3.143    0.682
        15 -12.4410     30.2117     20.6175   9.5428915723e+01   7.0758280485e+01     1.672541    0.9021204 -50.14  0.008577779    1.624    0.384
        16 -12.1154    129.6704     20.3989   5.9173030504e+01   5.0275331082e+01     1.247101    0.9240105  33.08  0.004704015    1.442    0.307
        17 -12.7105     92.0320     24.9317   7.0611977262e+01   5.8980238600e+01     2.213989     1.055413 -19.09  0.008070051    2.817    0.645
        18 -12.3370     24.5607      6.3829   9.1259412121e+01   7.4158047349e+01    0.6418836    0.3639195 -42.12  0.001515269    1.510    0.338
        19 -11.8044    110.0822     31.2149   6.8244132037e+01   5.3785807671e+01     1.072237     0.720292  65.67  0.004951819    1.652    0.395
        20 -12.6392    113.9251     20.0143   6.2421563105e+01   5.4382572635e+01     2.243022     1.281189  13.41  0.008534322    2.682    0.627
        21 -13.1455     16.9471     10.2816   9.8626035545e+01   7.4244669674e+01     1.483427      1.07248  56.94  0.008659145    2.097    0.523
        22 -12.8589      2.8862     17.7511   1.1158253345e+02   7.3732588329e+01     0.408733    0.3387581 -37.40 0.0007612457    1.146    0.127
        23 -12.6798      3.8161      9.9973   1.0793935037e+02   7.5345246721e+01    0.6381348    0.2966045 -52.53  0.001520995    1.638    0.389
        24 -10.6076    133.8506     52.8414   7.0689168621e+01   4.4521583512e+01     1.672597     0.699262 -17.85  0.003977774    6.206    0.839
        25  -9.0769    159.9866     38.3197   6.0285910649e+01   4.0014083048e+01     1.163183    0.3169585 -36.20  0.002261462    3.206    0.688
        26 -11.4797     69.5200     19.0294   7.5523374440e+01   6.4706947093e+01     1.002031    0.6912963  28.14  0.004824133    1.597    0.374
        27 -10.5791    202.6451     26.1290   5.0503931138e+01   3.0519254912e+01    0.6422852    0.6087872  82.68  0.003847369    1.100    0.091
        28 -10.2243    204.1441     17.4209   4.7770434128e+01   3.1055841988e+01    0.7433099    0.3365011  30.41  0.002528442    3.886    0.743
        29 -11.3320    214.2246     26.8553   4.9524991194e+01   2.7619755921e+01     1.257305    0.7774808  19.45  0.005733586    2.220    0.550
        30 -10.5246    221.5008     11.8451   4.4688873245e+01   2.7396924329e+01     0.390191    0.3153478 -51.41  0.001056618    1.138    0.121
        31 -10.1130    226.2236      8.0502   4.3308251678e+01   2.6645351801e+01    0.4497836    0.2604457   1.69   0.00145828    2.257    0.557
        32 -10.5602    210.9299     17.3924   4.7132346058e+01   2.9391023426e+01    0.4253676      0.31767  62.26  0.001295971    1.412    0.292
        33 -10.2335    213.4366     11.9988   4.5373030863e+01   2.9307547555e+01    0.4894434    0.3037936  86.59  0.001800493    1.744    0.427
        34 -12.8982     99.9945      7.7537   6.0044551032e+01   5.9320699638e+01    0.8744853     0.610498  58.51   0.00440617    1.404    0.288
        35  -9.3753    250.0517      7.6757   4.1689107413e+01   2.1397564818e+01    0.3013582    0.1581856 -41.20  0.001594832    1.569    0.362
        36 -10.1465    248.7323      2.2866   4.0437940487e+01   2.2154252228e+01    0.2883308    0.1982595 -49.37  0.001008107    1.265    0.209
        37 -10.6002    246.5867     19.1032   4.4751786656e+01   2.1067904503e+01     0.506641    0.2755979  72.05  0.001772459    2.050    0.512
        38 -10.9032    236.5998     30.7142   4.8506027166e+01   2.2067344023e+01     0.870079    0.4443934  -8.90  0.003809301    2.379    0.580
        39 -10.3662    240.7886     21.6145   4.5812144198e+01   2.2073475045e+01    0.6936715     0.200268 -27.50  0.002542681    2.698    0.629
        40  -9.5390    239.1755     15.3962   4.4331887026e+01   2.3030111115e+01    0.2981458    0.1895824 -57.23 0.0005793782    1.548    0.354
        41  -9.9275    243.0539     12.8439   4.3414628220e+01   2.2422684166e+01    0.3465466    0.2743699 -25.00    0.0020718    1.162    0.139
        42  -9.9715    243.8409      5.0971   4.1411028754e+01   2.2957598721e+01    0.5736352    0.1852214 -20.20  0.002264154    2.919    0.657
        43 -11.4840    178.4185     28.3331   5.4104470766e+01   3.6442190067e+01     1.097568    0.4614541  48.99  0.004130662    2.493    0.599
        44 -10.4325    187.1541     20.8913   5.0616688118e+01   3.5002497146e+01     0.653019     0.488327   8.02  0.001885622    1.568    0.362
        45 -10.3056    176.8587     20.5804   5.1753872024e+01   3.7717332113e+01    0.5272925     0.395109 -70.14  0.002342942    1.439    0.305
        46  -9.3148    156.5763      5.8114   4.9147840292e+01   4.4604200796e+01    0.6291299     0.416813  67.71  0.003044282    1.454    0.312
        47 -10.8352    167.1510     24.9029   5.4522033175e+01   3.9797587829e+01    0.7447413    0.3757284  40.94  0.001394743    2.311    0.567
        48 -10.0395    167.2542     12.6005   5.0242341419e+01   4.1089584820e+01    0.6745687    0.4326122  69.32  0.003197922    1.533    0.348
        49 -10.4386    164.9426      4.9176   4.7821444178e+01   4.2434116040e+01    0.6559921    0.5074105  49.50  0.002772508    1.318    0.241
        50 -11.2118    159.1051     20.9477   5.4309496660e+01   4.2385729465e+01    0.8985197    0.6167241  -9.88  0.001986012    1.610    0.379
        51 -11.3095    149.6898     15.3994   5.3689854933e+01   4.5513457985e+01      1.05535    0.7886711   0.18  0.003150645    1.503    0.335
        52 -10.0178    174.1237      6.9538   4.7506276394e+01   3.9799727978e+01    0.7962587    0.3795156  -3.25  0.002994089    2.831    0.647
        53 -10.1623    181.7685      4.9818   4.6068262466e+01   3.7961646864e+01     0.549831    0.3607504  85.98  0.002005521    1.569    0.363
        54 -11.5697     11.3401     25.9744   1.0895570619e+02   7.1393826973e+01    0.6434057    0.2223711 -40.96  0.002694512    2.859    0.650
        55 -11.8851      5.1323     26.2410   1.1284316156e+02   7.1724800234e+01    0.4496344    0.2754577 -31.12  0.001116291    1.686    0.407
        56 -10.1077    231.6497     18.9211   4.5813116173e+01   2.4369980570e+01    0.7165394    0.4541932  -6.75  0.003664945    1.777    0.437
        57 -10.8896    233.0207     10.9778   4.3613460331e+01   2.4819466784e+01    0.2959893    0.2585326 -81.76 0.0003344576    1.190    0.160
        58  -9.5815    233.7004      7.3113   4.2606015070e+01   2.5002420246e+01    0.2350042    0.1889297 -55.88 0.0006155221    1.148    0.129
        59 -10.3431    199.2610     16.0918   4.7844814714e+01   3.2409151205e+01    0.3512493    0.2470107  57.04 0.0008414209    1.481    0.325
        60  -8.5212    199.4513     11.4927   4.6438738365e+01   3.2810008186e+01    0.2870563    0.2376109 -72.65 0.0005458537    1.205    0.170
        61 -10.8925    199.4599      4.6906   4.4388668988e+01   3.3434767881e+01     0.698599    0.3939895 -33.85  0.003360929    1.606    0.377
        62  -9.3051    178.1263     14.9042   4.9718758305e+01   3.7975883354e+01    0.6249762    0.1659254  72.61   0.00186315    4.026    0.752
        63 -12.3707     27.1504     79.3250   1.1421766504e+02   5.7646207611e+01     1.785314    0.9589289 -48.20  0.008978541    1.870    0.465
        64  -8.6812     83.6576     10.1282   6.5819923575e+01   6.2932844915e+01    0.3686225    0.1977398 -63.39  0.001209742    4.337    0.769
        65 -12.2706    111.7262      7.5890   5.7269988559e+01   5.6378650324e+01    0.9906485    0.4249066  72.79  0.003599678    2.782    0.641
        66  -9.9655     77.9701      9.3006   6.7209107874e+01   6.4314218590e+01    0.3168244     0.284292 -19.61  0.001237226    1.094    0.086
        67  -8.9655     77.6386      4.6405   6.4708891852e+01   6.4957305922e+01    0.3318822    0.1935536  26.46  0.001495816    2.006    0.501
        68  -8.7211    209.5497      7.5288   4.4406681361e+01   3.0670498280e+01    0.2418368    0.1802309 -35.62  0.000107686    1.223    0.182
        69 -11.0540    213.4377      4.6014   4.3272546800e+01   2.9987374399e+01    0.8469413    0.3419125  87.04  0.001797762    2.957    0.662
        70  -8.3928    139.1576      8.3575   5.2580323508e+01   4.9062105231e+01    0.2673208    0.2188275  87.11  0.001396364    1.271    0.213
        71 -10.7052    132.4876      4.5074   5.2059076204e+01   5.1216647901e+01    0.5421417    0.3485852  54.52  0.001769005    1.472    0.321
        72  -8.0171    189.2621      4.3349   4.5159395283e+01   3.6069082523e+01    0.1386091    0.1023228  29.73 0.0002924737    1.580    0.367
        73 -11.2491    138.6811      2.3612   5.0230883273e+01   4.9744468932e+01    0.4074817     0.301789   0.67 0.0004043993    1.485    0.326
        74  -9.1702    189.4811      8.2446   4.6370151312e+01   3.5658472072e+01    0.4454377    0.1713184  47.93   0.00163397    2.932    0.659
        75 -10.2171    107.2485    247.8943   1.1368409007e+02   1.4591189619e+01     0.354696    0.1805612  57.41  0.002226812    2.086    0.521
        76 -10.0989    236.0364    249.5641   9.2956944740e+01  -2.0305093958e+00    0.3666375    0.1173812  38.89  0.002070496    2.508    0.601
        77  -8.9598    184.0395    250.0278   1.0100049650e+02   4.4059975466e+00    0.1542152    0.1060871  48.91  0.001142447    1.717    0.418
        78  -8.7400    161.6062    250.1954   1.0467559410e+02   7.3050799659e+00    0.1200642   0.09202758 -13.88 0.0009529472    1.673    0.402
        79  -9.6280    151.7370    250.0912   1.0630506925e+02   8.6046309085e+00    0.2531713    0.1041048  43.36 0.0009839423    1.889    0.471
        80 -11.5854      5.4644    144.0025   1.2743356630e+02   4.4355495665e+01    0.7052577    0.3887047  82.34  0.001636027    1.520    0.342
        81  -9.5285     58.8513    247.2508   1.2200020132e+02   2.0386141851e+01    0.1806838   0.09444539  75.52  0.001226323    2.121    0.528
        82  -8.9831    217.5839    247.2425   9.5413263034e+01   4.0390862391e-01    0.1244742   0.07995255  -4.08 0.0005027674    1.607    0.378
        83 -10.9740      6.6515     56.0060   1.1873070973e+02   6.4721632150e+01     1.132127     0.633732 -86.84  0.006068564    1.713    0.416
        84  -8.6745     76.5015    246.9918   1.1894336666e+02   1.8430586221e+01    0.1357031   0.06646761  69.70 0.0008104069    2.546    0.607
        85  -8.7102     31.0288    246.9791   1.2670718934e+02   2.3314017152e+01    0.1192167   0.08083213  55.35 0.0005759949    1.029    0.028
        86 -12.1695     38.9799     85.7132   1.1097383413e+02   5.4954562909e+01     1.776213    0.8405976 -57.08  0.007069796    1.858    0.462
        87  -9.5562     91.4358    245.7160   1.1626165825e+02   1.6832745103e+01    0.1557817   0.09851662 -79.70  0.001132347    2.095    0.523
        88  -9.9447    142.1433    243.5820   1.0727074100e+02   1.0625107434e+01    0.2548023    0.1621063  29.89 0.0009887571    1.308    0.236
        89  -9.0465    124.9637    249.9743   1.1081806819e+02   1.2084225777e+01    0.1561238    0.1075933  18.57  0.001001062    1.693    0.409
        90  -8.2057      1.5418    241.9729   1.3145107105e+02   2.6758805182e+01    0.1033764   0.06680863 -59.47  0.000787609    2.400    0.583
        91 -11.6490     41.2433     50.3456   1.0135829781e+02   6.3054235766e+01    0.9232629    0.4418641  22.53  0.003993712    2.729    0.634
        92  -8.9593    211.2513    239.6456   9.5421449703e+01   1.8899061309e+00    0.1703486    0.1031602  -0.90  0.001179354    1.828    0.453
        93 -10.3318     14.6685    237.0186   1.2913746051e+02   2.6358935586e+01    0.2839184      0.15129  84.29 0.0006587552    1.776    0.437
        94  -9.3619     12.6542    232.0551   1.2933742962e+02   2.7312990884e+01    0.2602622    0.1136741  56.77  0.001805425    1.591    0.371
        95  -8.9156    127.8520    238.1120   1.0921464574e+02   1.3206312832e+01    0.1607521    0.1157446  49.70 0.0004774194    1.240    0.194
        96  -9.3231      3.2369    246.7536   1.3127500997e+02   2.5901557878e+01    0.1703014    0.1006196 -80.04  0.001403091    1.921    0.479
        97  -9.2757    193.0000    237.0059   9.7992710636e+01   4.5425018945e+00    0.1380803   0.05910105 -36.64 0.0008044033    2.956    0.662
        98  -8.8755     50.4613    235.4922   1.2284364967e+02   2.3036741603e+01    0.1034019   0.07239134  53.15 7.417906e-05    1.011    0.011
        99  -8.7499    180.6368    234.7186   9.9744214914e+01   6.4507405922e+00    0.1105256   0.06588638  18.74 0.0007015527    1.679    0.404
       100  -8.8883    226.9885    231.6550   9.1924707876e+01   6.0017786880e-01    0.1523149   0.09290794  26.92 0.0004842642    1.198    0.165
       101  -9.2732    135.7345    230.1663   1.0700450180e+02   1.3178605278e+01     0.203101   0.09530886 -48.35  0.001192108    2.800    0.643
       102  -8.9102    218.8000    230.6091   9.3043353597e+01   1.7555297119e+00    0.1466047   0.07895188  40.53 0.0009522241    1.700    0.412
       103  -9.4408    202.3251    229.0227   9.5445140505e+01   4.1033493559e+00    0.1838325    0.1182473  34.13 0.0003247749    1.231    0.188
       104  -8.6124     50.2587    227.4395   1.2244730324e+02   2.4310324045e+01    0.1470053   0.06822219  45.49 0.0005138024    1.528    0.346
       105  -8.9219     99.0155    224.0000   1.1313686108e+02   1.8988919482e+01    0.1884679    0.0490812  36.96 0.0008058936    2.966    0.663
       106  -9.8487     70.5595    142.5704   1.1041753222e+02   3.7856640541e+01    0.2579097    0.1899089  64.63 0.0007662614    1.298    0.229
       107  -9.9081     80.0949    141.3671   1.0776549632e+02   3.6771065481e+01    0.2196482    0.1944304 -79.55 0.0003861979    1.126    0.112
       108 -10.0198     72.8615    129.2437   1.0782497314e+02   4.0476200563e+01    0.2953248    0.2131443  79.18  0.001112316    1.479    0.324
       109  -9.8823     56.0295    136.9636   1.1352990170e+02   4.0977589100e+01    0.2839875    0.2372203  40.19  0.001792205    1.250    0.200
       110 -12.1882     54.1895    130.1704   1.1315227152e+02   4.2731284550e+01       2.0707    0.6028921 -48.60  0.006511359    5.164    0.806
       111 -11.0597     35.4502    109.4347   1.1593172882e+02   4.9638504210e+01     0.750701    0.4450924  31.26   0.00285976    1.816    0.449
       112 -10.7151     65.7498    130.8579   1.1003639095e+02   4.1096740037e+01     0.265646    0.2397539 -76.59 0.0001883944    1.118    0.106
       113 -11.6041     67.8671    121.8147   1.0802676574e+02   4.2857590309e+01     1.009348    0.4280063 -58.31  0.004358569    2.241    0.554
       114  -9.2693    236.5339    135.4988   7.3812530974e+01   9.4953593435e+00    0.2472684    0.1162301  45.67  0.001211044    2.168    0.539
       115 -11.9203     40.1093    126.1945   1.1663490201e+02   4.5244882201e+01    0.9163567    0.6285198  71.57  0.005340569    1.383    0.277
       116  -8.2472     79.5486    128.5254   1.0586847490e+02   3.9661255380e+01    0.1357427    0.1209418  74.95 0.0001425878    1.041    0.039
       117 -10.9472     30.3621    119.7163   1.1873078799e+02   4.7722045399e+01    0.4847991    0.4297108  50.60  0.001360618    1.200    0.167
       118  -8.7099     18.3032    125.2945   1.2276207382e+02   4.7502920671e+01    0.1674179    0.1505532 -20.53 0.0006881278    1.500    0.334
       119 -10.7834     19.1014    118.9673   1.2197751685e+02   4.8890116015e+01    0.5121149    0.2265624 -65.16  0.001682008    2.004    0.501
       120  -8.5079     80.9541    124.7837   1.0483557396e+02   4.0282314224e+01    0.1782217    0.1072151  37.48  0.000862837    1.663    0.399
       121  -9.8242     91.6607    121.0869   1.0118827294e+02   3.9404735354e+01    0.4066499    0.3613883  55.15  0.001617814    1.084    0.078
       122  -9.6538     92.4416    114.7648   9.9701224571e+01   4.0670960382e+01    0.4766195    0.2782468 -76.68  0.001395717    2.433    0.589
       123  -8.8968    132.0588    119.4782   9.0365812879e+01   3.2351246189e+01    0.2116766    0.1368845  43.86 0.0004468092    1.492    0.330
       124  -9.8339     98.2789    113.6343   9.7832825660e+01   3.9916204564e+01    0.4318029    0.2583278  40.27  0.001776264    1.665    0.399
       125  -8.3428    106.4774    119.5021   9.6860365783e+01   3.7193488832e+01    0.2079791    0.1334218 -42.06 0.0007474478    1.722    0.419
       126  -9.7254    104.7532    116.5846   9.6699282500e+01   3.8127189337e+01    0.3603693    0.2043963  48.42  0.001623727    1.756    0.431
       127  -9.4046    116.1966    116.9046   9.3751652323e+01   3.5946568466e+01     0.250294    0.2015441  37.04 0.0002900948    1.255    0.203
       128  -8.7465     23.3161    115.4380   1.2037915628e+02   4.9355849781e+01    0.2002086     0.118866  75.69 0.0004011434    1.618    0.382
       129  -9.3203     81.4851    114.8909   1.0285060211e+02   4.2424746535e+01    0.3002483    0.2092853  24.19  0.001502383    1.760    0.432
       130 -11.2220     42.6762    114.7432   1.1441713338e+02   4.7629139518e+01    0.7381926    0.5135863  13.58  0.004063634    1.928    0.481
       131  -9.7709    107.7119    109.6355   9.4350666210e+01   3.9074988471e+01     0.323335     0.234141 -25.63   0.00130102    1.824    0.452
       132  -8.6659    104.3611    109.1924   9.5165148728e+01   3.9790617033e+01     0.200949     0.167764  82.43 0.0005821476    1.331    0.249
       133  -9.9512    132.8287    110.9587   8.8183766038e+01   3.3874788479e+01    0.5365736    0.3044969  39.33  0.002337682    1.797    0.443
       134 -10.8595     68.9709    105.8545   1.0482195953e+02   4.6385862159e+01    0.8412644    0.4184208 -34.39  0.002974717    3.811    0.738
       135  -9.8445     74.9208    107.1504   1.0325788804e+02   4.5204853707e+01    0.3889022    0.3162401  14.36  0.001073662    1.556    0.357
       136  -9.4777     81.5072    102.4965   1.0027342226e+02   4.5241153238e+01    0.2365877    0.2296142 -57.51 0.0007549841    1.098    0.090
       137 -10.4731     77.0444    101.8542   1.0150007021e+02   4.6098173021e+01    0.4406419     0.303506  25.94  0.001381191    1.742    0.426
       138  -9.8944    149.3340    106.8105   8.3270855843e+01   3.1209129886e+01     0.500546    0.2400185 -35.72  0.001776143    2.239    0.553
       139  -9.4252    114.0283    106.9135   9.2008486990e+01   3.8450544473e+01    0.3160248    0.2095699 -42.77  0.001081726    1.569    0.362
       140 -10.0440    133.9344    103.0734   8.5950974881e+01   3.5196780279e+01    0.4136644    0.2160736 -38.91  0.001036595    2.009    0.502
       141  -8.1938     87.2810    105.3240   9.9167703580e+01   4.3649195418e+01    0.1378741    0.1105371 -24.46 0.0006996598    1.592    0.372
       142 -10.7532    142.1147    101.9568   8.3696704840e+01   3.3669969474e+01    0.5122697    0.3649143  21.21  0.000987214    1.782    0.439
       143  -9.5491    105.5059    102.9932   9.3385712791e+01   4.0915383607e+01    0.2704906    0.1903776 -43.88 0.0008576326    1.465    0.317
       144  -9.5534    171.0804    102.6141   7.7545975269e+01   2.7220044223e+01    0.3836482    0.2397866  27.20  0.001666992    1.983    0.496
       145  -9.2890     58.9111    101.7197   1.0719631829e+02   4.8747990612e+01    0.2363781    0.1972056  29.97 0.0007183048    1.349    0.259
       146  -9.3405     63.4221     98.6092   1.0512725064e+02   4.8869105521e+01    0.3105929    0.2897475  62.31  0.001897747    1.099    0.090
       147 -11.8658     47.8196    129.1266   1.1480379675e+02   4.3721797904e+01      1.40687    0.4938231 -54.42  0.005769304    2.945    0.660
       148 -10.7360      4.4852     98.7052   1.2471983660e+02   5.4666936753e+01    0.7185403     0.352622 -74.96  0.003874352    1.663    0.399
       149  -9.0551      1.3257     90.8062   1.2510441715e+02   5.6710459406e+01    0.1719298   0.08511925 -70.43            0    1.648    0.393
       150 -10.4572      4.8780     85.7408   1.2337964130e+02   5.7713644105e+01    0.5296454    0.4656427 -60.77  0.003735845    1.211    0.175
       151  -8.9188    115.2223    100.8198   9.0184372313e+01   3.9493740645e+01    0.2018625    0.1725447 -19.03 0.0006489509    1.363    0.266
       152  -8.9504     88.4997    100.5466   9.7720880523e+01   4.4519087673e+01     0.276805    0.1383197 -57.63 0.0006468745    2.023    0.506
       153  -9.5446     87.6650     97.2972   9.7204884708e+01   4.5393948423e+01    0.2260058     0.201436  84.52  0.000920641    1.148    0.129
       154  -9.8135     84.5363     97.4921   9.8206513771e+01   4.5881369063e+01    0.2784738    0.1397841  38.94 0.0005808179    2.050    0.512
       155  -9.2321    121.3841    100.3559   8.8431964609e+01   3.8347403906e+01    0.2940601    0.2015385  17.63  0.001265901    2.127    0.530
       156  -8.6996    110.9382    100.5062   9.1268307605e+01   4.0404287245e+01    0.2072056    0.1426438  43.50 0.0002989026    1.451    0.311
       157  -9.5305    160.4572     96.6853   7.8191975421e+01   3.0596350140e+01    0.3941668     0.287963  14.93  0.001448274    1.731    0.422
       158 -10.3863    156.1212     95.2260   7.8733616822e+01   3.1826395803e+01    0.6921509     0.475206  30.14  0.003187626    1.665    0.399
       159  -8.9129    132.5211     96.5664   8.4595523640e+01   3.6774018261e+01    0.3085021    0.1460133 -42.66  0.001199266    2.128    0.530
       160  -9.8392    140.4692     95.4215   8.2353921347e+01   3.5269845331e+01    0.3373273    0.2843073  44.77   0.00064325    1.177    0.150
       161  -9.0070    226.5804     95.5221   6.6247062854e+01   1.6431024804e+01    0.2476778    0.1331772  54.22 0.0006457184    2.039    0.510
       162  -8.5037    189.1479     94.8124   7.2082559544e+01   2.4484889698e+01    0.2035244    0.1638928   8.08 0.0006669027    1.339    0.253
       163 -10.8226    114.6329     94.7538   8.8768982486e+01   4.0879000089e+01    0.5665215    0.2882218  45.15  0.002323353    1.967    0.492
       164 -10.1383    124.2872     82.2491   8.2666636078e+01   4.1381350120e+01    0.5483608    0.3216641 -54.29   0.00204592    1.945    0.486
       165 -11.2506    123.1151     92.4811   8.5887730365e+01   3.9590514339e+01    0.6870288    0.3970847  58.32  0.002843991    2.035    0.509
       166 -11.3199    120.1860     86.6780   8.5040282587e+01   4.1384248818e+01    0.8169147    0.3697896  55.84  0.002827617    2.692    0.629
       167 -10.2038     73.4902     89.3246   9.9764381679e+01   4.9548084037e+01    0.7711628    0.2702417  36.40  0.002783821    3.030    0.670
       168 -12.2985     81.7635     75.4266   9.3299594420e+01   5.1329041961e+01    0.4815332     0.432936 -80.53 0.0001670337    1.161    0.138
       169 -11.5020     89.0437     89.6136   9.4863212232e+01   4.6877474316e+01     0.906244    0.6633562  65.35  0.004465156    1.598    0.374
       170 -11.8471     25.5465     67.3428   1.1260336155e+02   6.0672072553e+01    0.3477286    0.2167062 -68.18  0.001897832    1.371    0.271
       171  -9.2607     82.5255     89.9799   9.7003581499e+01   4.7925309101e+01    0.3794042    0.2838046  79.83 0.0007529325    1.652    0.395
       172  -8.1214    194.6612     90.2842   6.9929855499e+01   2.3948447032e+01    0.1406346    0.1123265 -68.66 0.0002576388    1.630    0.387
       173  -8.4774    213.0010     89.4908   6.6758690727e+01   2.0058740414e+01    0.1962003    0.1044093  31.61 0.0008080863    2.381    0.580
       174  -8.1772    187.4368     89.5069   7.0987569433e+01   2.5685900105e+01    0.1441277    0.1359345 -11.68  0.000130364    1.015    0.014
       175 -10.6188    131.9238     62.4378   7.4456793930e+01   4.3346496494e+01    0.7456726    0.4467163  76.70  0.001291649    2.725    0.633
       176 -10.1114    150.4878     59.4344   6.9244493496e+01   3.9316475630e+01    0.5366268    0.3069576  63.62   0.00220247    1.940    0.484
       177 -10.8415    150.5970     66.6229   7.1542191598e+01   3.8106163965e+01    0.6140509    0.4527806 -37.14  0.002490813    1.333    0.250
       178  -8.9919    132.0089     67.2159   7.6016941410e+01   4.2471167447e+01     0.277104    0.2324167  30.69  0.001009334    1.276    0.216
       179 -10.8322    144.7289     86.8636   7.8970671403e+01   3.5919234405e+01    0.6463096    0.5758517  22.23   0.00292298    1.183    0.155
       180 -12.1639    146.3115     75.3165   7.5195710375e+01   3.7638003489e+01    0.9022442    0.5578421  55.84  0.003945044    1.675    0.403
       181 -11.0179    140.7734     68.7076   7.4401767286e+01   4.0122612997e+01    0.9306945    0.5264372  53.83  0.003440485    1.793    0.442
       182 -11.1867    106.6509     88.4347   8.9287440988e+01   4.3811725871e+01    0.9468232    0.4656431 -31.46   0.00327463    3.125    0.680
       183  -8.9915    101.2881     88.1561   9.0769747487e+01   4.4923662182e+01    0.2297091    0.1930998  34.72 0.0001852593    1.262    0.208
       184  -8.5044    153.5178     87.5315   7.7176790605e+01   3.3787986578e+01    0.1481477    0.1451557   3.79 -2.643447e-05    1.001    0.001
       185  -8.8612    132.3748     86.7315   8.1904793033e+01   3.8722179464e+01    0.2040913    0.1422615 -31.38  0.000642125    1.534    0.348
       186  -9.0894    224.7079     84.9254   6.3897317894e+01   1.8198843425e+01    0.2134778    0.1773136  30.80 0.0001615935    1.250    0.200
       187 -10.8471    161.3393     81.8863   7.3892263633e+01   3.2951592192e+01    0.4566507    0.3448497  41.73 0.0005439185    1.346    0.257
       188  -8.9503     75.7915     84.0519   9.7678872476e+01   5.0393584306e+01    0.2793892    0.1805636  43.96 0.0009640328    1.610    0.379
       189  -9.2012    173.0254     82.9906   7.1872106370e+01   3.0029250635e+01    0.2228602    0.2108393 -16.90 0.0004770589    1.026    0.025
       190 -10.9241    133.6498     80.3944   7.9730768305e+01   3.9647881740e+01    0.5606775     0.500284 -77.62   0.00191656    1.256    0.204
       191  -9.2731    112.0088     58.1498   7.8208470255e+01   4.8769465784e+01    0.3192317    0.2142833 -18.72  0.001020151    1.882    0.469
       192 -10.2778    101.4924     69.3648   8.5106334763e+01   4.8846232512e+01    0.5714011    0.5264762  39.93  0.003134754    1.120    0.107
       193 -11.2812    125.2131     72.8351   7.9544570023e+01   4.2999950643e+01    0.8085417    0.6426166  -7.16  0.003901207    1.543    0.352
       194 -11.4869    115.6303     70.1520   8.1258195029e+01   4.5664812938e+01    0.8705915     0.766408   9.59  0.004171263    1.281    0.220
       195 -11.3877    110.7843     65.4946   8.1088721765e+01   4.7640704732e+01    0.8892881    0.6139252  -4.76  0.003701869    2.264    0.558
       196 -11.4982    104.1560     79.9491   8.7585746958e+01   4.6104294887e+01    0.8137335    0.6114636   8.20  0.002144175    1.885    0.469
       197 -11.5685     99.5754     76.9874   8.8072042276e+01   4.7646627469e+01      1.33106    0.5760466  42.87  0.004856129    2.392    0.582
       198 -11.0390    118.2048     64.5386   7.8699893899e+01   4.6165832357e+01    0.6886231    0.4468193  44.92  0.002339414    1.573    0.364
       199  -9.6325    125.7027     64.8410   7.6821019582e+01   4.4382783593e+01     0.437429    0.3077123  24.73  0.000863407    1.804    0.446
       200 -10.0144    216.0164     78.0338   6.3360641501e+01   2.0962819194e+01    0.5367777    0.2657088 -47.99  0.001661713    2.406    0.584
       201  -8.9940      5.8288     77.8396   1.2216315943e+02   5.9546075536e+01    0.2784572    0.1786444  68.25  0.001629158    1.563    0.360
       202 -10.4513      3.7703     73.4271   1.2243975611e+02   6.0714475661e+01    0.5129274    0.2408559 -45.43   0.00161917    2.251    0.556
       203  -9.3089    204.0969     75.9454   6.4567672480e+01   2.3900292059e+01    0.3878674    0.2056782  35.75  0.001200209    2.299    0.565
       204  -8.4932    248.2901     76.6291   5.8859986752e+01   1.4464069308e+01    0.1352512   0.08672561 -47.81 0.0003782282    1.718    0.418
       205  -9.7599    163.9316     75.3820   7.1459765263e+01   3.3423896581e+01    0.3251838    0.2480015 -79.23  0.001039202    1.753    0.430
       206  -8.1445     14.7138     76.3428   1.1853845438e+02   5.9345889218e+01    0.1293879   0.08268067  71.28 0.0007019399    1.643    0.391
       207  -9.9019    190.4398     76.9050   6.7023483240e+01   2.6902872803e+01    0.6139085    0.2929797  32.41  0.002035304    3.174    0.685
       208  -9.9111    177.7137     69.9337   6.7234611399e+01   3.0969098891e+01    0.6141595    0.4624098  21.42  0.001995595    1.549    0.354
       209 -10.4469    148.7868     35.4247   6.1275760880e+01   4.3331071183e+01     1.325586    0.7081485  64.68  0.005430986    1.926    0.481
       210 -10.6233    143.5850     58.1818   7.0314870690e+01   4.1233497435e+01     0.282424    0.2643319 -24.90 0.0002908485    1.060    0.057
       211  -8.3597    112.4787    225.5102   1.1077049640e+02   1.6984159911e+01    0.1125119   0.08353721  46.39 0.0003347495    1.065    0.061
       212 -10.9538    152.8345     43.4424   6.3358518230e+01   4.1162339878e+01    0.6687509    0.4531927  71.09  0.001899363    1.622    0.383
       213  -8.6329     40.6856    221.6706   1.2390452828e+02   2.6259439178e+01   0.08518928   0.08013524 -14.27 0.0004962705    1.675    0.403
       214 -10.2735    164.7418     68.0096   6.9078612225e+01   3.4421910470e+01    0.9428303    0.4668296  73.92  0.003025922    3.635    0.725
       215 -10.3935    165.7461     62.2081   6.7092279522e+01   3.5084654746e+01     0.735789    0.3630295 -39.12  0.002928145    1.961    0.490
       216 -10.9373    162.8004     52.0590   6.4397861087e+01   3.7355835179e+01     1.192478    0.7182833 -81.22  0.004358662    2.835    0.647
       217 -10.6828    154.3168     49.9519   6.5305499922e+01   3.9828277642e+01     0.704055    0.4684267  -7.42  0.003031352    1.892    0.472
       218 -10.7495    140.7724     52.0700   6.8845256848e+01   4.2926532620e+01    0.4990884    0.4515351  80.41  0.001510777    1.188    0.158
       219 -11.3366    147.2152     53.7612   6.8038165409e+01   4.1041031879e+01    0.5799714    0.3622487  51.61 0.0002254896    1.594    0.373
       220 -10.9436    145.0163     49.0262   6.6870331596e+01   4.2334938597e+01    0.4562528     0.381738  52.64            0    1.199    0.166
       221 -10.7778    141.6546     45.0940   6.6188573384e+01   4.3789861207e+01    0.3348106    0.2643239  55.93 0.0003466252    1.269    0.212
       222 -11.2826    137.2565     41.9646   6.5993441688e+01   4.5381911154e+01     1.296316    0.3370204  60.86  0.003559687    4.221    0.763
       223  -9.5912     84.7271     67.7560   8.9957250340e+01   5.2471370049e+01    0.2989047    0.2927588  81.56 0.0009587098    1.059    0.056
       224  -8.2383     93.5965     65.7602   8.6389880767e+01   5.1189584258e+01    0.1477042    0.1143476  11.82 0.0004441752    1.682    0.406
       225  -8.3719     33.6533    219.6486   1.2511082826e+02   2.7314012258e+01   0.08757789   0.07876717 -26.23 0.0003727545    1.820    0.451
       226  -8.8249      5.5551     63.1414   1.2034537416e+02   6.3079184143e+01     0.158469    0.1282127  81.75 0.0004754773    1.196    0.164
       227  -8.2846    207.2603     61.6223   6.0174730587e+01   2.5115258033e+01    0.1501512   0.09840047 -50.97 0.0004046019    1.666    0.400
       228  -9.4525    179.5873     44.7750   5.9225098389e+01   3.4098125456e+01    0.3923986    0.2378173  24.86  0.001327766    2.272    0.560
       229 -10.2596    196.9669     49.5549   5.8150286193e+01   2.9140380899e+01    0.8403333     0.415391  71.38  0.002797839    2.423    0.587
       230 -10.9127    174.7650     55.9737   6.3522818547e+01   3.3767233132e+01     1.012855    0.5842392   8.67  0.002869371    3.075    0.675
       231 -10.2918    173.0398     47.9802   6.1288371148e+01   3.5331296533e+01    0.5361636    0.3833453  82.30  0.002511025    1.654    0.395
       232 -10.5100    197.6885     54.7598   5.9571803937e+01   2.8287118135e+01    0.3442419    0.2626418  58.59 0.0002745882    1.373    0.272
       233 -10.2771    193.0511     53.7202   5.9938054364e+01   2.9551142317e+01    0.5201106    0.3203405 -49.96  0.001585302    1.752    0.429
       234 -10.9994    185.0426     55.7084   6.1751631317e+01   3.1248750857e+01    0.6173819    0.4553914 -12.80 0.0003717659    1.449    0.310
       235 -11.0414    183.3058     51.8526   6.0851544630e+01   3.2210435663e+01    0.6548359    0.3301307  46.63  0.002141485    2.100    0.524
       236  -9.0408    212.0131     59.6731   5.8990305390e+01   2.4269074665e+01    0.2518832    0.1876769   7.63 0.0007437594    1.546    0.353
       237  -9.2885    201.2876     59.8253   6.0512758871e+01   2.6754586693e+01    0.2841253    0.2231859  47.42 0.0009626054    1.334    0.250
       238  -8.7960    250.4880     58.9599   5.4333480482e+01   1.6061746187e+01    0.2057831    0.1095592 -26.94  0.001027146    1.580    0.367
       239  -8.7671    137.4761     59.2346   7.2053251140e+01   4.2559715159e+01     0.275347    0.1746039  42.78 0.0006364849    1.649    0.393
       240  -8.4276    158.8545     58.6923   6.7303742606e+01   3.7346550919e+01    0.3079968    0.1207194  50.97  0.001079202    2.495    0.599
       241  -9.5443    243.8123     55.2082   5.4088048246e+01   1.7843247034e+01    0.3895161    0.1859892 -35.48  0.001519166    1.774    0.436
       242  -9.6936    222.5409     56.3189   5.6748295341e+01   2.2297761205e+01    0.3428337    0.2776445 -83.31  0.001147872    1.477    0.323
       243  -9.7037    233.5952     55.3563   5.5218100360e+01   1.9984056682e+01    0.2689632    0.2516514  68.67 0.0007496653    1.212    0.175
       244 -10.1108    211.4982     50.0119   5.6373279378e+01   2.5603169894e+01    0.4270486    0.2715935 -15.88  0.002046106    1.621    0.383
       245 -11.0803    207.1013     45.3434   5.5597304391e+01   2.7216715339e+01    0.5639579    0.4005869 -66.54 0.0007371304    1.646    0.392
       246  -8.9292     65.9923     50.9535   9.1056255872e+01   5.9364786713e+01    0.2020085    0.1855161 -32.67            0    1.055    0.052
       247 -10.2589    224.5110     47.8863   5.4256288992e+01   2.2863476257e+01    0.3390412    0.2285932 -34.45 0.0006032253    1.320    0.243
       248  -8.7102    220.4678     46.9804   5.4466158050e+01   2.3888878253e+01      0.27485    0.2037347 -19.32  0.000332465    1.286    0.222
       249  -9.6839    219.9349     42.7186   5.3358743165e+01   2.4509570099e+01    0.2816121    0.2086116 -11.54 0.0007718566    1.382    0.276
       250 -12.5581     11.4085    128.2498   1.2491748467e+02   4.7377775512e+01    0.8166627     0.743584 -78.36  0.006035937    1.235    0.191
       251  -9.4393    129.6989     46.3047   6.9306879927e+01   4.6613304630e+01    0.5769482    0.3452481 -78.61  0.001959437    3.373    0.704
       252  -9.5887    130.4748     41.0400   6.7159225188e+01   4.7241451185e+01    0.4578447    0.2332598 -28.36  0.001807388    2.004    0.501
       253  -8.4414    248.7651     45.0107   5.1058693756e+01   1.7950879949e+01    0.1769622   0.09430213 -25.55 0.0006416796    1.604    0.376
       254  -8.8538      3.3521    214.4682   1.3049517479e+02   3.0988245877e+01    0.1959686   0.05543122  77.12 0.0009487199    3.534    0.717
       255  -9.6449     26.8185    212.1215   1.2605144984e+02   2.9257615373e+01     0.173975    0.1040414  59.08  0.001250276    1.248    0.199
       256  -9.5102    213.8885     42.3735   5.3943842494e+01   2.5959889443e+01    0.3950097    0.2312343   3.86  0.001665437    2.416    0.586
       257 -11.0020    218.9158     34.4840   5.1192949084e+01   2.5679676216e+01    0.6398973    0.3666671  55.27  0.001557316    1.854    0.461
       258 -10.5210    227.2901     29.2573   4.8949201421e+01   2.4308429757e+01    0.6360775    0.3196585 -47.22  0.002924301    1.919    0.479
       259  -8.9470     13.5521    212.4806   1.2855874772e+02   3.0437279457e+01    0.1037325   0.07153728  59.57 0.0001054789    1.023    0.022
       260  -9.6047    191.1875     40.3011   5.6164306252e+01   3.1738938510e+01    0.4949133     0.272627  -8.95  0.001481444    2.302    0.566
       261 -10.3558    193.2175     32.5771   5.3537252748e+01   3.2154274013e+01    0.4469715    0.3395519   2.15  0.002269268    1.504    0.335
       262  -9.9065    244.4783    204.3652   8.5233757465e+01   8.2450542743e-01    0.2121701    0.1162321  16.59 0.0007369797    1.647    0.393
       263  -9.6749     17.8828    202.2591   1.2735239330e+02   3.1823613506e+01    0.2021221    0.1722363  38.75  0.001117171    1.387    0.279
       264  -9.0708    234.0232    199.9778   8.6120656280e+01   2.6764754836e+00    0.1915932    0.1294877 -14.74  0.001337944    1.423    0.297
       265  -8.3334    169.5137    200.5464   9.7130976180e+01   1.2191123314e+01    0.1187685   0.09542494  31.79 5.546356e-05    1.038    0.036
       266  -9.3058    165.7965     41.9611   6.0529378480e+01   3.8014246413e+01       0.4337    0.3244491   7.65  0.002007226    1.603    0.376
       267  -9.0229     27.6661    193.5497   1.2499514058e+02   3.2474848917e+01    0.1811918   0.08873998 -82.16  0.001095623    2.002    0.501
       268  -8.9988    235.7545     39.5171   5.0877766472e+01   2.1311528960e+01    0.2521055    0.1666448 -27.16  0.001063395    1.326    0.246
       269 -10.4086    180.7621     37.9267   5.6876194668e+01   3.4679146444e+01    0.5402687    0.3771293 -37.40  0.002171436    1.367    0.269
       270  -9.4307    174.4805     38.8486   5.8106233924e+01   3.6178806968e+01    0.3762464    0.2177828  46.85  0.001626401    1.812    0.448
       271  -8.0364    228.7123     38.2835   5.1237694910e+01   2.3009965899e+01    0.1368359   0.09112509 -52.53 0.0002566948    1.527    0.345
       272  -8.8245    202.6163     38.2011   5.4074822828e+01   2.9159465736e+01    0.2663834    0.1545448  54.75 0.0008496303    1.782    0.439
       273  -9.5300    198.0518     37.3623   5.4386063929e+01   3.0383147769e+01      0.22729    0.1950873   2.12 0.0006022031    1.253    0.202
       274  -8.8944    124.4045     35.5382   6.6441485207e+01   4.9597074939e+01    0.3692485    0.2701203  31.83  0.001741045    1.511    0.338
       275  -7.9613    227.2809    192.3027   8.5923783306e+01   4.4315177634e+00    0.1151806    0.0710685  11.02 0.0003761188    1.550    0.355
       276 -10.1030    246.7293     33.2915   4.8306133971e+01   1.9616912975e+01    0.4851087    0.2598361  60.43  0.001724224    2.066    0.516
       277  -9.3956     11.2352    192.2838   1.2827740160e+02   3.4224431920e+01    0.2103403    0.1334006  33.49   0.00149056    1.574    0.365
       278  -8.9311    215.8524    189.1742   8.7250536034e+01   6.4738647657e+00    0.1676958     0.114563  12.42 0.0006582065    1.325    0.245
       279  -9.9903      6.1299    182.2790   1.2894877516e+02   3.6531772361e+01    0.2275026    0.1295376  89.44 0.0004711895    1.544    0.352
       280 -10.0000      1.8451    187.0585   1.2999320472e+02   3.5978324480e+01    0.4613875    0.1030528 -74.19  0.002091424    3.974    0.748
       281 -10.4104      1.6557    177.8299   1.2973045772e+02   3.7744035725e+01    0.3640317    0.1191224 -85.30  0.001859637    2.747    0.636
       282  -9.5523    245.0261    187.4242   8.2368610750e+01   2.3926034739e+00    0.1852509    0.1404059 -13.62 0.0005246899    1.287    0.223
       283  -9.9133     11.5289    184.8316   1.2792290038e+02   3.5591788005e+01    0.2302565    0.1543214 -62.75  0.001418032    1.824    0.452
       284 -10.8671    134.8811     33.9018   6.3468525808e+01   4.7158801695e+01    0.2970579    0.2684085  41.27 0.0003958043    1.111    0.100
       285 -10.5363    138.9662     31.9571   6.1886500991e+01   4.6365286719e+01    0.2703747    0.2458802 -49.78  0.001442897    1.126    0.112
       286  -8.3549    130.3622     34.7435   6.4769715512e+01   4.8201083280e+01    0.1525218    0.1159989 -73.90 0.0006968279    1.625    0.385
       287  -8.9856     32.3514    184.5223   1.2350863040e+02   3.3705628710e+01    0.1807657   0.09310295 -79.79  0.001079036    1.901    0.474
       288  -8.5806     18.1911    182.4040   1.2641430097e+02   3.5465856648e+01    0.1560273   0.07306543  45.42 0.0006455631    1.658    0.397
       289  -8.8938     36.7924    179.3199   1.2221335655e+02   3.4256050253e+01    0.1881932    0.1058119  52.23 0.0007388432    1.435    0.303
       290  -9.1792    152.1641     27.0181   5.7612099951e+01   4.3523137191e+01    0.3984031    0.2738137  20.37 0.0002418846    1.791    0.442
       291  -8.9726     79.9704    176.4753   1.1232134384e+02   2.9634755644e+01    0.2105525    0.1662637 -50.13    0.0010913    1.566    0.362
       292  -8.7134    194.1707    175.7836   8.8684311936e+01   1.1553352763e+01     0.172316    0.1507054  28.77 0.0005583053    1.160    0.138
       293  -9.7494    147.3878     23.9048   5.7272185788e+01   4.5168537269e+01    0.5515863    0.4590303  45.08   0.00233027    1.213    0.175
       294  -9.3592      7.4335    174.4697   1.2836973493e+02   3.7934004284e+01    0.1900414     0.145772  86.25 0.0006787733    1.199    0.166
       295  -8.6700    246.4640    170.9782   7.9259011760e+01   3.8762879974e+00    0.1455401   0.09056152 -44.32 0.0007048972    2.548    0.608
       296  -9.9457     18.5162    165.3577   1.2545756008e+02   3.8810073853e+01    0.3252756    0.1719165  49.02  0.001945254    1.546    0.353
       297  -9.5409     15.0486    160.4683   1.2599058402e+02   4.0115922481e+01    0.2020303    0.1606381  79.21 0.0007014851    1.085    0.078
       298 -10.2957     18.7916    158.9981   1.2502437042e+02   4.0095628211e+01    0.2500029    0.1566292  27.71  0.001037758    1.767    0.434
       299 -10.2176     11.6606    164.8888   1.2700251048e+02   3.9496482713e+01    0.3136163    0.1271089  40.91  0.001755898    1.995    0.499
       300  -8.7198    198.7170     32.0173   5.2703659021e+01   3.0840618593e+01    0.2081161    0.1724615 -29.57 0.0006283651    1.140    0.123
       301 -10.3219      3.1361    160.9272   1.2877261805e+02   4.0983626901e+01    0.3969073     0.204692 -70.02  0.002424648    1.919    0.479
       302  -9.0215      1.5177    156.9780   1.2898437974e+02   4.1915126230e+01     0.173878    0.1191716 -70.71  0.001199746    1.523    0.343
       303  -9.7658    248.8934     25.7869   4.6255995154e+01   1.9923899072e+01    0.3172455    0.2355169  33.75  0.001862564    1.642    0.391
       304  -8.0252    140.3466     23.3203   5.8299228596e+01   4.7107882349e+01    0.1620985      0.10757  31.32 0.0007049284    1.733    0.423
       305  -9.3157      9.2884    158.5908   1.2724200315e+02   4.0981999626e+01    0.2198136    0.1264004 -50.10 0.0009230823    2.379    0.580
       306 -10.3235     24.4737    153.3624   1.2328734234e+02   4.0767815763e+01    0.3577997    0.1443939 -52.31  0.001550358    3.296    0.697
       307  -8.6755     85.0103    154.4777   1.0841730043e+02   3.3294740541e+01    0.1997189    0.1181508  36.90  0.001034025    1.609    0.379
       308  -9.0482      7.8249    151.7207   1.2724741955e+02   4.2532714027e+01    0.1843245    0.1309924 -77.37 0.0006762951    1.354    0.261
       309  -8.7912     23.3994    132.8085   1.2197890567e+02   4.5365029852e+01    0.1844482    0.1043925 -79.66 0.0006209826    1.560    0.359
       310  -9.2720     15.2570    141.6331   1.2480440435e+02   4.4103826764e+01    0.3584434    0.1566873  87.69  0.001806796    2.140    0.533
       311  -8.6245     86.5350     16.1826   6.8066915207e+01   6.1485908594e+01     0.272183    0.1897226  60.47  0.001086051    1.554    0.357
       312  -9.7628     30.8961    134.6264   1.2009776009e+02   4.4261208722e+01    0.2997151      0.20464 -26.11  0.001538835    2.346    0.574
       313 -11.5753     57.9914     48.4768   9.3407934201e+01   6.1173067481e+01    0.8717244    0.6739904  81.64  0.004529881    1.794    0.442
       314  -9.3903     16.8209    153.8529   1.2518705403e+02   4.1346137548e+01    0.1985404    0.1380065  83.07 0.0006186652    1.203    0.169
       315 -10.4301     12.8217    150.9939   1.2599282545e+02   4.2287237705e+01    0.4551877    0.2537808 -67.30  0.002747156    1.784    0.439
       316 -11.7523     20.8888    146.9424   1.2372950551e+02   4.2468712601e+01    0.5284771     0.427052  71.41  0.003335234    1.024    0.023
       317 -10.3869     21.9602    137.6507   1.2276213630e+02   4.4410228788e+01    0.5699956    0.3387406  11.15   0.00311355    2.462    0.594
       318 -10.7486     30.4087    142.5296   1.2094033544e+02   4.2550352300e+01    0.4902339    0.4200551  -3.46  0.003234148    1.646    0.392
       319 -10.2332     46.1779    144.5488   1.1702129784e+02   4.0457051932e+01    0.4456733    0.3094967 -20.45  0.002374706    2.497    0.599
       320 -10.1705     34.5175    150.9882   1.2061130489e+02   4.0302876719e+01    0.2496723    0.1880617  41.08  0.001118219    1.314    0.239
       321 -10.0854     30.7725    151.2005   1.2156579826e+02   4.0630272419e+01    0.2708319     0.164201 -63.04  0.001606358    1.716    0.417
       322 -11.2185     39.4811    146.7369   1.1897155991e+02   4.0709106180e+01     0.470266     0.406975 -66.13  0.003227331    1.300    0.231
       323  -9.8078     37.5064    143.5015   1.1917642893e+02   4.1624313984e+01    0.2544402    0.2373731  41.47  0.001248585    1.270    0.213
       324  -9.7364     66.5667    148.7555   1.1225832857e+02   3.7057134931e+01    0.3305812    0.2219662  47.15  0.001897497    1.349    0.259
