#   1 NUMBER                 Running object number                                     
#   2 MAG_AUTO               Kron-like elliptical aperture magnitude                    [mag]
#   3 X_IMAGE                Object position along x                                    [pixel]
#   4 Y_IMAGE                Object position along y                                    [pixel]
#   5 X_WORLD                Barycenter position along world x axis                     [deg]
#   6 Y_WORLD                Barycenter position along world y axis                     [deg]
#   7 A_WORLD                Profile RMS along major axis (world units)                 [deg]
#   8 B_WORLD                Profile RMS along minor axis (world units)                 [deg]
#   9 THETA_WORLD            Position angle (CCW/world-x)                               [deg]
#  10 FWHM_WORLD             FWHM assuming a gaussian core                              [deg]
#  11 ELONGATION             A_IMAGE/B_IMAGE                                           
#  12 ELLIPTICITY            1 - B_IMAGE/A_IMAGE                                       
         1 -10.2623     41.1722     13.7352   3.1543159183e+01   7.2524446041e+01    0.2665583     0.203126  25.15 0.0001897657    1.248    0.198
         2  -9.4235     97.8421     11.6636   8.4461685354e+00   5.9559925492e+01    0.2350274    0.1936923  15.78 0.0007001118    1.392    0.281
         3  -9.3576      3.2053     11.9897   6.1942480517e+01   7.7689397257e+01    0.1750031    0.1678408  86.20  0.001214318    1.319    0.242
         4  -8.7520     31.4744     11.2189   3.6302894809e+01   7.4606309665e+01    0.2150107    0.1742843  77.99 0.0009844162    2.087    0.521
         5  -8.2814     65.1551      4.8489   1.4183193921e+01   6.8510567292e+01    0.1876537    0.1417346  33.73 0.0002485435    1.275    0.216
         6  -8.6710     52.3383      2.8798   1.8112513022e+01   7.1665565404e+01    0.1783889    0.1200205  -4.97 -0.000275831    1.690    0.408
         7  -9.3267      2.5613      3.0416   5.7635975028e+01   7.9551874211e+01    0.1863454    0.1437599  -0.58 0.0006748146    1.209    0.173
         8  -9.3137     67.5092      1.3703   1.1218879760e+01   6.8279060124e+01    0.2485013    0.1171872  61.78 -5.963988e-05    1.886    0.470
         9 -10.6973    240.3010    242.3143   3.8218647598e+01  -4.5138911517e+00    0.3240695    0.1294731  15.58  0.001720598    2.743    0.635
        10 -10.7840    247.1390    248.2452   3.8004473611e+01  -5.7674455639e+00    0.2646022    0.1754422  11.44 0.0008863158    1.169    0.144
        11 -10.4017    213.0883    249.9294   4.3682132877e+01  -2.5016464986e+00    0.3908789     0.114616  33.74  0.001931934    2.934    0.659
        12 -11.6871    166.4944    248.1190   5.1837738968e+01   3.0685635984e+00     0.910435    0.3381949  38.43   0.00451115    2.437    0.590
        13 -10.9738    173.7965    244.8699   5.0039130342e+01   2.5997035220e+00    0.5383111    0.3568254 -43.64  0.003602216    1.987    0.497
        14 -11.8382    167.1391    242.1542   5.0962343619e+01   3.7735618550e+00     0.737661    0.3023216  33.20   0.00332409    1.933    0.483
        15 -10.3142    169.5548    224.8347   4.8159216132e+01   5.8580062154e+00    0.3938959    0.2574428  46.05  0.001840872    1.910    0.476
        16 -11.3668    169.4084    233.5887   4.9396171524e+01   4.6474981656e+00    0.6190078    0.4159266  31.45  0.003225145    1.296    0.228
        17 -10.8973    162.0303    231.1803   5.0527506362e+01   5.9410814416e+00     0.491645    0.2428406  21.33   0.00197483    1.896    0.472
        18 -11.4334    162.3262    225.7744   4.9732979256e+01   6.6845816905e+00    0.5771621    0.3231891  22.27  0.002619519    1.556    0.357
        19 -11.0503     53.9555    248.8988   7.5171431155e+01   1.6652140135e+01    0.4903994    0.2926855  12.82  0.002041527    2.118    0.528
        20  -9.5493     39.0043    249.9833   7.8363399401e+01   1.8056220447e+01    0.2643299   0.08583678  52.03  0.001043193    2.445    0.591
        21 -10.8107     26.6055    247.6004   8.0839261869e+01   1.9716968808e+01    0.3461777    0.2098061 -87.71  0.002309807    1.853    0.460
        22  -9.9993     12.8401    244.1639   8.3567679710e+01   2.1624208986e+01    0.2545215    0.1738165  41.17 0.0008026424    1.117    0.104
        23 -11.6802     19.2808    247.7823   8.2352713790e+01   2.0386272891e+01    0.7078876    0.3128381  48.48  0.004251872    1.576    0.366
        24 -10.2226     12.9644    250.0578   8.3698789574e+01   2.0570862644e+01    0.3333198    0.1514646  43.15  0.002065289    1.463    0.317
        25 -10.1826      4.8566    249.0480   8.5296679372e+01   2.1467598188e+01     0.348138    0.1864611  38.64  0.001678461    1.323    0.244
        26 -11.5615    236.8942    239.9400   3.8412166449e+01  -3.9265028053e+00    0.4310641    0.2145661   4.27  0.001857603    2.013    0.503
        27 -11.0031     98.0379    241.6086   6.5159849983e+01   1.2671011819e+01    0.3906687    0.2441138  25.74  0.001041746    1.352    0.260
        28 -10.0742    250.4847    241.5175   3.6552969316e+01  -5.4276299464e+00    0.1993776    0.1426981   1.58 0.0008317512    1.153    0.133
        29 -10.4163    249.5043    237.5086   3.6124243837e+01  -4.9333577151e+00    0.2396034    0.1434069  -6.67  0.001541392    1.281    0.219
        30  -9.7467    221.2951    239.8110   4.0910165960e+01  -2.2765971999e+00    0.2140916    0.1592388  -8.20  0.000742145    1.206    0.171
        31  -9.5899     16.2479    238.3291   8.2689995551e+01   2.2371978873e+01    0.3722971    0.1173009  52.39  0.001866737    2.263    0.558
        32  -9.7644    226.4939    238.4948   3.9868858663e+01  -2.6899147828e+00    0.1986042    0.1236153 -10.95  0.001079103    1.352    0.260
        33 -10.6657    231.1825    234.5459   3.8540396330e+01  -2.7585609494e+00    0.2794565    0.1934561   0.88 0.0008231406    1.038    0.037
        34 -11.5224     89.6935    230.8358   6.6002260101e+01   1.5575858132e+01       1.2007    0.3993745 -65.77  0.005042062    4.026    0.752
        35 -10.9257    106.1336    223.7919   6.1572465215e+01   1.4666183320e+01    0.6181263    0.4436115  27.82  0.003772093    1.167    0.143
        36 -11.4634     98.8976    225.5031   6.3397019922e+01   1.5329220365e+01    0.4452441     0.410235  -6.95  0.002094048    1.283    0.221
        37 -11.7412     95.1267    217.7558   6.3454847986e+01   1.7249628239e+01    0.5476618    0.3571717  38.30   0.00170497    1.237    0.192
        38 -10.3958     99.9905    217.4765   6.2289455380e+01   1.6643085889e+01    0.3047078    0.2062171  45.55 0.0008322459    1.318    0.242
        39 -11.3609    239.0586    230.1045   3.6639632758e+01  -3.1075107570e+00     0.448594    0.2264191  12.62  0.002168909    1.830    0.454
        40 -11.8562    126.3361    222.9737   5.6960859014e+01   1.2044333389e+01    0.6598337    0.5579683  67.14  0.001682948    1.535    0.348
        41 -10.5292    101.1167    233.4140   6.3701750050e+01   1.3655388029e+01    0.4668015    0.2726122  61.52  0.002013664    2.270    0.559
        42  -8.6020    119.6703    228.6537   5.9101683566e+01   1.2003729467e+01    0.2093027    0.1351416 -51.71  0.001207781    1.921    0.479
        43  -9.3968    116.5247    227.1184   5.9618360204e+01   1.2686089201e+01    0.2301702    0.1933794  76.64  0.000924584    1.568    0.362
        44  -9.2328    144.9916    227.4947   5.3525980667e+01   8.7605558428e+00    0.2078653    0.1559332 -11.49 0.0005978012    1.465    0.318
        45 -10.0679    249.8538    226.7176   3.4481029503e+01  -3.8579665593e+00    0.2362395    0.1317319 -17.71  0.001654533    1.464    0.317
        46  -8.8996    191.5588    227.0186   4.4268166353e+01   2.7225432040e+00    0.1707316    0.1237641  15.17 0.0001186292    1.073    0.068
        47  -9.5878    181.3974    226.2737   4.6065444318e+01   4.1099405198e+00    0.2231613    0.1642438  29.01 0.0007677478    1.271    0.213
        48  -9.8417     26.8220    223.9550   7.9848319823e+01   2.4098284083e+01     0.424637   0.09187227  58.24   0.00141372    4.932    0.797
        49  -9.1227    242.9725    223.9439   3.5107671246e+01  -2.8509960342e+00     0.162991     0.117176  -2.32 0.0005944598    1.056    0.053
        50  -9.3163     66.6266    223.5673   7.0657276874e+01   1.9794543571e+01    0.2082339    0.1494447 -88.19  0.001284438    1.630    0.386
        51  -8.1622    178.3150    222.6775   4.6137177715e+01   5.0069043482e+00    0.1077592   0.08910361  45.96 0.0007041405    1.661    0.398
        52  -9.2995    157.5228    221.6611   5.0139468869e+01   7.9482239358e+00    0.2213912    0.1595242  19.54 0.0007346234    1.142    0.125
        53  -9.9264    132.6964    220.3378   5.5232687004e+01   1.1601576444e+01    0.1931429     0.161153 -75.58 0.0007260461    1.710    0.415
        54 -10.3849    131.1003    215.2223   5.4916825407e+01   1.2691156304e+01    0.3892085    0.3326307  85.97  0.001567775    1.650    0.394
        55  -9.1175    128.3391    211.7293   5.5071061581e+01   1.3693202078e+01    0.1959814    0.1537927  40.19 0.0002391406    1.197    0.165
        56  -9.2431    115.1696    220.7114   5.9177097272e+01   1.3975374878e+01     0.187365    0.1695063  61.08 0.0005002632    1.293    0.227
        57  -9.1116    219.3247    219.4115   3.8222659937e+01   3.0544555369e-01    0.2404469    0.1445613  13.36  0.001550579    1.429    0.300
        58  -8.8488    213.1741    220.5894   3.9450832065e+01   8.9158851388e-01    0.2035133   0.09178104  34.14  0.001124796    2.064    0.516
        59  -8.7792    149.3916    219.7422   5.1566039227e+01   9.3677572909e+00    0.1770299    0.1173869 -41.95 0.0008262968    1.758    0.431
        60  -9.2001    151.5308    216.0261   5.0596238271e+01   9.6573488162e+00    0.2678057    0.1757837   3.30 0.0008689219    1.728    0.421
        61  -9.6030     75.3147    219.3293   6.8266830892e+01   1.9536707300e+01     0.249155    0.1724905  45.62 0.0009145772    1.195    0.163
        62 -10.0693    190.3566    216.0617   4.2857093850e+01   4.3439946474e+00    0.4055572     0.258628 -20.70   0.00249466    1.566    0.362
        63  -9.5007    175.9925    216.1073   4.5620114801e+01   6.2538606570e+00    0.2526081    0.1565363 -30.69  0.001389551    1.708    0.415
        64  -8.1513    143.6554    217.3017   5.2451736290e+01   1.0562627001e+01    0.1243632    0.0887121  50.79  0.000703868    1.682    0.405
        65 -10.0568     84.7326    215.4976   6.5674717156e+01   1.9063162535e+01    0.4030835    0.2289329 -62.24   0.00214955    2.094    0.522
        66 -10.0630     79.1839    210.9960   6.6562738148e+01   2.0674346589e+01      0.60848    0.2318988  22.94  0.002040256    3.085    0.676
        67  -8.3846     77.4958    207.5110   6.6631394296e+01   2.1596193087e+01    0.1744312    0.1216679 -52.85 0.0007462053    1.727    0.421
        68 -10.9622     20.2366    212.8947   8.0894864619e+01   2.6957625448e+01    0.4163313    0.3771396 -84.56  0.002232435    1.325    0.245
        69 -10.2725    170.7763    215.2435   4.6524813292e+01   7.0935405108e+00    0.2722317     0.198747  14.23 0.0006778321    1.159    0.137
        70  -9.9323    112.8558    212.7231   5.8743377412e+01   1.5730868016e+01    0.5380698    0.3277995  -0.78  0.002325724    2.648    0.622
        71  -8.8611    228.4931    214.0864   3.5874435688e+01  -1.2571309846e-01    0.1578742   0.09257177 -27.18 0.0006876057    1.557    0.358
        72 -10.0238     64.7095    213.6402   7.0306844250e+01   2.1976308384e+01    0.5034392    0.1842129  43.62   0.00222753    2.151    0.535
        73  -9.0630    202.6031    210.9231   3.9807275420e+01   3.4478176947e+00    0.2905178    0.1305429 -33.76  0.001528326    2.228    0.551
        74 -10.4809    212.2445    207.9251   3.7623694924e+01   2.6118651980e+00    0.4347437     0.311987   7.25  0.002957256    1.132    0.117
        75  -9.4409    237.9020    210.1999   3.3755580025e+01  -7.4590254824e-01    0.1590406    0.1325585  -0.56  0.001238484    1.318    0.241
        76  -8.3198    135.6412    208.7913   5.3028770787e+01   1.3145968514e+01    0.1446739    0.1266338 -66.79 0.0002063879    1.509    0.337
        77 -11.8054     15.2906    198.4395   8.1490205617e+01   3.0473684777e+01    0.9032332      0.29426 -59.77  0.002275248    3.700    0.730
        78  -9.3576    212.0464    203.4717   3.6933919520e+01   3.2220341532e+00     0.321963    0.1508629  30.88  0.001460328    1.962    0.490
        79  -8.9382    130.0677    201.3370   5.3235681713e+01   1.5301542238e+01     0.259065    0.2415334 -83.82  0.001443748    1.362    0.266
        80 -10.2172    166.5250    198.5790   4.4806053084e+01   1.0289976636e+01    0.4190141    0.3212414 -17.80  0.001481056    1.321    0.243
        81 -11.1789    175.9987    184.9620   4.0563496599e+01   1.1070182839e+01    0.6801202    0.4685828 -62.45  0.002697543    2.483    0.597
        82  -9.5489    171.3674    201.2095   4.4234776721e+01   9.1573581130e+00    0.2393224    0.2090156 -56.93 0.0008759085    1.628    0.386
        83 -11.3587    178.2869    197.0985   4.2171509035e+01   8.7897175287e+00    0.8064016    0.4529715 -16.04  0.003013115    2.328    0.570
        84  -9.3231     58.9014    200.2420   7.0608534486e+01   2.5471406909e+01    0.3409932     0.150919  31.91  0.001564727    1.883    0.469
        85  -8.3073    212.7998    199.1778   3.6092089510e+01   3.6966694428e+00    0.1633693    0.1114461  -1.56 0.0003232983    1.314    0.239
        86  -8.0831    208.6535    199.2885   3.6835885932e+01   4.2277447002e+00    0.1023177   0.09397966  42.25 0.0004248141    1.656    0.396
        87  -9.4104    105.1356    197.6784   5.8679088717e+01   1.9727735684e+01    0.2796622    0.2151868 -19.63  0.001010369    1.643    0.391
        88  -8.4411    113.2395    198.4337   5.6803847491e+01   1.8376146719e+01    0.2068162    0.1045435  42.32 0.0009482628    1.765    0.433
        89  -9.0080     51.1815    197.9893   7.2392496332e+01   2.6879220561e+01    0.3170843    0.1002109  31.49  0.001263941    2.508    0.601
        90  -8.7053     44.2342    198.6277   7.4217592047e+01   2.7531860616e+01    0.2574484   0.09397352  33.29  0.001116035    2.148    0.534
        91  -9.9817    126.9631    196.4791   5.3253354299e+01   1.6674062697e+01     0.321052    0.2167306  14.09  0.001296315    1.617    0.382
        92  -8.6727    248.3121    195.6810   2.9796732613e+01  -2.2610312527e-01   0.09312815   0.08227035 -27.48 0.0007036372    1.646    0.393
        93  -9.0568    124.6125    193.1946   5.3325735284e+01   1.7660911986e+01    0.2230553    0.1802214  -4.37 0.0009079956    1.387    0.279
        94  -8.3805    162.3296    194.6287   4.5043066742e+01   1.1570791753e+01    0.1250095    0.1023442  64.94 0.0007029992    1.828    0.453
        95  -8.5706    113.0759    194.2539   5.6267208073e+01   1.9222358697e+01    0.1871977    0.1537363  33.18  0.000364522    1.047    0.045
        96 -10.5679     93.9039    181.4754   5.9370341077e+01   2.4795937982e+01    0.4162655    0.3408717 -45.87  0.001245042    1.399    0.285
        97 -12.0050     98.0890    189.0926   5.9313321992e+01   2.2533693044e+01    0.5997845    0.3913633  60.07  0.001169541    1.763    0.433
        98  -7.8445    116.7150    191.2538   5.4949040479e+01   1.9261016583e+01    0.1318918   0.09601752  53.57 0.0001706799    1.474    0.322
        99 -11.5658    172.7696    195.5439   4.3025385045e+01   9.8487973826e+00    0.6604044    0.3705598 -34.16  0.002054621    1.875    0.467
       100 -10.2165    183.4877    185.9210   3.9234860638e+01   9.7688302252e+00    0.2304854     0.211077 -53.49   0.00107766    1.513    0.339
       101  -9.5837    204.0454    188.0126   3.5730541485e+01   6.4409452463e+00    0.2939592    0.2384771  52.91  0.001658951    1.881    0.468
       102  -9.1850    199.0157    185.4693   3.6198841569e+01   7.5335732564e+00    0.2388369     0.146281  33.21  0.001261048    1.562    0.360
       103  -8.0570    138.5274    189.4790   4.9480890002e+01   1.6184934432e+01    0.1367324    0.1191809  27.30 0.0001120165    1.041    0.039
       104  -8.2692    129.2697    188.6341   5.1521350116e+01   1.7810425084e+01    0.1325986    0.1039917  66.74 0.0006996533    1.660    0.397
       105 -11.2041     20.1053    181.2059   7.9438575529e+01   3.3923212128e+01    0.5218703    0.4529487 -60.22  0.003373938    1.381    0.276
       106 -11.2602     10.3557    186.6819   8.2261857078e+01   3.3511754685e+01     0.753259    0.2265517  49.99  0.001356598    2.511    0.602
       107 -12.1383     12.8821    179.9221   8.1312286039e+01   3.4852240085e+01     1.845882    0.5186018  87.30  0.006431932    4.071    0.754
       108 -10.9323      5.7057    177.0168   8.3111554134e+01   3.6104798246e+01    0.3981754    0.2694801  36.10  0.001333706    1.338    0.253
       109 -12.0497      4.4379    172.1558   8.3272840145e+01   3.7340602544e+01    0.7772902    0.4828622  89.62  0.004221057    1.481    0.325
       110  -9.5057    231.8930    185.8652   3.0642719556e+01   2.9806880707e+00    0.2438098    0.1355266 -18.48  0.001253219    1.687    0.407
       111  -9.9678    226.4805    183.0846   3.1022858117e+01   4.0520807835e+00    0.3401403    0.2342875  42.03   0.00107176    1.836    0.455
       112  -9.3246    108.2715    185.2490   5.6179703700e+01   2.1789738710e+01    0.3549542    0.2513237  65.70  0.001788681    1.758    0.431
       113  -8.6813    111.4991    184.4343   5.5242601832e+01   2.1455245001e+01    0.2348351    0.1601458  28.80 0.0007942609    1.346    0.257
       114  -8.7715    249.8757    184.7926   2.7722922949e+01   8.9560807042e-01    0.1960759    0.1335281 -45.12  0.001249271    2.145    0.534
       115  -9.9576    209.7560    184.9804   3.4181862390e+01   6.0719039825e+00    0.2164069    0.1605271  21.19  0.001385833    1.240    0.194
       116  -9.2762    214.9777    182.4182   3.2821652026e+01   5.7050310702e+00    0.3933478     0.108642  41.15  0.001514196    3.938    0.746
       117  -8.7218    165.7902    186.8428   4.3004604270e+01   1.2346847620e+01     0.170274    0.1542819  46.69 0.0006127738    1.353    0.261
       118 -10.5215    181.6001    180.2156   3.8593043601e+01   1.0973382236e+01    0.2945339    0.1953537 -34.33  0.001249718    1.511    0.338
       119 -10.5729    179.1902    177.5841   3.8597895217e+01   1.1783558227e+01    0.3780634    0.1870377 -47.39  0.001725936    2.383    0.580
       120  -9.0267    138.5536    180.0012   4.7915679615e+01   1.7975243300e+01    0.2811305    0.1782216  48.06  0.001367371    1.681    0.405
       121  -8.9011    112.6192    179.5546   5.4217371134e+01   2.2294699148e+01    0.2613126    0.1631429  32.60  0.001262323    1.440    0.305
       122  -9.6031    104.0308    179.7473   5.6462578957e+01   2.3614530693e+01    0.2759796    0.2212953 -59.64  0.001488709    1.403    0.287
       123  -9.6268    158.1588    177.1641   4.2950557909e+01   1.5266260113e+01     0.365539    0.2152674 -31.35  0.001757618    1.891    0.471
       124  -9.4485     70.5582    178.2339   6.5282710085e+01   2.8883139431e+01    0.3026269    0.2394696 -55.40  0.000873986    1.428    0.300
       125  -8.4870    240.5226    177.9292   2.7910087592e+01   2.9026123305e+00    0.1717617   0.09365217 -28.17 0.0008538184    1.550    0.355
       126  -8.4163    219.4019    178.1665   3.1309506187e+01   5.6849919946e+00    0.1579022    0.1031665 -38.93 0.0007359631    1.629    0.386
       127 -10.8147    204.8843    175.3841   3.3312104476e+01   8.1747362772e+00    0.4193147    0.3094757   9.11  0.002573507    1.265    0.209
       128 -11.3519    207.8584    168.5424   3.1508085544e+01   8.7537112438e+00    0.5429605    0.3679918 -33.84  0.003193577    1.405    0.288
       129 -11.1635    149.8230    164.4591   4.2482225335e+01   1.9058053390e+01     1.050009    0.4126445 -42.00  0.004017173    2.706    0.630
       130  -9.9928    152.4921    174.5207   4.3737871823e+01   1.6693176472e+01    0.2857127    0.2458194 -33.83  0.001346478    1.230    0.187
       131 -10.4647    148.7840    174.6123   4.4597531601e+01   1.7298931024e+01    0.3578677    0.2813281  48.48  0.001217346    1.387    0.279
       132 -10.2428    104.0712    189.4817   5.7843816679e+01   2.1554430489e+01    0.3107224    0.2484964  30.30 0.0008028174    1.118    0.106
       133  -8.9134    118.0542    176.0035   5.2269464840e+01   2.2157228660e+01    0.2090839    0.1950888  24.17 0.0004844368    1.049    0.046
       134 -10.3899     29.8823    171.8096   7.6146456521e+01   3.5223462586e+01    0.5219212    0.3311629 -81.17  0.001239245    1.560    0.359
       135  -8.6120    101.0002    177.7643   5.6964016450e+01   2.4517741479e+01    0.2238586    0.1376727  33.39   0.00076561    1.457    0.313
       136  -8.4125     77.2980    175.6609   6.3100151992e+01   2.8540005299e+01     0.150097   0.09683239  61.09 0.0005557464    1.661    0.398
       137 -10.0105     24.3611    174.7143   7.7896602607e+01   3.5059323154e+01    0.2353885    0.1623589  59.23 0.0006263377    1.246    0.198
       138  -9.3423     91.9598    172.4451   5.8613957271e+01   2.7104031871e+01    0.3381923    0.1776509  39.87 0.0008210549    1.676    0.403
       139 -10.3978     47.1960    180.3132   7.1970134232e+01   3.1339741959e+01    0.8507388     0.215526 -63.74   0.00301125    3.682    0.728
       140  -8.4544    193.2711    172.5745   3.4924695143e+01   1.0375520340e+01     0.172729    0.1112144  22.34 0.0004494712    1.547    0.353
       141  -8.9277    177.3042    171.6614   3.7883890723e+01   1.3078507615e+01    0.1981542    0.1735286 -51.73  0.001189743    1.440    0.306
       142  -8.2780    179.3413    169.6961   3.7100816798e+01   1.3077189851e+01    0.1777041    0.1665244   7.10 0.0006753168    1.153    0.133
       143  -9.0445    176.6232    167.7800   3.7287735258e+01   1.3852719098e+01    0.3145558    0.2046867 -42.44  0.001063687    1.616    0.381
       144  -8.9374    135.0023    171.1943   4.7237455448e+01   2.0300888593e+01    0.2330962    0.1541869  57.43  0.001075913    1.929    0.482
       145  -8.8375    121.2802    169.7694   5.0405223039e+01   2.2928712504e+01    0.2643723    0.2123385  76.56  0.001071447    1.596    0.374
       146  -9.4910    199.8968    167.1657   3.2671711651e+01   1.0188890726e+01    0.2814146    0.1836459  -7.95  0.001261348    1.709    0.415
       147  -9.1794    160.3039    166.0890   4.0427992441e+01   1.6924545165e+01    0.5087017    0.2636834 -60.38  0.001876893    3.575    0.720
       148 -10.9040    217.8948    165.2764   2.9173734642e+01   7.7361748801e+00    0.4957911     0.317781  34.33  0.002247751    1.608    0.378
       149  -8.8959    138.8323    164.8654   4.5157567194e+01   2.0908878988e+01    0.3194337    0.2188377  89.91  0.001308724    2.898    0.655
       150 -10.6381    247.8610    161.6973   2.3897739810e+01   4.0477862271e+00    0.6167154    0.2445022 -20.56  0.002561343    3.402    0.706
       151  -8.3406     98.3131    165.6848   5.5831953730e+01   2.7639805674e+01    0.1515491    0.1059924  62.50 0.0004750816    1.640    0.390
       152  -9.1615      1.6152    162.7760   8.3711392538e+01   3.9783566888e+01    0.2108586    0.1533495  84.00 0.0005068809    1.220    0.180
       153  -8.5215    177.7580    161.1518   3.5768991181e+01   1.4805210801e+01    0.2110055    0.1569013  87.30 0.0009510429    2.840    0.648
       154 -10.3015     99.8555    158.3353   5.4186634970e+01   2.9076555225e+01    0.5350751     0.302582 -61.22  0.002319015    1.965    0.491
       155 -10.2442     22.7406    160.0192   7.7395807323e+01   3.8789509169e+01     0.432647    0.2804849   8.26  0.001936771    1.911    0.477
       156  -9.7824    229.9098    160.2063   2.6279320430e+01   6.7106129323e+00    0.2454317    0.1617844  29.92   0.00149669    1.578    0.366
       157  -8.4842     92.7500    160.2081   5.6511786736e+01   2.9804195837e+01    0.2503026    0.1389766  64.54 0.0009374023    2.656    0.624
       158 -10.0602    219.5615    158.9705   2.7690978665e+01   8.4058173794e+00      0.27756    0.1741293  60.95  0.001318507    3.189    0.686
       159 -10.0097    142.9978    158.5291   4.2944475544e+01   2.1441834595e+01    0.6073176    0.2286796  45.59  0.002147998    2.792    0.642
       160  -9.0535    167.2346    156.9560   3.7129034285e+01   1.7388111765e+01    0.2745112    0.1893512 -52.99  0.001105978    1.739    0.425
       161  -8.6663    127.5381    157.1660   4.6515724781e+01   2.4513536767e+01    0.2578343    0.1485179 -54.91 0.0008272543    1.949    0.487
       162  -9.1495    105.0708    157.5076   5.2584720447e+01   2.8387448769e+01    0.2557392    0.2073062 -89.96 0.0006424015    1.474    0.322
       163  -9.4956    224.9087    157.1793   2.6483558030e+01   7.8670051806e+00    0.1796707    0.1595873 -33.67  0.001099501    1.326    0.246
       164 -10.2032    206.9479    142.0016   2.6391757487e+01   1.3000267510e+01    0.3341508    0.2413028 -10.85  0.001099109    1.429    0.300
       165 -10.8354    208.0200    156.5334   2.9158082034e+01   1.0555541735e+01    0.5592912    0.2313447  37.75  0.002492656    2.526    0.604
       166 -12.4030    205.4501    150.3118   2.8359194169e+01   1.1939339002e+01    0.7521312    0.6666461 -75.58  0.004617045    1.676    0.403
       167  -8.5275    119.4599    154.9319   4.8199228355e+01   2.6448244199e+01    0.1988312    0.1336429 -85.87 0.0008075024    2.452    0.592
       168  -9.5538     68.7393    154.2805   6.2711817688e+01   3.4893793036e+01    0.3612161    0.2086203  57.31  0.001106246    1.863    0.463
       169  -8.3550     49.7595    155.1411   6.8682957842e+01   3.7173923850e+01    0.2646731    0.1136259  59.69 0.0009470182    2.851    0.649
       170 -10.1348    195.3601    153.9125   3.0901729387e+01   1.3039123153e+01    0.2957472    0.1867665  30.53  0.001369097    1.620    0.383
       171  -8.7564     81.8656    154.3230   5.8745742142e+01   3.2932905208e+01    0.2450334     0.161357  50.75  0.000746205    1.484    0.326
       172  -9.7549      5.1351    151.7182   8.2219237708e+01   4.2259509338e+01    0.4027495     0.155654  52.03   0.00107267    2.239    0.553
       173 -10.7340    223.2658    148.5904   2.5059123538e+01   9.3595966685e+00    0.4231848    0.3500545   9.77  0.002198375    1.178    0.151
       174 -11.3447    189.4012    150.2119   3.1264787168e+01   1.4670002207e+01    0.8516454    0.2761166 -37.52  0.003123933    3.016    0.668
       175  -9.6381    182.4845    148.7433   3.2301800169e+01   1.6137591485e+01    0.4410281    0.1287414 -38.59  0.001489468    3.405    0.706
       176 -10.1613    117.1687    143.7813   4.6623868319e+01   2.9360171018e+01     1.274634    0.4270941  53.01  0.002711189    7.437    0.866
       177  -8.6532    107.7789    137.8328   4.8047535715e+01   3.2480856546e+01    0.3158402    0.2119433  59.97  0.001287817    1.760    0.432
       178  -9.5399     39.4419    147.1758   7.1063475536e+01   4.0396537745e+01    0.5484775    0.2054624  61.50  0.001764092    3.691    0.729
       179  -8.5560    155.3006    148.6403   3.8059451825e+01   2.1138397914e+01    0.1415889    0.1171849  88.81 0.0007036539    1.716    0.417
       180  -8.5310     76.9515    147.6367   5.9168760001e+01   3.5339167215e+01    0.2189917    0.1855056  43.73  0.001149477    1.102    0.092
       181  -8.6474     27.5323    148.0370   7.4980746611e+01   4.1381613259e+01    0.2122882    0.0933847  70.97  0.000809786    2.617    0.618
       182 -10.1601    134.7243    153.7902   4.4037392336e+01   2.3921276330e+01     0.527716    0.3388949  57.43  0.001656879    1.958    0.489
       183 -10.6078    195.3760    145.4494   2.9159171404e+01   1.4427315034e+01    0.4065026     0.195815 -48.38  0.001701044    2.496    0.599
       184  -9.8765    148.6520    144.4461   3.8715823924e+01   2.3228640899e+01    0.5458744    0.3566733 -73.78  0.001993716    2.805    0.644
       185  -8.8270    148.6742    137.6299   3.7225482605e+01   2.4603149441e+01    0.2979683     0.204799  -8.71  0.001195888    2.087    0.521
       186 -10.6067    244.6046    144.1472   2.1035270664e+01   6.8173823558e+00    0.4003353    0.1688243 -34.74  0.002021807    1.961    0.490
       187  -9.3244    106.8209    144.7341   4.9715294229e+01   3.1037861356e+01    0.4546695    0.2728878  75.57  0.001575654    3.228    0.690
       188  -9.7409     55.8560    145.0448   6.5480054705e+01   3.8989259046e+01    0.4455227    0.2238585  49.39  0.001746114    1.961    0.490
       189  -8.7995     61.7457    144.6149   6.3513978125e+01   3.8314131924e+01    0.3382051     0.132908  29.59  0.001232589    2.456    0.593
       190  -8.3347     13.4580    145.9707   7.9317753985e+01   4.3109567031e+01    0.1952923   0.08499614  66.81 0.0004514001    2.300    0.565
       191  -8.4567    165.4358    143.9435   3.4809818186e+01   2.0134010281e+01    0.2127873    0.1367925 -42.93 0.0007970271    1.573    0.364
       192  -9.3387    125.2850    143.0429   4.4279397701e+01   2.7997645390e+01    0.3851289    0.2569852 -84.96   0.00149689    2.635    0.621
       193  -8.6591     87.8972    143.7597   5.5132214598e+01   3.4553843279e+01    0.2573332    0.1523532  56.40 0.0006984688    1.920    0.479
       194  -9.8176     70.4905    142.3515   6.0349904098e+01   3.7645565131e+01    0.4729886    0.3362318  85.22  0.002225472    1.610    0.379
       195  -8.9152    122.0099    149.0000   4.6366987282e+01   2.7294697970e+01    0.4164128     0.206364  21.88  0.001338896    3.230    0.690
       196  -8.5752      3.3585    142.6855   8.2341485387e+01   4.4651828980e+01    0.1484313   0.07569005  54.90 0.0007043607    1.749    0.428
       197 -10.6804    192.6546    127.4499   2.5755306231e+01   1.7937961943e+01    0.5054107    0.2632079 -28.83  0.002217707    2.014    0.503
       198 -10.5338    192.6876    133.9739   2.7195902824e+01   1.6827319131e+01    0.2882807    0.2607528  58.47  0.001424563    1.334    0.251
       199 -11.6022    197.6895    136.4153   2.6822769032e+01   1.5513371943e+01    0.5633466    0.3890414   5.51  0.002473758    1.811    0.448
       200 -10.3013    202.9752    136.2269   2.5854478028e+01   1.4607818335e+01    0.2897401    0.2032609  36.72 0.0009259472    1.504    0.335
       201  -9.3601     23.8100    138.5302   7.5366157659e+01   4.4186563132e+01    0.4229025    0.1619065  54.68  0.001599088    2.686    0.628
       202 -10.3371    246.2953    135.9198   1.9197622298e+01   7.6873123283e+00     0.361219    0.2623056  -3.71  0.002329517    1.397    0.284
       203  -9.3927    234.3732    136.7266   2.1008917337e+01   9.3591324651e+00      0.27313    0.2051994 -15.69  0.001561063    1.185    0.156
       204  -9.1414    162.0522    137.2037   3.4074300440e+01   2.2064372791e+01    0.3320801    0.1915991 -33.69   0.00133701    1.829    0.453
       205  -9.9306     44.3905    123.1909   6.6305107876e+01   4.6164186606e+01     0.639084    0.2968315  63.90  0.002234346    2.991    0.666
       206 -10.6679     41.4717    134.0233   6.8842487211e+01   4.3613721281e+01    0.7486272    0.4815173 -85.52  0.003437589    1.578    0.366
       207 -10.5543     45.3144    130.5314   6.7034399725e+01   4.4098129872e+01    0.9235715    0.4128984  86.90  0.003058326    3.413    0.707
       208 -11.0830    187.6971    134.1624   2.8164579830e+01   1.7717633357e+01    0.4544857    0.2114759 -32.68  0.001672326    2.184    0.542
       209  -9.8122     16.1952    134.9570   7.7641179838e+01   4.5748804522e+01    0.2270544    0.1902429  34.02 0.0004167708    1.231    0.187
       210  -9.7931     13.3149    130.0308   7.8252916289e+01   4.7254903615e+01    0.6285242    0.2190099  65.09  0.002167437    3.395    0.705
       211  -8.5030      4.0263    134.4703   8.1704774554e+01   4.6713676893e+01    0.1823625   0.09869736 -26.72 0.0008099312    2.616    0.618
       212  -8.8506    179.5558    132.3362   2.9330400546e+01   1.9577823979e+01    0.3568053    0.1327199 -38.25  0.001315373    2.616    0.618
       213  -9.1737    110.3943    131.6594   4.5972009444e+01   3.3437181056e+01     0.526791    0.2784145  47.33  0.002073996    1.909    0.476
       214  -9.4904     83.5300    131.9467   5.4284345349e+01   3.8225882821e+01    0.3926977    0.2533362  68.58  0.001287282    2.012    0.503
       215  -8.5448    143.4586    131.9407   3.7197163947e+01   2.6811895934e+01    0.2070255    0.1340528 -70.22 0.0008080867    2.471    0.595
       216  -9.7133    131.7275    130.7589   3.9888904949e+01   2.9431157185e+01    0.4667736    0.2923835 -62.89  0.001809442    2.060    0.515
       217  -9.4478    134.1181    124.5234   3.7809140845e+01   3.0294330480e+01    0.4460325    0.2891383  10.94  0.001489569    2.588    0.614
       218  -8.9836     21.9986    131.7164   7.5368668466e+01   4.6134049959e+01    0.3497507    0.1433121 -45.12   0.00129981    3.085    0.676
       219  -9.5290     25.2223    127.2138   7.3786575887e+01   4.7051421484e+01    0.3428409    0.2362245  43.99  0.001025371    1.391    0.281
       220  -9.9327     28.5912    122.7958   7.2072280413e+01   4.7928038132e+01    0.5054047    0.2945752  58.29  0.002324756    1.753    0.429
       221  -9.7427     28.5895    117.2447   7.1401446358e+01   4.9419923167e+01    0.7715453    0.2536753 -43.29  0.002316259    4.413    0.773
       222 -10.3699    246.3651    128.5578   1.7726886223e+01   8.6772293837e+00    0.4161853    0.1559452 -47.18  0.001643006    3.681    0.728
       223  -8.8029    168.1998    128.7953   3.0842994746e+01   2.2450480631e+01    0.2902289    0.1633432 -53.09  0.001209353    2.140    0.533
       224  -8.1109    161.3302    129.3196   3.2443949379e+01   2.3727783062e+01    0.1520769    0.1138487   2.47 0.0007048172    1.690    0.408
       225  -9.0522    152.7195    128.7403   3.4253000271e+01   2.5586596250e+01    0.3784643    0.1821632 -56.69  0.001310787    3.014    0.668
       226  -9.5424     99.2466    128.0541   4.8515290401e+01   3.6405175880e+01    0.4540685    0.2970491  86.35  0.001748221    2.446    0.591
       227  -9.9537    209.5164    131.7669   2.3795854100e+01   1.4175675395e+01    0.2685788     0.234087 -12.44  0.001034142    1.045    0.043
       228 -10.7426    230.4701    126.4795   1.9466229209e+01   1.1446588366e+01    0.3636474    0.2341308  55.21  0.001582144    2.024    0.506
       229 -10.7879    226.4955    124.0024   1.9516400586e+01   1.2462941529e+01    0.3481876    0.2607556 -55.65  0.001411294    1.654    0.395
       230  -9.8327    118.9453    118.1476   4.0369279845e+01   3.4856915405e+01    0.6164288     0.250671 -48.40  0.001647149    2.516    0.603
       231 -11.2528    107.4076    113.4752   4.2598838657e+01   3.8311154347e+01     1.230299    0.6700903 -46.73  0.004877134    1.887    0.470
       232 -10.0416    117.6102    125.2123   4.2441751423e+01   3.3515510477e+01    0.7341237    0.3906079  32.84  0.002519975    2.055    0.513
       233  -9.7556    113.9798    121.4932   4.2604347475e+01   3.5103745732e+01    0.3358876     0.299291  35.00 0.0006388538    1.113    0.102
       234  -9.7003    104.8181    123.6100   4.5818448290e+01   3.6418132132e+01    0.4671415    0.2459196  33.10  0.001108339    2.010    0.502
       235 -10.1333    109.1609    121.1351   4.3935964362e+01   3.6152847518e+01    0.4208702    0.3055071 -79.12 0.0008197851    1.809    0.447
       236  -9.5734    241.8280    125.7929   1.7764886709e+01   9.7461715612e+00    0.1608167    0.1292372 -43.56 0.0005558622    1.316    0.240
       237  -9.5970     60.1995    124.6596   6.0835944548e+01   4.3730382299e+01    0.6264648    0.3020508  67.69  0.001959296    3.684    0.729
       238  -8.4639    197.8525    125.3639   2.4365510170e+01   1.7314145704e+01    0.1796629    0.1227936  33.11 0.0003376477    1.603    0.376
       239  -9.8359    180.7807    121.4182   2.6588065013e+01   2.1288304942e+01     1.012284    0.4421408 -23.63  0.003028456    4.453    0.775
       240 -10.3657    185.0272    113.9558   2.4023389326e+01   2.1749027363e+01    0.4060064    0.3511905  80.10   0.00142943    1.425    0.298
       241 -10.3177    183.9422    109.2602   2.3090927590e+01   2.2788475464e+01    0.5197977    0.2326915  51.11  0.002098173    2.396    0.583
       242  -7.7713      1.3237    122.2962   8.1962868146e+01   5.0030576056e+01    0.1336969   0.09038909 -47.86 0.0006447005    1.622    0.384
       243  -8.7271    158.5088    121.5071   3.1222863830e+01   2.5825466643e+01    0.2317039    0.1391409 -52.30 0.0008643366    1.864    0.463
       244  -9.6502    142.1238    119.4722   3.4562833828e+01   2.9687715886e+01    0.4313298    0.2954366 -77.48  0.001735965    2.370    0.578
       245  -9.1139     35.5494    101.6614   6.6325778594e+01   5.2944271744e+01    0.3160852    0.1478066  40.38 0.0009678134    2.121    0.528
       246 -10.2441     22.3552    110.2419   7.2970376920e+01   5.1848593958e+01    0.4861189    0.2728671  83.39  0.001551801    1.882    0.469
       247 -11.0096     15.6779    112.2137   7.5820899787e+01   5.1824770716e+01    0.6576269    0.3930522  75.51  0.002872755    1.685    0.406
       248 -11.1156     23.6388     92.5929   6.9999611413e+01   5.6502771515e+01     0.643806    0.4284608 -81.78  0.002261003    1.458    0.314
       249 -11.6488     17.2569    104.2373   7.4325129155e+01   5.3856683028e+01     1.477556    0.2464381 -62.97  0.001684231    3.905    0.744
       250 -10.9443     22.9207    101.6256   7.1633733159e+01   5.4127836774e+01     1.213033    0.4024557  56.72  0.003519017    4.697    0.787
       251  -8.2902     84.0048    122.0059   5.2090948627e+01   4.0656403372e+01    0.1873273    0.1797482  62.61 0.0006788662    1.000    0.000
       252  -8.9172    172.4390    119.7123   2.7832785964e+01   2.3284210852e+01    0.3156091    0.1374051 -34.07  0.001176276    2.439    0.590
       253  -9.1704    131.1010    118.6197   3.7161769595e+01   3.2205168533e+01    0.3039434    0.2114426 -74.20  0.001246581    2.069    0.517
       254 -10.5593    248.6864    116.9635   1.5093578988e+01   9.9012447648e+00     0.318029    0.2199842 -30.75  0.002025821    1.157    0.136
       255  -9.2749      2.3881    116.3361   8.1220337454e+01   5.1538494409e+01    0.4671811    0.1696199  71.02  0.001733609    2.975    0.664
       256  -9.7190      2.8492    109.1582   8.0565907104e+01   5.3410667839e+01    0.4357915    0.1226514 -51.03   0.00149295    3.638    0.725
       257  -9.4058     92.9575    112.8788   4.7032200181e+01   4.1305511422e+01    0.3812902    0.2643707  84.96   0.00130138    2.072    0.517
       258  -8.9808    188.6884    107.6815   2.1855854589e+01   2.2084431976e+01    0.3272625    0.1733058 -31.76  0.001327004    1.870    0.465
       259  -9.3247    188.6485    122.2572   2.5304434665e+01   1.9591749146e+01    0.3076359    0.1651603 -31.70  0.001364471    1.849    0.459
       260  -9.2709     78.7834    112.0861   5.1679931865e+01   4.4086150498e+01    0.4343916    0.2725835  82.34  0.001621883    2.520    0.603
       261  -8.6478    141.8135    111.7791   3.2704057465e+01   3.1355022581e+01    0.2617523     0.172533   3.52  0.000951813    2.813    0.644
       262  -8.9066    121.7503    112.1898   3.8080390933e+01   3.5612122925e+01    0.2786821    0.2136467  57.52 0.0009140568    1.381    0.276
       263  -9.5475    133.6546    108.4585   3.3899494316e+01   3.3843090365e+01     0.549898    0.2146764 -46.18  0.001856513    2.602    0.616
       264 -11.2230    133.5512    101.8367   3.2149494612e+01   3.5267068926e+01     0.892802    0.4242603  34.87   0.00296257    2.741    0.635
       265  -8.6485     66.5080    110.4964   5.5773634935e+01   4.6521592817e+01    0.1571659    0.1427905  70.25 -4.135908e-05    1.097    0.089
       266  -8.5043     59.4703    109.5233   5.8221434100e+01   4.7838096448e+01    0.1516217    0.1443117  78.62 7.811379e-05    1.015    0.015
       267 -11.8250    249.6030    103.7482   1.2270713853e+01   1.1542995595e+01    0.8084353    0.2489199 -30.67  0.003284467    2.885    0.653
       268  -9.6920     61.8293    105.9471   5.6557169602e+01   4.8432117798e+01    0.2693296    0.2197852  36.08 0.0006152418    1.228    0.185
       269  -9.5883    204.3145    105.2023   1.8669264306e+01   1.9367001886e+01    0.3039442    0.2025429  61.03   0.00156387    1.812    0.448
       270  -8.9517    140.1033    104.9001   3.1322931027e+01   3.3156007537e+01    0.3243922    0.2284352 -85.47  0.001315661    2.222    0.550
       271 -10.3195     45.9778    102.3388   6.2122124033e+01   5.1570128432e+01    0.8410459    0.3658928  61.46    0.0024974    4.172    0.760
       272  -9.1624    150.3261    103.6737   2.8561481362e+01   3.1110117585e+01    0.3278221    0.2458145 -72.69    0.0014145    1.728    0.421
       273  -9.9013    108.5672     98.1495   3.8171068969e+01   4.1629387122e+01    0.5917787    0.4158537 -87.33  0.001596734    2.146    0.534
       274  -8.3140     95.3462     97.1167   4.2131421346e+01   4.4657678686e+01    0.2267904    0.1473716 -63.83 0.0006166658    1.786    0.440
       275  -9.4829     64.1978     96.1372   5.3341892330e+01   5.0622400393e+01    0.4977316    0.2658245  65.72  0.001626248    3.321    0.699
       276  -8.8646    138.9027     91.8377   2.8001323782e+01   3.6087313280e+01    0.3053586    0.1985758 -66.26 0.0009142635    2.091    0.522
       277  -9.0063    118.4516     93.0000   3.3756938814e+01   4.0580748301e+01    0.3514102   0.08941624  46.46  0.000927281    3.875    0.742
       278  -8.2496     57.7398     91.9533   5.4939561429e+01   5.2705043974e+01     0.190725     0.128149 -58.93  0.000367902    1.450    0.310
       279  -9.5008     44.4439     91.7551   6.0585388625e+01   5.4580760871e+01    0.3537416    0.2175091   9.19  0.001508767    2.071    0.517
       280  -9.6735      5.0774     91.7849   7.8198576269e+01   5.7918825317e+01    0.2904329    0.1282093  67.67 0.0009364441    2.578    0.612
       281  -9.0830    124.4543     90.7999   3.1432859414e+01   3.9672551064e+01    0.3048059    0.2450613 -87.45 0.0007946311    1.518    0.341
       282  -9.6582     34.9390     89.7866   6.4404548944e+01   5.6195432966e+01    0.4523579    0.2503799  76.62  0.001765924    2.535    0.605
       283 -10.1785     29.1077     99.5828   6.8708379849e+01   5.4140921123e+01    0.5535405    0.2600206  56.66  0.002125097    2.587    0.613
       284  -8.9365     86.4027     86.3831   4.2137861504e+01   4.9023665662e+01    0.3068284    0.2201124  79.41 0.0008337718    1.959    0.490
       285  -9.2447     48.5258     84.1166   5.6974278400e+01   5.6054672086e+01    0.4147129    0.2295251  62.90  0.001539838    2.706    0.630
       286  -8.9100     12.0152     83.4950   7.4041573445e+01   5.9757907644e+01    0.2871183    0.1880834 -37.05  0.001211841    1.608    0.378
       287  -9.3296      7.8275     84.1847   7.6119520217e+01   5.9803746432e+01    0.3278119    0.1889638 -53.85 0.0009463797    1.597    0.374
       288  -9.1494      8.3633     80.7142   7.5433230015e+01   6.0696152253e+01    0.2379253     0.153731  34.57 0.0007444823    1.647    0.393
       289  -9.4821    185.4592     82.9807   1.6180585387e+01   2.6907398509e+01    0.2751198    0.1901533  40.45 0.0009233642    1.679    0.405
       290  -8.7038    141.0000     83.0024   2.4915944367e+01   3.7319356368e+01    0.2482398   0.08779386 -39.29 0.0004663781    2.825    0.646
       291  -8.9536    116.8807     83.0215   3.1198229812e+01   4.3072616627e+01    0.2308647    0.2278528 -49.86 0.0002761816    1.044    0.042
       292  -8.9076    104.3486     82.4949   3.4822252388e+01   4.6068723445e+01     0.354016    0.2316944 -79.89  0.001294346    2.583    0.613
       293  -9.5357     36.5610     81.4017   6.1867006296e+01   5.8239702950e+01    0.5122395     0.259769 -17.34  0.001721336    3.642    0.725
       294  -9.6799     24.7578     80.5979   6.7397993973e+01   5.9611503470e+01    0.4541856    0.2404231  69.81  0.001692918    2.600    0.615
       295 -10.2682    175.5950     78.1817   1.6547995427e+01   2.9938342318e+01    0.4693229    0.3223919 -76.17   0.00121298    1.908    0.476
       296  -9.6708    176.9861     71.3573   1.4435561742e+01   3.0724229485e+01    0.3644861     0.280993  16.71  0.001796521    1.765    0.433
       297  -8.3127    184.5836     77.8103   1.4958146092e+01   2.7939274996e+01    0.2089885    0.1201508 -45.69 0.0005276552    1.644    0.392
       298  -9.0517    216.7357     76.8437   1.0201832086e+01   2.1213742097e+01    0.2136325    0.1369472  15.40 0.0009524414    2.790    0.642
       299  -9.0436     49.4524     76.8203   5.4609549855e+01   5.7797493469e+01    0.2978858    0.2033889   1.22  0.001019455    1.931    0.482
       300  -8.6886    127.8384     75.0141   2.5684065162e+01   4.2057464139e+01    0.2656691    0.1729586 -65.30 0.0007262189    2.012    0.503
       301  -9.6582     10.0214     74.1688   7.3696144406e+01   6.2335061724e+01    0.2147162    0.1919422 -62.07 0.0003430981    1.026    0.026
       302  -9.2205    195.9256     73.5347   1.2131790791e+01   2.6076319678e+01    0.2547893     0.187866 -17.96 0.0007933695    1.545    0.353
       303  -8.9004    234.3437     73.3269   7.3790425649e+00   1.8299266673e+01     0.121599   0.09414108   7.64 0.0002208494    1.742    0.426
       304  -8.9384     82.1943     72.2605   3.9175350619e+01   5.3147069325e+01    0.2834098    0.2033835 -79.34  0.001004991    1.962    0.490
       305 -10.1096     28.2791     70.9678   6.3570919451e+01   6.1815194438e+01    0.6839187    0.2911659 -21.27  0.001932179    5.313    0.812
       306  -9.0293     51.6664     69.5042   5.1393717089e+01   5.9298892281e+01    0.3639174     0.192576 -74.94  0.001277874    3.008    0.668
       307  -8.7127     16.5108     69.9956   6.9584871367e+01   6.3032035790e+01    0.1972543    0.1061077  74.51 0.0008092907    2.457    0.593
       308  -8.3204    129.3541     69.3135   2.3457557011e+01   4.2763469620e+01    0.1615235    0.1231146  20.69  0.000704521    1.734    0.423
       309  -9.0182      1.4649     68.9822   7.7460816007e+01   6.4068974138e+01    0.2099722     0.116202 -75.69  0.001027725    1.585    0.369
       310  -8.0931     74.6636     80.3510   4.4750872065e+01   5.2750010812e+01    0.1643894    0.1222095  77.57 0.0007045791    1.788    0.441
       311  -8.2469    147.2286     68.0388   1.8970808761e+01   3.8521192434e+01    0.1998052    0.1256573 -36.18 0.0005137709    1.599    0.375
       312 -10.0659      7.1667     68.0520   7.4276456900e+01   6.4076938144e+01    0.7295629    0.1686889 -47.99  0.002404978    3.669    0.727
       313  -9.5873     18.2274     61.6345   6.6891752177e+01   6.5065963107e+01    0.3268696    0.1852769 -46.58 0.0008825014    1.632    0.387
       314  -8.9725    170.4658     60.5168   1.2421043815e+01   3.3988722702e+01    0.1445436    0.1366372 -63.18 4.490535e-05    1.032    0.031
       315  -9.0944     73.2217     59.5157   3.8154674007e+01   5.7785580890e+01    0.3022133    0.1984889 -63.19 0.0008679795    1.922    0.480
       316  -8.8056    164.5300     59.5171   1.3107578633e+01   3.5603709482e+01    0.1472216    0.1377503 -68.10 7.304591e-05    1.006    0.006
       317  -9.4910     39.4645     57.4009   5.3695854867e+01   6.3951550626e+01    0.2799405    0.2205286 -14.65  0.001018306    1.392    0.282
       318 -10.7362    249.2457     55.9909   2.1651323394e+00   1.7810290961e+01    0.3072319      0.20502 -17.19  0.001826587    1.721    0.419
       319 -10.3323      2.2732     56.2540   7.5217019108e+01   6.7308111190e+01    0.3520952    0.2135352 -77.23  0.001421059    1.511    0.338
       320  -9.2356     25.7045     54.8218   6.0740866010e+01   6.6139683519e+01    0.3194107     0.199005  11.50  0.001546647    1.767    0.434
       321  -8.3183     62.8377     54.5959   4.0796658938e+01   6.0866084869e+01     0.203777    0.1370955  50.45 0.0003623287    1.606    0.377
       322  -9.7822      7.3090     56.6003   7.2250333267e+01   6.7011329898e+01    0.3304503    0.1518923  62.47  0.001286219    3.148    0.682
       323  -8.5595     31.0299     51.3443   5.6464170083e+01   6.6426453318e+01    0.1889101    0.1808382   6.26 0.0006465157    1.083    0.076
       324  -8.1687     92.5232     50.5173   2.7281185498e+01   5.5311521674e+01    0.1536301    0.1460093  78.40 2.303909e-05    1.081    0.075
       325 -11.2244     45.5935     48.9043   4.7201513797e+01   6.5053098992e+01    0.2996778    0.2609829 -39.08 0.0005498559    1.114    0.102
       326  -9.0378     22.6041     46.6919   6.0131362321e+01   6.8403773081e+01    0.2783192     0.160448  -2.04  0.001263567    2.124    0.529
       327  -8.0360     81.7311     46.6936   2.9551959836e+01   5.8525994652e+01    0.1476679    0.1178283   8.45 0.0002685572    1.536    0.349
       328  -8.7575      1.5966     45.9701   7.3836362030e+01   6.9906433312e+01    0.1825613    0.1432249 -63.68 0.0005212151    1.121    0.108
       329 -10.0973     16.6883     44.0887   6.3194749380e+01   6.9530098025e+01    0.3984238    0.1951787 -83.73  0.001551607    3.064    0.674
       330  -8.5817    150.0000     44.9329   1.1047427309e+01   4.1493374709e+01    0.3925827   0.08356549 -30.87  0.001033805    4.776    0.791
       331 -10.2235      4.9971     41.0773   7.0438169345e+01   7.0970752708e+01    0.4396691    0.2014656 -88.97  0.001798472    2.881    0.653
       332  -8.7636    113.9082     41.2692   1.7291804131e+01   5.1510199110e+01    0.2111327    0.1833901  56.31 0.0002762677    1.103    0.094
       333  -8.3207     69.3142     41.6296   3.2338093421e+01   6.2191005782e+01    0.1504203    0.1187672 -83.62 0.0007035261    1.780    0.438
       334  -8.7431    123.6558     40.0559   1.4518480861e+01   4.9135023342e+01    0.1979548    0.1921799 -49.23 0.0003475571    1.093    0.085
       335  -8.3486     37.3473     40.7279   4.8564210022e+01   6.8059886695e+01    0.1358593    0.1080613  60.91 0.0003760523    1.624    0.384
       336  -8.3862     84.2591     39.5613   2.5500504377e+01   5.9205085194e+01    0.2162697    0.1328449  41.46 0.0009392818    1.632    0.387
       337  -8.4886     26.3948     36.2277   5.3719524511e+01   7.0431206550e+01    0.1857626    0.1289135 -67.77 0.0009479953    1.673    0.402
       338  -8.4919     37.8693     35.3655   4.5823833101e+01   6.9126182638e+01     0.196941     0.125605  17.24 0.0005980422    1.757    0.431
       339 -10.1225      6.1501     33.6586   6.7593313974e+01   7.2687351199e+01    0.3099895     0.202976 -23.08  0.001351459    1.500    0.334
       340  -8.2403    119.4836     33.4882   1.2926415644e+01   5.1175982661e+01    0.1516354    0.1385307 -89.28 8.626765e-05    1.063    0.059
       341  -8.7148    222.5046     32.4596   3.5897478197e+02   2.5842872278e+01    0.1279602    0.1028674 -54.00 0.0001827779    1.015    0.015
       342  -7.7834     60.3743     32.6833   3.2100024055e+01   6.5669025885e+01    0.1446913    0.1158972  86.47 0.0007031249    1.798    0.444
       343  -9.0262     12.7144     31.1198   6.1663142300e+01   7.2862546078e+01    0.1988695    0.1619763 -88.80 0.0007963058    1.506    0.336
       344  -8.9153      1.9878     27.7498   6.9143249651e+01   7.4258211434e+01    0.2375751    0.1496527  -2.39 0.0008466301    1.642    0.391
       345  -9.7900     44.3575     25.1682   3.6587594647e+01   7.0049795729e+01    0.2303346    0.1983147  31.05 0.0003833418    1.128    0.113
       346  -8.6790     28.3237     26.3501   4.7739662416e+01   7.2294810352e+01    0.1447211    0.0944671 -18.60  0.000704869    1.751    0.429
       347  -8.4087    110.4852     24.4379   1.1260755736e+01   5.4755923603e+01     0.148251    0.1351839  65.97 9.042153e-05    1.024    0.024
       348  -8.8362     66.8353     23.5954   2.4417313710e+01   6.5763780344e+01    0.1913951    0.1332127  62.42 0.0003809453    1.578    0.366
       349  -8.1345     58.7437     22.0255   2.7159109010e+01   6.7766003578e+01    0.1673766    0.1202688 -32.63 0.0003017145    1.453    0.312
       350 -10.0345     13.0606     21.0598   5.7110388683e+01   7.5049802933e+01    0.2783661    0.2271294  -6.32 0.0006755106    1.158    0.136
       351 -10.0787    188.9013     20.2011   3.5861514667e+02   3.4799214607e+01     0.270193    0.1898473 -25.27   0.00100149    1.525    0.344
       352  -8.6617     84.8652     21.1825   1.6585503337e+01   6.1805739993e+01     0.213924    0.1898696 -83.75 0.0005336853    1.249    0.200
       353  -8.3009     63.4604     20.9470   2.4405535083e+01   6.6905355700e+01    0.1911522    0.1161396 -56.31 0.0008075824    2.421    0.587
       354  -8.3504     48.3196     21.6923   3.2318132325e+01   6.9918481107e+01    0.1302667    0.1122183  88.22 0.0003068459    1.638    0.390
       355  -8.8084     41.0668     20.9964   3.6164500025e+01   7.1357576612e+01     0.201148    0.1806965   3.64            0    1.015    0.015
       356  -9.4764     29.9613     18.8393   4.2343725680e+01   7.3520076568e+01    0.2647033    0.1576164  36.83  0.001341489    1.685    0.407
       357  -8.7510      1.4966     19.5075   6.6818210736e+01   7.6150088030e+01    0.1267039    0.1055847 -37.50 0.0008106201    1.010    0.010
       358  -8.0602    106.5014     18.5014   9.6002765658e+00   5.6523635628e+01    0.1467043    0.1334118  65.69 0.0008106152    1.020    0.019
       359  -8.8929     50.8415     14.9714   2.6871072585e+01   7.0458263751e+01    0.2162921    0.1696957  17.02 0.0007254084    1.298    0.230
       360 -10.1261    195.9409    248.5982   4.6469494167e+01  -4.6064728116e-01      0.28021    0.1572592  26.77   0.00184812    1.406    0.289
       361  -8.3778     27.3874     13.2857   4.0761990425e+01   7.4890931149e+01    0.1385412   0.09288158  -0.99 0.0007008032    1.749    0.428
       362 -10.6782    107.7770    238.5204   6.2756088112e+01   1.1939667323e+01    0.3916127    0.2646653 -57.48  0.002466755    1.906    0.475
       363  -8.2372     80.4521     12.4706   1.3465318102e+01   6.3957881880e+01    0.1405247    0.1301276  61.59 8.953533e-05    1.052    0.050
       364  -9.6355    107.4523    247.7366   6.3724579372e+01   1.0504841226e+01    0.2438659    0.2216822 -85.22   0.00109376    1.470    0.320
       365  -9.6425    106.4938    243.4767   6.3520402907e+01   1.1300040777e+01    0.2184297    0.1825343  46.15  0.000951857    1.220    0.180
       366  -8.8895    148.0000    248.9950   5.5546359102e+01   5.2301534510e+00    0.1769934    0.1207342  45.88  0.001137878    1.686    0.407
       367 -10.7467     73.6726    244.4656   7.0667477467e+01   1.5166097513e+01    0.2483119    0.2021634  36.92  0.000588007    1.093    0.085
       368 -11.0717      7.8174    242.4656   8.4554447246e+01   2.2378482777e+01    0.5596746    0.3234876  27.10  0.003642365    1.575    0.365
