#   1 NUMBER                 Running object number                                     
#   2 MAG_AUTO               Kron-like elliptical aperture magnitude                    [mag]
#   3 X_IMAGE                Object position along x                                    [pixel]
#   4 Y_IMAGE                Object position along y                                    [pixel]
#   5 X_WORLD                Barycenter position along world x axis                     [deg]
#   6 Y_WORLD                Barycenter position along world y axis                     [deg]
#   7 A_WORLD                Profile RMS along major axis (world units)                 [deg]
#   8 B_WORLD                Profile RMS along minor axis (world units)                 [deg]
#   9 THETA_WORLD            Position angle (CCW/world-x)                               [deg]
#  10 FWHM_WORLD             FWHM assuming a gaussian core                              [deg]
#  11 ELONGATION             A_IMAGE/B_IMAGE                                           
#  12 ELLIPTICITY            1 - B_IMAGE/A_IMAGE                                       
         1 -13.4022     31.8420     59.8756   1.2169527787e+02   6.0404135521e+01     1.328812    0.9626142  51.84  0.008190465    2.094    0.522
         2 -12.4381     42.7313     20.4999   1.0388236450e+02   6.5703024360e+01    0.7812912    0.4097582  20.60  0.003144737    2.025    0.506
         3 -13.2066    216.0324     16.5584   6.3862306311e+01   2.9553515017e+01    0.9876347    0.5889475  59.48  0.002973885    1.624    0.384
         4 -13.4840    188.5750      7.5058   6.4772012517e+01   3.7179715742e+01     1.135643    0.5127696 -87.27  0.004303263    3.227    0.690
         5 -12.0216     57.9857      8.2693   9.3014156398e+01   6.5076967513e+01    0.4339683    0.3185054  28.43  0.002441973    1.231    0.187
         6 -12.0667     43.4273      8.3709   9.8440157493e+01   6.7116178435e+01    0.3079837    0.2138524  31.67 0.0007491133    1.460    0.315
         7 -11.2629     54.3337      2.6154   9.1817024685e+01   6.6199568808e+01    0.2901199    0.2081263  62.07  0.001750819    2.521    0.603
         8  -9.9777    127.0150      4.9864   7.3448050553e+01   5.2095733559e+01    0.1998622    0.1660197  45.80 0.0006470848    1.037    0.036
         9 -12.1469    167.7845      2.2078   6.6010735067e+01   4.2735912453e+01    0.6646777    0.2098386  68.20  0.002569717    2.713    0.631
        10  -9.7451    108.6515    230.3252   1.3281663706e+02   1.2644720825e+01    0.1379792   0.08390258  69.72 0.0007049326    1.751    0.429
        11 -10.7659     12.5390    227.1031   1.4971985449e+02   2.6227301002e+01    0.2242542    0.1407393  84.95 0.0006453004    1.168    0.144
        12 -10.9048     96.6441    225.0592   1.3449504652e+02   1.5605549162e+01    0.4016012     0.231278  71.56  0.002038775    1.914    0.477
        13 -10.5141     76.8363    226.0141   1.3835964681e+02   1.8438887874e+01    0.2091288    0.1523068  59.87 0.0006747125    1.157    0.136
        14 -10.0089    103.6280    225.1754   1.3315964153e+02   1.4459786332e+01     0.167007    0.1144626 -54.93  0.000945757    1.694    0.410
        15 -10.0731    149.3340    223.6542   1.2394515535e+02   6.8257209295e+00    0.1394905   0.09675931  72.65  0.000704943    1.767    0.434
        16 -11.2412    226.8234    221.6919   1.0862822211e+02  -6.7472600327e+00    0.2183607    0.1751278 -69.10  0.001240496    2.088    0.521
        17 -11.6080    239.2762    217.9464   1.0568384826e+02  -8.2730025341e+00    0.4215825     0.174743 -22.71  0.001555758    3.906    0.744
        18  -9.8218    211.2425    218.2664   1.1092773307e+02  -3.5404414431e+00    0.1913677    0.1063124 -50.86 0.0008705441    2.402    0.584
        19 -10.0474    233.3364    219.6702   1.0707238914e+02  -7.5423534384e+00     0.115795    0.1032897  78.53 0.0004673529    1.731    0.422
        20 -10.9511    223.5496    213.4569   1.0773959617e+02  -4.9585825522e+00    0.3795092    0.1958913  24.63  0.001664593    2.388    0.581
        21 -10.5757    232.8575    211.1490   1.0559148290e+02  -6.2107983114e+00    0.1877277    0.1775251  35.91 0.0007016323    1.275    0.216
        22 -10.4849    115.7520    209.8970   1.2872784358e+02   1.5480261833e+01    0.2847301    0.1533879  64.20  0.001250572    2.205    0.546
        23 -10.2411    185.8249    204.2276   1.1336743683e+02   3.5048454351e+00    0.2308148    0.1555376  82.14  0.000958841    2.863    0.651
        24 -11.1005     49.0880    201.9531   1.4121206673e+02   2.7203953454e+01     0.332927    0.1890892  83.24  0.001823304    1.705    0.413
        25 -10.9192      5.0869    199.4674   1.4920083516e+02   3.2473195350e+01    0.2840717    0.1390229  53.27  0.001066649    1.856    0.461
        26 -10.0096    112.4802    197.9722   1.2767353810e+02   1.8540905552e+01    0.1969986    0.1137913 -86.80 0.0008101552    2.556    0.609
        27  -9.6193     12.1288    197.1692   1.4777280178e+02   3.2290399588e+01    0.1618433    0.0994309  71.58 0.0007920531    1.355    0.262
        28 -12.4188    160.4539    192.0078   1.1638793475e+02   1.0778602111e+01    0.7128673    0.5396839  85.44  0.002571137    1.716    0.417
        29  -9.8492     66.3099    194.6409   1.3695913865e+02   2.6521562900e+01    0.1392513   0.08314428  75.36 0.0007041901    1.738    0.425
        30  -9.9896     94.6913    187.0202   1.2989018542e+02   2.3938296577e+01    0.2223638    0.1046966 -82.54 0.0007039844    4.196    0.762
        31 -10.5179     34.3215    186.8293   1.4263680463e+02   3.2221678332e+01    0.2517554   0.09467746 -79.36  0.001089537    2.653    0.623
        32  -9.5554    109.3364    186.6429   1.2660662378e+02   2.1552313505e+01    0.1527462    0.1004881  76.93 0.0007041048    1.806    0.446
        33 -10.5784    223.9841    183.7378   1.0189348592e+02  -2.1290293878e-01    0.2444775    0.1807772 -51.88  0.001025084    1.606    0.377
        34  -9.9593    183.3403    184.6997   1.1017004830e+02   7.6284076777e+00    0.1456674    0.1147432  79.44 0.0005345168    1.668    0.401
        35  -9.5290     28.5062    176.5529   1.4280025836e+02   3.5107427006e+01    0.1203931   0.09485719 -83.83 0.0001691206    1.068    0.064
        36  -9.8142     12.4946    176.5205   1.4604521045e+02   3.6656370795e+01    0.1181925   0.08636568  88.89 0.0003512321    1.040    0.038
        37 -11.4033     34.9410    173.9598   1.4118111865e+02   3.5007718300e+01    0.3472448    0.2006596  74.49  0.001850226    1.754    0.430
        38 -10.4949     45.8578    172.5770   1.3867412580e+02   3.4090496565e+01     0.378066    0.1315973  55.52  0.001432625    3.665    0.727
        39  -9.7313     88.3921    168.2172   1.2840810795e+02   2.9238001994e+01    0.2050999    0.1232377 -74.11 0.0009514164    1.743    0.426
        40 -10.9686     55.5262    167.3649   1.3586442371e+02   3.4108003424e+01    0.3613378    0.2407495  86.42  0.001536839    1.476    0.323
        41 -10.0951     19.4069    166.2668   1.4367116162e+02   3.8280717822e+01    0.1748318   0.09078499 -84.58 0.0009499425    1.671    0.402
        42  -9.7068    138.8312    165.1972   1.1605104339e+02   2.0793521306e+01    0.2654876    0.1635418  82.07 0.0009527636    2.932    0.659
        43 -10.3241     79.7060    163.8593   1.2974737332e+02   3.1592374977e+01    0.4278008    0.2067248  89.33  0.001230373    5.355    0.813
        44 -11.5985    120.2323    158.1483   1.1902735609e+02   2.6026831219e+01    0.5799626    0.4311157  80.96  0.002778583    1.585    0.369
        45 -10.5819     22.1818    159.2525   1.4234114151e+02   3.9592953504e+01    0.3228439    0.1625319  69.57  0.001631667    2.294    0.564
        46 -11.2088    106.7500    158.5198   1.2234411197e+02   2.8414362627e+01    0.5184201    0.2749917  58.07  0.002098217    2.260    0.557
        47  -9.9972     98.6717    166.3159   1.2567695246e+02   2.7998481045e+01    0.1500445    0.1034689  77.48 0.0007045208    1.676    0.403
        48 -11.0626     28.6325    156.6571   1.4061055040e+02   3.9566684306e+01    0.3934585    0.1897772 -88.21  0.001840468    2.256    0.557
        49 -10.5803    168.4207    157.8446   1.0779305579e+02   1.6207758567e+01     0.410161    0.2459511  60.73  0.001654231    2.027    0.507
        50 -10.3997    219.2185    157.4084   9.7214862764e+01   5.4331938920e+00    0.2072192    0.1403267  57.68 0.0009598493    1.723    0.420
        51  -9.6175      6.9549    155.9776   1.4531511850e+02   4.1623424796e+01    0.1472594    0.1015804 -79.59 0.0006286421    1.087    0.080
        52 -10.0065     68.7251    154.7686   1.3092389718e+02   3.5304653245e+01    0.2081657   0.09317192  47.93 0.0008866733    2.381    0.580
        53  -9.7730    133.3469    153.6510   1.1497165472e+02   2.4493436528e+01    0.1630456    0.1173342  83.82 0.0007040934    1.813    0.449
        54  -9.4847     23.5203    153.4902   1.4139871495e+02   4.0769377626e+01    0.1230297   0.09515796 -82.69 0.0008101546    1.023    0.022
        55 -10.1142     39.8879    152.1997   1.3745452383e+02   3.9435607885e+01    0.2021952    0.1443149  79.80  0.001201196    1.377    0.274
        56 -10.8953    242.4727    150.8458   9.1546877938e+01   1.9420964934e+00    0.2652496    0.1577476  26.17  0.001146496    2.274    0.560
        57  -9.9099    190.0067    150.9953   1.0161162857e+02   1.2919157463e+01    0.2480937    0.1927814 -84.79  0.001136636    1.729    0.422
        58 -10.5932    107.4081    146.0238   1.1973684208e+02   3.1216140830e+01    0.4934211    0.2737816  78.14  0.001508042    4.339    0.770
        59  -9.4463     78.4839    147.5288   1.2729460876e+02   3.5615125152e+01    0.1408129    0.1233211 -81.59 7.843647e-05    1.035    0.034
        60 -10.7782     55.8542    145.8775   1.3267097730e+02   3.9072110200e+01     0.456923    0.2245795  83.01   0.00155613    4.247    0.765
        61  -9.9195    148.4774    144.9706   1.0948448061e+02   2.3303837299e+01    0.2247712    0.1348615 -70.90 0.0008100845    2.558    0.609
        62 -10.0269     23.1815    138.5681   1.3965703749e+02   4.4186944139e+01    0.2642277    0.1160484  81.69 0.0009607357    4.229    0.764
        63 -11.4771     83.3420    131.3590   1.2295173110e+02   3.8694093402e+01    0.5933228    0.2875868 -69.57   0.00223991    2.681    0.627
        64 -11.8538     98.5221    127.6887   1.1812646497e+02   3.7070245154e+01    0.9853756    0.5709761 -89.95  0.003166978    4.114    0.757
        65  -9.7405     73.3282    129.6672   1.2528422907e+02   4.0573546705e+01     0.143434    0.1026125  81.30 0.0006889661    1.718    0.418
        66 -10.1919     11.8818    128.4392   1.4113053283e+02   4.7379494633e+01    0.2796038    0.1167015 -84.24  0.001229916    2.767    0.639
        67 -10.6172     59.4180    124.7153   1.2808058715e+02   4.3583736432e+01    0.3724847     0.229358  87.85  0.001704886    2.306    0.566
        68 -11.2593     43.9719    123.7964   1.3209973705e+02   4.5576172702e+01      0.55243    0.3083958  84.05  0.002415035    2.807    0.644
        69 -11.1959     28.2139    122.6942   1.3613114012e+02   4.7357260425e+01    0.4907132    0.2449472  79.10  0.001991737    3.605    0.723
        70 -11.6984    193.3937    118.7773   9.3239049967e+01   1.8647317960e+01    0.6584538    0.4754982 -67.18  0.002424137    1.692    0.409
        71 -10.6317     14.5461    121.2626   1.3950146112e+02   4.8786984341e+01     0.298858    0.2306918   0.37  0.002018406    1.808    0.447
        72 -10.1622     71.5111    120.5102   1.2391732704e+02   4.2963701935e+01    0.3109218    0.1987935  77.90  0.001376535    2.411    0.585
        73 -10.5014     37.7386    121.0552   1.3331467679e+02   4.6842510788e+01    0.1816644    0.1714044 -74.73 0.0004318918    1.156    0.135
        74 -11.1441    140.9849    117.2982   1.0463636116e+02   3.1050474924e+01    0.5622702    0.2188816 -52.52  0.001785266    2.963    0.662
        75  -9.9294    130.3273    118.6458   1.0764980329e+02   3.3035986574e+01    0.1623598    0.1220371 -87.62 0.0007046412    1.772    0.436
        76 -10.3858      2.4770    116.0694   1.4192705313e+02   5.0750184617e+01    0.3568717    0.1385792 -85.33  0.001481282    3.375    0.704
        77  -9.6569    232.2373    115.0228   8.5171000581e+01   1.0485649280e+01    0.1986033    0.1164838 -38.38 0.0004585147    1.596    0.374
        78 -10.3073    108.6105    113.4363   1.1204653156e+02   3.8513530961e+01    0.4872286    0.2336275 -66.57  0.001455098    4.103    0.756
        79 -10.6258     78.4931    112.2473   1.2014184084e+02   4.3854907130e+01    0.4104588    0.2445279 -78.65  0.001671991    2.642    0.622
        80 -10.9682    174.7265    111.5179   9.5303740820e+01   2.4518450469e+01    0.4265252    0.3268717 -56.30  0.001290163    1.365    0.268
        81 -12.2339    160.9771    111.9771   9.8491778286e+01   2.7659457895e+01    0.6425489    0.4220829  49.87  0.002795983    1.531    0.347
        82 -11.5086    158.1398    106.2692   9.7641696450e+01   2.9500999000e+01    0.4495797     0.300209 -76.53  0.001742969    2.322    0.569
        83 -10.3787    122.4007    113.2102   1.0831608835e+02   3.5872390192e+01     0.222254    0.1412622 -57.58 0.0009490378    1.686    0.407
        84 -10.0115     91.8852    112.0393   1.1631175206e+02   4.1789216825e+01    0.3536651     0.192358 -72.41  0.001252639    3.189    0.686
        85 -11.4394     15.4320    110.8435   1.3774247230e+02   5.1039723842e+01    0.5732478    0.3589609  78.46  0.003290548    1.985    0.496
        86 -10.0605     66.5001    110.9930   1.2328968847e+02   4.5831447768e+01    0.1951953    0.1150313 -80.20 0.0008105903    2.577    0.612
        87 -10.5199    134.1982    110.1215   1.0447405274e+02   3.4078951651e+01    0.3017864    0.2079051  75.22  0.001243539    2.081    0.519
        88 -10.0918     60.0174    109.9313   1.2492773209e+02   4.6907784351e+01    0.2060384    0.1749034 -50.17 0.0008014779    1.062    0.059
        89 -12.7016    142.0916    105.2813   1.0121306199e+02   3.3376925626e+01    0.6498541    0.3924869  65.42  0.002524987    2.236    0.553
        90 -10.8865     41.7000     98.3155   1.2786417051e+02   5.1563688524e+01    0.2408967    0.2020843  24.37 0.0008277508    1.421    0.296
        91 -11.8184    127.6944    100.9230   1.0367924917e+02   3.7426717270e+01    0.5890415    0.3364964 -55.76  0.002375051    1.998    0.499
        92 -10.2772     19.8808     97.9893   1.3433322555e+02   5.3536457887e+01    0.3757151    0.1530891 -76.43  0.001507549    3.357    0.702
        93 -11.9987    151.9456    110.8784   1.0031445289e+02   2.9973236467e+01    0.4338171    0.2705407  66.74  0.001705707    2.111    0.526
        94 -11.8227    114.7311    102.4332   1.0753393856e+02   3.9754913478e+01     1.157806    0.2394316  42.14  0.002951395    5.189    0.807
        95 -11.1235    107.5979     98.8059   1.0851382405e+02   4.1908631026e+01    0.5940297    0.4032142 -77.66  0.002498197    2.331    0.571
        96 -11.8534     44.2082    101.7907   1.2784297615e+02   5.0540016371e+01    0.5869033    0.3652426  66.41  0.002885469    2.507    0.601
        97 -10.5135     81.8700    100.3510   1.1629437999e+02   4.6002872624e+01    0.2147145    0.1775741  58.85 0.0009211411    1.419    0.295
        98 -11.0668     63.3643     96.2704   1.2081490266e+02   4.9525273911e+01    0.3439328    0.2213196  89.44  0.001484407    2.881    0.653
        99 -13.0216    170.4073     90.7849   9.0714749608e+01   2.9636245521e+01    0.4837706    0.4618782 -51.78 0.0009715038    1.047    0.045
       100 -10.9121     87.8997     93.9016   1.1283456045e+02   4.6436711497e+01    0.2836286    0.1980655  43.01  0.001439781    1.560    0.359
       101 -10.7189     34.3233     88.1618   1.2794504513e+02   5.4467314357e+01    0.4430834    0.1546634 -63.11  0.001787693    2.863    0.651
       102 -11.4771     87.2005     87.6233   1.1132043119e+02   4.7870144202e+01    0.4236775    0.2896907  70.13  0.001904033    2.421    0.587
       103 -11.4355     41.9962     87.8315   1.2544280283e+02   5.3802963670e+01    0.3783551    0.2375188  -5.19  0.001710582    2.262    0.558
       104 -10.7760     45.4861     81.9413   1.2290059368e+02   5.4682467347e+01    0.6852254     0.414769  79.60  0.002572232    4.784    0.791
       105 -10.2329     47.9465     78.5081   1.2121883620e+02   5.5126081988e+01    0.2507376    0.1711096 -29.41  0.001071392    1.459    0.315
       106 -10.6070    105.5270     84.4024   1.0503788247e+02   4.5278103194e+01    0.3874682    0.2656944 -89.03   0.00155262    2.866    0.651
       107 -10.5312     24.5985     81.0070   1.2947878720e+02   5.6796743147e+01    0.3489473    0.2258219  85.17  0.001848323    2.530    0.605
       108  -9.8112      1.4957     79.0132   1.3649963994e+02   5.8705425617e+01    0.1807841   0.08440434 -62.30 0.0007289186    1.590    0.371
       109  -9.5235    174.5033     76.4711   8.5909522175e+01   3.1243979790e+01    0.1524189    0.1454856  89.85 5.665729e-05    1.026    0.025
       110 -10.7628     62.4863     70.4993   1.1417809607e+02   5.4969656940e+01    0.3596178    0.1859689 -38.81  0.001742909    1.765    0.434
       111 -10.8079     82.3202     73.0059   1.0854984008e+02   5.1581788403e+01     0.338375    0.2323956 -68.80  0.001594758    2.251    0.556
       112 -11.5603    223.2141     70.9065   7.6017239034e+01   2.0225246310e+01    0.3488101    0.2768366 -88.97 0.0006885023    1.294    0.227
       113  -9.9612     95.1576     72.0035   1.0432396601e+02   4.9590573366e+01    0.2286507    0.1616991 -65.78  0.001080775    2.028    0.507
       114 -10.6115     51.9535     70.1570   1.1760250278e+02   5.6346792061e+01    0.2791004    0.1787247 -56.88  0.001496262    1.614    0.380
       115 -11.3830     10.6835     58.0397   1.2887102014e+02   6.2357805163e+01    0.7026994    0.3956836  52.59  0.003702642    3.401    0.706
       116 -10.6949     19.5424     59.2397   1.2596630454e+02   6.1528981800e+01    0.2482637    0.1980443 -25.80  0.001138244    1.166    0.142
       117 -10.2925    221.6809    249.6797   1.1430096928e+02  -9.7442967835e+00    0.1239348   0.08049946  12.55 0.0006643953    1.665    0.399
       118 -10.1790    196.7373     68.2453   7.9546647663e+01   2.7112906186e+01    0.3785186     0.149521  50.56  0.001358386    2.552    0.608
       119 -10.3448    219.9828     65.4347   7.5153478020e+01   2.1876132278e+01    0.2897373    0.2371036  40.61 0.0009843986    1.459    0.315
       120 -10.0557      9.8281     65.9765   1.3106557140e+02   6.0868510101e+01    0.1701924    0.1526072 -23.12 0.0005829612    1.242    0.195
       121 -12.3001    239.9083     64.1125   7.2102512856e+01   1.7414537740e+01     0.542401    0.3251713  76.33  0.002584334    1.840    0.457
       122 -10.4914     47.5707     57.6476   1.1539788269e+02   5.9221149809e+01    0.2629577    0.1804861 -16.89  0.001042588    1.494    0.331
       123 -10.1030     62.6768     54.0440   1.0894779889e+02   5.7971551042e+01     0.248161    0.1077205 -48.59   0.00108932    2.427    0.588
       124 -10.2314     53.5852     53.0090   1.1177941472e+02   5.9338727975e+01     0.398769    0.1475233 -53.64  0.001470003    3.859    0.741
       125 -10.5190    161.9337     53.1690   8.1745466276e+01   3.8147746545e+01    0.3471365     0.181595  51.15  0.001469714    1.800    0.444
       126 -11.3752    150.1266     52.6693   8.4026943135e+01   4.1095131624e+01      0.42368    0.2651763  72.35  0.001793913    1.950    0.487
       127 -10.2360    191.7888     46.6334   7.4615816479e+01   3.1658351940e+01    0.2224016     0.164865  51.29 0.0006524482    1.368    0.269
       128 -10.6266     81.6733     46.5165   1.0004640065e+02   5.6311723567e+01    0.2754613    0.2372213  62.43  0.001660737    1.593    0.372
       129 -10.4937    157.1361     44.9240   8.0239962682e+01   4.0516835507e+01    0.2900584     0.189284  54.58 0.0005013014    1.418    0.295
       130 -10.7684     39.9621     52.5899   1.1656181695e+02   6.0962236888e+01    0.3725092    0.1941088 -29.91 0.0009614282    1.889    0.470
       131 -11.7879     72.3603     42.3657   1.0159734910e+02   5.8461371056e+01    0.6398809    0.3821114  50.19     0.003286    2.175    0.540
       132 -10.1033     10.0213     44.0000   1.2535206360e+02   6.4994021671e+01    0.2226678    0.1469412  25.89  0.001138451    1.870    0.465
       133 -10.5979      5.6620     42.8376   1.2673445303e+02   6.5466918823e+01    0.3100888    0.2005324 -69.77  0.001874387    2.021    0.505
       134 -11.9895     41.3261     38.5980   1.1135912462e+02   6.3197446189e+01    0.5745479    0.3610398  21.06  0.002147991    1.665    0.399
       135 -10.3475     81.7501     37.7728   9.6870325830e+01   5.7603469239e+01    0.3558543    0.2048383  60.35  0.001573714    3.019    0.669
       136 -10.9699    119.8579     34.1004   8.4923709657e+01   5.0626738764e+01    0.3298392    0.2676008  46.77   0.00134821    1.148    0.129
       137 -10.4624     49.3582     34.7710   1.0692793208e+02   6.2848886246e+01    0.3060184    0.1820908  20.52  0.001765967    1.759    0.432
       138 -10.1337     74.0383     32.4705   9.7373495379e+01   5.9630878686e+01     0.298212    0.1848247  60.18  0.001433272    2.816    0.645
       139 -11.1046    103.6044     30.2868   8.7735934706e+01   5.4515838939e+01    0.4547025    0.3042158  64.74   0.00189243    1.910    0.476
       140 -10.6626     18.7622    236.3230   1.4928207098e+02   2.3807492531e+01    0.2567812    0.1351675  78.72  0.001659189    1.516    0.340
       141 -11.5164     25.4051    242.2789   1.4859407285e+02   2.1954050248e+01    0.2331682    0.1411836  74.55  0.000793815    1.227    0.185
       142 -10.9624    239.9218     20.7999   6.2399385646e+01   2.3463865599e+01    0.2950277    0.2253308 -84.02 0.0007569163    1.125    0.111
       143  -9.7056     88.9951     18.4878   8.7379816623e+01   5.8730535866e+01    0.1596729    0.1131009  77.49  0.000810163    2.524    0.604
       144  -9.7232    127.7089     14.6389   7.6546213983e+01   5.1060309824e+01    0.1853277    0.1301868  11.06 0.0007024445    1.653    0.395
       145 -11.3153     22.4594    239.4895   1.4888820243e+02   2.2805570587e+01    0.2467508    0.1487969 -74.58  0.001474991    1.550    0.355
       146 -10.3294      7.9724    240.6871   1.5121625919e+02   2.4133386602e+01    0.1493751    0.1011247  71.67  0.001062642    1.081    0.075
       147 -10.1718      2.3328    239.9475   1.5203359726e+02   2.4839605702e+01    0.1507497   0.09642745  84.22  0.000730085    1.112    0.100
       148 -11.7559     30.1268    233.9700   1.4728324311e+02   2.2982292375e+01    0.5733807     0.227606  70.97  0.002790486    2.635    0.621
       149  -9.6172     77.3400    234.6724   1.3913869331e+02   1.6673361653e+01    0.1321776    0.0737665  69.62 0.0007051572    1.734    0.423
