#   1 NUMBER                 Running object number                                     
#   2 MAG_AUTO               Kron-like elliptical aperture magnitude                    [mag]
#   3 X_IMAGE                Object position along x                                    [pixel]
#   4 Y_IMAGE                Object position along y                                    [pixel]
#   5 X_WORLD                Barycenter position along world x axis                     [deg]
#   6 Y_WORLD                Barycenter position along world y axis                     [deg]
#   7 A_WORLD                Profile RMS along major axis (world units)                 [deg]
#   8 B_WORLD                Profile RMS along minor axis (world units)                 [deg]
#   9 THETA_WORLD            Position angle (CCW/world-x)                               [deg]
#  10 FWHM_WORLD             FWHM assuming a gaussian core                              [deg]
#  11 ELONGATION             A_IMAGE/B_IMAGE                                           
#  12 ELLIPTICITY            1 - B_IMAGE/A_IMAGE                                       
         1 -15.1495    220.8434    115.6811   5.4235495115e+01   1.4037896425e+01     3.037965     2.463903 -76.08   0.01309189    1.487    0.328
         2 -12.9853    239.1547     22.3284   3.1658493350e+01   2.4433614841e+01     1.159003    0.2540268 -35.39  0.000560638    3.868    0.741
         3 -11.2704    249.3476     23.3692   3.1094243390e+01   2.2302268564e+01    0.5199503    0.1405529 -52.18   0.00216112    3.206    0.688
         4 -12.1146    243.2588     18.1464   3.0526313370e+01   2.4104295144e+01    0.3983159    0.1989369 -66.11  0.001929894    1.865    0.464
         5 -11.2973    249.1729     17.4271   2.9970367648e+01   2.3032356210e+01    0.2325785    0.1942479 -33.64  0.001682146    1.497    0.332
         6 -11.9766    111.5045     19.1278   4.7882184378e+01   5.4093291568e+01    0.4271777    0.3657593  82.38  0.002109738    1.313    0.238
         7 -11.8823     56.8192     13.9730   6.2167849573e+01   6.5885713087e+01    0.5471364    0.3782163   6.82  0.003298006    1.377    0.274
         8 -11.1989    154.8153     15.9102   3.9025831975e+01   4.4123122089e+01    0.5090744    0.2803138  -7.83  0.002319763    2.829    0.647
         9 -11.0465    101.2639     15.9016   4.9097881470e+01   5.6731253315e+01    0.3129063    0.2248868  35.81 0.0004348695    1.278    0.217
        10 -10.8901    227.4015     13.9977   3.0883152537e+01   2.7790351389e+01    0.2360915    0.1559528 -15.31  0.001339403    2.375    0.579
        11  -9.9702     19.7877     14.5848   8.0095370680e+01   7.1098015519e+01    0.3939213    0.1549733 -44.15  0.001894164    2.787    0.641
        12 -10.4420     24.9606     13.7644   7.6859861071e+01   7.0627403151e+01    0.3544186    0.2092917  14.66  0.002119447    1.549    0.354
        13 -10.6986    127.8289      5.1586   3.9916594787e+01   5.1536920562e+01     0.255609    0.2436841  50.94 0.0007106697    1.135    0.119
        14 -10.7674    250.1227     10.3107   2.8567515525e+01   2.3652669868e+01    0.1829616    0.1423364 -42.35  0.001320991    1.379    0.275
        15 -11.1523     80.3858      9.1898   5.1985861140e+01   6.1847506418e+01     0.507566    0.2565851 -48.44  0.002195004    3.473    0.712
        16  -9.7456     93.2982     10.1136   4.8844169912e+01   5.9023021414e+01     0.166941    0.1530172  38.17   0.00048032    1.111    0.100
        17 -10.2698     47.9596      8.3585   6.3071815829e+01   6.7995779361e+01     0.240264    0.1541648 -15.67 0.0005987804    1.527    0.345
        18 -10.4284    209.6867      8.6899   3.1182233911e+01   3.2140103829e+01    0.2191183    0.1761436  45.25 0.0007307063    1.644    0.392
        19 -10.7034    212.6309      5.5817   3.0270621606e+01   3.1818501896e+01    0.3285742    0.2417399 -16.07  0.001963618    1.924    0.480
        20 -11.8388     14.4427      8.1404   7.9937076157e+01   7.2561667531e+01    0.3916437    0.2273729  28.57  0.001342323    1.754    0.430
        21 -10.9468     12.5230      3.9010   7.8852403416e+01   7.3326831933e+01    0.2420377    0.1722004 -16.04  0.001319258    1.142    0.125
        22 -11.4421      4.5508      7.3872   8.5600462506e+01   7.3584338842e+01     0.238796    0.1617768  -3.99 0.0001981167    1.175    0.149
        23 -11.5071      5.3491      2.8413   8.2748512175e+01   7.4159017509e+01    0.4173741    0.2065101  12.67  0.002104534    1.905    0.475
        24 -11.8345    183.6516     12.4913   3.4533540048e+01   3.7629112660e+01    0.6399547    0.3358302  57.02  0.002640595    1.843    0.457
        25  -9.4365    216.7741      7.4004   3.0333380457e+01   3.0741232512e+01     0.159452   0.09531125  68.15 0.0009405754    1.598    0.374
        26 -10.5560    108.5664      6.7353   4.4047368666e+01   5.5893774447e+01    0.3269611    0.1840166 -46.31  0.001626117    2.296    0.564
        27 -10.4701    102.0187      1.7639   4.3590768034e+01   5.7766413672e+01     0.186828    0.1600894  76.75  0.000532469    1.256    0.204
        28  -9.2681     69.6626      7.2740   5.4459350371e+01   6.4175406009e+01    0.1092427   0.09767784  83.75 0.0003526061    1.607    0.378
        29 -12.2184    122.7334     11.0080   4.2749535000e+01   5.2243149578e+01    0.4385475    0.2855531  44.57  0.001034941    1.420    0.296
        30  -9.7426     39.5040      5.0286   6.5108713810e+01   6.9696300607e+01    0.3078732    0.1330884  45.59  0.001451191    2.411    0.585
        31 -11.8196     90.7591      2.7955   4.6560759820e+01   6.0179232686e+01    0.3103257    0.2254626  59.20 0.0004132951    1.253    0.202
        32  -9.5616     84.9193      1.1981   4.7376264437e+01   6.1555731085e+01    0.2441768    0.1044112  58.08 0.0007084996    1.981    0.495
        33 -10.4686     19.8050      3.5371   7.4396079691e+01   7.2563045441e+01    0.2134722   0.09277751  26.62 0.0009403198    2.111    0.526
        34  -9.0119    137.4987      1.5288   3.7268654236e+01   4.9536566239e+01    0.1272173    0.1069451  71.63 6.981621e-05    1.024    0.023
        35  -8.6857     42.3002      1.3643   6.1939651412e+01   6.9625647416e+01    0.1273558   0.07275848  14.70 0.0007034494    1.726    0.421
        36 -10.6315      1.9858    116.0474   1.1504661322e+02   5.0935348442e+01    0.1941736    0.1563151 -68.63 0.0003502707    1.013    0.013
        37  -9.9772     45.8026    113.3679   9.9895555611e+01   4.8139443676e+01    0.1872155    0.1340821   1.95 0.0007712662    1.677    0.404
        38  -9.5736     32.2760    113.3613   1.0455379781e+02   4.9489462495e+01    0.1490778   0.08648038 -41.45 0.0007007308    1.663    0.399
        39 -11.0965     21.4449    110.4669   1.0777120820e+02   5.1103209852e+01    0.2727778    0.1944612  55.30 0.0008144389    1.707    0.414
        40 -10.3467      1.9182    111.3196   1.1447189866e+02   5.2100969277e+01     0.171226    0.1487144 -55.10 0.0007072326    1.117    0.105
        41  -9.7400     99.9900    109.3851   8.0831806437e+01   4.0993844564e+01     0.285965    0.2084574 -20.09  0.001068685    1.645    0.392
        42  -9.6369     28.4612    109.7257   1.0521131983e+02   5.0731107638e+01    0.1953726    0.1048777 -53.41 0.0009299174    1.542    0.352
        43 -11.7435      6.4822    108.2200   1.1253112784e+02   5.2622982359e+01    0.3613459    0.2894137  58.35  0.000804011    1.475    0.322
        44 -11.1468      8.7386    103.2925   1.1102324424e+02   5.3703811225e+01    0.2590126    0.2372737 -76.39 0.0009171966    1.157    0.135
        45 -10.6663     12.4970    101.5360   1.0941529029e+02   5.3911241858e+01    0.2045901     0.165308 -29.04  0.001186319    1.278    0.217
        46 -10.2012     88.0682    105.7642   8.3671665784e+01   4.3999830893e+01    0.2374486    0.2045764 -44.27 0.0002900019    1.113    0.101
        47 -11.0283    249.6326    103.1872   4.7301461295e+01   1.0778381753e+01    0.2792551    0.2228343 -24.95  0.001638492    1.332    0.249
        48  -9.8210     79.6015    103.6794   8.5934741451e+01   4.5917222247e+01    0.3265549    0.2175536   0.46   0.00101875    2.105    0.525
        49  -9.0372     53.6295    101.3110   9.4444960157e+01   5.0206924692e+01    0.1443886    0.1105636  68.20 0.0007034896    1.772    0.436
        50  -9.4003     45.3455    101.7159   9.7543899095e+01   5.1075007033e+01    0.1367168    0.1076634  66.52 0.0002876487    1.644    0.392
        51  -9.6151     36.1299    142.0658   1.0798417078e+02   4.1802989712e+01    0.2102586    0.1631953 -49.90 0.0002624514    1.247    0.198
        52  -9.2573     53.5499     97.5321   9.3548361734e+01   5.1125741922e+01    0.1454407    0.1270096 -36.68 0.0001332904    1.027    0.027
        53 -10.2186    250.1221     95.3452   4.5598738080e+01   1.1962173726e+01    0.2312183    0.1567427 -34.31  0.001055898    1.366    0.268
        54  -9.5018    147.9774     96.2410   6.3809206855e+01   3.3678094778e+01    0.2114769    0.1951103  45.89 0.0003222246    1.092    0.084
        55  -9.5311     69.2189     95.9937   8.7473671435e+01   4.9344827832e+01    0.2075276    0.1783344 -37.81 0.0004405511    1.071    0.066
        56 -10.4062     16.4041     95.3669   1.0691194086e+02   5.5158876283e+01     0.221017    0.1988522 -72.23 0.0003305844    1.166    0.142
        57  -9.3093      1.4089     94.4707   1.1226970304e+02   5.6207301825e+01    0.1279018    0.1001225 -59.90 5.282562e-05    1.017    0.017
        58  -9.7836    116.8111     93.6508   7.1316384241e+01   4.1132405006e+01     0.210442    0.1915573  52.29 0.0007279968    1.160    0.138
        59 -10.4958     33.9627     89.6644   9.9033832453e+01   5.5126876889e+01    0.2883969    0.2068595  23.60  0.001428198    1.550    0.355
        60 -10.8782    121.0596     87.4625   6.8268165622e+01   4.1492914959e+01    0.3730607     0.298699  21.54  0.001804131    1.372    0.271
        61  -9.4673    139.0000     86.9822   6.3371637692e+01   3.7560162968e+01    0.2459223   0.08742868 -39.99  0.000360457    2.825    0.646
        62  -9.7279    131.4196     86.7026   6.5230186617e+01   3.9341346548e+01    0.2132066    0.1482107 -28.98 0.0008389001    1.564    0.361
        63 -10.3920     28.8304     85.2883   1.0001873928e+02   5.6613584669e+01    0.2288318    0.2123318 -34.71 0.0006697504    1.116    0.104
        64  -9.0308    245.3542     85.3005   4.4074159125e+01   1.4444087851e+01    0.1204935    0.1007134   4.76 0.0007001417    1.702    0.412
        65 -11.1671     75.6133     83.2735   8.1518525499e+01   5.1199318600e+01    0.3994795     0.247284  37.75 0.0001667916    1.678    0.404
        66  -9.5392     65.8706     83.5743   8.5169317740e+01   5.2661325816e+01    0.2320919    0.1680381 -52.22 0.0008150855    1.396    0.284
        67  -9.4952    112.9101     81.6618   6.8834174288e+01   4.4409627991e+01    0.2068227    0.1939001  32.83 0.0006437411    1.058    0.054
        68 -11.2300     80.0758     81.0378   7.9243640587e+01   5.0924126200e+01    0.2414474    0.2116472 -38.89            0    1.133    0.117
        69  -9.6829     30.9333     80.1664   9.7928196257e+01   5.7609953717e+01    0.1800301    0.1752622 -57.37 0.0003598296    1.219    0.179
        70 -10.0809      7.0110     80.4997   1.0770433895e+02   5.9223264993e+01    0.1659797    0.1223337   2.17 0.0005120564    1.541    0.351
        71  -9.5603    104.2914     78.8063   7.0528168872e+01   4.6780206808e+01    0.2351112    0.1931989 -60.78 0.0006851815    1.457    0.314
        72 -10.3092     53.9342     80.5859   8.8842822693e+01   5.4985471082e+01    0.2737642    0.2237324   7.78  0.001459966    1.249    0.200
        73  -9.8192     50.1462     76.3511   8.9097891827e+01   5.6398007341e+01     0.266516    0.1297791  17.24  0.001087988    2.556    0.609
        74 -10.5065      4.7067     75.6571   1.0767983095e+02   6.0449669822e+01    0.2642203    0.1495548 -40.96 0.0008373223    1.468    0.319
        75 -10.3696      1.9995     73.2616   1.0831974168e+02   6.1118877247e+01     0.230378    0.1762192 -10.99 0.0006230819    1.402    0.287
        76 -11.1790     78.4053     74.8606   7.7874659741e+01   5.2491595725e+01    0.2977895    0.2359308  28.46 0.0005848681    1.258    0.205
        77  -9.9497     74.6893     75.3122   7.9361649876e+01   5.3030313931e+01    0.2133792    0.1994901  66.83 0.0004382694    1.354    0.262
        78  -9.3102     20.5087     75.4846   1.0107304086e+02   5.9526817241e+01    0.1328028    0.1072801 -40.86 -7.963579e-05    1.010    0.010
        79  -9.8743    103.8841     72.8063   6.8725658213e+01   4.8020983697e+01    0.2140068    0.1895537   8.54 0.0002855575    1.124    0.110
        80 -10.3502    250.4308     71.7692   4.0669514151e+01   1.5567755151e+01    0.3313369    0.1123316 -35.15  0.001327774    2.837    0.647
        81 -11.7773    136.8881     69.5258   5.8672274253e+01   4.1245642312e+01    0.2846624    0.2748617 -34.96 0.0003505882    1.066    0.062
        82 -10.0435    141.3099     68.6566   5.7364688494e+01   4.0352577699e+01    0.2400256    0.1862632  69.47  0.000687617    1.409    0.290
        83 -11.3875     97.3190     69.4499   6.9675008297e+01   4.9994495449e+01     0.295511     0.259784 -43.12 0.0004389908    1.221    0.181
        84 -10.0907    101.3595     68.1040   6.7954775678e+01   4.9416934158e+01    0.2076781    0.1874135 -35.23 0.0006372757    1.153    0.133
        85  -9.7753     63.4321     70.6006   8.2064482125e+01   5.5782876170e+01    0.2579988    0.1705911  26.93 0.0007335264    1.542    0.351
        86  -9.3826     17.9640     70.9449   1.0103983411e+02   6.0726566971e+01    0.1599909    0.1234476 -44.92 0.0003598417    1.058    0.055
        87 -10.9617    155.6379     68.0658   5.4049487217e+01   3.7038663784e+01    0.3307616    0.2160955 -59.33 0.0007534149    1.840    0.456
        88 -10.2606     89.9706     67.8773   7.1549035561e+01   5.1738173621e+01    0.2127522    0.1959638   2.07 0.0003182513    1.006    0.006
        89  -9.5773    121.4545     66.4863   6.1629184123e+01   4.5333165393e+01     0.147039    0.1415272  29.37 -4.967344e-06    1.017    0.016
        90  -9.7239     70.9067     66.2849   7.7774620385e+01   5.5462634529e+01    0.1948368     0.163526  16.42 0.0003105481    1.147    0.128
        91 -10.2792    110.0713     64.0338   6.3987498019e+01   4.8287715981e+01    0.3816506    0.2931674 -71.52  0.001817991    1.866    0.464
        92  -9.9781     11.3207     64.3137   1.0229329292e+02   6.2617205772e+01    0.1857608    0.1205791  -2.94  0.000674246    1.643    0.391
        93 -10.6379      3.3483     64.5356   1.0588612764e+02   6.2998221818e+01    0.2803989    0.2129778  86.43  0.001721199    1.764    0.433
        94 -11.1485      3.9683     59.5428   1.0443500327e+02   6.4049434785e+01     0.253392    0.1680089 -41.58 0.0003313854    1.172    0.147
        95  -9.6250    235.3100     64.3346   4.0776244154e+01   1.9619283670e+01    0.1180165    0.1019484   7.74 0.0005161474    1.678    0.404
        96 -10.5916     43.1180     62.9443   8.7851728228e+01   6.0077910033e+01    0.3310556    0.2696283  83.56  0.001156991    2.051    0.513
        97  -9.5575     32.4906     63.5205   9.2652213568e+01   6.1109980588e+01    0.1341452    0.1099339 -28.17 1.926476e-05    1.010    0.010
        98  -9.4626    103.9881     58.7197   6.3972773884e+01   5.0502099709e+01    0.1967864     0.173352  30.35 0.0002366634    1.065    0.061
        99 -10.1249     59.6408     58.7208   7.9526443200e+01   5.8686935790e+01    0.2770768    0.2351567  10.81 0.0008835006    1.115    0.103
       100  -9.2209     50.5775     59.5261   8.3539029360e+01   5.9819534652e+01    0.1367208    0.1162033 -17.28 0.0001579875    1.011    0.011
       101  -9.4464     34.4527     69.4772   9.3569526414e+01   5.9650271102e+01    0.1352464    0.1124567 -31.15 0.0002429206    1.004    0.004
       102 -10.7012     95.6432     56.4597   6.5746407127e+01   5.2627215619e+01    0.3263659     0.217494 -12.63  0.001512616    1.842    0.457
       103 -10.1043    200.4177     55.7585   4.3155282709e+01   2.8385430808e+01    0.1822614    0.1304319 -26.08  0.000951689    1.626    0.385
       104  -9.8823    112.0229     55.6662   6.0616495068e+01   4.9245236598e+01     0.205464    0.1731225  43.20 0.0003291194    1.121    0.108
       105 -10.4222    162.7864     52.7139   4.8264713349e+01   3.7701018399e+01    0.3014466    0.2283968 -22.92 0.0008357435    1.524    0.344
       106  -9.4061     81.5151     54.5271   6.9755094443e+01   5.5730440727e+01    0.2019355    0.1331909 -46.91 0.0005642566    1.754    0.430
       107  -9.9073     81.3683     50.2216   6.8217904576e+01   5.6473045733e+01    0.2777291    0.1292358 -41.49 0.0008048032    2.288    0.563
       108  -9.8944    206.8928     51.7053   4.1325727358e+01   2.7507354309e+01    0.3178905    0.1834513 -15.04  0.001325039    3.066    0.674
       109  -9.7703    134.2804     53.2447   5.4209918544e+01   4.4480855297e+01    0.1917972    0.1655638 -83.66 0.0004290258    1.325    0.246
       110 -10.2810    106.0933     49.9281   6.0298133495e+01   5.1445000115e+01    0.3189858    0.2032746  63.34  0.001320021    1.914    0.478
       111  -9.6877     55.3194     50.2769   7.8218431655e+01   6.0875324409e+01    0.1981861    0.1550698 -26.08 0.0004678513    1.170    0.145
       112 -10.5420     58.6936     47.8037   7.5885008150e+01   6.0795682309e+01    0.2386885    0.1980245   7.29 0.0004596766    1.075    0.070
       113  -9.8326     17.6911     50.5815   9.5463058831e+01   6.5051201887e+01    0.2154324    0.1137154   8.44  0.001117255    2.049    0.512
       114  -9.2733    212.4628     49.5115   4.0125239069e+01   2.6579565243e+01    0.1320353    0.1140641 -69.72 3.603596e-05    1.005    0.005
       115 -10.2163     84.9964     47.5904   6.5990853214e+01   5.6192936237e+01    0.3898461    0.1915827 -29.52  0.001670371    2.202    0.546
       116  -9.7105     49.1895     49.1736   8.0409390160e+01   6.1945346660e+01    0.2061698    0.1516905 -13.58 0.0007905238    1.265    0.209
       117 -10.5895     28.6088     48.1784   8.9422766923e+01   6.4562757234e+01    0.2365769     0.163883  -0.10 0.0005587073    1.401    0.286
       118  -9.6254     25.4935     48.5266   9.1031206452e+01   6.4794319445e+01    0.1997507    0.1099492 -48.92 0.0007917843    1.648    0.393
       119 -10.2839    233.0057     48.0251   3.7523260754e+01   2.2412622480e+01     0.193516    0.1551374 -61.61  0.001236061    1.042    0.041
       120  -8.9805     95.2681     48.6630   6.3065265379e+01   5.3951255813e+01     0.131396    0.1127291 -70.66 0.0004037408    1.595    0.373
       121  -9.4689     89.1127     48.1276   6.4827124075e+01   5.5292841365e+01      0.16994    0.1626854  53.49 -0.0006383859    1.241    0.194
       122  -9.1947    168.9604     47.6758   4.5788322997e+01   3.6927479973e+01    0.2434499   0.07622249  45.14 0.0005474911    4.498    0.778
       123 -10.5811    136.5655     46.5359   5.1578038350e+01   4.4905464210e+01    0.3017723    0.2314152  60.67 0.0009979113    1.237    0.192
       124 -10.1524     41.5221     44.4640   8.2027819732e+01   6.3793467667e+01    0.3024479    0.2273832 -66.82  0.001287216    2.266    0.559
       125 -10.2105     32.5660     44.7478   8.6304954801e+01   6.4793631095e+01    0.1666824    0.1154661 -49.85 0.0003683189    1.574    0.365
       126 -10.1466    167.0074     43.5554   4.4966819639e+01   3.7959373992e+01    0.2733922    0.2216716  48.71  0.001250744    1.278    0.218
       127 -10.4215    141.8010     43.2881   4.9468320905e+01   4.4092562159e+01    0.3985763    0.1690225  46.34  0.001559331    2.357    0.576
       128 -10.3964    108.7732     43.4790   5.7277320702e+01   5.1792248563e+01    0.2566917    0.2382171  40.61 0.0005556488    1.058    0.055
       129 -11.0186    235.9601     42.8510   3.6136443577e+01   2.2506527812e+01    0.2269988    0.1624088 -46.66  0.001402774    1.241    0.195
       130  -9.8844     56.8834     41.6990   7.4239068373e+01   6.2093372863e+01     0.181303    0.1482977  18.65  0.000305724    1.136    0.120
       131  -9.2516    149.3231     41.2938   4.7399596468e+01   4.2539325373e+01    0.1421166    0.1016084  33.96 0.0005058763    1.616    0.381
       132 -10.9329    228.8655     37.7237   3.5733691183e+01   2.4640461038e+01    0.3549665    0.1346881 -53.92  0.001527056    2.597    0.615
       133 -10.5995     36.1238     38.1912   8.2083582324e+01   6.5546104435e+01    0.2062303    0.1625459 -13.27 0.0003025327    1.035    0.034
       134  -9.9667     33.6628     34.7276   8.1863178215e+01   6.6421809945e+01    0.1842799    0.1394635 -24.98 0.0003282163    1.148    0.129
       135  -9.4461    181.8651     38.1715   4.1281742996e+01   3.5110718673e+01    0.1981608    0.1602953 -71.76  0.000454995    1.193    0.162
       136  -9.8301     84.0909     37.8660   6.2569875761e+01   5.7808905290e+01    0.2673376    0.1666633 -55.24  0.001192919    2.636    0.621
       137 -10.9035     63.1420     36.5719   6.9620612470e+01   6.1869916346e+01    0.2737916    0.2122995 -57.01  0.001064153    1.995    0.499
       138  -9.0324    148.7368     37.6776   4.6421454672e+01   4.3146793434e+01     0.134816    0.1025673  28.74 0.0003949278    1.557    0.358
       139  -9.6268    127.9045     36.6991   5.0281940971e+01   4.8273475555e+01    0.2009919    0.1708401  57.70 0.0007284654    1.084    0.078
       140  -9.4656     48.4506     36.5159   7.5736309266e+01   6.4189349044e+01    0.1306871    0.1077818  -2.66  0.000130615    1.011    0.011
       141 -10.4423     67.0675     35.3126   6.7581378197e+01   6.1374356934e+01    0.1836305    0.1538616  19.43 0.0003742545    1.062    0.058
       142 -12.6325    237.6874     26.6948   3.2653294325e+01   2.4207252665e+01     0.455449    0.3431916  20.63  0.002393931    2.483    0.597
       143 -11.0796     76.0648    219.8949   1.0747472816e+02   1.7897476872e+01    0.3659475    0.3557676 -28.90  0.001782412    1.250    0.200
       144 -10.2402    115.5713     31.4483   5.1307616767e+01   5.1804067020e+01    0.2936026    0.2033612  30.86  0.000658109    1.518    0.341
       145 -10.5210     78.9254     30.8269   6.1486035954e+01   5.9774603358e+01     0.214505    0.1794899  -5.41 0.0005299007    1.168    0.144
       146 -10.4856     81.2084     26.3063   5.8887175323e+01   5.9885038391e+01    0.2987084     0.195029 -24.03   0.00157746    1.617    0.381
       147  -9.9974    109.7120     29.4324   5.2012571107e+01   5.3384749991e+01    0.3137791    0.1234654  57.59  0.001248334    2.355    0.575
       148 -10.6954     47.4994     28.3509   7.2666160095e+01   6.5565102102e+01     0.219526    0.1874776  13.53 0.0007286553    1.167    0.143
       149 -10.3884     15.2725     28.6897   8.8877013822e+01   6.9313019036e+01    0.2784709    0.1759164  -0.66  0.001117087    1.476    0.322
       150 -10.6961    183.6677     26.5333   3.8055047612e+01   3.6103165561e+01    0.3077004    0.2045661  60.71  0.000758185    1.434    0.303
       151 -11.6294     68.2086    217.0752   1.0895601208e+02   1.9582184386e+01    0.7188781    0.4284162  77.45  0.003513203    1.985    0.496
       152 -10.3221     73.1907    213.8149   1.0744854911e+02   1.9638131392e+01      0.28096    0.2764885  86.52  0.001175571    1.167    0.143
       153 -10.3596    248.6643    212.0275   6.9233996143e+01  -6.9132533652e+00     0.232697    0.1579573  14.57 0.0009340312    1.401    0.286
       154  -9.7328    207.0992     25.8243   3.5257996348e+01   3.0817347712e+01    0.1620166    0.1426465  59.46  0.000683867    1.323    0.244
       155  -9.1978    121.5510     25.5604   4.7922119895e+01   5.1083650888e+01    0.1346623    0.1194659  53.39 7.710082e-05    1.015    0.015
       156  -9.4968     98.7634     23.7781   5.2729447729e+01   5.6474001153e+01    0.1709427    0.1556083 -88.38 0.0008222522    1.367    0.268
       157 -10.9065    227.7734     22.9223   3.2702970232e+01   2.6694698046e+01    0.2659552    0.1522077  83.89  0.001128242    1.678    0.404
       158 -10.1238    164.4521     22.1564   3.9418263404e+01   4.1161362399e+01    0.2678766    0.1742073  47.03  0.001420844    1.627    0.386
       159 -10.0220    216.4268     28.1425   3.4853823966e+01   2.8489235139e+01    0.2287145    0.1855544  49.39  0.001448853    1.551    0.355
       160 -10.9302     31.0017     21.5061   7.7412561669e+01   6.8804564542e+01    0.3047501     0.235316 -15.59  0.001951621    1.122    0.108
       161 -10.2215     29.2949     18.3389   7.6798585487e+01   6.9468440674e+01    0.2903292    0.1609714   4.44   0.00152781    2.016    0.504
       162 -10.4360    141.7834     21.7104   4.2791403486e+01   4.6670852547e+01    0.2396958    0.1989384  55.28 0.0003943651    1.105    0.095
       163 -11.9967    236.1018    208.1588   7.0745737553e+01  -4.6663929244e+00    0.4287774    0.2671824  20.62    0.0024164    1.593    0.372
       164  -9.6553    108.0057     14.9914   4.7174773821e+01   5.5296391581e+01    0.1960351     0.170377  51.41 0.0003222808    1.042    0.040
       165 -10.4517     51.5287     20.2236   6.7242229738e+01   6.6037817462e+01    0.3193685    0.2386974 -20.38  0.002006048    1.312    0.238
       166 -11.0524    216.1781    192.1657   7.1424771152e+01   8.9548044720e-01    0.2145934     0.165467  -6.75 0.0006532155    1.209    0.173
       167 -10.9824    150.0105     18.5270   4.0498789916e+01   4.5016737841e+01    0.2907423    0.2330661  83.87 0.0006343157    1.183    0.154
       168  -9.4370    206.7772    189.9994   7.2846048002e+01   2.7836156098e+00     0.181343     0.105381 -38.24 0.0004128052    1.622    0.384
       169  -9.9091      1.4816     21.9947   9.4009811981e+01   7.1479338604e+01    0.1697344   0.09269939 -46.44  0.000628466    1.565    0.361
       170 -10.4550     60.8908     18.1338   6.2507488955e+01   6.4698369744e+01    0.1775853    0.1591053  26.25 0.0003030091    1.230    0.187
       171  -9.7884    233.7600    191.0135   6.7918093586e+01  -1.5788833055e+00      0.17605     0.096806 -36.12 0.0008819366    1.609    0.378
       172  -9.8804     10.2179     15.8154   8.6182368873e+01   7.1841652238e+01    0.1622616    0.1318118 -14.74 0.0005719844    1.189    0.159
       173 -10.1641    221.7677    186.6017   6.9263118938e+01   9.8906665557e-01    0.1807439    0.1263707  44.65 0.0007795955    1.747    0.428
       174  -9.0901     72.7046     15.3188   5.7028577632e+01   6.2798997867e+01    0.1116835    0.1019241 -73.73 0.0007015882    1.610    0.379
       175  -9.7953      1.3176    184.9125   1.2144292191e+02   3.4146973672e+01    0.2836734    0.0931766 -78.31  0.001220187    2.534    0.605
       176 -11.3346    249.0968    183.3598   6.3765738422e+01  -2.5362098356e+00    0.4025609    0.1689685 -39.37  0.001856023    2.063    0.515
       177 -11.8391    236.9566    179.1241   6.5014310341e+01  -6.7143133321e-02    0.5784964     0.267026  48.53  0.002464441    3.130    0.680
       178  -8.9718    116.3232     13.2782   4.4777915861e+01   5.3538954409e+01    0.1364597   0.08409845  38.92 0.0001974616    1.585    0.369
       179 -10.5066      6.7722    163.4162   1.1852752899e+02   3.8898000049e+01    0.1520963    0.1230929  -9.25 0.0006103466    1.667    0.400
       180 -12.5078    216.3212    156.9416   6.4167341365e+01   7.2588524112e+00     0.701125    0.3567552 -47.11  0.003024334    1.994    0.498
       181 -11.5279      3.1090    152.9873   1.1857162345e+02   4.1716683762e+01    0.3571367    0.2360584 -32.56  0.001405798    1.914    0.478
       182 -10.6178     25.3695    152.3854   1.1245539297e+02   4.0163467048e+01    0.2626576    0.1482433  66.50 0.0009686283    2.057    0.514
       183 -11.4884     10.1558    151.9009   1.1658951480e+02   4.1501077714e+01    0.2508743    0.1898123   9.67  0.001306782    1.695    0.410
       184 -11.1518      2.0142    143.9758   1.1804570275e+02   4.4013512182e+01    0.3343621     0.133782 -68.96  0.001059851    1.925    0.480
       185 -11.1858      2.0337    137.9867   1.1746108965e+02   4.5497226054e+01    0.3229937    0.1440382 -88.81  0.001283858    2.262    0.558
       186 -10.4559    215.9726    222.0227   7.7035482148e+01  -4.0363347567e+00    0.1760236     0.166492  65.58   0.00113564    1.719    0.418
       187 -10.8006     21.7250    141.9684   1.1223433236e+02   4.3119277377e+01    0.2109621    0.1986005  33.02 0.0002223403    1.246    0.197
       188 -11.1468     29.2381    138.4282   1.0953714559e+02   4.3382549434e+01    0.3636448    0.2002712 -59.78 0.0009132506    1.535    0.348
       189 -14.2756    214.2029    131.4726   5.8944556931e+01   1.2425464374e+01     2.136507     1.493247  83.30  0.009520295    2.473    0.596
       190 -11.7501      9.6710    121.0245   1.1323307190e+02   4.9266528539e+01    0.2868081    0.1970948 -48.76  0.001654516    1.333    0.250
       191 -10.9467     11.6786    128.6995   1.1358556759e+02   4.7215986417e+01    0.3082766   0.09320741 -63.28  0.001229709    2.399    0.583
       192 -11.4039     12.8854    125.1233   1.1275681561e+02   4.8034164351e+01    0.3253947    0.2020861  66.73 0.0009612637    1.914    0.478
       193 -10.9054     24.1054    125.5296   1.0926936082e+02   4.7107881101e+01    0.2481076     0.187215 -71.76 0.0003798425    1.160    0.138
       194  -9.1724    120.6532     32.3201   5.0428822947e+01   5.0518739737e+01    0.1383459    0.1052131 -76.80 0.0007049206    1.733    0.423
       195 -10.6213     15.9900    128.9499   1.1229398734e+02   4.6856734971e+01    0.2049094    0.1680133 -71.27 0.0004437739    1.027    0.026
       196 -11.0102    249.9398    120.5774   5.0897957961e+01   7.8375237860e+00    0.4014056    0.1807082 -46.33  0.001816952    1.974    0.494
       197  -9.4120     74.8432    122.4417   9.2123718514e+01   4.2068693412e+01      0.34494    0.1215756  41.10  0.001144245    3.048    0.672
       198  -8.9358     98.5086    117.4727   8.3403084400e+01   3.9346660738e+01    0.1568418     0.148668 -26.25 3.365367e-05    1.026    0.025
       199 -10.4736     25.9907    116.3896   1.0721484630e+02   4.9266204491e+01    0.2681332    0.1310773  21.74  0.001227166    2.349    0.574
       200 -10.6108     11.3446    115.4207   1.1193255782e+02   5.0559280118e+01    0.2334706    0.1607847 -37.73  0.001151584    1.470    0.320
