#   1 NUMBER                 Running object number                                     
#   2 MAG_AUTO               Kron-like elliptical aperture magnitude                    [mag]
#   3 X_IMAGE                Object position along x                                    [pixel]
#   4 Y_IMAGE                Object position along y                                    [pixel]
#   5 X_WORLD                Barycenter position along world x axis                     [deg]
#   6 Y_WORLD                Barycenter position along world y axis                     [deg]
#   7 A_WORLD                Profile RMS along major axis (world units)                 [deg]
#   8 B_WORLD                Profile RMS along minor axis (world units)                 [deg]
#   9 THETA_WORLD            Position angle (CCW/world-x)                               [deg]
#  10 FWHM_WORLD             FWHM assuming a gaussian core                              [deg]
#  11 ELONGATION             A_IMAGE/B_IMAGE                                           
#  12 ELLIPTICITY            1 - B_IMAGE/A_IMAGE                                       
         1 -13.9882    224.7526     41.8140   2.6096095960e+02  -6.0225164630e+01    0.2984971     0.152037  -1.89  0.009007202    2.609    0.617
         2 -14.0450     14.1227     45.8501   2.5689230994e+02  -5.3012940867e+01    0.9349828    0.1265901  23.58   0.01984607    4.723    0.788
         3 -12.4215      1.8152     41.8396   2.5645928593e+02  -5.2632980696e+01    0.1992515    0.0342121  15.09  0.003697076    6.361    0.843
         4 -13.8626      3.9442     21.7553   2.5535383295e+02  -5.2899361621e+01    0.3213648   0.08112694  33.03  0.008181949    3.293    0.696
         5 -12.8274      2.2826      7.7610   2.5452916662e+02  -5.2970569052e+01     0.144817   0.07537955  34.96  0.004113781    1.847    0.458
         6 -13.6269     21.5128     24.4675   2.5578891170e+02  -5.3476234193e+01    0.1657652   0.09520135  12.68  0.005010706    1.771    0.435
         7  -9.8236    111.1958    240.4361   2.6992096829e+02  -5.3660177844e+01   0.03032617   0.02208937  19.71 0.0009411064    1.430    0.301
         8 -11.4777    249.5176    248.5463   2.7469292061e+02  -5.7824608995e+01   0.06440618   0.04208454  45.44  0.002373159    1.584    0.369
         9 -12.0870    240.1959    249.1691   2.7440489441e+02  -5.7529365251e+01   0.07872532   0.05298127 -67.58  0.002263787    1.598    0.374
        10 -12.5664    243.9581    238.4991   2.7392634974e+02  -5.7839288872e+01   0.09185073   0.05409675  27.01  0.003265622    1.769    0.435
        11 -11.3628    226.3623    249.9137   2.7397560304e+02  -5.7093001255e+01   0.06909471   0.03292417 -67.26  0.002094184    2.497    0.599
        12 -11.0564    188.0017    245.5141   2.7247821122e+02  -5.5987477760e+01   0.03442622   0.03118716 -85.01  0.001331985    1.165    0.142
        13 -10.9904    172.3422    249.3018   2.7219736128e+02  -5.5434489129e+01   0.06019323   0.04372061 -57.73   0.00239502    1.356    0.263
        14 -10.8136    129.1447    247.5556   2.7081170441e+02  -5.4110754387e+01    0.0762651   0.03207324  41.30  0.002295706    2.423    0.587
        15 -10.5807    133.0206    241.2752   2.7058535351e+02  -5.4336823114e+01   0.05301625   0.03396893  51.42  0.001783003    1.750    0.429
        16 -11.6178    115.9953    247.6635   2.7044159185e+02  -5.3694377556e+01   0.07566024   0.05954841 -59.36  0.002586774    1.256    0.204
        17 -10.0069    118.1129    241.8701   2.7019182796e+02  -5.3855975591e+01   0.04392396   0.03157233   2.83  0.001674575    1.643    0.391
        18  -7.6926     37.9502    230.2416   2.6746226922e+02  -5.1479858170e+01    0.2566065   0.09321974 -46.41  0.007097267    2.888    0.654
        19 -12.3317     41.3596    146.1424   2.6304840580e+02  -5.2768643259e+01   0.07003447   0.03898414  78.63   0.00177316    2.585    0.613
        20 -13.9966      3.8335    123.7022   2.6103590134e+02  -5.1800889767e+01    0.2861758   0.09033258  14.40  0.006943575    3.808    0.737
        21 -14.3710     23.4315    116.7857   2.6104973270e+02  -5.2539809642e+01    0.4268289    0.2443744 -39.94   0.01429512    1.878    0.467
        22 -14.5786      7.8796     80.7145   2.5874634240e+02  -5.2432717737e+01    0.3377991    0.1927099  -6.38      0.01127    2.125    0.529
        23 -14.1737     74.2515    201.6907   2.6685643115e+02  -5.3075033467e+01    0.6334743    0.2821217 -26.62   0.01464871    4.650    0.785
        24 -13.8021     74.3369    177.0023   2.6551139128e+02  -5.3435274203e+01    0.4328089    0.1173997 -57.76   0.01124915    3.126    0.680
        25 -12.6084     74.0054    227.2041   2.6821557139e+02  -5.2682854734e+01    0.5106176     0.274546 -21.47   0.01488901    2.969    0.663
        26 -13.5405     44.3597    157.1332   2.6371845271e+02  -5.2723089588e+01    0.1623954     0.111021 -73.64  0.002171536    1.524    0.344
        27 -14.1578     20.3425    151.4241   2.6288021052e+02  -5.2003820039e+01    0.3108137   0.08065129 -53.53  0.007871268    3.328    0.700
        28 -14.2554     10.6363    212.2628   2.6587966131e+02  -5.0860435491e+01    0.4559491    0.2027657  -2.77   0.00996358    5.306    0.812
        29 -14.1020     25.3185    164.0361   2.6366894775e+02  -5.2003048818e+01    0.2650695    0.0642263 -52.55  0.006485398    3.573    0.720
        30 -16.2781     14.4821    182.8423   2.6443089397e+02  -5.1394408265e+01    0.5399405    0.2989875 -40.65   0.01572936    1.955    0.488
        31 -13.5730      6.2516    157.0945   2.6288459719e+02  -5.1464545229e+01    0.1283968    0.0702693 -66.56  0.004092826    1.809    0.447
        32 -14.0779     12.4915    246.4163   2.6766658118e+02  -5.0422785332e+01    0.1842619    0.1084291 -53.14  0.005159966    1.643    0.391
        33 -14.5471      6.0029    230.4461   2.6670309441e+02  -5.0449847856e+01    0.2367158    0.1110477  27.29  0.007701933    2.063    0.515
        34 -11.4533     53.0215    249.3015   2.6882618601e+02  -5.1671479599e+01   0.07508363   0.03901749 -59.10  0.002389398    1.855    0.461
        35  99.0000     53.7862    240.3846   2.6838539813e+02  -5.1833548777e+01    0.1585121   0.08350184  43.94  0.005316342    2.004    0.501
        36 -11.0088    196.1710    237.9800   2.7231725029e+02  -5.6372744350e+01   0.04865451   0.03578641  72.24  0.001859966    1.689    0.408
        37 -11.9388    178.1547    235.3406   2.7160585136e+02  -5.5855675655e+01   0.06959838   0.03046639 -60.81   0.00214498    2.266    0.559
        38 -10.8294    124.8625    233.4188   2.6992688902e+02  -5.4207145155e+01   0.06689593   0.05145673 -64.09  0.002180962    1.306    0.234
        39 -12.7846    124.7811    224.9352   2.6946293329e+02  -5.4341197432e+01    0.1457437   0.08701648  37.71  0.003801035    1.657    0.397
        40 -12.3056    141.6749    228.2295   2.7012398025e+02  -5.4824711457e+01    0.1227491   0.09695297 -40.71  0.005071929    1.297    0.229
        41 -12.1985    188.2718    217.4293   2.7090842945e+02  -5.6476476065e+01   0.06688571   0.06155941   8.04  0.002821553    1.120    0.107
        42 -12.2235    178.7074    219.3413   2.7072465989e+02  -5.6142860917e+01   0.07886777   0.04775978  69.28  0.002539011    2.451    0.592
        43 -12.2097    105.7673    217.1654   2.6851683891e+02  -5.3856230725e+01    0.1524076   0.08724088 -42.29  0.005019851    1.860    0.462
        44 -11.1648    119.8633    207.3898   2.6836269894e+02  -5.4460557172e+01   0.05948868   0.04885729 -72.46  0.001723834    1.258    0.205
        45 -11.9443    114.1609    202.5106   2.6793858813e+02  -5.4352361677e+01    0.0807399   0.06296704  -3.45  0.003019294    1.442    0.306
        46 -13.8872     93.6450    198.1648   2.6715893329e+02  -5.3755491588e+01    0.2704413    0.1760253 -12.81  0.007533553    1.979    0.495
        47 -12.7009    106.7851    195.2480   2.6734049562e+02  -5.4224529885e+01    0.1314469   0.09345927  12.13  0.005091804    1.520    0.342
        48 -11.5918    147.8282    209.8130   2.6927806441e+02  -5.5318075843e+01   0.09319144    0.0769424 -12.65  0.003895791    1.340    0.254
        49  -9.8998      1.5653    206.7272   2.6538630940e+02  -5.0644171069e+01   0.03274082   0.02262627   8.58  0.001240344    1.575    0.365
        50 -11.7664    132.0684    189.3726   2.6768722358e+02  -5.5131142980e+01     0.104068   0.06756064  -5.71   0.00365343    1.991    0.498
        51 -11.7179     99.6842    182.0867   2.6642493754e+02  -5.4189406696e+01   0.06280307   0.05821676  -9.56  0.001830149    1.107    0.096
        52 -12.4179     87.3170    161.6581   2.6497362635e+02  -5.4076903081e+01    0.1573994    0.1124693 -66.24  0.004788166    1.399    0.285
        53 -11.4265     91.4033    152.8524   2.6457573970e+02  -5.4333611912e+01    0.0953136   0.03888327  35.12   0.00289213    2.306    0.566
        54 -12.5731    244.6332     66.4946   2.6315335255e+02  -6.0579837595e+01   0.07507537   0.07110792 -41.19   0.00339695    1.053    0.051
        55 -13.2385    249.5083    142.1698   2.6827725986e+02  -5.9648075906e+01     0.341159   0.05656664  24.99  0.006083591    6.866    0.854
        56 -14.2672    244.3398    110.7425   2.6609219625e+02  -5.9956377997e+01    0.3160204    0.1532555  23.81   0.01023875    2.066    0.516
        57 -12.0154    249.8872     88.8079   2.6480365418e+02  -6.0451290842e+01    0.1058722   0.04357884  18.17   0.00304357    2.682    0.627
        58 -12.6516    248.9424     77.3582   2.6400753318e+02  -6.0577664432e+01   0.09639657    0.0647544   1.78  0.003415897    1.705    0.414
        59  -9.7678     56.9506    151.0273   2.6366674328e+02  -5.3220573981e+01   0.02675957   0.02515877  59.89 0.0003757847    1.095    0.087
        60 -10.1771     65.9456    146.7167   2.6363189844e+02  -5.3575656996e+01   0.04443235   0.03246153 -70.45 0.0009468142    1.389    0.280
        61 -10.7870     69.2940    144.3228   2.6357445667e+02  -5.3718416686e+01   0.08316343   0.03772669 -36.53   0.00238391    2.796    0.642
        62 -11.4347     72.2308    132.7723   2.6298949976e+02  -5.3967995772e+01   0.03442293   0.03126151  57.81  0.000369804    1.139    0.122
        63  -9.9047    105.6873    130.9479   2.6366096420e+02  -5.5103728884e+01   0.02703638   0.02420079  11.53  0.001172429    1.132    0.116
        64  -9.8151     87.3633    122.1662   2.6272574140e+02  -5.4609607326e+01   0.02988764   0.02465414 -86.85 0.0005530669    1.286    0.223
        65 -11.0025    101.0088    116.2320   2.6269308053e+02  -5.5141526496e+01   0.03109719   0.02670098  19.02 0.0004110728    1.167    0.143
        66 -12.3367     83.1018    103.7084   2.6156085181e+02  -5.4700492957e+01   0.06989514   0.05105614  33.10  0.002779788    1.348    0.258
        67 -13.0075     72.6098     97.4565   2.6097237507e+02  -5.4424347935e+01    0.1093651   0.09925334 -27.96  0.004840168    1.122    0.109
        68 -12.9365     70.3759     85.0991   2.6020734995e+02  -5.4496080692e+01    0.0851207   0.06965116  23.64  0.003582315    1.212    0.175
        69 -12.0261    103.5566     84.3098   2.6086098554e+02  -5.5625468873e+01   0.06504628   0.05715037 -23.72    0.0028206    1.176    0.149
        70 -12.9320     59.3033     71.4551   2.5919057724e+02  -5.4277728622e+01    0.1435491   0.09305284 -56.53  0.005411852    1.497    0.332
        71 -12.5902     53.4190     70.1079   2.5899811318e+02  -5.4093132941e+01    0.1133168   0.08613455  46.65  0.003764846    1.347    0.258
        72 -12.0121    201.3285    248.3333   2.7306071030e+02  -5.6350986083e+01    0.0561684   0.04157742 -54.69  0.002256849    1.328    0.247
        73 -13.0210    242.0377     51.8539   2.6208620953e+02  -6.0681532453e+01    0.1357144    0.1017869 -86.51  0.005401027    1.449    0.310
        74 -11.1480     41.6261     49.2451   2.5756757003e+02  -5.3916689977e+01   0.08086701   0.03829566  23.52  0.002630357    2.007    0.502
        75 -11.3349     45.5075     49.0113   2.5762384630e+02  -5.4051583935e+01   0.08531173   0.03550156  20.33  0.002595194    2.310    0.567
        76 -11.2007    104.8952    245.8286   2.7003285108e+02  -5.3373370959e+01   0.07124721   0.05135278  -7.78  0.002246189    1.694    0.410
        77 -10.5352    103.7921    240.5928   2.6972402057e+02  -5.3422824191e+01   0.05827253   0.03057913 -49.10   0.00196839    1.881    0.468
        78 -10.8577    104.7682    236.8858   2.6955310557e+02  -5.3513226866e+01   0.07640042   0.03985935 -54.68  0.002256524    1.835    0.455
        79 -10.8744     35.8635    245.6846   2.6820482479e+02  -5.1180252795e+01   0.06872946   0.05211629 -13.17  0.002432031    1.512    0.339
        80 -11.4277     62.3217     51.9768   2.5810691124e+02  -5.4593820130e+01   0.05736684   0.02983966 -64.90  0.001942809    1.835    0.455
