#   1 NUMBER                 Running object number                                     
#   2 MAG_AUTO               Kron-like elliptical aperture magnitude                    [mag]
#   3 X_IMAGE                Object position along x                                    [pixel]
#   4 Y_IMAGE                Object position along y                                    [pixel]
#   5 X_WORLD                Barycenter position along world x axis                     [deg]
#   6 Y_WORLD                Barycenter position along world y axis                     [deg]
#   7 A_WORLD                Profile RMS along major axis (world units)                 [deg]
#   8 B_WORLD                Profile RMS along minor axis (world units)                 [deg]
#   9 THETA_WORLD            Position angle (CCW/world-x)                               [deg]
#  10 FWHM_WORLD             FWHM assuming a gaussian core                              [deg]
#  11 ELONGATION             A_IMAGE/B_IMAGE                                           
#  12 ELLIPTICITY            1 - B_IMAGE/A_IMAGE                                       
         1 -12.2552     10.3837     49.7962   9.7337040261e+01   6.5891049802e+01     1.152932    0.6573784 -43.38  0.006664948    1.384    0.277
         2 -12.3736    128.5496     11.4979   4.1010275975e+01   5.0822763236e+01    0.3886924    0.2812513 -87.56  0.002218345    1.528    0.346
         3 -12.4978    129.0679     19.1976   4.3392040835e+01   4.9969720680e+01    0.3045765    0.2512346  -4.73 0.0005964268    1.443    0.307
         4  -9.9460     14.9773     13.9765   8.0989404830e+01   7.1743176392e+01    0.1996995    0.1464229 -11.29 0.0006542437    1.043    0.042
         5 -10.6796     15.9528      6.4042   7.6604858600e+01   7.2673724316e+01     0.492741    0.2038944 -38.65  0.002615673    2.422    0.587
         6 -11.1251     12.1711      2.1698   7.6566693524e+01   7.3624769821e+01    0.2739144    0.1629953  -0.94  0.001383258    1.514    0.340
         7 -11.9367      8.4219      9.2483   8.2551119758e+01   7.3052351666e+01    0.5007129    0.3182685   2.52     0.002851    1.340    0.254
         8 -11.5271     21.7681      5.6565   7.2929326365e+01   7.2085924879e+01    0.5598479    0.3249365 -38.70  0.003396126    2.032    0.508
         9 -11.9877      4.4887     17.8355   8.8951765967e+01   7.2080857629e+01    0.4165986    0.3537719  36.14  0.002148077    1.809    0.447
        10 -10.9995      9.6920     15.7566   8.4915187848e+01   7.1980257576e+01    0.2628807    0.1586057 -11.83 0.0008477665    1.459    0.315
        11 -10.7868     14.3895     22.9813   8.5450216962e+01   7.0431648552e+01    0.4875947    0.1828727 -30.73  0.002221168    2.686    0.628
        12 -11.1169     20.0247     17.2273   7.9704852289e+01   7.0745035259e+01    0.3374464    0.2953492   3.16   0.00248133    1.340    0.254
        13 -10.5800     22.5288     13.1107   7.6340274038e+01   7.1038202103e+01     0.216797   0.09966946 -34.55   0.00116868    2.035    0.509
        14 -11.6196     98.7987     21.9315   5.0958183043e+01   5.6624894569e+01    0.4577883    0.2915587  42.80  0.001053553    1.384    0.277
        15 -12.1087    238.0778     17.5873   3.0213926178e+01   2.5494114619e+01    0.2960038    0.2315652 -57.29 0.0002790689    1.141    0.124
        16 -11.6094    233.7409     11.8688   2.9405156563e+01   2.7002985424e+01    0.3246712    0.1466533 -35.08  0.001551719    2.194    0.544
        17 -11.0773     47.3786     16.8534   6.6078862858e+01   6.7105451297e+01    0.5113282    0.3177163   4.97  0.002185295    1.711    0.416
        18 -10.2844     43.6273      8.7771   6.3798621498e+01   6.8625153100e+01    0.3774488    0.2103339 -31.53  0.001806143    1.938    0.484
        19 -12.1858     40.6161     16.3494   6.8853480730e+01   6.8208339107e+01    0.4722515    0.3828629 -37.57  0.001116954    1.626    0.385
        20 -10.5946     39.7064     11.0251   6.6674356966e+01   6.8983746947e+01    0.2395081    0.1537517  38.02 0.0006494043    1.502    0.334
        21 -10.8021     32.7545     16.6723   7.2770458301e+01   6.9277125105e+01     0.480046    0.2098138  21.92  0.002208469    2.640    0.621
        22 -10.6198     73.8411      2.9985   5.0144995605e+01   6.3650907178e+01     0.410715    0.2770182  -7.62  0.002504518    1.618    0.382
        23 -11.0078     70.5123     14.7120   5.6303466394e+01   6.3239693459e+01    0.5668948    0.2749884  -1.65  0.002308424    3.477    0.712
        24 -11.0253     77.4368     11.1654   5.2590361985e+01   6.2213691296e+01    0.4790134    0.2004347  53.44  0.002189777    2.073    0.518
        25 -10.5184    117.8860     11.9612   4.3110769177e+01   5.3271000090e+01    0.4136426     0.303124  -3.98  0.001990476    1.658    0.397
        26 -10.0933    100.0053     12.6797   4.7187139824e+01   5.7268759364e+01    0.2676815    0.1607678   7.25  0.001019147    2.198    0.545
        27 -10.6424    157.1748     11.8563   3.6804879501e+01   4.4014942819e+01    0.2009339    0.1559957 -76.31 0.0009561182    1.274    0.215
        28 -10.0997    138.1849     11.2785   3.9359342883e+01   4.8568884900e+01    0.2318485    0.1419582 -57.90 0.0008016168    1.947    0.486
        29  -9.5375     65.4473     11.8267   5.6744148685e+01   6.4499272217e+01    0.1604423    0.1060148   2.34 0.0004193991    1.609    0.379
        30 -11.3977    164.3376      8.0502   3.4882442356e+01   4.2685077617e+01    0.3810242    0.2397029 -16.20 0.0009935027    2.108    0.526
        31 -13.0110    214.9561      5.9988   2.9592956490e+01   3.1508679349e+01    0.9074872    0.4646136  83.56  0.005072514    1.766    0.434
        32  -9.3390    169.9964      9.0085   3.4477651196e+01   4.1272017626e+01      0.14821    0.1288212 -87.86 0.0004257532    1.049    0.046
        33 -11.2128    146.0536      6.9548   3.6916425648e+01   4.7091668565e+01    0.4097998     0.227852  46.86  0.001566707    1.826    0.452
        34 -11.1616    148.5318      2.0186   3.5171241110e+01   4.6924731553e+01    0.3824559    0.2668182 -65.28  0.002251792    1.531    0.347
        35 -10.1734    246.4420      8.5180   2.7921037736e+01   2.4875962684e+01    0.1131131   0.08437557 -68.49 5.905538e-05    1.006    0.006
        36 -11.3675    194.8807      2.2579   3.0393627452e+01   3.6237958084e+01    0.3665434    0.1787407 -88.31  0.001863112    2.017    0.504
        37 -10.6183    191.3288      7.3383   3.1875666256e+01   3.6540576839e+01    0.3787423    0.2394533 -41.41  0.001494356    1.592    0.372
        38 -10.7773    187.6256      6.3013   3.1980099944e+01   3.7477090833e+01    0.2590877    0.1600624 -68.87  0.001029828    1.550    0.355
        39 -10.6765     90.5186      7.0337   4.7312849934e+01   5.9836413905e+01    0.3579611    0.1433687  56.53  0.001645776    2.045    0.511
        40 -10.0653    100.6701      7.6891   4.5168005850e+01   5.7555529221e+01    0.1980064    0.1268074  -9.56 0.0006622017    1.862    0.463
        41 -11.5971     98.0807      4.5032   4.4549791742e+01   5.8388092005e+01    0.3193747    0.2498286  13.79  0.001472328    1.385    0.278
        42  -9.4280    156.3301      6.3219   3.5388041645e+01   4.4722960847e+01    0.1290168   0.08358409  44.61 0.0003809417    1.695    0.410
        43 -10.1472     81.4535      5.6875   4.9134893415e+01   6.1870358212e+01    0.1845497    0.1170705 -24.75 0.0003227079    1.777    0.437
        44  -9.4182     38.2923      6.2927   6.4935625597e+01   6.9725279258e+01    0.1205469    0.0738517  12.56 0.0006972504    1.552    0.356
        45 -12.1287    179.0156      4.1705   3.2303337370e+01   3.9639404996e+01    0.2327159    0.1927998 -79.36 0.0003415672    1.070    0.065
        46 -11.5075     26.7971      2.7033   6.8659556512e+01   7.1776466963e+01    0.5560167    0.1882707  35.03  0.002646689    2.626    0.619
        47 -10.4378    126.4259      2.9925   3.8638288456e+01   5.2034614621e+01    0.2383096     0.182943  10.80 0.0007548927    1.602    0.376
        48 -10.4844    118.9021      3.9126   4.0207365981e+01   5.3711075531e+01    0.2431162    0.1649773  78.08  0.001368312    1.451    0.311
        49 -11.3761     67.8093      3.7083   5.2300721380e+01   6.4790136790e+01    0.2399769    0.1654917  39.84 0.0004081903    1.174    0.149
        50 -10.6843    243.1504      3.1106   2.7118775268e+01   2.6089601025e+01    0.1576922    0.1347081 -76.92 0.0007158726    1.222    0.182
        51 -10.9844    204.2686      1.8733   2.9540360352e+01   3.4213597006e+01    0.2906818    0.1489862  56.07  0.001575102    2.147    0.534
        52 -10.6078    230.8787      1.6856   2.7609990239e+01   2.8659694612e+01    0.1591672    0.1324896  88.69 0.0003539188    1.222    0.182
        53 -10.4060    108.0182      1.6789   4.1446749666e+01   5.6376008076e+01    0.1926804    0.1369574  46.72 0.0005251316    1.220    0.181
        54 -12.3563     36.9098    164.5124   1.0952071954e+02   3.6141993528e+01    0.8500073    0.6083128 -66.42  0.004652186    1.250    0.200
        55 -10.5455    249.9933    246.7196   7.3817541132e+01  -1.1673765752e+01    0.1884983    0.1356295  -8.63  0.001184963    1.046    0.044
        56  -9.6042    239.6696    250.6785   7.6266772414e+01  -1.1025956375e+01     0.122995   0.07060371  -3.42 0.0007049168    1.695    0.410
        57 -12.4322    226.0901    245.8791   7.7939720183e+01  -8.7638262717e+00    0.6719719    0.3421387  -7.23  0.003197158    2.634    0.620
        58 -12.4161    232.4617    245.6853   7.6744298539e+01  -9.5125576984e+00    0.6062561    0.2230179 -31.37  0.002845614    2.665    0.625
        59 -11.5257     89.0446    249.5680   1.0659208449e+02   9.9713139754e+00    0.3047526    0.2246969  39.09 0.0008140433    1.176    0.150
        60 -10.2206     72.5206    250.1332   1.1009159425e+02   1.2089996318e+01    0.2106001    0.1668563  13.83  0.001080764    1.624    0.384
        61 -12.9721     19.1803    237.4052   1.1990832777e+02   2.0945007917e+01     1.618023    0.4097172  57.36  0.005921195    4.218    0.763
        62 -11.7424      4.6863    236.0372   1.2262522552e+02   2.2641114549e+01    0.3962606    0.3525221 -71.77  0.002410071    1.416    0.294
        63 -13.3728      5.7722    245.2089   1.2286100131e+02   2.0685916791e+01    0.9286537     0.649001  34.69   0.00490201    1.552    0.355
        64 -12.6206     22.1046    248.9639   1.2001043692e+02   1.8304471422e+01    0.7490292    0.2294521  36.26  0.003576093    2.642    0.622
        65 -11.2235     17.2750    247.4152   1.2083486986e+02   1.9111726686e+01    0.2781364    0.1639035  55.99  0.000772514    1.343    0.255
        66  -9.6894      4.5286    168.9971   1.1846232405e+02   3.7872784856e+01    0.1926288     0.104005 -77.55 0.0005129309    1.526    0.345
        67 -10.7022     44.5825    162.2293   1.0710616075e+02   3.5898674543e+01    0.4116459    0.1543273 -67.23  0.001371748    2.397    0.583
        68  -9.6139     99.1785    164.8464   9.2230222358e+01   2.7545534808e+01    0.2011791    0.1773089 -22.07 0.0003714873    1.268    0.212
        69 -10.3734     10.1517    162.8247   1.1650137844e+02   3.8973284296e+01    0.3186387    0.1407549  40.66 0.0009892421    2.298    0.565
        70 -12.6982     21.5821    157.2036   1.1287444415e+02   3.9457184898e+01    0.6220301    0.5004254   1.09 0.0009052461    1.597    0.374
        71  -9.5026    157.6823    154.9740   7.4959114231e+01   1.8995641687e+01    0.2628452    0.1148943 -29.59 0.0007048956    4.332    0.769
        72 -10.2164     11.3902    153.4889   1.1527719460e+02   4.1212585402e+01    0.2382514    0.1308514  21.28   0.00121375    2.175    0.540
        73  -9.8046    177.1665    150.8814   6.9585085384e+01   1.6025804894e+01    0.2342995     0.213492 -85.45  0.001232712    1.318    0.241
        74  -9.5306    216.2222    155.1824   6.2693133089e+01   7.8406718667e+00    0.1817291      0.15772 -56.14 0.0003587983    1.311    0.237
        75 -10.3555    207.0579    146.6633   6.2555374727e+01   1.1119527700e+01    0.1945007    0.1837005   7.51 0.0006190134    1.116    0.104
        76  -9.4259     33.3189    147.7327   1.0837000162e+02   4.0806821156e+01    0.1370938    0.0962635  65.78 0.0001889985    1.557    0.358
        77 -10.4567     17.8294    146.9249   1.1276667306e+02   4.2376507939e+01    0.2980002    0.1980856 -22.38 0.0009503361    1.993    0.498
        78 -12.6932     49.9568    161.6701   1.0552206655e+02   3.5425689302e+01    0.4867851      0.36899  74.24 0.0005914174    1.380    0.275
        79 -10.0732    220.2896    143.9773   5.9566657496e+01   9.2061782127e+00    0.2050151    0.1630247 -37.15 0.0006681953    1.105    0.095
        80  -9.9527     10.2369    144.4244   1.1465800012e+02   4.3576800491e+01    0.2131583    0.1327607   6.97    0.0011252    2.119    0.528
        81  -9.5668     81.8758    139.8069   9.2307379564e+01   3.6713156157e+01    0.2120692    0.1792282  77.30  0.001061595    1.338    0.253
        82 -10.3592     55.3679    138.8196   1.0028662390e+02   4.0689902178e+01    0.3601693    0.2729185  43.32  0.001863429    1.417    0.294
        83  -8.9712     28.2781    137.6900   1.0848690640e+02   4.3859050605e+01    0.1358037   0.09646716  73.40 0.0002156725    1.559    0.359
        84 -10.5266      9.2785    135.5598   1.1395265547e+02   4.5875952425e+01    0.2951357    0.1362295 -86.35  0.001283493    2.252    0.556
        85  -9.5531     20.6894    135.2285   1.1046961480e+02   4.5128335421e+01    0.1995869   0.09798942 -62.40 0.0008022258    1.662    0.398
        86  -9.8584    249.2880    134.0463   5.2842103863e+01   5.9910971308e+00    0.1916887    0.1449035 -38.26 0.0006514351    1.085    0.079
        87 -11.1508     54.6954    132.6517   9.9374674677e+01   4.2366819871e+01    0.3695477    0.2331797  49.86  0.001088536    1.820    0.451
        88 -11.4407     36.5432    129.9916   1.0472018953e+02   4.5062262948e+01    0.6009954    0.2451854 -46.48  0.002381619    2.385    0.581
        89 -11.3609     73.7704    129.3247   9.2618508453e+01   4.0626359410e+01     0.334455    0.3220474 -80.86 0.0009303446    1.073    0.068
        90  -9.2296      9.4488    129.4665   1.1317939090e+02   4.7398356999e+01    0.1320407    0.1084888 -70.38 6.664721e-05    1.003    0.003
        91 -10.3208     48.4823    125.9776   1.0013317049e+02   4.4820498216e+01    0.2000794    0.1989297 -55.51 0.0004820334    1.102    0.093
        92 -10.7598     24.2200    126.0658   1.0806350493e+02   4.7177903218e+01    0.2285301    0.1910757  30.64  0.000463808    1.375    0.273
        93 -11.4460     13.2836    126.0329   1.1154812104e+02   4.8007460531e+01    0.5127987    0.2238743  15.68 0.0003149799    2.825    0.646
        94 -11.1054     10.7991    122.8227   1.1191120891e+02   4.8979684470e+01    0.2825939     0.232831 -75.84  0.001194888    1.077    0.072
        95 -10.0091    220.0209    124.3096   5.5312425710e+01   1.2885246219e+01     0.191015     0.177283 -41.66 0.0005041707    1.057    0.054
        96 -10.4524      2.7179    122.9583   1.1448219383e+02   4.9429723184e+01    0.2344934    0.1264789 -67.51 0.0006623082    1.462    0.316
        97  -9.7405      1.3347    119.1833   1.1446709795e+02   5.0440276472e+01    0.1963202    0.1040479 -73.21 0.0003640345    1.545    0.353
        98 -11.1769     21.6841    121.3245   1.0816765402e+02   4.8582667534e+01    0.2940146    0.2151802 -35.65 0.0009713527    1.420    0.296
        99 -10.5670     72.8927    117.9093   9.0346702993e+01   4.3630450957e+01    0.4466126    0.2638339 -75.34  0.001729495    2.442    0.591
       100  -9.9745     14.8556    118.9993   1.1006637774e+02   4.9668424321e+01    0.2968243    0.1704512  63.89  0.001402473    2.274    0.560
       101 -10.5422     16.1542    115.8159   1.0916268781e+02   5.0375786190e+01     0.246856    0.1414097 -31.17 0.0006384909    1.973    0.493
       102 -10.3800     86.0139    116.4857   8.5726476871e+01   4.1886992249e+01    0.2387385    0.1970652 -48.93 0.0004660707    1.156    0.135
       103 -11.1506    249.2830    112.3182   4.8381445448e+01   9.6562081847e+00    0.2426967    0.1926243 -46.68 0.0004301374    1.059    0.056
       104 -10.1648     94.9846    112.5283   8.1869946660e+01   4.1269930931e+01    0.2911007    0.2220634 -67.58  0.001018399    1.521    0.342
       105 -11.5410     37.0699    110.2058   1.0096183213e+02   5.0027318623e+01     0.443714    0.2943137  66.08   0.00132012    2.081    0.519
       106 -11.9026     55.1659    109.5680   9.4452751328e+01   4.8153673021e+01    0.4901957     0.259147 -49.81  0.001447554    1.682    0.405
       107 -12.1037     14.3324    109.3178   1.0877434314e+02   5.2116003631e+01    0.4949529    0.3387104   7.91  0.002787862    1.748    0.428
       108 -10.4516      1.4351    108.9550   1.1313299181e+02   5.2952166043e+01    0.3221095    0.1868893  89.61  0.001385492    1.840    0.457
       109  -9.5851      2.4875    105.5042   1.1229874831e+02   5.3741847064e+01    0.2310847    0.1023737 -68.26  0.000607904    1.791    0.442
       110  -9.9904    213.9907    115.5204   5.4343396382e+01   1.5665907756e+01      0.19238     0.142114  50.54 0.0004578034    1.514    0.339
       111 -11.0758     24.4186    107.1750   1.0486743314e+02   5.1909585789e+01    0.2786607     0.234659  22.41  0.001683081    1.367    0.269
       112 -11.1321     32.6021    105.5317   1.0162289136e+02   5.1612022574e+01    0.4740867    0.2240853 -47.76  0.001583379    1.831    0.454
       113 -10.0731    243.8017    104.4168   4.7467490502e+01   1.1941669578e+01    0.1577562    0.1251216  40.52 0.0004807207    1.584    0.369
       114 -11.3390    121.3715     99.9111   7.0544217091e+01   3.8897631050e+01    0.7158596    0.4089668 -21.16  0.002459992    2.953    0.661
       115 -10.1092     51.3876    104.3062   9.4579974507e+01   4.9911999408e+01    0.2353113     0.149858 -31.25  0.001095997    1.691    0.409
       116  -9.9211      5.8297    106.2256   1.1124741793e+02   5.3390426558e+01    0.1882981     0.120361 -46.78 0.0007224521    1.375    0.272
       117 -11.1087      4.8357     99.0875   1.1051573997e+02   5.5177683884e+01    0.3210956    0.2321665  73.34  0.001863575    1.671    0.402
       118 -10.9973     62.1024     98.8643   8.9384982683e+01   4.9824023571e+01    0.3801294    0.2895739  12.40  0.001268295    1.443    0.307
       119 -10.2634     66.4992     98.4106   8.7693776011e+01   4.9302353134e+01    0.2305492    0.1917957 -45.10 0.0004368171    1.119    0.106
       120 -10.4713    152.0463     90.9027   6.0224870268e+01   3.3875369008e+01    0.5247646    0.2508993  56.01  0.001968033    2.268    0.559
       121 -11.5835    161.9819     98.4790   6.0066350733e+01   3.0131526322e+01    0.6634437    0.2787494 -46.42  0.002368391    2.400    0.583
       122 -12.1886    158.3708     89.4553   5.8421196017e+01   3.2690957062e+01    0.6633776    0.3512967 -44.89  0.002711994    1.874    0.466
       123 -11.9143    163.8863     88.8703   5.7088634771e+01   3.1525239192e+01    0.5289713     0.348679 -25.73  0.002139514    1.812    0.448
       124 -12.1781    166.8146     83.8818   5.5146458274e+01   3.1757282699e+01    0.9336361    0.5106444  57.59  0.003944917    1.892    0.471
       125 -11.4915    157.5476     82.4499   5.6671064469e+01   3.4174850134e+01     1.005681    0.4431128  36.47  0.003193238    3.602    0.722
       126  -9.6864     23.8749     99.1469   1.0354890594e+02   5.3921012357e+01    0.1889718    0.1338842 -38.86 0.0004472042    1.300    0.231
       127 -11.0592     14.3933     96.0122   1.0648486041e+02   5.5360936474e+01    0.5947532     0.142326 -59.05  0.002214208    2.791    0.642
       128 -10.9129     10.7224     91.0055   1.0695199792e+02   5.6785608007e+01      0.31281    0.2182476   9.23  0.001068414    1.659    0.397
       129  -9.4442     10.4617     87.5061   1.0639430957e+02   5.7627502161e+01    0.1305155    0.1056596 -51.31 0.0008094084    1.004    0.004
       130 -10.4438    153.5974     96.2590   6.1340826419e+01   3.2478973270e+01    0.2088184    0.1462652 -30.85 0.0004227431    1.541    0.351
       131 -11.4681     37.5362     94.8578   9.7498270554e+01   5.3729332270e+01    0.3200225    0.2434223  45.15 0.0004898031    1.583    0.368
       132 -11.3985    143.7917     98.6318   6.4310947450e+01   3.4230800818e+01    0.5947146    0.3977905  51.56  0.002654076    1.531    0.347
       133  -9.3712    250.3109     95.6949   4.4828898359e+01   1.2197927329e+01    0.1303062   0.08564802 -63.17 0.0004090929    1.614    0.380
       134 -11.1425     51.6187     97.8927   9.2955969254e+01   5.1430399329e+01     0.599768    0.2180045 -38.87  0.001584639    3.278    0.695
       135  -9.4383    113.3534     93.7841   7.1075492850e+01   4.1892117288e+01    0.2198695    0.1403139 -33.60 0.0009336478    1.671    0.402
       136 -11.4522     25.6560     90.8130   1.0115003371e+02   5.5776943406e+01    0.5460494    0.3021718 -36.24  0.001827686    1.738    0.425
       137 -11.1968     21.6911     87.1043   1.0189533234e+02   5.6964368887e+01    0.4484278    0.2307744 -58.95  0.002093922    1.631    0.387
       138  -9.4649     31.2549     92.9875   9.9469384251e+01   5.4776499291e+01    0.1752318    0.1038885 -58.89 0.0004216014    1.483    0.326
       139  -9.2920     46.5540     92.5628   9.3519969479e+01   5.3296301574e+01    0.1385928    0.1260378 -41.57 9.316883e-05    1.056    0.053
       140 -10.5373     96.1838     89.9680   7.5197027781e+01   4.6151966007e+01    0.3865596    0.2615756   5.95   0.00161491    2.124    0.529
       141 -10.5975     57.8099     89.9930   8.8599777097e+01   5.2478680715e+01    0.3921868    0.2465367  21.05  0.001792962    1.748    0.428
       142 -10.0306     83.0340     88.7283   7.9179694316e+01   4.8835889481e+01    0.2041069    0.1872513   0.28 0.0005475562    1.063    0.059
       143 -10.8248     78.2217     88.2612   8.0704333499e+01   4.9764024747e+01    0.3443954    0.3096093   1.16  0.001895049    1.096    0.088
       144 -10.8422     46.0485     87.3097   9.2361290574e+01   5.4575067545e+01    0.3322662    0.2430626  76.18  0.001610551    2.163    0.538
       145  -9.2328    139.2749     87.6807   6.2336247238e+01   3.7426558461e+01    0.1514235    0.1200829 -76.03 0.0006978661    1.572    0.364
       146  -9.2622    120.6846     87.2797   6.7073562676e+01   4.1662540669e+01    0.1491151    0.1226976  88.83 0.0004324487    1.573    0.364
       147 -11.4585      5.0444     84.3900   1.0793283005e+02   5.8653762853e+01    0.6268239    0.1963048 -43.85  0.002622744    2.582    0.613
       148 -11.6809     30.9324     82.1999   9.7046275621e+01   5.7323123409e+01    0.4331998    0.3563195  12.08  0.001871437    1.315    0.239
       149 -10.8889     65.3883     87.4060   8.5060961403e+01   5.1987882724e+01    0.3828139    0.2469318 -40.36  0.001835037    1.454    0.312
       150 -11.2084     20.2161     80.9942   1.0112185250e+02   5.8491943416e+01     0.516899    0.3381481 -26.72  0.001842336    1.503    0.335
       151 -12.0304     37.0317    243.9489   1.1680308660e+02   1.7680458917e+01     0.670275    0.3118726 -87.47  0.003265054    2.313    0.568
       152 -10.8316      6.6589     41.3415   9.6582943126e+01   6.7786321166e+01    0.2961161    0.1792146 -32.48 0.0009135916    1.324    0.244
       153 -12.6975     11.0963     75.1180   1.0357764034e+02   6.0444050803e+01    0.9973001    0.4999387  12.42  0.005071915    2.265    0.558
       154 -10.7568     15.0832     59.5720   9.7930150021e+01   6.3568874707e+01    0.2728644    0.1835781 -19.08 0.0002858512    1.405    0.288
       155 -11.0662     10.1692     63.4026   1.0119905286e+02   6.3080631611e+01    0.3200777    0.2422393  -2.97 0.0008383181    1.370    0.270
       156 -13.9516     16.5931     67.7159   9.9432404628e+01   6.1723556768e+01    0.4936524    0.3648521   9.18    0.0017579    1.458    0.314
       157 -11.0465     19.7786     61.9600   9.6449772591e+01   6.2716998658e+01    0.3426693    0.2226101 -49.45 0.0004956014    1.313    0.238
       158 -13.0811      4.8965     65.8654   1.0415893146e+02   6.2844869015e+01    0.6971498     0.394793  86.21  0.002239425    3.303    0.697
       159 -11.8204      5.2713     58.9635   1.0231881276e+02   6.4308751693e+01    0.2570541    0.2101656 -42.49 0.0002844087    1.070    0.065
       160  -9.5161     70.9750     79.5290   8.0656988574e+01   5.2834839672e+01     0.199108    0.1394852  33.10 -5.706251e-06    1.458    0.314
       161  -9.3032    228.7188     78.6781   4.3910513301e+01   1.9025665608e+01    0.1206383     0.103614  -4.30 0.0003283975    1.589    0.371
       162 -10.8853     60.9395     78.1745   8.3999065893e+01   5.4657919258e+01    0.2827801    0.2007502 -51.26 0.0006174652    1.423    0.297
       163 -11.0314     61.9210     72.2086   8.1756898661e+01   5.5762561237e+01    0.3579507    0.1780483 -43.07 0.0006051674    1.885    0.469
       164 -12.7653     44.7464     75.2621   8.9533401456e+01   5.7418315311e+01    0.2859625    0.2607632  12.23 0.0006327314    1.181    0.153
       165 -10.9647     36.6881     68.8991   9.1015961280e+01   5.9687438582e+01    0.5021483    0.2880974  53.03    0.0021577    3.112    0.679
       166 -10.3894     29.8097     67.0493   9.3441337103e+01   6.0772025155e+01     0.332892    0.2289684  50.86  0.001071605    2.134    0.531
       167 -11.5785     31.4055     62.5299   9.1388769631e+01   6.1563448353e+01    0.7675553    0.4434956  49.71   0.00352942    2.867    0.651
       168 -11.5391     35.0354     42.6910   8.2888187303e+01   6.4971698356e+01    0.6303729    0.3033583   8.89  0.002638869    3.023    0.669
       169 -10.6182     26.6736     56.0008   9.1486597615e+01   6.3347162067e+01    0.2481154    0.2139211 -33.14 0.0003896576    1.127    0.113
       170 -13.1527     37.3118     49.9508   8.4526578233e+01   6.3392920817e+01    0.7790362     0.629481 -13.17  0.003229279    1.052    0.049
       171 -11.9530     26.7493     49.6436   8.9346057943e+01   6.4584341968e+01     0.525803    0.3671255 -56.59  0.002104011    1.645    0.392
       172  -9.2474    121.6457     76.2693   6.3474429608e+01   4.3570031577e+01    0.1488136    0.1194906  86.54 0.0006994061    1.633    0.388
       173 -10.9314     90.9989     74.1852   7.1974241695e+01   5.0371878737e+01    0.4049565    0.2041121 -30.87  0.001574151    2.346    0.574
       174 -11.2822     76.9446     70.1406   7.5478026429e+01   5.3740087158e+01     0.582595    0.3180123  26.14  0.002046538    2.109    0.526
       175 -10.6997     76.8233     63.7950   7.3373363468e+01   5.4966963370e+01     0.373808    0.3038848 -38.06  0.002061935    1.250    0.200
       176 -11.2530     51.6617     62.7423   8.2747986013e+01   5.9129615060e+01    0.3538874    0.3264586 -12.73 0.0009664419    1.123    0.110
       177 -10.2289     53.9941     74.2326   8.5500308926e+01   5.6467937372e+01    0.2412996    0.1884181 -47.12  0.000574841    1.255    0.203
       178 -10.7734    207.5975     73.3801   4.5550967185e+01   2.4291470220e+01    0.2228828    0.2148402 -65.95 0.0002952405    1.131    0.116
       179  -9.7604    145.6223     74.2518   5.6952880163e+01   3.8426503583e+01    0.2039175    0.1430453 -27.04 0.0007419281    1.604    0.377
       180 -12.2641     50.3725     68.8028   8.5261375326e+01   5.8082315817e+01     0.501307    0.4018136 -14.13 0.0007910026    1.173    0.148
       181 -10.2878      2.0554     72.1492   1.0676396980e+02   6.1595084163e+01     0.396359    0.1081172 -56.77  0.001678835    2.413    0.585
       182 -10.1592    101.4182     72.4077   6.8078251394e+01   4.8634871838e+01    0.4040683    0.2553519  75.48  0.001432517    3.476    0.712
       183 -10.3028     75.4951     74.8886   7.7550692291e+01   5.3046507981e+01    0.3032145    0.2071889  21.99  0.001468042    1.565    0.361
       184  -9.3228    137.0019     71.0080   5.7983522803e+01   4.1005512089e+01    0.1764097    0.1674429 -37.92 0.0003659297    1.083    0.076
       185 -10.0314    129.1111     71.1905   5.9965463860e+01   4.2797172717e+01    0.3386904    0.2382509  -2.76  0.001119866    2.059    0.514
       186 -10.4348    123.4557     68.8876   6.0697681851e+01   4.4488010219e+01    0.3427699    0.1983847  37.07 0.0008950591    1.881    0.468
       187 -10.3162    127.7253     66.5650   5.8881386169e+01   4.3912458499e+01     0.304234    0.2178092  69.85 0.0008381731    1.657    0.397
       188  -9.2938    167.7841     69.8219   5.1152484163e+01   3.3948277240e+01    0.1886477    0.1584679 -78.36 0.0003059028    1.249    0.199
       189  -9.8747     42.6916     68.3116   8.8293733559e+01   5.9138763166e+01    0.2211459    0.1844366   5.25  0.001319094    1.185    0.156
       190 -10.8829     93.9653     66.4532   6.8453761956e+01   5.1242766657e+01    0.3702666    0.2650893  10.20 0.0009159171    1.705    0.414
       191  -9.7006     99.5916     65.1271   6.6239885810e+01   5.0336937458e+01    0.2131302    0.1985224  -2.45  0.001204556    1.044    0.042
       192  -9.2672    143.5872     64.4868   5.4530593106e+01   4.0552824855e+01      0.14296    0.1385545  82.37 9.960542e-05    1.026    0.026
       193 -11.0828    120.7590     61.6114   5.9085549527e+01   4.6329203081e+01    0.4790104    0.3265461 -58.84  0.002208889    1.890    0.471
       194 -10.2015    153.2594     63.6163   5.2238948295e+01   3.8397441753e+01    0.2038253     0.128121  48.46  0.000504593    1.580    0.367
       195 -10.8762    105.8994     63.1401   6.3682707962e+01   4.9355149683e+01    0.4061544    0.1755576  40.45  0.001534371    2.357    0.576
       196  -9.7171    201.7059     62.0286   4.3679692647e+01   2.7353709587e+01    0.1894231    0.1600382 -54.05  0.000562205    1.097    0.089
       197  -9.2851    168.2778     61.6365   4.8833287467e+01   3.5137205568e+01    0.1494263    0.1033175 -67.07 0.0007010119    1.672    0.402
       198 -10.4880     84.0575     61.4943   7.0038870872e+01   5.4058833257e+01     0.394408    0.1351895  43.46  0.001396184    2.872    0.652
       199 -10.0150    155.2114     60.3759   5.0919827784e+01   3.8442103434e+01    0.1956837    0.1324903  70.95 0.0002856365    1.574    0.365
       200  -9.3833     98.2692     60.3107   6.5014686687e+01   5.1445262050e+01     0.142895    0.1078827   6.59 0.0001800205    1.545    0.353
       201  -9.9159     69.5932     60.1868   7.4771793413e+01   5.6880315507e+01     0.204371    0.1217873 -29.60 0.0009528577    1.737    0.424
       202 -10.4024     55.5316     53.9142   7.8055485413e+01   6.0246044578e+01    0.2955363    0.2041848  -6.66  0.001282892    1.564    0.361
       203 -11.6067     59.4146     58.3520   7.8073628801e+01   5.8849849869e+01    0.4067826    0.2545648 -33.85  0.001402463    1.526    0.345
       204 -11.4464     62.6166     50.8296   7.4058892970e+01   5.9690657333e+01    0.3557714    0.2130764 -28.12  0.001759747    1.697    0.411
       205  -9.7392    147.2140     56.9871   5.1534793200e+01   4.0870181181e+01    0.1942102    0.1830514 -53.00 0.0003949462    1.097    0.089
       206  -9.3731    111.6592     57.6939   6.0229663092e+01   4.9005159306e+01    0.1507646    0.1078411  19.29 0.0003863059    1.683    0.406
       207 -11.3170     75.2331     56.1535   7.1249434643e+01   5.6620599100e+01     0.227386    0.2099467 -13.78 0.0002959493    1.106    0.096
       208  -9.5239     68.4581     56.4317   7.3860340257e+01   5.7748269907e+01    0.1378019    0.1225641   1.02 5.435245e-05    1.017    0.017
       209  -9.7476     99.1296     55.6441   6.3141379990e+01   5.2039513796e+01     0.215223     0.120005  37.84 0.0009446488    1.782    0.439
       210 -10.1648    132.3763     54.4474   5.3972236356e+01   4.4770295970e+01    0.3531742     0.163054  51.05   0.00144092    2.005    0.501
       211 -12.4000    105.1466     52.6683   6.0344513001e+01   5.1225658645e+01    0.3477207    0.2554361  45.30 0.0003704155    1.276    0.216
       212  -9.6156     82.4684     54.4974   6.8100940328e+01   5.5567147996e+01    0.1418644    0.1253847   8.90 -1.014914e-05    1.037    0.035
       213 -10.2624    120.4579     52.3473   5.6147114603e+01   4.7853238012e+01    0.3471679    0.2020451  31.54  0.001382775    2.116    0.527
       214 -11.1653     88.2480     51.1231   6.4946572275e+01   5.4991629025e+01     0.273231    0.2385433 -12.64 0.0006443985    1.134    0.118
       215 -10.0019     77.6598     51.2937   6.8604852727e+01   5.6999429763e+01    0.2644995    0.2254912 -35.44 0.0009073577    1.262    0.207
       216 -10.3737     78.5187     46.9270   6.6672634568e+01   5.7538353875e+01    0.2501931     0.181311 -47.05  0.001321452    1.659    0.397
       217  -9.5929    237.2361     51.0101   3.7032639612e+01   2.1429666327e+01    0.1660261   0.09087884 -40.26 0.0008833206    1.632    0.387
       218 -11.4762    129.0661     49.1085   5.3037331423e+01   4.6332523530e+01    0.4767205    0.3678021   7.05  0.002153965    1.624    0.384
       219 -10.6567     45.0235     49.7190   8.0985984076e+01   6.2474765901e+01    0.3782151    0.1781835 -44.79  0.001762632    2.048    0.512
       220 -11.1397    199.8551     49.6318   4.0954261020e+01   2.9571257679e+01    0.2375105    0.1980316 -76.50 0.0006225135    1.088    0.081
       221 -10.8715     53.4922     49.9325   7.7431083577e+01   6.1256147704e+01    0.2680947    0.1836431  22.79 0.0008735737    1.414    0.293
       222  -9.3210    151.6995     47.6742   4.7916218791e+01   4.1151655872e+01    0.1402497    0.1057188  28.37 0.0002990767    1.636    0.389
       223 -10.4293    143.0237     45.5382   4.8950205034e+01   4.3524115060e+01    0.2812989     0.208459 -75.15 0.0007361879    1.629    0.386
       224 -10.2617    111.8617     46.1927   5.6279076387e+01   5.0704446947e+01    0.4143524    0.1632597  44.47  0.001582556    2.427    0.588
       225 -10.7486     91.9144     43.6476   6.1044210186e+01   5.5381273079e+01    0.4052765    0.3293378 -63.30  0.001893964    1.692    0.409
       226 -10.2898     95.8119     42.9122   5.9593549227e+01   5.4672460462e+01    0.2125848    0.1684143  20.95 0.0005472174    1.263    0.208
       227 -10.4483     83.6987     45.0405   6.4197053636e+01   5.6831383383e+01    0.3210049    0.1808751  53.40   0.00104027    1.987    0.497
       228 -11.2730     67.2114     41.8137   6.8811094709e+01   6.0382039973e+01    0.3454658    0.2984297   8.42  0.001774631    1.006    0.006
       229 -11.8822     53.1385     40.8801   7.4072435073e+01   6.2829796835e+01    0.6852236     0.520466  42.68   0.00313928    1.550    0.355
       230 -12.7946     57.6183     34.5753   6.9639656881e+01   6.3088676208e+01    0.3500464    0.2836208  -8.18 0.0003664023    1.122    0.109
       231 -11.0486     71.4745     41.4295   6.7073467293e+01   5.9682018831e+01    0.3492393    0.2676874 -42.65  0.001292082    1.526    0.345
       232 -12.3540     72.0590     37.1101   6.5150017879e+01   6.0206715555e+01    0.9049084    0.4431652  30.63  0.003994368    2.204    0.546
       233 -10.2010    131.2644     42.0807   5.0303779338e+01   4.6786368534e+01    0.2778724    0.2143169 -51.55  0.001040178    1.445    0.308
       234 -10.6847    124.7435     42.2497   5.1803576954e+01   4.8295067016e+01    0.2992116    0.2192228  82.49  0.001513032    1.673    0.402
       235  -9.9060    107.0042     42.9792   5.6451803837e+01   5.2239725911e+01    0.2101812    0.1867747  43.91 0.0003618891    1.049    0.047
       236 -10.7522      8.1598     33.7379   9.3179107430e+01   6.9101317446e+01    0.4369071     0.354188 -28.26  0.002397708    1.118    0.106
       237 -10.4084     18.3350     42.5403   9.1000390964e+01   6.6693679675e+01    0.4239975    0.1453653 -39.57  0.001534002    2.466    0.594
       238 -10.7696     23.8539     41.3483   8.7803646762e+01   6.6410567511e+01    0.3265613    0.2693581  46.94     0.001348    1.808    0.447
       239 -10.6087     22.7320     26.0027   8.2223871509e+01   6.9127289764e+01    0.3254538    0.2204685  17.35 0.0008173492    1.383    0.277
       240 -11.8960     18.0616     31.6462   8.7055203200e+01   6.8663452047e+01    0.5527887    0.5206177 -60.55  0.003957915    1.623    0.384
       241 -10.6650     30.0676     32.9257   8.1403058834e+01   6.7205163101e+01    0.3454984    0.2261407 -14.32  0.001027425    1.418    0.295
       242 -12.4656     27.7209     38.0618   8.4633944188e+01   6.6600107889e+01    0.3348872    0.2152792  20.19 0.0003775832    1.523    0.343
       243 -11.4173     24.2756     35.0022   8.5160962175e+01   6.7486797092e+01    0.2480493    0.1918871 -12.95 0.0003979388    1.042    0.040
       244 -10.8759    152.6673     39.0107   4.5216657063e+01   4.2075571019e+01    0.2487869    0.2299971  58.07 0.0005412357    1.087    0.080
       245  -9.9017    142.2037     40.6504   4.7626135233e+01   4.4372580217e+01    0.1946492    0.1148038  53.10 0.0003711304    1.555    0.357
       246 -11.6616     43.9479     38.1937   7.6996334462e+01   6.4594004965e+01    0.4945156    0.2939391  46.79   0.00248793    2.340    0.573
       247 -11.1452    225.0725     38.2590   3.5545756068e+01   2.5624008937e+01    0.2701027    0.1905386  86.35 0.0004618605    1.347    0.258
       248  -9.8309    116.6914     39.5820   5.2804480750e+01   5.0511764942e+01    0.1880018    0.1276349  65.14 0.0008501362    1.534    0.348
       249 -10.3085     98.7156     39.5254   5.7510164637e+01   5.4522739199e+01    0.4343198     0.139274  48.46  0.001587786    2.739    0.635
       250  -9.9026    100.9526     36.4782   5.5771743308e+01   5.4441415411e+01    0.2172724    0.1707263 -87.35  0.001145062    1.815    0.449
       251 -11.0738     98.3845     31.5318   5.4657308590e+01   5.5621977278e+01    0.4406486    0.2532266  61.66  0.002095365    1.887    0.470
       252 -11.5949    102.0900     28.5148   5.2552968775e+01   5.5169098157e+01    0.4148021     0.285599  72.11 0.0008531212    1.757    0.431
       253  -9.3808    160.4045     38.4273   4.3748259919e+01   4.0294686455e+01    0.1341235     0.121341  86.32 5.109254e-05    1.025    0.024
       254 -10.1025      1.6057     37.8147   9.8109045650e+01   6.8758009840e+01     0.191437    0.1056964 -38.25 0.0007896593    1.387    0.279
       255 -11.2606     83.4242     36.0027   6.0829284475e+01   5.8174621780e+01    0.5236489    0.2549208  26.30  0.002050096    2.902    0.655
       256  -9.6645    201.7714     34.3753   3.7113006878e+01   3.1163373585e+01    0.1683141    0.1084734  63.12 0.0003383081    1.530    0.347
       257 -11.1810    221.7070     32.1283   3.4557188958e+01   2.7109496574e+01    0.2101578    0.1716915 -73.72 0.0002559549    1.016    0.016
       258 -10.4381    205.8688     32.3592   3.6199057686e+01   3.0503453965e+01     0.203028    0.1489542 -55.44 0.0002487399    1.234    0.190
       259 -10.1887    178.3641     32.6169   3.9540339901e+01   3.6753650680e+01    0.2412943    0.1640736  33.42 0.0009530351    2.061    0.515
       260 -10.3578    166.6195     32.5172   4.1155547049e+01   3.9542495691e+01    0.2358585    0.1677456 -27.52  0.001158956    1.613    0.380
       261 -10.2699    107.4064     34.6482   5.3398743357e+01   5.3247656013e+01    0.2756397    0.1471216  50.30  0.001025668    1.657    0.396
       262 -10.2004     48.6766     31.5654   7.2130102969e+01   6.4936319290e+01    0.2315202    0.1653144  19.83 0.0005593349    1.259    0.206
       263 -10.8915     50.4437     27.6919   6.9688447137e+01   6.5217544735e+01    0.2939705     0.187919   4.58   0.00117533    1.689    0.408
       264 -10.6891    236.3536     30.3491   3.2883531209e+01   2.4317248915e+01    0.2231825    0.1818754  46.90  0.001002013    1.727    0.421
       265  -9.3550    145.4524     31.2501   4.4188261618e+01   4.4757942105e+01    0.1907252    0.1171971 -46.69 0.0009475149    1.769    0.435
       266  -9.4931     44.4324     31.4802   7.3974964211e+01   6.5572977509e+01    0.1274648    0.1037715  -0.75 9.194658e-05    1.008    0.008
       267 -11.0534     69.8791     26.4638   6.1559651834e+01   6.2029311813e+01    0.4724926    0.2481234  28.75  0.002074133    2.008    0.502
       268  -9.7361     60.3199     27.5825   6.5599314672e+01   6.3605938505e+01    0.1681542    0.1561994 -70.71 0.0005865459    1.653    0.395
       269 -13.1578     74.3716    237.9999   1.0854723104e+02   1.4273955438e+01    0.8237882    0.6287426 -78.56  0.005074246    1.382    0.276
       270 -11.2165    128.0974     26.7691   4.6027207329e+01   4.9399942921e+01    0.6069296    0.2756912  62.98  0.002582012    2.018    0.504
       271 -10.0434    109.3511    242.6809   1.0147771835e+02   8.4045314204e+00    0.2366325     0.131227  45.47 0.0008376347    1.618    0.382
       272 -10.2883    214.5925     25.8542   3.3870915151e+01   2.9389515480e+01    0.1904191    0.1506882  75.08 0.0004738394    1.249    0.199
       273 -10.2121    204.0141     26.0052   3.4940498090e+01   3.1682166536e+01     0.211111    0.1229763 -64.59  0.000552475    1.684    0.406
       274 -11.0954    192.9593     25.2981   3.5949402796e+01   3.4247708967e+01    0.2836825    0.1464838 -50.39 0.0008988295    1.860    0.462
       275 -10.5730    169.1226     25.8857   3.9017304275e+01   3.9723114206e+01    0.1921587    0.1714953  80.55  0.001216682    1.046    0.044
       276 -12.0719    164.9437     23.1173   3.8842986963e+01   4.1021603949e+01    0.3168516    0.2261312  84.83            0    1.327    0.246
       277  -9.7424     89.1031     31.5499   5.7330385601e+01   5.7593739764e+01    0.2030763     0.120136  50.25  0.001014953    1.556    0.357
       278  -9.6545    119.0897     25.7259   4.7542919469e+01   5.1623365720e+01    0.1835566    0.1486131  50.98 0.0003214326    1.091    0.084
       279  -9.2704     50.3084    240.3305   1.1384201076e+02   1.6865570880e+01    0.1106203   0.09421983 -33.98 0.0006481227    1.664    0.399
       280 -10.1865      1.4834     25.8996   9.4010542331e+01   7.0936781812e+01    0.2106273    0.1185505 -33.81 0.0005743522    1.373    0.272
       281  -9.9261    195.6191    238.6575   8.2607458606e+01  -3.6721335711e+00    0.2033989    0.1325342  -3.30  0.001109522    1.641    0.391
       282 -10.8105    243.9211    237.3644   7.3316123687e+01  -9.7342483292e+00    0.1962507    0.1418645 -29.70  0.000791612    1.382    0.276
       283 -10.0464     31.3210    236.6783   1.1745027257e+02   1.9811683537e+01    0.1880375    0.1076986 -85.16  0.000880327    1.665    0.399
       284 -11.2845     29.8354    233.0299   1.1750307192e+02   2.0739009409e+01    0.3194223     0.233859 -60.28  0.002051463    1.587    0.370
       285 -10.2274    159.6234    236.1827   8.9670728170e+01   2.0271164840e+00    0.1742517    0.1175332 -31.94 0.0004389498    1.632    0.387
       286  -9.7836    177.3122    235.3291   8.5801876940e+01  -4.8392512746e-01    0.1355321   0.09160785  -2.86 0.0007042867    1.670    0.401
       287 -11.8373      7.2574     25.2901   9.0453050968e+01   7.0645208525e+01    0.3450272    0.1797409  13.35  0.001556469    1.888    0.470
       288 -10.4786     88.8112    241.3271   1.0577492119e+02   1.1617873804e+01    0.2329741    0.1565134 -34.65  0.001227342    2.142    0.533
       289 -10.7684     24.8314     20.6078   7.8694933995e+01   6.9715707162e+01    0.2466911    0.1841189 -18.16   0.00165732    1.134    0.118
       290 -10.1164     23.9917    232.5408   1.1865474439e+02   2.1463829394e+01    0.2001693    0.1461469 -67.62 0.0006338494    1.476    0.323
       291 -10.1694     38.2392    232.8031   1.1575807033e+02   1.9855026979e+01    0.1797526     0.135121  68.17 0.0005923802    1.115    0.103
       292 -10.1387    106.7650     22.7049   4.9273537838e+01   5.4769985037e+01    0.2723101    0.1923193 -47.24  0.001013211    1.721    0.419
       293 -10.2046    152.4200    230.1891   9.0306172764e+01   4.2202115867e+00    0.1749831    0.1327705 -64.55 0.0009516357    1.745    0.427
       294 -10.4508     93.9814     22.6931   5.2519788420e+01   5.7591398052e+01    0.2479834    0.2269576  20.79 0.0008708647    1.092    0.084
       295 -10.1570    103.4059     19.6183   4.8952959874e+01   5.5843873011e+01    0.2326983      0.15746  63.70 0.0006852055    1.439    0.305
       296 -11.3934    108.5075     17.4223   4.6971381485e+01   5.4913262777e+01    0.2791831    0.1988526  48.66    7.778e-05    1.208    0.172
       297 -10.7703     58.9710     22.0501   6.3706491901e+01   6.4542104488e+01    0.3007382    0.1707979 -16.84  0.001061784    1.932    0.482
       298 -10.2026    185.8983     22.9351   3.6170874800e+01   3.6134211457e+01    0.1987212    0.1626844 -83.56   0.00061742    1.067    0.063
       299  -9.4517     86.2810     23.3400   5.4954270902e+01   5.9150648376e+01    0.1353436   0.08880188  22.15 0.0003211953    1.626    0.385
       300  -9.7554    226.1543     22.2055   3.2072399542e+01   2.7378128122e+01      0.16689    0.1437913  84.51 0.0006262097    1.220    0.180
       301 -10.5183     67.5203     21.6468   6.0344522556e+01   6.3049169243e+01    0.3698125    0.1423651  51.96   0.00153704    2.741    0.635
       302  -9.6346    157.6273     21.7147   3.9485462990e+01   4.2913015784e+01    0.1362029   0.08835153  43.48 0.0007017665    1.711    0.415
       303 -10.1537    120.3428     21.1307   4.5725563941e+01   5.1819532788e+01     0.165585    0.1595803 -12.90 0.0004558474    1.171    0.146
       304  -9.2721    170.2646    229.3244   8.6316392390e+01   1.6171613903e+00    0.1327411   0.09461793  -6.90 0.0003764016    1.563    0.360
       305 -11.2395      4.5437    226.7049   1.2218261774e+02   2.4601523522e+01    0.2988823    0.1828595  58.08  0.001906148    1.341    0.254
       306 -10.4070    172.8414     20.1163   3.7015980763e+01   3.9482575605e+01    0.2046836     0.152853 -76.43  0.000685637    1.292    0.226
       307  -9.6351    139.8146     20.0983   4.1783866023e+01   4.7330447930e+01    0.1826043    0.1366519  45.27  0.000565391    1.333    0.250
       308 -10.6731    154.1538    226.8120   8.9398275908e+01   4.5778949281e+00    0.2934364    0.1409752  50.33  0.001169641    2.767    0.639
       309 -11.1816    120.8349    226.3421   9.6790268901e+01   9.9037960252e+00    0.2213254    0.1903381 -78.60 0.0008608637    1.353    0.261
       310 -10.0420     66.0606    226.3164   1.0919787306e+02   1.7846084508e+01    0.2002337    0.1718823 -64.99   0.00063083    1.284    0.221
       311  -9.4408    190.5038    226.4877   8.1615462501e+01  -9.4851225025e-01    0.1339581    0.1111091   3.58 -7.959169e-05    1.034    0.033
       312  -9.4052    181.5146     19.4997   3.5823065347e+01   3.7526201891e+01    0.1263669    0.1099252  83.14 0.0008095508    1.070    0.065
       313 -10.6194     86.2630     18.9586   5.3210307246e+01   5.9626571419e+01    0.1701669    0.1507146  28.78 0.0003380172    1.056    0.053
       314  -9.6153     54.6801     18.7745   6.3929619500e+01   6.5674138626e+01    0.1497488    0.1418283  29.50  0.001028762    1.377    0.274
       315  -9.3762    194.9774     16.9972   3.3774918773e+01   3.4720877811e+01    0.1477003     0.122064 -84.40 0.0009611596    1.013    0.012
       316 -11.4633     21.1278    222.2379   1.1856799472e+02   2.3971328355e+01    0.2575943    0.1856936  75.72  0.001036632    1.153    0.133
       317 -10.2251    126.7343    222.0047   9.4818717387e+01   9.8614443083e+00    0.2136614     0.171126  36.12 0.0003561178    1.132    0.116
       318  -9.9629     74.7921     16.2988   5.5590716593e+01   6.2238644127e+01    0.3535033    0.1627153  50.43   0.00162895    1.912    0.477
       319  -9.9647     37.9918    217.6892   1.1462035839e+02   2.3179761093e+01    0.1781319    0.1452029  54.81 0.0007481024    1.126    0.112
       320 -11.8029     10.1385    217.2584   1.2053035158e+02   2.6127891610e+01    0.3422715    0.2227471  51.71  0.001917977    1.349    0.259
       321  -9.8607    184.5724     14.9016   3.4351050045e+01   3.7309615875e+01    0.1565253    0.1069046  16.06 0.0008052808    2.519    0.603
       322 -11.2807     29.5867    215.9404   1.1631819202e+02   2.4490153953e+01    0.3528809    0.2677086  24.37  0.001698634    1.591    0.371
       323 -10.4963     23.7940    216.4114   1.1760314705e+02   2.4987413785e+01    0.2090931    0.1578849   8.76  0.001266022    1.907    0.476
       324  -9.0039     96.5083     13.4358   4.8315978315e+01   5.7970839341e+01    0.3160736    0.1237947  51.16 0.0007838425    2.048    0.512
       325  -9.7239     61.9449     14.4703   5.9181886171e+01   6.4877681201e+01     0.190983    0.1077624  45.74 0.0007522675    1.593    0.372
       326 -10.7642    227.3975     12.5271   2.9997103301e+01   2.8218836953e+01    0.2858855    0.1128826  63.90  0.001434168    2.469    0.595
       327  -9.4481     31.0320     12.7491   7.1709846740e+01   7.0014737488e+01    0.1598869    0.1219886   9.17 0.0005609803    1.053    0.050
       328 -12.0532    237.7290    212.6547   7.0091392271e+01  -5.3633147245e+00    0.5453879    0.3370072  -1.00  0.001688935    1.742    0.426
       329 -10.1334     21.3757    212.5335   1.1784635517e+02   2.6101447482e+01    0.2755191    0.1154228  56.39  0.001290391    2.254    0.556
       330  -9.2866     84.3015     12.3352   5.1087845834e+01   6.0690324959e+01    0.1345264    0.0817315  28.25 0.0007035762    1.659    0.397
       331  -9.7627    208.8256    211.9378   7.5368703200e+01  -1.2048766949e+00    0.2066544     0.152947  -8.41 0.0006236788    1.268    0.211
       332 -10.0110      1.5164    211.5116   1.2197720766e+02   2.8163240287e+01    0.2103835    0.1307261 -72.31 0.0008396282    1.488    0.328
       333 -12.1486      5.0617    208.2353   1.2105023291e+02   2.8589356848e+01    0.5753219     0.301365  83.84  0.003169788    1.685    0.407
       334 -10.5247     10.8017    208.3925   1.1984045770e+02   2.8044099214e+01     0.225556    0.1747237 -60.56 0.0004060155    1.457    0.314
       335  -9.2693    188.2625    205.3258   7.8327728252e+01   3.1367862809e+00    0.1396169   0.09791239 -10.11 0.0002881438    1.562    0.360
       336 -10.6220     20.9226    199.4148   1.1696636535e+02   2.9163474280e+01    0.3839023    0.1967384 -42.14  0.001754024    2.930    0.659
       337 -10.3194    175.4094    202.6723   8.0585429550e+01   5.7402058858e+00    0.2380185    0.2046797  28.88 0.0005078304    1.149    0.130
       338  -9.5417    136.6567    215.6963   9.1571365101e+01   9.5589832840e+00    0.1432052    0.1062237  -3.83 0.0007040317    1.683    0.406
       339  -9.4019    238.6540    200.7112   6.7732453052e+01  -3.6117951518e+00    0.1318592    0.0847374  -5.34 0.0007024274    1.656    0.396
       340 -11.0552     17.0397    193.5666   1.1740103080e+02   3.0907225347e+01    0.3584622    0.2836497  52.36  0.002302616    1.236    0.191
       341  -9.7240    211.8226    188.5923   7.0365592700e+01   2.4147332342e+00    0.1796549    0.1280379  44.33 0.0009486033    1.665    0.399
       342 -10.0514    108.3161    210.6352   9.7456598681e+01   1.5190199383e+01    0.1490124    0.1034705  68.03 0.0007039902    1.770    0.435
       343 -11.0379     16.5140    184.5263   1.1679798111e+02   3.3118538054e+01    0.3886026    0.1980756 -75.68  0.001397222    1.686    0.407
       344 -10.2872     14.6959    180.6667   1.1691562717e+02   3.4213371489e+01    0.2131582    0.1883783 -38.26 0.0007820145    1.418    0.295
       345  -9.7009     61.6430    184.8578   1.0551293982e+02   2.8102522094e+01    0.2056002    0.1245315 -81.69   0.00094619    1.767    0.434
       346 -10.3694    167.7906    183.6019   7.8629161263e+01   1.0892491494e+01    0.2088205    0.1356265  45.84 0.0008142272    1.659    0.397
       347  -9.6506     58.7931    182.2031   1.0590852580e+02   2.9129504359e+01    0.1891461     0.162345 -39.29 0.0008471038    1.350    0.259
       348  -9.4249      1.5354    180.5450   1.2004974684e+02   3.5303766750e+01    0.1244576    0.0997881  88.45 0.0001999788    1.009    0.009
       349  -9.9278    244.4725    178.4850   6.2494424800e+01  -8.0049021188e-01    0.2400527    0.1018211 -30.36  0.001024791    2.319    0.569
       350 -10.7785     46.4527    177.8547   1.0858997375e+02   3.1717141978e+01    0.3184966      0.24297 -86.18  0.001112609    1.223    0.182
       351  -9.4763     69.5579    178.2250   1.0252189891e+02   2.8697847084e+01     0.193697    0.1252645 -52.59 0.0005978275    1.555    0.357
       352 -10.9035     34.1675    174.1132   1.1137057097e+02   3.3996912033e+01    0.2662139    0.1906283 -60.80 0.0005078868    1.329    0.247
       353 -10.8435     18.2189    173.2096   1.1538411713e+02   3.5736695195e+01    0.3575677    0.2008593  63.27  0.001524603    1.833    0.454
       354  -9.2787     74.3233    171.3269   1.0019278434e+02   2.9769343965e+01    0.1496576    0.1105398 -30.07 0.0004511097    1.691    0.409
