#   1 NUMBER                 Running object number                                     
#   2 MAG_AUTO               Kron-like elliptical aperture magnitude                    [mag]
#   3 X_IMAGE                Object position along x                                    [pixel]
#   4 Y_IMAGE                Object position along y                                    [pixel]
#   5 X_WORLD                Barycenter position along world x axis                     [deg]
#   6 Y_WORLD                Barycenter position along world y axis                     [deg]
#   7 A_WORLD                Profile RMS along major axis (world units)                 [deg]
#   8 B_WORLD                Profile RMS along minor axis (world units)                 [deg]
#   9 THETA_WORLD            Position angle (CCW/world-x)                               [deg]
#  10 FWHM_WORLD             FWHM assuming a gaussian core                              [deg]
#  11 ELONGATION             A_IMAGE/B_IMAGE                                           
#  12 ELLIPTICITY            1 - B_IMAGE/A_IMAGE                                       
         1 -13.9651     95.0494    138.6691   9.4220520468e+01   3.4850922022e+01     2.105819    0.6670332 -44.07  0.006109729    3.894    0.743
         2  -9.5082     66.0051     24.1883   6.8925409448e+01   6.3312118434e+01    0.2969834    0.1700237 -54.49  0.001231953    3.649    0.726
         3  -9.9788    119.2249     19.5880   5.1358314546e+01   5.2677128850e+01    0.4403571    0.2255218  -9.11  0.001849008    2.817    0.645
         4 -10.3008    142.8613     18.0559   4.6191030508e+01   4.7109983463e+01    0.4867395    0.3194859  37.80  0.002254819    1.648    0.393
         5 -10.0798    171.8414     12.8794   4.0315970550e+01   4.0456053853e+01    0.3147144    0.2621861  55.36  0.001475133    1.223    0.182
         6 -10.4290      5.7010      8.7453   9.1339211270e+01   7.3173283906e+01    0.3479304    0.2243553 -16.79  0.002396457    1.245    0.197
         7 -11.1246    166.5006      5.4006   3.8905700557e+01   4.2493710648e+01    0.5206143    0.5065346  -9.27  0.003505843    1.250    0.200
         8  -9.2421     78.8506      4.8519   5.5913464740e+01   6.3018481629e+01    0.2053559    0.1474521  29.40  0.001084659    1.214    0.176
         9  -8.9396    236.2362      1.5636   3.1572436143e+01   2.6653444443e+01    0.2212458    0.1005413  83.82  0.001131881    2.060    0.515
        10 -10.8824     90.2414    235.7219   1.0983979485e+02   1.3671566937e+01    0.8140699     0.495448  79.79  0.004294567    2.036    0.509
        11 -16.1346     17.7135    245.1451   1.2455466334e+02   2.0919447606e+01     2.020988     1.519959  34.20  0.006861283    1.599    0.375
        12 -15.3957     34.4132    213.2562   1.1940598830e+02   2.5522597566e+01     3.959681      2.11628  46.73   0.02254172    1.614    0.380
        13  -8.1954    105.5931    235.7306   1.0665206415e+02   1.1389094809e+01     0.123468   0.09583429   9.97 0.0006971433    1.757    0.431
        14  -8.8185    110.9995    234.0283   1.0532113368e+02   1.0881686072e+01    0.2127914    0.1350257  61.46  0.001130086    1.687    0.407
        15  -9.7878     82.2018    233.8205   1.1130657457e+02   1.5192631704e+01    0.2765947    0.1471058  38.31 0.0009782375    1.653    0.395
        16 -10.8517     65.4365    232.2976   1.1459842334e+02   1.7790336544e+01    0.4140499    0.3094327 -44.16  0.002311007    1.905    0.475
        17 -11.4041     90.2338    229.1815   1.0914803179e+02   1.4946758746e+01    0.6002272     0.375376 -33.28   0.00289226    2.833    0.647
        18  -9.7160    143.1049    231.1506   9.8171923044e+01   6.3031338688e+00    0.2063116     0.170065  14.92  0.001245425    1.291    0.225
        19  -8.5277    114.4593    231.4886   1.0428304416e+02   1.0822502512e+01    0.1290921    0.1122131  41.22 0.0001215992    1.081    0.075
        20 -12.7519    125.2385    225.3634   1.0118589257e+02   1.0267813451e+01    0.8151808    0.5635735  70.21   0.00429945    1.820    0.450
        21 -10.5806     73.9544    228.3938   1.1248438656e+02   1.7420875161e+01    0.3420306    0.2236842  44.44  0.001364964    1.314    0.239
        22 -10.3458    146.5663    224.4910   9.6476740780e+01   6.9294800844e+00    0.3639578    0.1954812  50.06  0.001701138    1.930    0.482
        23 -12.4505    125.8447    216.2268   9.9785480185e+01   1.1937115374e+01     0.898022    0.3181776  48.19  0.003278634    2.927    0.658
        24 -11.4809    101.2752    220.8525   1.0581489805e+02   1.4950214397e+01    0.3177219    0.2849303  68.42  0.002026339    1.081    0.075
        25 -10.8629     98.1320    234.0980   1.0802644578e+02   1.2821568881e+01    0.5180034     0.333333  57.05  0.002266961    1.443    0.307
        26  -9.9899    192.7805    219.5923   8.6060395758e+01   1.3309206675e-01    0.2018667    0.1600131  28.52  0.001210831    1.126    0.112
        27 -10.9799    146.8859    219.7547   9.5698376741e+01   7.7433357662e+00    0.4537038    0.2022107  38.68  0.001979409    1.951    0.487
        28 -13.0517    111.2763    210.4076   1.0223018388e+02   1.5506500836e+01     1.039663    0.5959527 -39.34  0.004743811    2.390    0.582
        29 -10.1768    149.7639    237.5029   9.7672008814e+01   4.1292478874e+00    0.3751596    0.3015844  67.86  0.002272802    1.551    0.355
        30 -13.0136     98.6898    208.8878   1.0488132360e+02   1.7830541675e+01    0.8126892     0.716247  39.17  0.004800894    1.150    0.131
        31 -12.5024    132.4715    209.5411   9.7319264905e+01   1.2151069446e+01    0.6669527    0.4630891 -64.08  0.003465932    1.710    0.415
        32 -12.5320    127.6516    203.3562   9.7460686793e+01   1.4232249740e+01    0.8792897    0.3778378  47.42  0.003499896    2.289    0.563
        33 -10.1081      7.9884    213.3171   1.2470620436e+02   2.8195298649e+01    0.3983417    0.1547208  57.13  0.002071986    2.173    0.540
        34 -10.9570    153.4539    208.2151   9.2436561955e+01   8.7868868886e+00    0.3788763    0.2629835 -39.59  0.001975978    1.606    0.377
        35  -9.7700    206.4677    211.4967   8.1928666211e+01  -7.7297241115e-01    0.2870943    0.1176443  36.98  0.001238044    2.263    0.558
        36  -9.0963    109.7763    239.8408   1.0625376332e+02   9.9914590123e+00    0.2230386    0.1634912  77.45  0.001319005    1.575    0.365
        37  -8.9787    185.6617    205.3319   8.5028965256e+01   3.7170636125e+00    0.1315235    0.1091826  70.65 0.0007051912    1.741    0.426
        38 -10.2517     13.6561    201.5955   1.2288593380e+02   3.0160757438e+01    0.3432957    0.2434444 -55.31  0.001654997    1.724    0.420
        39 -10.0473      6.4743    200.3935   1.2428343153e+02   3.1072575885e+01    0.3164627    0.2163599  47.28  0.001798151    1.396    0.284
        40 -10.4279    151.3718    197.8498   9.1146831735e+01   1.1175656872e+01    0.2559334    0.1833684  45.90  0.001304192    1.340    0.254
        41  -9.4440    200.8395    193.9406   7.9810246890e+01   3.0885373258e+00    0.3736871    0.1753183 -41.94  0.001627514    2.199    0.545
        42  -9.9707    131.3236    238.5904   1.0163828305e+02   6.8738489682e+00    0.2329846    0.1436115  31.43 0.0008248047    1.499    0.333
        43  -9.7332     72.1756    236.5370   1.1361196657e+02   1.6053038933e+01    0.3205084     0.216885 -43.57  0.001835746    2.172    0.540
        44  -8.6643     13.6194    185.6479   1.2181883919e+02   3.3698106746e+01    0.1672706    0.1235247 -55.93 0.0007263492    1.563    0.360
        45  -9.9937     28.6441    181.9791   1.1812452440e+02   3.3111364737e+01    0.2658985    0.1895033 -63.26 0.0007542383    1.409    0.290
        46 -11.6422    110.2022    179.7553   9.7823247996e+01   2.2397903235e+01    0.3686579    0.3097121 -76.55  0.001984772    1.252    0.201
        47 -13.7411    105.9570    170.0730   9.7240499862e+01   2.5380659337e+01     1.062719    0.7486191 -53.47  0.005199615    1.450    0.310
        48 -12.4935     94.8241    167.5793   9.9696998862e+01   2.7843148848e+01    0.6749412    0.3660108  41.77  0.002788354    1.781    0.439
        49 -13.6852     93.6974    160.3456   9.8746699732e+01   2.9773390960e+01     1.092911    0.7890264 -18.82  0.004974633    2.055    0.513
        50 -12.0208     84.0950    176.7012   1.0390736733e+02   2.7356987707e+01    0.4083884    0.3561757  55.36  0.002338517    1.092    0.084
        51 -12.8969     78.4578    174.1211   1.0496214942e+02   2.8816340424e+01     0.891696    0.4828736 -44.74   0.00337635    2.233    0.552
        52 -10.0628     12.0867    177.7382   1.2158386507e+02   3.5633847980e+01    0.2318239    0.2186939 -21.04  0.001678897    1.467    0.318
        53 -10.7103      3.5473    170.3241   1.2299670957e+02   3.8026781624e+01     0.402692    0.2476628  83.77  0.002434284    1.365    0.267
        54 -12.2112    124.9479    166.6262   9.1758441515e+01   2.2773667361e+01    0.5633574    0.4237499 -48.34   0.00181469    1.375    0.273
        55 -11.0187     11.1196    167.1305   1.2098765336e+02   3.8172060493e+01    0.3355535    0.2492847  34.95   0.00213153    1.527    0.345
        56 -12.3255    104.0927    157.6613   9.5474154285e+01   2.8662249571e+01    0.5914364    0.3538482  37.07   0.00260181    1.677    0.404
        57 -11.1726    117.9856    160.7952   9.2414417453e+01   2.5420476213e+01    0.2792217    0.2281924 -56.25   0.00141066    1.244    0.196
        58 -11.8598     77.3899    158.7046   1.0286394050e+02   3.2720156086e+01    0.4696161    0.2909591 -46.06   0.00217992    1.762    0.432
        59 -12.3093    109.0133    163.3599   9.5239407961e+01   2.6435594272e+01    0.6734653    0.4048117  73.39  0.002521414    2.755    0.637
        60 -13.1511     88.4608    136.5211   9.5680499305e+01   3.6482189077e+01    0.9232343    0.6385311 -17.36  0.003980985    2.171    0.539
        61 -13.9619     81.9587    144.2882   9.9075212908e+01   3.5594926650e+01     1.474773    0.9207752 -72.16  0.006013373    1.753    0.430
        62 -10.7578     66.5802    156.1458   1.0539969358e+02   3.4886398589e+01    0.4662664    0.2813586 -66.66  0.002227733    1.568    0.362
        63 -12.1561    120.2966    144.1421   8.8375050008e+01   2.8916240908e+01    0.6130962    0.2747165 -52.28  0.002239787    2.254    0.556
        64 -10.6276    137.4652    236.8812   1.0013798303e+02   6.2003140765e+00    0.3177544    0.1974501  35.95  0.001730789    1.370    0.270
        65 -10.4916     20.4653    134.9883   1.1538300654e+02   4.5129720837e+01    0.2887136     0.168857 -61.17  0.001557494    1.455    0.313
        66  -9.1440      7.2662    125.4157   1.1806659796e+02   4.8394970032e+01    0.1546623    0.1099248  42.68 0.0007635118    1.592    0.372
        67  -8.7477      2.3157    121.3143   1.1905956255e+02   4.9672262280e+01    0.1272623   0.07399447 -49.10 0.0007035604    1.644    0.392
        68 -11.7251    106.9808    131.4404   8.9235275353e+01   3.4478427354e+01    0.3794823    0.2970307 -46.16  0.001841358    1.272    0.214
        69 -10.4520     49.8782    165.9108   1.1120748917e+02   3.4611983421e+01    0.2887341    0.1577339  74.16  0.001270196    2.254    0.556
        70 -13.4346    116.7024    121.3338   8.4072683206e+01   3.4999072471e+01    0.9713328     0.840322 -27.67  0.003903008    1.237    0.192
        71 -12.6420     57.2546    128.6126   1.0348919099e+02   4.2967884243e+01    0.8269725    0.5468344 -55.69  0.003133452    1.374    0.272
        72 -10.7912    140.8571    115.1387   7.5958978088e+01   3.1304361645e+01    0.4289318    0.2709967  71.11  0.001576167    2.533    0.605
        73 -10.6119      2.7780    109.7354   1.1759684707e+02   5.2400630273e+01    0.6412926    0.2235921 -60.74  0.002979037    2.089    0.521
        74 -11.2599    243.4401    107.1637   5.3768940901e+01   1.0398608233e+01    0.7450319     0.580489 -31.33  0.004276118    1.204    0.169
        75 -12.0737    114.0237    152.2395   9.1757116566e+01   2.8177392800e+01    0.4169829    0.3602408  -7.22  0.002113959    1.393    0.282
        76  -9.1555     90.0943    249.2005   1.1121080613e+02   1.1182478555e+01    0.2857266     0.140132  40.29  0.001513798    1.657    0.397
        77 -11.9451    160.5531    100.4026   6.7231981261e+01   2.9893895972e+01    0.7115654    0.5077511 -37.25  0.002815228    1.420    0.296
        78 -10.5076    181.0418    100.7989   6.2917618169e+01   2.5012933791e+01    0.3967132    0.2976435 -10.11  0.001798557    1.758    0.431
        79 -11.4307    134.6291     97.9886   7.2941744629e+01   3.6370977310e+01    0.5984282    0.3983286   6.84  0.002227705    2.629    0.620
        80 -10.0147     48.4370     99.0386   1.0043802949e+02   5.1256422072e+01    0.3640715    0.2175419 -44.16  0.001783462    1.555    0.357
        81 -10.5680     14.0156     95.9163   1.1192272016e+02   5.5020596563e+01    0.6274765    0.2472921 -54.38  0.002947363    1.950    0.487
        82 -10.5449     38.4258     98.3211   1.0379991644e+02   5.2485644706e+01    0.5034409     0.294093  28.13  0.002552826    1.909    0.476
        83 -10.7820    211.1179     87.3038   5.4056292446e+01   2.0519993508e+01    0.8893599    0.3436941 -39.26  0.003350377    2.377    0.579
        84  -9.1799    228.7336    110.6593   5.6767155789e+01   1.2718171083e+01    0.2719903    0.1658959 -27.88  0.001263056    1.734    0.423
        85  -9.9392    107.6483     94.5189   7.9578428748e+01   4.2888628298e+01    0.3080421    0.2598053   5.85  0.001396821    1.339    0.253
        86  -8.7900     43.0436     88.5343   9.9965252924e+01   5.4315561477e+01    0.1910695    0.1336999  22.43 0.0008106656    1.590    0.371
        87 -10.8807    129.1836     83.6737   7.0233481512e+01   4.0511131834e+01    0.4222967    0.3211387 -29.77  0.002002002    1.397    0.284
        88 -10.7697     84.1905     82.6578   8.3607004434e+01   4.9862740980e+01    0.6110957    0.4123435   3.69  0.002682091    2.086    0.521
        89 -10.2034    213.7772     70.1731   4.9469461057e+01   2.2728321334e+01    0.4714919    0.3461245 -55.37  0.002494183    1.298    0.230
        90  -9.2534     10.5439     71.6703   1.0873379446e+02   6.0784741084e+01    0.2150629    0.1930151  35.72  0.001453384    1.388    0.279
        91 -11.0108      4.6970     66.5928   1.1006045278e+02   6.2210040546e+01    0.6216664    0.3881713 -78.89  0.003592221    1.746    0.427
        92 -10.4391    184.5189     64.2249   5.2531852628e+01   3.0602614819e+01    0.7056723    0.4722708 -19.00  0.003218722    1.931    0.482
        93 -12.0956    139.8452     64.3160   6.1593953618e+01   4.1553555973e+01    0.7502176    0.6339446 -81.77  0.003841406    1.385    0.278
        94 -10.6288     87.2520     64.3811   7.6725884402e+01   5.2996828897e+01    0.4500315     0.401722  33.63  0.002551743    1.139    0.122
        95  -9.7258     21.6455     55.1769   9.9956209692e+01   6.3579370444e+01    0.3825956    0.1846066 -32.17    0.0018938    2.022    0.505
        96 -10.0751     95.6356     53.8697   7.0296813663e+01   5.3240525775e+01    0.4883829    0.3509187  10.19  0.002391931    1.659    0.397
        97 -11.1465    199.7284     45.2266   4.5220912518e+01   2.9730317984e+01    0.7535946    0.4778902 -37.77  0.003810496    1.568    0.362
        98  -8.7853    127.6846     50.3185   6.0027844009e+01   4.6706111491e+01    0.1458259    0.1146452 -76.84 0.0007038932    1.653    0.395
        99  -8.9266    235.4785     47.0406   4.1375013489e+01   2.1313130453e+01    0.2013817    0.1168138 -37.58  0.001040605    1.617    0.382
       100 -10.1800     80.6201     46.1169   7.2478379136e+01   5.7441573099e+01    0.3892066    0.3483019  74.86  0.002257793    1.534    0.348
       101 -10.3648     82.1611     40.9155   6.9949128529e+01   5.7974099336e+01    0.4418642    0.3306826 -11.44  0.001998418    1.383    0.277
       102 -10.0576     50.0762     42.3351   8.2957745163e+01   6.3007948695e+01    0.4534193    0.2822613 -26.85  0.002435828    1.541    0.351
       103 -10.8881    140.4198     38.2448   5.3164327026e+01   4.5337944768e+01    0.4987999    0.4023371 -83.46  0.002315319    1.429    0.300
       104 -10.0267    172.8315     36.8676   4.6891476690e+01   3.7446453675e+01    0.3444836     0.311217 -79.79   0.00202627    1.066    0.062
       105  -9.8509     40.7767     34.5237   8.4016616732e+01   6.5551189597e+01    0.5567424    0.1919593 -50.06  0.002116825    3.700    0.730
       106  -9.4749    180.3278     28.3123   4.3420977654e+01   3.6651328161e+01    0.2526713     0.203207  77.97  0.001029308    1.126    0.112
       107  -9.6944    181.9960     24.8037   4.2249515685e+01   3.6654281578e+01    0.3193192    0.2725453 -85.91  0.001914731    1.065    0.061
       108 -10.2173    108.5743     25.4054   5.6030028394e+01   5.4501079729e+01    0.4536179    0.2420646  28.97  0.001949736    2.327    0.570
       109  -9.7584     68.5415    241.6961   1.1479057708e+02   1.5547715029e+01    0.2974777    0.2789169 -12.20  0.001745095    1.561    0.359
       110 -10.0359     64.5504    248.2685   1.1610585418e+02   1.4836398597e+01    0.3526589    0.2056173  37.73  0.001878881    1.561    0.359
       111  -9.6425     58.8201    246.2600   1.1704783842e+02   1.5949715578e+01    0.2603879    0.1873105  42.18  0.001340088    1.293    0.226
       112  -9.6895    203.2176     18.3674   3.8118405170e+01   3.2264252334e+01    0.2451885    0.2398374  85.73  0.001391193    1.239    0.193
       113 -10.2430    110.7907    245.8204   1.0671897262e+02   8.7598925551e+00    0.3939608    0.3022099  25.36   0.00245143    1.415    0.293
       114  -9.8836     77.6291    243.9592   1.1319108942e+02   1.3890173051e+01    0.2988755    0.2270728 -43.06  0.001107138    1.888    0.470
       115  -9.7487    123.6587    243.4168   1.0381910182e+02   7.2222996000e+00    0.3101151    0.2018374   5.59  0.001480908    2.726    0.633
       116  -9.5886    142.9869    242.1799   9.9701042719e+01   4.4154853946e+00    0.2128017    0.1380985  13.67  0.001089832    2.034    0.508
