#   1 NUMBER                 Running object number                                     
#   2 MAG_AUTO               Kron-like elliptical aperture magnitude                    [mag]
#   3 X_IMAGE                Object position along x                                    [pixel]
#   4 Y_IMAGE                Object position along y                                    [pixel]
#   5 X_WORLD                Barycenter position along world x axis                     [deg]
#   6 Y_WORLD                Barycenter position along world y axis                     [deg]
#   7 A_WORLD                Profile RMS along major axis (world units)                 [deg]
#   8 B_WORLD                Profile RMS along minor axis (world units)                 [deg]
#   9 THETA_WORLD            Position angle (CCW/world-x)                               [deg]
#  10 FWHM_WORLD             FWHM assuming a gaussian core                              [deg]
#  11 ELONGATION             A_IMAGE/B_IMAGE                                           
#  12 ELLIPTICITY            1 - B_IMAGE/A_IMAGE                                       
         1  -9.8712    141.7233     20.2213   7.9150102230e+01   4.7439935076e+01    0.5120196    0.2732911   3.79   0.00171677    2.963    0.663
         2 -11.3827    240.9892     18.3088   6.5028025118e+01   2.1987220110e+01    0.3612044    0.2797331  14.36  0.001086768    1.456    0.313
         3  -9.6624    131.6406     13.7048   7.8579246399e+01   5.0746447167e+01    0.2579216    0.2094579  23.71 0.0007163842    1.255    0.203
         4  -9.7968    201.0535     12.0505   6.7275252083e+01   3.2741637378e+01    0.2156782    0.2107702 -52.92 0.0004066574    1.015    0.015
         5  -9.8681    229.3370      9.1069   6.3511328570e+01   2.5745300190e+01    0.2269007    0.1854346  56.27 0.0005203437    1.282    0.220
         6 -10.1052    211.5748      8.2243   6.4951712553e+01   3.0360068035e+01    0.2363723    0.1949151 -30.91 0.0006971596    1.166    0.143
         7 -10.8860    249.3322      4.4954   6.0598493834e+01   2.1314288087e+01    0.3356102    0.2391441 -16.00  0.001835043    1.376    0.273
         8  -8.4997    179.9384      6.2152   6.7893597580e+01   3.8933932937e+01    0.1893957    0.1179119  71.82 0.0006240833    1.625    0.385
         9  -8.9164    139.4826      5.9913   7.3925699847e+01   4.9626505308e+01    0.2172235    0.1411248 -15.13 0.0005509329    1.558    0.358
        10 -10.3966    241.5243      3.5190   6.0929850511e+01   2.3266265890e+01     0.383743    0.1478141 -53.24  0.001427229    2.955    0.662
        11  -8.8261    134.0091      3.9882   7.4099843607e+01   5.1219469784e+01    0.1725882    0.1619065   7.84 0.0004327348    1.023    0.022
        12  -8.8340    109.0247      2.9725   7.8850393835e+01   5.7371532690e+01    0.1704902    0.1564969   9.69  0.001001733    1.009    0.009
        13  -8.9862    189.5517    237.0319   1.1915056405e+02   5.6646434651e+00    0.1171513    0.1028529 -32.40 0.0009450901    1.557    0.358
        14 -10.5033    239.8838    221.5652   1.0973668141e+02  -3.3771925916e-01    0.3792982    0.2743184  62.18  0.002579209    2.344    0.573
        15 -10.8191    232.6231    238.4875   1.1306488945e+02  -6.7983853459e-01    0.3704754    0.2433018  58.13   0.00254365    2.307    0.567
        16 -12.0802    241.0432    239.3463   1.1199492214e+02  -1.9215690873e+00    0.7001913    0.3956184 -39.75  0.004847698    2.842    0.648
        17 -11.5040    249.0637    242.2077   1.1126066026e+02  -3.2306774666e+00    0.3368914    0.2345484 -25.50   0.00253979    1.880    0.468
        18 -11.7425    247.6449    233.0044   1.1022916284e+02  -2.3555699767e+00    0.5491765    0.2931143 -28.96  0.003884974    2.334    0.572
        19  -9.6072    219.0579    249.1459   1.1630091801e+02   3.5993224419e-01     0.154978    0.1265627  38.88 0.0009464368    1.303    0.233
        20 -10.0591    203.9366    235.0619   1.1677860404e+02   3.7440719597e+00    0.2425632    0.1952113  58.95  0.001935549    1.578    0.366
        21 -10.5135    215.9995    233.3552   1.1479302252e+02   2.1351684691e+00    0.3253492    0.2498064  68.27  0.002383136    2.152    0.535
        22  -9.7749    195.0264    232.2882   1.1776516885e+02   5.3248283106e+00     0.208337    0.1593448 -22.53  0.001664428    1.700    0.412
        23  -9.1273    173.1010    233.3413   1.2120962397e+02   8.4690945323e+00    0.2202414   0.07125048  39.85  0.001099659    2.497    0.599
        24 -11.2937    243.0097    247.1727   1.1272836524e+02  -2.7713852241e+00    0.3626767    0.2638316  46.71  0.002994262    1.584    0.369
        25  -9.7741    186.2670    230.2166   1.1883795582e+02   6.8397399530e+00    0.2268261    0.1761992 -83.23   0.00164414    2.246    0.555
        26  -9.1292    157.4657    230.9343   1.2335149292e+02   1.1046862052e+01    0.1228419    0.1055366 -53.23 0.0007572742    1.572    0.364
        27  -9.2958    223.0574    226.6530   1.1288197144e+02   1.6949834891e+00     0.179111    0.1383486   2.00  0.001435091    1.382    0.276
        28  -9.6814    149.5612    226.2574   1.2408531963e+02   1.2767762264e+01    0.2228617    0.1562137  83.28  0.001545233    2.043    0.511
        29  -9.7500    162.0195    225.5697   1.2204546343e+02   1.0992261678e+01    0.1746763    0.1438398  84.41  0.001197233    1.593    0.372
        30  -9.3383    199.9458    224.8108   1.1608610126e+02   5.3294474688e+00    0.1622263    0.1442115  20.74  0.001230575    1.238    0.192
        31  -9.5436    181.4400    224.9868   1.1894584568e+02   8.1212984737e+00    0.2138043    0.1202725  52.85  0.001095065    1.665    0.399
        32  -9.6933    216.6501    223.2307   1.1336680075e+02   2.9601337412e+00    0.2227538    0.1579516 -41.85  0.001639628    2.035    0.509
        33  -9.6136    229.5906    222.7766   1.1139738724e+02   1.0713360282e+00     0.227934    0.1766981 -16.71  0.001825403    1.527    0.345
        34 -10.0819    226.1511    219.7243   1.1147661133e+02   1.8552488239e+00    0.2263695    0.2130525 -16.73  0.000988449    1.497    0.332
        35  -9.7768    192.3650    220.7247   1.1672056710e+02   6.9066189756e+00    0.2032526    0.1816092  77.82  0.001632392    1.562    0.360
        36 -10.8050    248.6625    216.0910   1.0768807373e+02  -1.1647074726e+00    0.3952877    0.2911585 -40.41  0.002705171    2.150    0.535
        37  -9.6013    210.6443    219.0846   1.1370597149e+02   4.2664008245e+00    0.2082366    0.1559585   4.44  0.001564262    1.472    0.321
        38 -10.0109    232.8847    214.6117   1.0975518658e+02   1.3023899556e+00    0.2272677    0.2054075 -15.52  0.001888146    1.469    0.319
        39  -9.0565    168.9482    216.0175   1.1981402764e+02   1.1059490095e+01    0.1635069    0.1162985  64.85  0.001118332    1.648    0.393
        40 -10.0071    236.6710    207.7957   1.0818749067e+02   1.3419379847e+00    0.2850252    0.2134135 -46.76  0.001996154    2.187    0.543
        41  -9.9901    185.5924    213.1745   1.1679535366e+02   8.7842836446e+00    0.2224431    0.2080126 -59.61  0.001136844    1.455    0.313
        42 -10.4939    131.7593    213.2518   1.2556428180e+02   1.7085995651e+01    0.3130808    0.1401892 -60.24  0.001747778    3.024    0.669
        43 -10.4922    215.2679    209.7869   1.1169839333e+02   4.4696873258e+00    0.3539237    0.2684479  20.91  0.002634635    1.182    0.154
        44  -9.8865    176.2360    210.7404   1.1797250551e+02   1.0543357138e+01    0.2569426     0.184907  78.46  0.001636208    2.196    0.545
        45  -9.6285    226.8976    210.1016   1.0998411648e+02   2.6300745841e+00    0.1876002    0.1501902   2.77 0.0008671727    1.279    0.218
        46  -9.4652    240.4467    214.0355   1.0856609412e+02   2.1934306940e-01    0.1862106    0.1250106 -17.23  0.001163355    1.661    0.398
        47  -9.1209    147.5769    209.8049   1.2255048602e+02   1.5152675021e+01    0.1345245    0.1030606 -77.15 0.0009542457    1.715    0.417
        48  -9.3940    191.8062    208.5183   1.1517977858e+02   8.3220610269e+00    0.1717502    0.1572973  -8.77  0.001039056    1.317    0.241
        49 -10.1568    204.7088    206.7692   1.1289753728e+02   6.4520790664e+00    0.1743349    0.1336144 -15.27  0.001263838    1.543    0.352
        50 -10.0294    246.6436    205.6941   1.0640833225e+02   1.3853004133e-02    0.3013872    0.1689315  48.01  0.001899628    1.798    0.444
        51  -9.6405    243.6855    201.8771   1.0624523745e+02   8.0199396030e-01    0.2212557    0.1446839  31.44 0.0007508374    1.173    0.147
        52 -10.6325    124.1795    206.0399   1.2605466164e+02   1.9222725598e+01    0.2054506    0.1214728  50.00  0.001333288    1.330    0.248
        53 -10.1060    196.3558    204.7484   1.1392718945e+02   8.0136954110e+00    0.2972455    0.1674637  56.86  0.001375137    2.096    0.523
        54  -9.1940    210.7295    201.2486   1.1114519922e+02   6.0722869512e+00    0.1655766    0.1398617 -17.19  0.001220442    1.385    0.278
        55  -9.8573    231.7354    194.8710   1.0691705555e+02   3.3384848147e+00    0.2275269    0.2012029  44.12  0.001073395    1.389    0.280
        56  -9.5275    237.7973    200.6027   1.0691415139e+02   1.8298062083e+00    0.2663078    0.1482511  48.13  0.001630036    1.753    0.430
        57 -10.2460    237.1351    196.6989   1.0639582786e+02   2.3016859038e+00    0.3282004    0.2022947  28.46  0.001856816    1.334    0.250
        58 -10.0877    228.9149    200.5902   1.0824432557e+02   3.2269414595e+00    0.2059425    0.1372856   4.62  0.001364475    1.617    0.382
        59  -8.5512    184.4642    201.4939   1.1538323340e+02   1.0320866748e+01    0.1143498   0.09092685  40.54 0.0001132793    1.025    0.024
        60  -8.6906    203.2892    198.6450   1.1193075766e+02   7.5668884493e+00      0.10241   0.08639834  72.52 0.0007026119    1.678    0.404
        61  -9.7904    215.8372    194.9289   1.0937810811e+02   5.9134003409e+00    0.2649473     0.198063 -50.61  0.001744065    2.021    0.505
        62  -9.3369    148.4190    196.7462   1.2079446625e+02   1.6795737742e+01    0.1353303    0.1103667 -31.94 0.0009490075    1.635    0.388
        63 -11.3951    247.4035    192.8071   1.0424508090e+02   1.0511160672e+00    0.3794305    0.3109004  -9.87  0.002094235    1.324    0.245
        64  -9.9873    224.8180    194.6029   1.0793144375e+02   4.4817119688e+00    0.2494479    0.2316541  67.67  0.001601288    1.569    0.362
        65 -10.3029    223.5302    191.4878   1.0763281165e+02   5.0136743540e+00    0.3301123    0.2286621  42.74  0.002204261    1.276    0.216
        66  -9.8948    210.0634    195.2356   1.1033566815e+02   6.8297534454e+00    0.2056843    0.1639254 -36.52 0.0009150592    1.587    0.370
        67  -9.0721    184.3239    193.3241   1.1422763062e+02   1.1338860438e+01    0.1174875   0.07981204  20.95 0.0002613969    1.686    0.407
        68  -8.4947    104.4575    193.5183   1.2813661758e+02   2.4008252313e+01     0.112081   0.08829124  61.25 6.668775e-05    1.007    0.007
        69 -10.3044    238.4273    188.8412   1.0492405739e+02   2.8544879164e+00    0.3616472    0.2431058  -8.96  0.002401448    1.559    0.358
        70  -8.6415     60.3600    194.6765   1.3605537225e+02   2.9626865647e+01    0.1156004   0.05808623  65.26 0.0007043114    1.777    0.437
        71 -10.0904    231.4712    186.7516   1.0563332580e+02   4.1975490309e+00    0.3190076     0.226358 -16.15  0.002154393    1.508    0.337
        72  -9.9206    245.5294    183.9513   1.0303965130e+02   2.1836500509e+00    0.3460375    0.2121661 -47.53  0.001922758    2.892    0.654
        73  -8.9025    250.5026    183.5347   1.0223449548e+02   1.4249368597e+00    0.1148062   0.08925589  21.19 0.0008095512    1.023    0.022
        74  -9.2787    241.3654    181.5578   1.0325183742e+02   3.0958108769e+00    0.2463163   0.09886675 -32.54  0.001244009    2.759    0.638
        75  -9.2261    235.9953    181.9681   1.0413516682e+02   3.9396848812e+00    0.1604617    0.1444909  73.95  0.001066676    1.731    0.422
        76  -9.5731    147.4979    179.5276   1.1860924688e+02   1.9450075228e+01    0.2143128    0.1196768 -48.73  0.001196889    2.117    0.528
        77  -9.8485    249.8889    178.2433   1.0140656043e+02   2.0290654477e+00    0.2296572    0.1463916  -9.90 0.0008651688    1.585    0.369
        78  -8.4506     25.6681    178.6538   1.4113283545e+02   3.6148645957e+01   0.08909746   0.07280616 -58.00 0.0007049709    1.762    0.433
        79  -8.0574    243.4647    155.5379   9.8180729417e+01   5.4514299450e+00    0.1222833    0.1023213  17.20  0.000362314    1.037    0.036
        80  -8.3926    229.2775    153.3264   9.9949586902e+01   8.2585955514e+00    0.1280971   0.08478587  15.12 0.0003266044    1.590    0.371
        81 -10.3406    133.5894    151.8074   1.1697318677e+02   2.6349880758e+01     0.364489    0.2175418 -81.50  0.001602123    3.020    0.669
        82  -8.8523    118.2033    152.5801   1.2021044751e+02   2.8840409006e+01    0.1658519    0.1120633  37.42 0.0005705053    1.567    0.362
        83  -9.5920    240.8746    149.2863   9.7348640654e+01   6.6067690333e+00    0.1865613     0.161736 -21.05 0.0006000813    1.278    0.218
        84  -8.2899    248.3217    142.3604   9.4829314232e+01   6.0273466242e+00    0.1362387   0.08259239  15.68 0.0007043035    1.774    0.436
        85  -9.2961    113.5825    136.3016   1.1851624000e+02   3.2635392057e+01     0.252695    0.1222874 -59.26  0.001162992    2.238    0.553
        86  -9.5417     96.2177    135.1780   1.2214666273e+02   3.5670501462e+01    0.1801948     0.135485  76.21  0.001071769    1.329    0.248
        87  -9.1246    121.6403    133.2514   1.1622748700e+02   3.1822753215e+01    0.1762688    0.1200914 -45.33   0.00088469    1.620    0.383
        88  -9.2070    235.8788    130.1210   9.4147048882e+01   9.7881324750e+00    0.1770825    0.1725704  -5.61 0.0005156885    1.246    0.198
        89  -8.4719    231.2631    130.3008   9.4906069671e+01   1.0667895657e+01    0.1310441   0.09069634  14.16 0.0002596741    1.516    0.340
        90  -9.5816    200.9051    125.7671   9.8970326546e+01   1.7425197938e+01    0.3774295    0.1836343 -31.34  0.001665107    2.168    0.539
        91  -8.6753    186.6326    128.1978   1.0207653305e+02   2.0019312550e+01    0.1860872    0.1276159 -21.40  0.000538245    1.678    0.404
        92  -8.7127    212.6673    123.6922   9.6483014833e+01   1.5281079003e+01    0.1429833   0.09688866  19.10 0.0007040862    1.668    0.400
        93  -9.0151    171.5929    121.5983   1.0348389567e+02   2.4191048404e+01    0.2708434    0.1291285 -24.13 0.0009513051    3.522    0.716
        94  -8.7094    232.1861    121.1563   9.2749238015e+01   1.1627099421e+01     0.168855    0.1519576 -37.71 0.0004561996    1.296    0.228
        95  -9.7499    192.2859    118.5195   9.8882338290e+01   2.0310087752e+01    0.2627266     0.225818 -69.73 0.0007828703    1.465    0.317
        96  -8.4687    165.7964    119.0351   1.0405622138e+02   2.5827385823e+01    0.1748462    0.1106161 -40.34 0.0006235904    1.653    0.395
        97  -9.0624    110.6099    115.5999   1.1531521490e+02   3.7193447733e+01    0.2528155    0.1224435  31.04 0.0009609076    3.264    0.694
        98  -8.9557    209.4933    114.0593   9.4819279647e+01   1.7290048591e+01    0.2032687    0.1326602 -30.45 0.0006824626    1.542    0.351
        99  -9.2674    153.4049    114.2134   1.0549956255e+02   2.9236723431e+01    0.1976422     0.129563 -54.16 0.0008569029    1.705    0.414
       100  -9.1974    242.1679    112.9185   8.9363081049e+01   1.0635269567e+01    0.2530895    0.1802495 -85.25  0.001188607    2.718    0.632
       101  -9.4401     25.9547    111.4821   1.3557108950e+02   4.9263896960e+01    0.1880426    0.1358479 -48.18  0.001259903    1.695    0.410
       102  -9.3708    237.0807    107.2126   8.8795551842e+01   1.2378654053e+01    0.2204918    0.1648168  20.94   0.00121236    1.328    0.247
       103  -8.9216    197.2709    107.0231   9.5271808739e+01   2.0967066523e+01    0.1963975    0.1775863 -12.87 0.0006334714    1.097    0.088
       104  -8.6809    108.5175    106.5463   1.1391860635e+02   3.9381305143e+01      0.13347    0.1253513 -86.17 0.0001092523    1.017    0.017
       105  -8.8822    214.1678    104.8772   9.1847003717e+01   1.7569718249e+01    0.1938327    0.1532377  11.27 0.0004624359    1.313    0.239
       106  -9.5874    228.7217    104.2144   8.9356725201e+01   1.4518772716e+01    0.2304712     0.183473  62.18 0.0006085827    1.463    0.316
       107  -8.4555    182.3038    104.3297   9.7365136920e+01   2.4695557671e+01    0.1474544    0.1091225  14.39 0.0007035492    1.652    0.395
       108 -10.1123    246.9503    102.6166   8.6271766337e+01   1.0911329332e+01    0.2450813    0.1798827 -29.01 0.0005510344    1.318    0.241
       109  -9.2851    205.5599     98.5792   9.1739518710e+01   2.0370388231e+01     0.319849    0.2228686  -9.58  0.001324304    1.620    0.383
       110  -9.8300    234.3047     95.4198   8.6373535054e+01   1.4457874518e+01    0.2440333    0.1546503 -43.46 0.0009814322    1.762    0.432
       111  -9.2773    150.8800     92.6637   1.0077021023e+02   3.3638154060e+01    0.2050353    0.1803248  55.91 0.0006805546    1.142    0.124
       112  -9.8166    245.4178     88.1908   8.3004323611e+01   1.2977772061e+01    0.2706158    0.1266415 -20.76  0.001144457    2.117    0.528
       113  -9.0745    250.5066     88.4536   8.2377354733e+01   1.1871701342e+01    0.1369892    0.1189885   2.24 -0.0002836506    1.045    0.043
       114  -8.9519    171.5352     96.4983   9.7480964962e+01   2.8383878117e+01    0.1417452    0.1405833  32.88 7.790646e-05    1.031    0.030
       115  -9.5021    235.8524     86.7847   8.3999109246e+01   1.5219654760e+01    0.1870089    0.1577534 -44.11 0.0005687273    1.307    0.235
       116 -10.0061    218.1932     85.8073   8.6401289679e+01   1.9305530521e+01    0.2099905    0.1628384  15.72  0.001084552    1.370    0.270
       117  -9.1736    172.2045     84.4455   9.4141936382e+01   3.0232009309e+01    0.2800747    0.1886062 -67.66  0.001191847    2.173    0.540
       118  -9.1592    186.7490     82.5727   9.0866124416e+01   2.7116015352e+01    0.3833939    0.2122721 -62.49  0.001319531    3.383    0.704
       119  -9.5182    244.7878     80.7322   8.1231184561e+01   1.4020271051e+01    0.2546473    0.2087308 -49.56 0.0007406719    1.398    0.284
       120  -8.7491    210.3306     81.6599   8.6561179340e+01   2.1695864949e+01    0.1496646     0.110926 -61.93 0.0007051647    1.743    0.426
       121  -8.3122    175.6487     79.3314   9.2049267728e+01   3.0255593942e+01     0.155264    0.1161208 -71.08 0.0007047285    1.775    0.437
       122  -9.0480    196.3669     82.7577   8.9200042499e+01   2.4816941975e+01    0.2054097    0.1370818 -17.94 0.0005702889    1.619    0.383
       123  -9.3852    250.1417     76.9035   7.9562868735e+01   1.3322597693e+01    0.2149556    0.1758871 -38.70  0.001228533    1.263    0.208
       124 -10.8243    240.6753     76.2856   8.0655776139e+01   1.5466491503e+01    0.3614742    0.2821446  27.05    0.0019807    1.314    0.239
       125  -8.9766    189.8542     77.0277   8.8770096625e+01   2.7226310812e+01    0.2478542    0.1571784 -54.58 0.0006242309    1.965    0.491
       126  -8.9948    157.8605     76.8458   9.4921779918e+01   3.4846553218e+01     0.206298    0.1784382 -71.24  0.001070654    1.314    0.239
       127  -9.9167    139.9056     74.6227   9.8222183647e+01   3.9319488624e+01     0.311207    0.1829883 -53.68  0.001317391    1.952    0.488
       128  -8.5862    207.5391     74.4922   8.5070542009e+01   2.3360490262e+01     0.147172    0.1365768   5.81 3.840544e-05    1.043    0.041
       129 -10.4024    230.3419     71.9437   8.0948729879e+01   1.8345968011e+01    0.2059718    0.1771843 -19.48 0.0006554089    1.086    0.079
       130  -8.8319    107.0170     71.7772   1.0555473592e+02   4.6673874665e+01     0.183251    0.1165399  47.44  0.000873761    1.665    0.399
       131  -9.6615    250.5493     69.9812   7.7759986900e+01   1.4051541055e+01    0.2134114    0.1233511 -23.97 0.0005514067    1.567    0.362
       132 -10.7126    234.1680     68.2305   7.9435893773e+01   1.7933860647e+01    0.4197386    0.2059051 -23.72    0.0017815    1.940    0.485
       133  -9.5131    215.4848     69.9636   8.2584472481e+01   2.2087423348e+01    0.2230429     0.137918 -26.14 0.0005823543    1.551    0.355
       134  -9.1911     80.6681     70.3384   1.1256424847e+02   5.1559722498e+01    0.1378462     0.101721 -88.89 0.0007051893    1.742    0.426
       135  -9.8423    239.3710     68.2425   7.8743790935e+01   1.6745396528e+01    0.2541263    0.2164812 -27.30 0.0006077122    1.109    0.099
       136  -9.0642    219.5676     68.9707   8.1701551621e+01   2.1249318544e+01    0.2175959    0.1884221  53.59 3.856998e-05    1.207    0.171
       137  -8.9388    188.4655     69.5067   8.6877855038e+01   2.8693162365e+01    0.1477164    0.1430789 -36.37 0.0001356008    1.060    0.057
       138 -10.5879     43.4891     68.5184   1.2365122429e+02   5.6872888579e+01    0.2532108    0.1818894 -42.74  0.001546222    1.458    0.314
       139 -10.0048    245.4617     65.8410   7.7332938991e+01   1.5664308147e+01    0.2854403    0.2421238 -36.70  0.001014633    1.176    0.150
       140  -9.0130    121.6768     66.3244   1.0010956979e+02   4.4786796802e+01    0.1481486     0.113243 -76.62 0.0006075221    1.685    0.406
       141  -9.3449    250.5217     64.4992   7.6360357244e+01   1.4698992428e+01    0.2448146    0.1054876 -34.82 0.0006588708    2.083    0.520
       142  -8.8820    242.3193     62.3121   7.6805675602e+01   1.6792910118e+01    0.1456449    0.1005645  21.07 0.0004218672    1.647    0.393
       143  -9.2357    214.4923     62.0003   8.0519028683e+01   2.3387361388e+01      0.22388     0.138764 -25.72 0.0005747737    1.545    0.353
       144  -8.7755    218.6550     61.7233   7.9834069874e+01   2.2416696396e+01    0.1514922    0.1052071  26.90 0.0007004501    1.628    0.386
       145  -8.5485    205.4870     61.5251   8.1749400048e+01   2.5652378856e+01    0.1478245    0.1396081   2.85 4.985655e-05    1.030    0.030
       146 -10.1989    231.6748     58.8363   7.7245190879e+01   1.9676977233e+01     0.241536    0.1916162  41.99 0.0007291069    1.302    0.232
       147  -8.7521     90.6850     55.6755   1.0520696337e+02   5.2851384731e+01    0.1383061    0.1066049 -11.49 0.0004140176    1.665    0.400
       148  -8.6141    140.4863     54.4765   9.1793379091e+01   4.2701855179e+01      0.14762    0.1431372 -18.13 0.0008100528    1.007    0.007
       149  -9.0216    174.2302     59.2593   8.6398028474e+01   3.3746629938e+01    0.2022822     0.174642 -68.70 0.0008402886    1.315    0.239
       150  -9.6051    149.5584     52.2144   8.9052616919e+01   4.0911530423e+01    0.2398302    0.1776426  48.23 0.0007437221    1.366    0.268
       151  -8.9486    244.6575     51.2166   7.3581591751e+01   1.7559754394e+01    0.2038472    0.1232798 -12.81  0.000945668    1.691    0.409
       152  -9.1759    194.8411     49.3664   7.9816203867e+01   2.9963813739e+01      0.38949    0.1581479 -40.76  0.001396255    2.466    0.594
       153  -9.3497    220.9776     44.7315   7.4701105477e+01   2.3981072948e+01    0.2008884    0.1937475  41.24 0.0007009563    1.079    0.073
       154  -8.7621    189.5586     44.5081   7.9150594512e+01   3.1962604208e+01    0.1501155    0.1422581   7.52 8.184986e-05    1.052    0.049
       155  -8.7639    184.0324     43.2264   7.9637607313e+01   3.3555362601e+01    0.2070455    0.1238344  60.72 0.0008871373    1.696    0.410
       156  -8.9293    164.2242     43.0231   8.3043678566e+01   3.8660642952e+01    0.2010453    0.1225056 -27.45 0.0003856569    1.618    0.382
       157  -8.9375    132.3219     43.7068   8.9964111084e+01   4.6371277569e+01    0.1481862    0.1148948 -68.64  0.000368482    1.612    0.380
       158  -9.6729      5.1371     40.9139   1.3132692903e+02   6.5989203988e+01    0.2193452    0.1120789 -74.93   0.00126063    1.684    0.406
       159 -10.7235    248.5969     37.9518   6.9607209331e+01   1.8135301091e+01    0.3612978    0.2537692 -15.27 0.0009822641    1.367    0.269
       160 -10.2230    248.5725     31.2832   6.7826696102e+01   1.8855166085e+01    0.3712468    0.1111745 -35.10 0.0008627108    2.709    0.631
       161  -9.5641    173.7742     40.1725   8.0373454302e+01   3.6612713609e+01    0.2181636    0.1754583  18.27  0.001071694    1.366    0.268
       162  -9.3656     92.9813     40.4713   9.9209509885e+01   5.5280516959e+01    0.1974122    0.1387869  47.74 0.0008668886    1.556    0.357
       163  -9.8293    229.5109     37.1782   7.1496918236e+01   2.2765883553e+01    0.2644152    0.2177725  42.23 0.0005943083    1.276    0.216
       164 -10.5662    242.0878     37.9328   7.0292697637e+01   1.9657583318e+01    0.3015366    0.2137228  15.36  0.001401501    1.637    0.389
       165 -10.0621    218.2301     34.4693   7.2068574383e+01   2.5877395290e+01    0.2686073     0.188695 -24.36 0.0005855434    1.353    0.261
       166  -8.5022    165.2771     39.3708   8.1616829527e+01   3.8906656148e+01    0.1588114    0.1132767  17.90 0.0004861066    1.687    0.407
       167  -9.9321    163.8921     31.1121   7.9023032615e+01   4.0374282010e+01       0.5949    0.1727871 -40.18   0.00180568    3.443    0.710
       168  -9.3562    104.9021     34.0884   9.3322823923e+01   5.4003060220e+01    0.2320588    0.1692756  11.16 0.0007955729    1.725    0.420
       169  -8.9190    194.3894     30.1758   7.3893727931e+01   3.2513311750e+01    0.2169447     0.125702 -36.44 0.0006550762    1.658    0.397
       170  -9.0192    141.6908     30.2960   8.2988639198e+01   4.6122796312e+01    0.1495636    0.1133642 -62.42 0.0002505688    1.592    0.372
       171  -8.5088    170.4997     28.9888   7.7153928843e+01   3.8924804420e+01    0.2251377    0.1047222 -46.94 0.0008096275    2.467    0.595
       172 -10.4918    244.1747     27.6442   6.7277705793e+01   2.0270549979e+01    0.3487114    0.1054456 -36.83  0.001251048    2.761    0.638
       173  -8.6818    101.4647     26.5063   9.1216307827e+01   5.5925169569e+01    0.1403905    0.1291771 -20.84 0.0001067558    1.021    0.021
       174 -10.1373    221.0841     23.8403   6.8612389505e+01   2.6336904031e+01    0.2019732    0.1601496  39.83  0.001056877    1.342    0.255
       175 -10.0733    249.3775     22.6736   6.5445441815e+01   1.9557186123e+01    0.2642076    0.2312293   9.50  0.001387266    1.215    0.177
       176  -9.2119     91.4957     24.0008   9.3046379567e+01   5.8335824071e+01    0.1991526    0.1156831 -10.04 0.0008103794    2.533    0.605
       177 -11.2037    225.1266    245.7395   1.1503510625e+02  -2.0985577173e-01    0.3393635    0.2995268 -57.78  0.002192926    2.035    0.509
       178  -9.7178    206.4370     20.4363   6.9270311460e+01   3.0463246858e+01    0.2444208    0.2414511  -5.12 0.0005008021    1.023    0.022
       179  -8.9036    191.1827     21.6136   7.1577670491e+01   3.4341153522e+01    0.2082318    0.1289771  53.81 0.0006522041    1.593    0.372
       180 -10.9674    233.5505    247.0975   1.1402445234e+02  -1.4794035076e+00    0.3454508    0.1965776  37.09  0.001553909    1.224    0.183
       181  -9.1033     89.6992     18.6969   9.1262079121e+01   5.9499979162e+01    0.1379357    0.1006558   7.94            0    1.589    0.371
       182  -8.5922    227.6747     17.6624   6.6122456814e+01   2.5321809389e+01    0.1495366    0.1015416  29.37 0.0007051404    1.722    0.419
       183  -8.7845    174.7685     17.6029   7.2543467254e+01   3.9140577481e+01    0.1981426    0.1428572  85.28 0.0004751201    1.571    0.364
       184  -8.9826    232.9701     15.0435   6.4862994546e+01   2.4267798835e+01    0.1655332    0.1552166 -37.86 0.0004979056    1.006    0.006
       185  -9.3032    106.9563     16.0000   8.5242594973e+01   5.6258712632e+01    0.2296298   0.07998787  56.77 0.0004521541    3.014    0.668
       186  -9.2554     87.3158     15.6708   9.0611611999e+01   6.0414169676e+01    0.1343303    0.1033072 -58.91 0.0007045509    1.678    0.404
       187  -9.5161    210.5148    246.1790   1.1716229755e+02   1.8033099663e+00    0.1840859    0.1604504 -85.52  0.001548485    2.052    0.513
       188  -9.3719    131.5223    245.9765   1.2878418317e+02   1.2983734470e+01    0.1181552   0.09755086 -69.09  0.001039666    1.613    0.380
       189  -9.9377    147.0054    243.0895   1.2619222444e+02   1.1165592901e+01    0.2496291    0.1451859 -61.01  0.001776373    2.515    0.602
       190  -9.0266    169.4679    242.9572   1.2280860359e+02   7.9806916770e+00    0.1170419      0.10282 -44.47  0.001032241    1.596    0.373
       191  -8.7573    201.3810    241.7525   1.1795954977e+02   3.4973370845e+00    0.1165645   0.08892027  -1.81 0.0007888583    1.608    0.378
       192  -8.9077    184.3368    241.6437   1.2045377512e+02   5.9692433013e+00    0.0983763   0.06811632  62.48 0.0004755087    1.805    0.446
       193  -9.6308    160.3970    240.2404   1.2388676157e+02   9.5747218961e+00    0.2354673    0.1623358 -86.01  0.001635129    2.530    0.605
       194  -9.1200    120.3241    245.6649   1.3043559972e+02   1.4536781064e+01    0.1018522   0.05756828  62.97 0.0004631917    1.713    0.416
       195  -9.1737    195.1983    239.3822   1.1858790502e+02   4.6127159121e+00    0.1410329    0.1056065  31.97  0.001119546    1.118    0.105
