#   1 NUMBER                 Running object number                                     
#   2 MAG_AUTO               Kron-like elliptical aperture magnitude                    [mag]
#   3 X_IMAGE                Object position along x                                    [pixel]
#   4 Y_IMAGE                Object position along y                                    [pixel]
#   5 X_WORLD                Barycenter position along world x axis                     [deg]
#   6 Y_WORLD                Barycenter position along world y axis                     [deg]
#   7 A_WORLD                Profile RMS along major axis (world units)                 [deg]
#   8 B_WORLD                Profile RMS along minor axis (world units)                 [deg]
#   9 THETA_WORLD            Position angle (CCW/world-x)                               [deg]
#  10 FWHM_WORLD             FWHM assuming a gaussian core                              [deg]
#  11 ELONGATION             A_IMAGE/B_IMAGE                                           
#  12 ELLIPTICITY            1 - B_IMAGE/A_IMAGE                                       
         1 -14.4091    202.3722     37.5508   4.5159500978e+01   3.0483836862e+01     2.131566     1.398538  32.71   0.01019362    2.113    0.527
         2 -14.1673    219.4990     20.8183   3.9014155133e+01   2.8494485266e+01     1.167928    0.9834038  -3.53  0.002807754    1.567    0.362
         3 -10.4104     52.9870      4.2794   6.7026073575e+01   6.7943729669e+01    0.1732856    0.1359372  19.42 0.0005839769    1.089    0.082
         4 -10.7879      2.5691      2.9907   9.2487683090e+01   7.4138747827e+01    0.2226292    0.1391004 -27.87  0.001543222    1.173    0.148
         5 -11.8717    242.4619      2.0231   3.2905487077e+01   2.5466715906e+01    0.6318725    0.2007352  75.76  0.002670605    3.029    0.670
         6 -10.3282     56.9043      1.6444   6.4114816797e+01   6.7556060397e+01    0.1705848    0.1329509  28.00 0.0008135808    1.144    0.126
         7 -10.5044     47.9392      2.1586   6.8009183935e+01   6.8978920352e+01    0.1698076    0.1482519   9.96 0.0005516853    1.254    0.202
         8  -8.7001    107.2793    210.3137   1.0601969781e+02   1.6508080785e+01    0.1210149    0.1033064 -14.35 0.0002594956    1.568    0.362
         9 -11.2264    139.6741    249.1823   1.0432273674e+02   4.4757168707e+00    0.3552502     0.246298 -69.98  0.002143529    2.002    0.500
        10 -10.8239    134.4996    248.8632   1.0528326590e+02   5.3063710394e+00    0.3204702     0.201152 -82.33  0.001664103    2.766    0.639
        11 -14.9228     85.6368    229.2995   1.1274275459e+02   1.5939256389e+01      2.38579     1.369784  45.68  0.002260798    1.472    0.321
        12 -13.8268     24.8167    225.3817   1.2414055895e+02   2.4105612810e+01     1.116725    0.4304872  56.11  0.005909739    2.184    0.542
        13 -15.5765      9.5218    208.0980   1.2598055701e+02   2.9066719914e+01     2.591678     1.320269 -61.98   0.01542648    2.078    0.519
        14 -16.0103     51.3201    247.6894   1.2078496485e+02   1.6933591560e+01     9.580405     2.716707  28.64   0.01051997   10.796    0.907
        15 -10.9605    111.4300    196.6275   1.0319171526e+02   1.8692702649e+01    0.3273578    0.2527348  81.68  0.001786996    1.464    0.317
        16 -11.1581    145.7678    181.7521   9.2831690156e+01   1.5902476050e+01      0.43535    0.2703479 -68.72  0.001845258    2.350    0.575
        17 -10.0745     99.5011    180.9307   1.0360923215e+02   2.4052148194e+01    0.2389689    0.1974555  18.80 0.0006135662    1.446    0.308
        18 -12.2522     64.7399    177.9059   1.1151773847e+02   2.9762378631e+01    0.4351324    0.3098727 -40.42  0.002345843    1.794    0.442
        19 -12.1015     69.4728    172.6547   1.0969164252e+02   3.0370896970e+01    0.3642165    0.3059753  18.03   0.00128398    1.487    0.328
        20 -13.5884     66.3228    158.9008   1.0854332414e+02   3.4078405890e+01    0.5844278     0.434197 -53.32   0.00225663    1.353    0.261
        21 -13.6689     57.6036    130.0186   1.0628933329e+02   4.2283726747e+01     2.635759    0.8317443 -72.22  0.006581352    6.182    0.838
        22 -12.7626     78.1715    161.3435   1.0585894295e+02   3.1867084594e+01     1.050953    0.6228894  88.15 0.0009867076    2.296    0.565
        23 -14.8146     68.3991    144.3566   1.0569893676e+02   3.7363779148e+01     5.790469     2.167248  57.99   0.01360021    7.864    0.873
        24 -10.6213    113.3944    207.6124   1.0432229527e+02   1.6096042245e+01    0.2490027    0.1996453  73.30 0.0006221555    1.319    0.242
        25  -9.7778    230.3017    166.6409   7.2109585752e+01   3.1262823378e+00    0.1303588    0.1086369 -62.02 0.0007037444    1.717    0.418
        26 -10.0059    159.1197    162.0322   8.5833895785e+01   1.7509776204e+01    0.3988039    0.2932807 -88.38   0.00173142    2.184    0.542
        27 -11.5650     33.1047    156.3532   1.1668659394e+02   3.8466913049e+01    0.3304685    0.2503039 -86.12 0.0009587238    1.127    0.112
        28 -10.9238    134.1365    146.8467   8.8597659766e+01   2.5765433339e+01    0.8288987     0.209194 -53.46  0.002042264    5.118    0.805
        29 -10.2285    174.9155    148.8774   7.9340727130e+01   1.7068647255e+01    0.2752422    0.2321844 -55.04 0.0008519127    1.304    0.233
        30 -12.7505     85.7912    156.3968   1.0306886686e+02   3.1942246933e+01     1.160871    0.6063396 -53.34  0.001982129    1.834    0.455
        31 -13.3692     38.0517    205.3613   1.2019543042e+02   2.6800439609e+01    0.4651326    0.4100098 -77.71  0.001273349    1.271    0.213
        32 -10.1464     99.4918    142.4834   9.6798573762e+01   3.3130451759e+01    0.3003492    0.2569443 -86.24 0.0008223763    1.246    0.197
        33 -10.0903    102.2083    139.1832   9.5373404969e+01   3.3466675330e+01    0.4037017    0.2658299 -21.75  0.001657701    2.310    0.567
        34 -12.2064     87.7108    141.0889   9.9763177133e+01   3.5377630021e+01    0.2856673    0.2445898 -48.90  0.000388318    1.156    0.135
        35 -10.2370     81.5832    141.5485   1.0155190032e+02   3.6197207456e+01    0.2852883    0.2237921  72.69 0.0004579552    1.423    0.297
        36  -9.9642     29.3381    136.7776   1.1533261984e+02   4.3553830959e+01    0.1989564    0.1619284  58.15 0.0005800464    1.312    0.238
        37 -11.6275     23.5084    136.1908   1.1684678733e+02   4.4192622481e+01    0.3382593     0.161128 -85.00  0.001257608    2.143    0.533
        38  -9.6474    159.7941    135.8105   7.9744649580e+01   2.2972374725e+01    0.2224947    0.2086224 -19.16  0.000576133    1.054    0.051
        39 -10.1979    110.0455    131.0414   9.1424334035e+01   3.4032939946e+01    0.3574429    0.2760236  -5.50  0.001117581    1.724    0.420
        40 -10.1500    106.0873    130.8785   9.2487837204e+01   3.4786321919e+01    0.3447824    0.2936946 -64.27  0.001264033    1.179    0.152
        41 -11.5489     33.7629    130.2947   1.1322314277e+02   4.4741547182e+01    0.5171402    0.2543257 -78.81  0.001490099    2.028    0.507
        42 -11.6645     68.0005    129.2560   1.0310662543e+02   4.1152189247e+01    0.4026469    0.2530587  80.93  0.001730569    2.306    0.566
        43 -11.2059    135.3423    123.0731   8.2674541905e+01   3.0933256143e+01    0.7101654    0.1531085 -49.18  0.001665936    5.178    0.807
        44  -9.6923    161.0000    127.9982   7.7544970174e+01   2.4384878216e+01    0.2694837   0.08789577 -43.05 0.0008108391    3.001    0.667
        45 -10.6916     97.5911    127.1894   9.4059757813e+01   3.7156856691e+01    0.3325968    0.2641834 -24.89  0.001638195    1.461    0.316
        46 -10.1893    116.4201    125.4475   8.8346934582e+01   3.4166093230e+01     0.352426     0.245914 -64.23  0.001562207    1.623    0.384
        47 -15.2667     46.9167    195.4080   1.1747324445e+02   2.7962441744e+01     2.354602     1.407423  72.54   0.01071935    1.635    0.388
        48 -11.8962     24.3582    120.0346   1.1449290089e+02   4.8053356847e+01    0.5402647    0.1451047  42.00  0.001953879    4.278    0.766
        49  -9.9618    107.0705    119.8123   8.9606079281e+01   3.7245666939e+01    0.2172328    0.2104263 -35.23 0.0003432248    1.027    0.026
        50 -12.4096     17.9319    111.6734   1.1523152940e+02   5.0556778568e+01     0.525245    0.2481312 -71.04  0.002581462    1.742    0.426
        51  -9.6285    168.0639    113.0078   7.2059870956e+01   2.5951183777e+01    0.2571396    0.1981244 -78.84  0.001133363    1.783    0.439
        52 -11.4432    139.2931    171.6468   9.2438914608e+01   1.9244802740e+01    0.4702877    0.2561592  46.92  0.001988797    1.856    0.461
        53  -9.6744     39.9327    113.4883   1.0870448445e+02   4.8286794498e+01    0.1762931    0.1348349  27.48 0.0005394323    1.530    0.347
        54 -10.0057    205.3978    110.2522   6.3685921556e+01   1.8104110476e+01    0.3047667    0.2103558  43.75  0.001058312    1.551    0.355
        55 -10.8895     33.2364    109.4292   1.1010208956e+02   4.9897037581e+01    0.2867882     0.194503 -87.18 0.0009249089    1.597    0.374
        56 -10.8633     39.9762    102.6515   1.0666004331e+02   5.0919093520e+01    0.6013483    0.1929467  44.38  0.002054675    4.380    0.772
        57  -9.6380     33.0040     96.9742   1.0787657980e+02   5.2921868388e+01    0.1995248    0.1494743  79.18 0.0007013007    1.635    0.389
        58  -9.2671    130.4587     96.5118   7.6787338555e+01   3.7803605984e+01    0.1555912    0.1511341 -36.44 0.0003728735    1.036    0.035
        59 -10.1656     11.3156     92.8594   1.1448898887e+02   5.5462718858e+01    0.1801181    0.1648385  56.68 0.0005612883    1.332    0.250
        60 -10.5988     53.0107     90.9444   9.9628370484e+01   5.2323458679e+01    0.2838316     0.192734 -62.59  0.000999458    1.420    0.296
        61 -10.4900     41.5407     91.9709   1.0388194578e+02   5.3318011968e+01    0.2216932    0.1734495 -20.18 0.0004075945    1.400    0.286
        62  -9.7451    110.8284     80.6857   7.7569066840e+01   4.5234611903e+01      0.50781    0.3178103  79.64  0.001563007    4.485    0.777
        63  -9.5550    159.5118     81.5436   6.5200589433e+01   3.4101338557e+01    0.1524634    0.1507428 -20.96 0.0001501805    1.005    0.005
        64  -9.3485     50.1504     63.3768   9.2999395263e+01   5.8785539900e+01    0.1733627    0.1208077  39.62 0.0006676823    1.730    0.422
        65 -10.5901     13.4993     59.9666   1.0706328289e+02   6.2792072774e+01    0.2159144    0.1822417 -51.20 0.0004257281    1.118    0.105
        66 -16.7490      9.1550    239.6193   1.2761938804e+02   2.2944074027e+01     9.722271     2.750158 -77.77   0.04849169    3.127    0.680
        67 -12.2579    213.4415     27.3263   4.1228826451e+01   2.9133569928e+01    0.3920912    0.3077475  39.03  0.001053546    1.589    0.371
        68 -10.8309     65.1033    196.1241   1.1356716087e+02   2.5580519161e+01    0.4054171    0.3214777   0.76  0.002342798    1.932    0.482
        69 -10.9996    138.7517     44.5261   5.8164393414e+01   4.5220065119e+01    0.3411148    0.2694969 -78.62  0.001708334    1.616    0.381
        70 -10.4316    142.5228     39.8996   5.5789838499e+01   4.4945896714e+01    0.2610959     0.227352  69.89 0.0004871009    1.181    0.153
        71  -9.2008      8.1345     39.3777   1.0379206768e+02   6.7366234325e+01    0.1390736    0.1035978  24.37 0.0006166186    1.671    0.402
        72 -10.2455      2.0000     24.9837   1.0214677556e+02   7.0451885198e+01     0.185248   0.05168059 -56.10   0.00066391    2.919    0.657
        73 -10.3507     62.8731    201.0430   1.1457934776e+02   2.4790347498e+01    0.2420689    0.1861671  82.09 0.0004420535    1.173    0.148
        74  -9.9612    189.6995     15.0214   4.0703675076e+01   3.6199226537e+01    0.1802258    0.1677552 -58.12 0.0005703184    1.114    0.102
        75  -9.0369    134.2341     11.6197   4.7734887957e+01   5.0188362248e+01    0.1821876    0.1095386  53.99 0.0002843254    1.448    0.309
        76  -9.7964    198.7252    222.7457   8.8882145855e+01  -6.3434276849e-01    0.1582238    0.1428104  38.53 0.0005349296    1.325    0.245
        77 -10.5587    209.9442    199.4155   8.2534083833e+01   1.2015584744e+00    0.2333981    0.1837677 -46.81 0.0007141557    1.574    0.365
        78 -12.3668    183.8498    214.9619   9.0513238889e+01   3.0047928380e+00    0.3658353    0.3383917  -2.34  0.001703841    1.131    0.116
        79 -11.4553    193.2053    194.8402   8.5000919999e+01   4.8204150239e+00    0.9132746    0.4964308 -63.69  0.002793757    5.840    0.829
