#   1 NUMBER                 Running object number                                     
#   2 MAG_AUTO               Kron-like elliptical aperture magnitude                    [mag]
#   3 X_IMAGE                Object position along x                                    [pixel]
#   4 Y_IMAGE                Object position along y                                    [pixel]
#   5 X_WORLD                Barycenter position along world x axis                     [deg]
#   6 Y_WORLD                Barycenter position along world y axis                     [deg]
#   7 A_WORLD                Profile RMS along major axis (world units)                 [deg]
#   8 B_WORLD                Profile RMS along minor axis (world units)                 [deg]
#   9 THETA_WORLD            Position angle (CCW/world-x)                               [deg]
#  10 FWHM_WORLD             FWHM assuming a gaussian core                              [deg]
#  11 ELONGATION             A_IMAGE/B_IMAGE                                           
#  12 ELLIPTICITY            1 - B_IMAGE/A_IMAGE                                       
         1 -11.3359     53.5480     50.4076   2.9157609902e+02   6.8782237403e+00   0.02635029   0.00656565 -62.07  0.001665821    4.084    0.755
         2 -11.7012     69.0003     38.4909   2.9132063669e+02   6.9204992123e+00   0.02351219  0.008173858 -47.31  0.001726984    3.027    0.670
         3 -11.5024     82.7256     42.8697   2.9118502640e+02   6.7865106807e+00   0.03080517   0.01011088 -45.61  0.002134925    3.450    0.710
         4 -11.5386     27.8818     28.7754   2.9174793350e+02   7.2825164255e+00   0.01847706  0.006542635 -46.17  0.001346141    3.074    0.675
         5 -10.5990     37.3164     37.0150   2.9168650194e+02   7.1306428032e+00   0.01158984  0.003553968 -43.66 0.0007046731    4.260    0.765
         6 -10.3025    182.5079    222.4997   2.9110157960e+02   4.1162938921e+00  0.006686063  0.006420061  46.88 0.0002453859    1.049    0.046
         7  -9.5972    143.6525    216.2986   2.9152171662e+02   4.4250806236e+00  0.007120994  0.004921251  58.11 0.0007036065    1.681    0.405
         8 -10.7413    199.0150    214.5079   2.9085855606e+02   4.1068959643e+00   0.01085209  0.009054869 -61.56 0.0008807633    1.224    0.183
         9 -11.6103    185.9613    213.8537   2.9100832227e+02   4.1943147623e+00   0.01730818   0.01005944 -69.40  0.001359601    1.917    0.478
        10 -10.0232     76.3274    213.6543   2.9229953209e+02   4.8664793158e+00  0.007199054     0.004972  62.14 0.0007050303    1.749    0.428
        11 -12.3852    217.9761    209.8926   2.9060720637e+02   4.0436789378e+00   0.01931957    0.0102338 -61.96  0.001778033    1.927    0.481
        12 -11.7934    193.0209    209.8552   2.9090084321e+02   4.1969496996e+00   0.01219688  0.009909851 -61.11  0.000964411    1.255    0.203
        13 -10.6218    177.1455    208.9049   2.9108207780e+02   4.3050293299e+00   0.01623967  0.008385192 -53.84  0.001486337    1.903    0.475
        14 -10.3285    116.3973    210.1879   2.9180592114e+02   4.6617326381e+00  0.009535671  0.006537523 -79.33 0.0009529671    1.728    0.421
        15 -11.7703    206.0560    207.1931   2.9073112545e+02   4.1476492272e+00   0.01504923  0.009928604 -67.97  0.001527036    1.624    0.384
        16 -10.1535    124.0677    205.9284   2.9168960669e+02   4.6637543010e+00  0.009541557   0.00821475  56.68  0.001103992    1.225    0.183
        17 -12.0093    185.9443    203.2849   2.9094422636e+02   4.3156241308e+00   0.02068971   0.01104005 -62.46  0.001654307    1.923    0.480
        18 -12.3455    165.0201    200.3466   2.9117290553e+02   4.4773932994e+00   0.03200296   0.01558008 -49.50  0.002842142    2.063    0.515
        19 -11.7633    211.7309    200.7130   2.9062485045e+02   4.1871829650e+00    0.0173423  0.009518982 -72.78    0.0015437    2.194    0.544
        20 -11.4178    203.0921    196.6768   2.9070201240e+02   4.2863852913e+00    0.0133676  0.009824222 -53.72  0.001211735    1.366    0.268
        21 -11.8549    198.6310    203.5942   2.9079666573e+02   4.2343925798e+00   0.01601924   0.01175029 -67.91  0.001346493    1.441    0.306
        22 -10.6669    193.4925    195.4384   2.9080754985e+02   4.3593847850e+00   0.01396239  0.006570909 -61.31  0.001206052    2.150    0.535
        23 -11.6535    209.2710    194.7239   2.9061735052e+02   4.2709210901e+00    0.0117998   0.00958739 -57.74  0.001085035    1.246    0.197
        24 -11.2806    215.5009    193.5571   2.9053687875e+02   4.2461238260e+00   0.01380972  0.006642669 -62.27  0.001201132    2.131    0.531
        25 -10.9005    162.1674    192.5430   2.9115906162e+02   4.5843605899e+00   0.01926124  0.009871861 -61.93  0.001743516    1.990    0.498
        26 -10.5529     43.9862    193.5001   2.9255894845e+02   5.2948872690e+00   0.01405324  0.007538156  69.13  0.001033079    3.458    0.711
        27 -12.3884    246.1138    191.9821   2.9016691633e+02   4.0765047057e+00   0.01642838   0.01000453 -78.55  0.001350647    2.069    0.517
        28 -10.8573    186.5257    192.2480   2.9087020853e+02   4.4386361350e+00    0.0168774  0.006139119 -58.67  0.001308545    2.648    0.622
        29 -13.6426    225.4004    189.5699   2.9039602857e+02   4.2311567685e+00   0.02958475   0.01803769 -36.88  0.002834602    1.880    0.468
        30 -11.0982    199.7940    190.3125   2.9070211068e+02   4.3795635670e+00   0.01429646  0.008693889 -50.52  0.001408617    1.649    0.393
        31 -11.7500    172.4192    190.2111   2.9102404176e+02   4.5483646541e+00   0.01629178   0.01205713 -79.21  0.001736789    1.544    0.352
        32  -9.9475    179.4753    190.0157   2.9093969671e+02   4.5074076505e+00   0.01025119  0.006598658 -61.32  0.001014495    1.581    0.367
        33 -10.8008    210.4740    188.0744   2.9056268465e+02   4.3397874945e+00    0.0101901  0.006615887 -61.90 0.0008845308    1.573    0.364
        34 -10.2002    138.8118    187.5736   2.9140419459e+02   4.7842299055e+00   0.01344859  0.004798009 -58.79  0.001026552    2.696    0.629
        35 -10.7881    217.5668    186.7092   2.9047083895e+02   4.3119684708e+00   0.01280845  0.006147123 -56.63  0.001126291    2.038    0.509
        36 -10.2273    192.5390    186.7517   2.9076589680e+02   4.4648376240e+00   0.01285747  0.006170551 -56.49  0.001130796    2.037    0.509
        37 -10.9015    165.1904    185.1980   2.9107873865e+02   4.6501089940e+00   0.01795113   0.01006168 -66.03  0.001677214    1.907    0.476
        38 -10.5450     55.0098    187.0098   2.9238948626e+02   5.3022443196e+00   0.01432783  0.006861335  61.87 0.0009530913    4.084    0.755
        39 -13.4868    244.0557    182.0363   2.9013051278e+02   4.2031109106e+00   0.02692968   0.01206915 -59.48  0.002308167    2.209    0.547
        40 -10.6684    183.1689    182.9270   2.9085301834e+02   4.5660869101e+00    0.0165022  0.009581012 -61.01  0.001590208    1.746    0.427
        41 -12.5575    174.5941    181.0597   2.9094270813e+02   4.6400082739e+00   0.03312436   0.01493514 -45.51  0.002768394    2.372    0.578
        42 -11.2793    205.8124    190.3529   2.9063146536e+02   4.3422281529e+00    0.0150411  0.008879974 -59.81  0.001005903    1.704    0.413
        43 -10.6895    211.0658    181.5419   2.9051592051e+02   4.4110541969e+00   0.01079267  0.009099167 -59.65  0.001146708    1.207    0.171
        44 -10.2642    197.4642    182.0044   2.9067896063e+02   4.4891006526e+00   0.01041243  0.006534989 -59.81  0.001033629    1.607    0.378
        45 -10.1559     44.6509    182.3315   2.9248338952e+02   5.4190438963e+00  0.007260547  0.004924075  60.27  0.000704848    1.769    0.435
        46 -11.2621    147.6766    178.0367   2.9124165079e+02   4.8394214953e+00   0.02430752  0.007427695 -55.75  0.001772448    3.003    0.667
        47 -10.2346    137.7128    178.5136   2.9136205622e+02   4.8948913847e+00   0.01207125  0.006003851 -62.22  0.001041549    2.057    0.514
        48 -11.3303    205.4969    177.4476   2.9055657201e+02   4.4921268162e+00    0.0137691  0.006583661 -61.43  0.001197852    2.120    0.528
        49 -11.5363    192.4053    175.9477   2.9070167587e+02   4.5895447715e+00   0.02282733   0.01065457 -52.86   0.00199335    2.095    0.523
        50 -11.7532    204.0830    183.4264   2.9060964933e+02   4.4322421181e+00   0.01910376    0.0100623 -61.93  0.001752893    1.938    0.484
        51 -10.3552     60.2169    177.3955   2.9226969310e+02   5.3808670918e+00   0.01009848  0.005703392  39.01 0.0009489207    1.725    0.420
        52 -11.7137    183.2765    174.2492   2.9079890865e+02   4.6649436335e+00   0.02242249   0.01322001 -48.32   0.00179612    1.722    0.419
        53 -10.8192     77.2823    176.1287   2.9206056665e+02   5.2913537006e+00   0.01636054  0.005711793  46.37  0.001107905    3.532    0.717
        54 -10.6433     12.5772    175.3364   2.9281967575e+02   5.6945022759e+00   0.01315207  0.006808213 -69.20  0.001148571    2.199    0.545
        55 -10.6217    218.5504    174.8031   2.9038670614e+02   4.4424278849e+00   0.01308414  0.006148347 -56.61  0.001139825    2.077    0.519
        56 -10.6883      2.6983    172.8408   2.9292121741e+02   5.7831943516e+00   0.01612667  0.008566267 -88.04   0.00120464    3.380    0.704
        57 -10.0124     34.6546    173.3502   2.9254694438e+02   5.5829985123e+00  0.007314168  0.004924405  61.44 0.0007041104    1.812    0.448
        58 -11.7913    205.9435    168.5972   2.9049738172e+02   4.5908594935e+00   0.01529964   0.01012067 -63.03  0.001301845    1.555    0.357
        59 -10.7735    198.5621    168.8345   2.9058579442e+02   4.6333802730e+00     0.016016   0.01029795 -42.07  0.001602462    1.655    0.396
        60 -11.0632    176.9338    168.9156   2.9084118459e+02   4.7649564538e+00   0.01722216  0.008314909 -50.08  0.001517071    2.068    0.516
        61 -10.6062     55.4640    169.9632   2.9228069797e+02   5.4951388564e+00  0.009529666  0.005809428  81.92 0.0008093681    2.542    0.607
        62 -10.1196    167.6908    167.4721   2.9094135706e+02   4.8381111354e+00   0.01259322  0.006110745 -61.83  0.001099356    2.099    0.524
        63 -10.7859    185.1991    166.0251   2.9072615448e+02   4.7474745303e+00   0.01657933   0.00954704 -62.50  0.001586249    1.782    0.439
        64 -11.2976    192.5403    163.9960   2.9062727256e+02   4.7257609460e+00   0.02242766   0.01026996 -52.19  0.001943566    2.139    0.533
        65 -12.9757    212.4724    162.7627   2.9038490481e+02   4.6177206978e+00   0.02759265   0.01394493 -54.09  0.002514677    1.940    0.485
        66 -10.6381    139.3167    164.9935   2.9126088059e+02   5.0401851341e+00   0.01071188  0.005534486  88.50 0.0007043185    4.224    0.763
        67 -10.4649     80.5956    164.7951   2.9195261724e+02   5.4012092178e+00   0.01797185  0.008664999  67.92  0.001026049    5.766    0.827
        68  -9.8663     47.4848    163.9953   2.9233869176e+02   5.6122504715e+00  0.009539728  0.005815042  81.80  0.000810179    2.543    0.607
        69 -12.3942    205.8163    160.6345   2.9045034809e+02   4.6829287102e+00    0.0269122   0.01364626 -38.09  0.002278918    2.410    0.585
        70 -10.1697    159.1950    162.2058   2.9100946387e+02   4.9505239316e+00   0.01532163  0.003839145 -55.06  0.001021769    3.502    0.714
        71 -10.6933    177.6343    158.4526   2.9076919119e+02   4.8806527389e+00    0.0218157  0.006840328 -56.54  0.001603622    2.950    0.661
        72 -10.8677      8.0143    158.8545   2.9277367945e+02   5.9114367601e+00    0.0181028  0.009147883  85.31  0.001100004    5.215    0.808
        73 -11.3686    237.3792    157.7789   2.9006118478e+02   4.5220687762e+00  0.009908554  0.005836906 -50.17 0.0007886043    1.703    0.413
        74 -11.3698    196.3656    156.2077   2.9053472572e+02   4.7916149836e+00   0.02059933     0.012465 -55.46  0.001562611    1.641    0.391
        75 -11.4193    218.2676    156.2171   2.9027672997e+02   4.6572152385e+00    0.0124898  0.008089256 -55.46  0.001269027    1.540    0.351
        76 -10.3677    188.4049    156.2392   2.9062874118e+02   4.8400423134e+00   0.01299384  0.006051512 -56.55  0.001126961    2.093    0.522
        77 -11.1141    205.0413    153.4404   2.9041562117e+02   4.7701536808e+00   0.01635812   0.01052828 -47.44   0.00150674    1.584    0.369
        78 -10.5206     82.3047    155.0254   2.9187307330e+02   5.5028921331e+00   0.01504372  0.006762434  49.41  0.001173982    2.730    0.634
        79 -10.9578     49.4781    154.6621   2.9225849534e+02   5.7072254721e+00   0.01544411     0.010177  67.57  0.001478465    2.000    0.500
        80 -10.3368    167.5204    153.9757   2.9086116352e+02   4.9939394122e+00   0.01021127  0.004757445 -40.32 0.0008102822    2.582    0.613
        81 -10.7483     67.8838    153.7449   2.9203556484e+02   5.6055603874e+00   0.01330807  0.008705623  74.36  0.001244126    2.126    0.530
        82 -12.1816    249.3209    149.6623   2.8987107791e+02   4.5417838194e+00   0.01913355  0.006515597 -64.37  0.001363546    3.236    0.691
        83 -11.6213    200.3250    146.4000   2.9042826901e+02   4.8797817597e+00    0.0236265   0.01059422 -53.64  0.001800946    2.166    0.538
        84 -11.2815     39.0335    146.6290   2.9233308775e+02   5.8630368451e+00   0.01942277   0.01180649 -83.03  0.001772479    2.208    0.547
        85 -11.6751    234.1073    146.3468   2.9002996569e+02   4.6731574164e+00   0.01247549  0.008774978 -50.36  0.001318467    1.431    0.301
        86  -9.9240    215.3750    147.1745   2.9025565598e+02   4.7786059449e+00  0.009600507  0.006493875 -77.82 0.0009536903    1.741    0.425
        87 -11.2421    107.9877    145.9269   2.9151454342e+02   5.4504542674e+00   0.02446951   0.01080243  56.29  0.001654346    3.915    0.745
        88 -11.8214     55.7530    144.7700   2.9212430327e+02   5.7825108552e+00   0.02784913   0.01638975 -87.23  0.002414053    2.518    0.603
        89 -10.6362    223.8705    145.2090   2.9014358824e+02   4.7490155794e+00   0.01351141  0.007792215 -36.58  0.001232197    2.046    0.511
        90 -10.7511    125.2600    143.5022   2.9129592032e+02   5.3726897598e+00   0.01679559  0.009228019  68.62  0.001294754    3.168    0.684
        91 -10.8492     88.0173    143.9884   2.9173852173e+02   5.5946671811e+00   0.01136944  0.007862155  61.89  0.000910407    1.743    0.426
        92 -10.9312     28.4298    149.1412   2.9247359908e+02   5.8987557668e+00   0.01585982  0.006982688 -74.77  0.001140049    3.402    0.706
        93  -9.9884    208.5379    143.5043   2.9031382690e+02   4.8626117413e+00  0.006610322  0.006480711   9.49 0.0002491187    1.009    0.009
        94  -9.9127    194.5771    143.1733   2.9047633874e+02   4.9520139645e+00  0.009726534  0.005935628 -49.01 0.0009473249    1.656    0.396
        95 -10.6309    148.8026    144.9860   2.9102716703e+02   5.2116365050e+00   0.01142954  0.007567164  72.52  0.001078619    2.056    0.514
        96 -10.5232    189.5274    148.1891   2.9056644224e+02   4.9254635815e+00   0.01661447  0.006169851 -58.73  0.001299475    2.602    0.616
        97  -9.8823    182.0000    139.9811   2.9060514188e+02   5.0657054474e+00   0.01110602   0.00382405 -62.04 0.0008057178    2.965    0.663
        98 -11.2127     22.5958    135.7699   2.9246136881e+02   6.0877122394e+00   0.03358997   0.01599297 -71.27  0.002756435    2.596    0.615
        99 -10.4814    197.5838    135.1174   2.9039176613e+02   5.0259295569e+00   0.01735302  0.005971104 -58.42  0.001314107    2.774    0.640
       100 -11.4427     39.0256    134.5660   2.9225992379e+02   6.0015186508e+00    0.0242802  0.008704453 -58.61  0.001883966    2.675    0.626
       101 -11.6823     83.6404    131.7680   2.9171587819e+02   5.7615942191e+00   0.01954086   0.01298313  68.39  0.001554809    1.983    0.496
       102 -10.6887    132.4739    131.9747   2.9114058246e+02   5.4607880378e+00  0.009643054  0.005831809  82.53 0.0008101074    2.602    0.616
       103 -11.0120     73.0221    129.0441   2.9182472653e+02   5.8576474851e+00   0.01515698  0.009281618  81.88  0.001315933    2.517    0.603
       104 -11.7096     99.1436    127.9405   2.9150950032e+02   5.7108309563e+00   0.02274962   0.01406142  75.09  0.002013156    2.438    0.590
       105 -11.3079     12.2499    125.3820   2.9252057413e+02   6.2698483919e+00   0.03873721  0.009354973 -57.90  0.002571739    3.661    0.727
       106 -11.1236    117.9691    125.5509   2.9127267080e+02   5.6231813760e+00   0.01583006  0.008040342  54.20  0.001292557    2.596    0.615
       107 -12.1035     58.7600    122.2108   2.9195166203e+02   6.0230328161e+00   0.04052073   0.01761878 -73.54  0.002977772    3.307    0.698
       108 -12.2239     42.4283    119.0533   2.9212545315e+02   6.1587911307e+00   0.04851174   0.01992727 -76.66  0.003036432    4.683    0.786
       109 -11.5529     27.7841    121.5257   2.9231355110e+02   6.2195941376e+00   0.03338281   0.01746068  78.51  0.002201193    4.534    0.779
       110 -10.8195    142.0491    119.7727   2.9095322144e+02   5.5421266267e+00   0.01416763  0.008461322  79.22  0.001185114    2.710    0.631
       111 -11.5956     70.8274    118.8527   2.9178865895e+02   5.9879588066e+00     0.019629  0.009471799 -70.69  0.001626299    2.511    0.602
       112 -10.8576    130.9917    118.9865   2.9107894352e+02   5.6188133335e+00   0.01148818  0.007835794  61.48  0.001140805    1.777    0.437
       113 -11.0622      2.0181    114.1681   2.9257344319e+02   6.4607216749e+00   0.03010645  0.009708435 -69.03  0.001852553    4.543    0.780
       114 -11.8410    108.8538    113.4016   2.9130629801e+02   5.8182549080e+00   0.02515706    0.0142409 -85.12  0.002111302    2.671    0.626
       115 -12.2890     92.2670    110.2507   2.9148301721e+02   5.9557494119e+00   0.04119088    0.0141902 -67.56  0.002808207    3.676    0.728
       116 -12.3915     78.4807    110.6158   2.9164811043e+02   6.0357414551e+00   0.03540119   0.01721765 -77.96  0.002710728    3.129    0.680
       117 -11.9985     66.2442    108.7963   2.9178162227e+02   6.1312803529e+00    0.0279388   0.01227773 -66.34  0.002278893    2.532    0.605
       118 -11.3000     13.9815    109.1497   2.9240152540e+02   6.4455681970e+00   0.02209648   0.01324992 -67.89  0.002138162    1.806    0.446
       119 -11.6835     21.8581    101.2564   2.9226043136e+02   6.4882047310e+00   0.03918055   0.02092032  79.64  0.002729615    4.066    0.754
       120 -11.6402     20.3953     94.3915   2.9223599491e+02   6.5758535858e+00   0.02576936   0.01177704 -39.97   0.00205973    2.680    0.627
       121 -10.5949    150.3863    103.6103   2.9075627019e+02   5.6763912524e+00   0.01284141  0.006473317 -81.39 0.0009558701    3.261    0.693
       122 -12.7258     44.3523     98.4148   2.9197720609e+02   6.3838317780e+00   0.04986393   0.02351629 -71.73  0.004044745    2.676    0.626
       123 -11.1279    128.4253    102.2569   2.9100726721e+02   5.8263553702e+00   0.01238775  0.007646036  48.94  0.001196967    1.756    0.430
       124 -11.1011      6.7604    100.1981   2.9243252316e+02   6.5921716063e+00   0.02518548  0.006605796 -54.17  0.001728506    3.390    0.705
       125 -13.0003    108.6845     97.7309   2.9121281080e+02   5.9989994589e+00   0.03667726    0.0230797 -88.87  0.003385088    2.220    0.550
       126 -12.5263     81.9675     97.7267   2.9152842994e+02   6.1622868098e+00    0.0310194   0.01039558 -59.39  0.002329875    2.873    0.652
       127 -11.8484     94.7983     95.4982   2.9136324798e+02   6.1094731355e+00   0.02567076   0.01157154 -60.36  0.002200295    2.215    0.549
       128 -11.9473     62.9221     94.8067   2.9173573434e+02   6.3120056747e+00   0.02673149   0.01607844 -77.11  0.002374205    2.059    0.514
       129 -12.2058     63.3400     88.6660   2.9169340635e+02   6.3798797686e+00   0.02864579   0.01679238  -8.24   0.00239756    2.689    0.628
       130 -10.2939    138.7661     92.1747   2.9082368289e+02   5.8786489250e+00   0.01190303  0.006480491  62.24 0.0009510109    2.806    0.644
       131 -12.1754    124.4544     90.8025   2.9098430979e+02   5.9819799485e+00   0.01844062   0.01219294  85.67  0.001753892    2.078    0.519
       132 -11.4776     34.8612     85.9512   2.9201359304e+02   6.5846003321e+00   0.04139905   0.01303793 -54.81  0.003071534    2.927    0.658
       133 -11.7705      4.9264     88.1080   2.9238074214e+02   6.7420036355e+00   0.02639875   0.01104519 -45.22  0.002108334    2.599    0.615
       134 -12.6832     86.7605     83.9318   2.9138774321e+02   6.2912041241e+00    0.0363132   0.01616683 -56.26  0.003128213    2.178    0.541
       135 -12.2598    104.5799     81.4100   2.9116180135e+02   6.2112227310e+00   0.03184982    0.0143666 -65.49  0.002657181    2.412    0.585
       136 -11.7327     47.3958     83.2015   2.9184863830e+02   6.5397665483e+00   0.01825134   0.01288901  79.24  0.001838693    1.836    0.455
       137 -11.6822     48.2909     78.2885   2.9180814170e+02   6.5906490276e+00   0.02447055   0.01484364 -13.78  0.002139401    2.450    0.592
       138 -11.2917    119.4245     80.1485   2.9097873517e+02   6.1348925085e+00   0.01548392  0.006963755 -74.18  0.001146166    3.196    0.687
       139 -11.1303     74.2795     78.3325   2.9150114259e+02   6.4316170944e+00   0.02589498  0.009757709 -64.25  0.001972216    2.861    0.650
       140 -10.9261     24.1920     79.8294   2.9210252515e+02   6.7197641193e+00   0.01862213   0.01010928 -78.09  0.001583383    2.498    0.600
       141 -11.8558     26.7032     72.5867   2.9202874962e+02   6.7875316557e+00   0.04113811   0.02011344 -22.38  0.002636343    4.625    0.784
       142 -12.3197     62.7441     69.4392   2.9158333187e+02   6.6039757354e+00   0.05562143  0.005669791 -56.67  0.002949894    5.725    0.825
       143 -11.3861    127.8990     75.2676   2.9084885290e+02   6.1389762159e+00   0.01550385    0.0100876 -86.99  0.001473932    2.040    0.510
       144 -12.6203     82.4916     69.0362   2.9134740103e+02   6.4880512853e+00   0.04366854   0.01410617 -54.17  0.003270205    2.875    0.652
       145 -10.7212    115.6017     72.2203   2.9097552678e+02   6.2491568437e+00   0.00989962  0.005937768 -50.61 0.0009590345    1.670    0.401
       146 -11.4339    105.7436     69.7554   2.9107696881e+02   6.3377061101e+00   0.02412129  0.007510727 -57.34   0.00176775    2.984    0.665
       147 -11.8500     94.9286     68.5772   2.9119759473e+02   6.4173273563e+00   0.03451571   0.01044598 -63.94  0.002335277    3.630    0.725
       148 -10.4986     42.6735     70.2978   2.9182591539e+02   6.7165075665e+00   0.01464235  0.006649648 -42.40  0.001185381    2.525    0.604
       149 -12.0585     51.0075     66.1682   2.9170219608e+02   6.7130550415e+00   0.03801229   0.01053553 -63.05   0.00249714    3.833    0.739
       150 -11.6838     17.2210     65.1080   2.9209540929e+02   6.9309893158e+00   0.03231233  0.006778751 -49.37  0.001909956    4.640    0.784
       151 -10.9210    121.4135     65.6931   2.9086703198e+02   6.2884042677e+00   0.01305018  0.006793129 -69.22  0.001141077    2.196    0.545
       152 -11.0499    109.9759     62.6209   2.9098342520e+02   6.3935930929e+00   0.02176068  0.009945851 -63.29  0.001849907    2.279    0.561
       153 -11.7138     37.9631     60.4408   2.9182159994e+02   6.8582137846e+00   0.02534415    0.0102183 -41.25  0.001872449    3.113    0.679
       154 -11.4510    100.4242     56.7151   2.9106027216e+02   6.5196880054e+00   0.03075488  0.009646795 -57.63  0.002264103    2.974    0.664
       155 -11.7018     73.3469     55.8902   2.9137536251e+02   6.6945767672e+00   0.04008635   0.01016332 -56.31  0.002727461    3.479    0.713
       156 -11.3045     25.2823     56.4497   2.9194731880e+02   6.9811907175e+00   0.01719275  0.008261188 -32.82  0.001295658    3.117    0.679
       157 -11.0126    119.2349     55.6067   2.9083120103e+02   6.4173205176e+00   0.01244831  0.008582188 -79.42  0.001223112    1.718    0.418
       158 -11.2104     63.0702     50.0378   2.9146121073e+02   6.8243757805e+00   0.03305244   0.01010882 -53.17  0.002409529    3.028    0.670
       159 -11.4869     44.1611     52.0384   2.9169708426e+02   6.9167607268e+00   0.02616707  0.008546765 -47.40  0.001861872    3.231    0.690
       160 -10.7384    105.5755     51.4743   2.9096739810e+02   6.5482425206e+00   0.01865999  0.006512698 -61.85  0.001392383    2.911    0.656
       161 -10.8278    159.9995    238.5341   2.9146415746e+02   4.0700650709e+00   0.01283871  0.009680908 -89.57  0.001082016    1.589    0.371
       162 -10.5903     20.4415     49.2593   2.9196081019e+02   7.0930755885e+00   0.01567279  0.008206843 -31.84   0.00127863    2.658    0.624
       163 -12.3962      7.6222     52.9350   2.9213490063e+02   7.1289250386e+00   0.03527727  0.007305078 -51.26  0.002163842    4.288    0.767
       164  -9.9981    130.3043     46.3364   2.9064379648e+02   6.4557629803e+00  0.007069559  0.004976888 -27.25  0.000222788    1.668    0.401
       165 -10.4914    112.6030     44.5263   2.9084191761e+02   6.5848574483e+00   0.02049407  0.005418454 -48.37  0.001316999    3.898    0.743
       166 -11.4544     16.8988     41.1937   2.9195361066e+02   7.2070732790e+00   0.01820251  0.006856934 -46.72  0.001383494    2.817    0.645
       167 -11.7167     92.1299     47.5271   2.9110225067e+02   6.6756790704e+00   0.03360021  0.009929213 -62.05  0.002318052    3.452    0.710
       168 -12.3431      4.7724     38.2350   2.9207913151e+02   7.3147336812e+00   0.03032579  0.006020511 -56.98  0.001886014    4.148    0.759
       169 -10.8784    105.7445     39.4745   2.9089213681e+02   6.6846919399e+00   0.01501307  0.007064415 -49.05  0.001298504    2.143    0.533
       170 -10.1951    144.7086    231.2665   2.9160018152e+02   4.2469061182e+00   0.01596342  0.005743586 -60.00  0.001222085    2.721    0.632
       171 -10.2458    111.6121     33.1839   2.9078435390e+02   6.7208514381e+00   0.01007216  0.005841475 -50.32 0.0009598915    1.728    0.421
       172 -10.9226     95.7611     35.6882   2.9098704644e+02   6.7891196338e+00   0.01721175  0.007532201 -46.92  0.001421025    2.384    0.581
       173 -10.5805     50.4953     28.0160   2.9147566586e+02   7.1534156893e+00   0.01032182  0.004709079 -40.57 0.0008105559    2.639    0.621
       174 -10.3952    163.3742    225.0795   2.9134266412e+02   4.2037607655e+00   0.01233581  0.009238984  12.74  0.001325679    1.425    0.298
       175 -10.0851    148.8442    222.0569   2.9149551100e+02   4.3272815732e+00   0.01642782  0.004840673 -62.37  0.001113343    3.495    0.714
       176 -11.2935     13.3260     21.6336   2.9187671865e+02   7.4529272783e+00   0.01106494  0.007707417  59.73   0.00106957    1.691    0.409
