#   1 NUMBER                 Running object number                                     
#   2 MAG_AUTO               Kron-like elliptical aperture magnitude                    [mag]
#   3 X_IMAGE                Object position along x                                    [pixel]
#   4 Y_IMAGE                Object position along y                                    [pixel]
#   5 X_WORLD                Barycenter position along world x axis                     [deg]
#   6 Y_WORLD                Barycenter position along world y axis                     [deg]
#   7 A_WORLD                Profile RMS along major axis (world units)                 [deg]
#   8 B_WORLD                Profile RMS along minor axis (world units)                 [deg]
#   9 THETA_WORLD            Position angle (CCW/world-x)                               [deg]
#  10 FWHM_WORLD             FWHM assuming a gaussian core                              [deg]
#  11 ELONGATION             A_IMAGE/B_IMAGE                                           
#  12 ELLIPTICITY            1 - B_IMAGE/A_IMAGE                                       
         1 -13.0547    176.7487     37.8734   6.7006593615e+01   3.6362040570e+01     1.330647    0.9725151  17.55  0.004133531    1.566    0.361
         2 -12.1688    197.5672      6.4821   5.3684982109e+01   3.4336682781e+01    0.8477682    0.5896196  -5.28  0.004127207    1.575    0.365
         3 -11.8512    192.2807      4.9147   5.3806252644e+01   3.5897245952e+01    0.8071506    0.4189235 -22.47  0.003460651    1.922    0.480
         4 -10.6394     83.6656    205.9349   1.2216032097e+02   2.4711085054e+01    0.3605379    0.3054831  31.15  0.002202112    1.600    0.375
         5 -19.5375     44.8696    148.8742   1.2434146952e+02   3.9658388067e+01     16.73439     2.830829 -71.00   0.05335992    6.128    0.837
         6 -11.4249     75.4274    198.7668   1.2298401665e+02   2.6935895261e+01    0.3689591    0.3292537 -89.23  0.001502139    1.314    0.239
         7 -11.0453     81.9467    194.6348   1.2144918992e+02   2.6781028808e+01    0.3589374    0.2477487 -65.50  0.001931181    1.617    0.382
         8  -9.8054     91.8743    185.1393   1.1867023388e+02   2.7046587427e+01    0.1864204     0.145368  50.96 0.0003245882    1.171    0.146
         9 -11.4852     83.2523    187.8607   1.2056114186e+02   2.7755559255e+01     0.545857    0.2578515  51.03  0.003097656    1.763    0.433
        10 -11.9575     85.2609    182.9693   1.1968934406e+02   2.8331842243e+01    0.5980577    0.3290732  49.13  0.002957927    1.528    0.346
        11 -11.2211     11.8487    204.2614   1.3406858878e+02   3.2877082988e+01    0.2104278    0.1225067 -81.32  0.001682479    1.568    0.362
        12 -10.0121    192.4971    193.5092   1.0144775199e+02   9.5082092444e+00    0.4338114    0.2445486 -63.70  0.001720208    5.265    0.810
        13  -9.8257    158.5064    235.4934   1.1262133984e+02   9.8839729149e+00    0.2347208   0.07914548  43.70  0.001212342    2.170    0.539
        14 -10.0298     90.6925    194.3320   1.1983597499e+02   2.5658148163e+01    0.2355309    0.1359167  66.66  0.000857489    1.702    0.413
        15 -11.0929    108.9393    190.5874   1.1608995495e+02   2.3673439217e+01    0.2711007    0.1806671  52.74  0.001766471    1.233    0.189
        16  -8.9880    168.2007    233.4083   1.1084686567e+02   8.6650347107e+00    0.2460263    0.1263804  60.08  0.001339968    2.591    0.614
        17 -10.3556    100.2281    187.0073   1.1730643229e+02   2.5543411916e+01    0.2075787    0.1432355  50.65  0.001330406    1.215    0.177
        18 -10.8497     98.7647    180.8041   1.1687969343e+02   2.6814934538e+01    0.3176197    0.1767803  41.70  0.001203314    1.650    0.394
        19  -9.8950    119.1201    173.6981   1.1203725044e+02   2.4941954564e+01    0.2031807    0.1313543  58.35  0.001185598    1.441    0.306
        20 -11.2900     91.4418    172.5259   1.1733959772e+02   2.9327881262e+01    0.2787087    0.2301695  59.50 0.0008235255    1.080    0.074
        21 -12.0691     93.8713    168.2276   1.1633828334e+02   2.9759961984e+01    0.5272463    0.3510303  35.77  0.001802744    1.649    0.393
        22 -10.4067    195.0550    168.6095   9.6827429465e+01   1.2305843694e+01    0.2978396    0.2465437  35.40  0.001114775    1.030    0.029
        23  -9.0623    114.4889    169.4808   1.1237415450e+02   2.6411646890e+01    0.1215097     0.104432  61.14 3.795725e-05    1.018    0.018
        24 -10.6013    101.8449    170.0633   1.1497241172e+02   2.8255152521e+01    0.1930574    0.1423873  71.28 0.0008241923    1.291    0.226
        25  -9.1268    113.9407    161.1989   1.1131187545e+02   2.7979248460e+01    0.2251049    0.1568036  82.33  0.001051595    1.688    0.408
        26 -10.0821     99.3765    159.2912   1.1405146534e+02   3.0598770114e+01    0.2136645    0.1994576  69.30 0.0004127112    1.153    0.133
        27 -10.1323    164.1198    216.1312   1.0944490280e+02   1.1369265170e+01    0.1733145    0.1302001  31.94 0.0005636064    1.268    0.211
        28 -11.8446     88.7488    153.7817   1.1554127106e+02   3.3207046954e+01    0.3128872    0.2655217 -36.98  0.000999874    1.614    0.380
        29 -10.2095     89.1182    147.3646   1.1457814299e+02   3.4400370208e+01    0.2187386    0.1848452  83.27  0.000158621    1.064    0.060
        30  -8.7210    174.5073    148.9842   9.6989026682e+01   1.9136221742e+01    0.1762692    0.1168989 -67.55 0.0005948365    2.471    0.595
        31  -9.7978    134.0904    146.7660   1.0478031048e+02   2.7172360252e+01    0.4884019    0.1583266 -57.34  0.001553833    4.858    0.794
        32 -11.3256    104.0560    152.5528   1.1210702210e+02   3.1149693251e+01    0.4919947      0.39709 -12.86    0.0021186    1.998    0.499
        33 -10.4347    112.9212    138.2200   1.0787261275e+02   3.2467981321e+01    0.3676568    0.2773382 -25.11  0.001998329    1.950    0.487
        34 -10.6491    101.9505    138.3482   1.1035232430e+02   3.4232009616e+01    0.2374119    0.2161897  43.11 0.0004073418    1.209    0.173
        35  -9.7993    105.9798    130.9044   1.0816032037e+02   3.5061653311e+01    0.3028274    0.2489578 -69.60  0.001356675    1.204    0.170
        36 -10.6334     96.7736    213.0207   1.2053863890e+02   2.1859693183e+01    0.2176569    0.1887062  28.46 0.0008618977    1.584    0.369
        37  -8.9200    118.0375    129.4852   1.0513219266e+02   3.3294842974e+01    0.1975076    0.1258594  43.54 0.0005456685    1.533    0.347
        38  -9.6063    106.4395    125.1460   1.0700149829e+02   3.6141449684e+01    0.2578227    0.2066528 -26.95  0.001328631    1.661    0.398
        39  -8.4708    112.6034    118.7531   1.0429492850e+02   3.6379363716e+01    0.1784554    0.1249861 -64.22  0.000776981    1.500    0.333
        40  -9.1202    168.5412    113.6158   9.0563622100e+01   2.6254783799e+01    0.2799051    0.2081837 -63.15 0.0009309704    1.723    0.420
        41  -8.6326    205.5899    110.2033   8.2529855800e+01   1.8615795927e+01    0.1944896    0.1347169 -15.08 0.0006096957    1.572    0.364
        42  -9.9378     30.7333    213.4809   1.3148653545e+02   2.9605260695e+01     0.124653   0.09356919  75.42 0.0004246311    1.146    0.128
        43 -10.9254     94.6999    199.9159   1.1966541108e+02   2.4194573682e+01    0.4233406     0.230385 -83.83  0.001482375    2.362    0.577
        44  -9.1194     74.8201    204.9205   1.2360541440e+02   2.6007246388e+01    0.1654979    0.1404902  63.90 0.0005717459    1.204    0.170
        45 -12.2206    163.0663     53.0093   7.4602210766e+01   3.7721592486e+01    0.6989645    0.5284821 -27.15  0.001350582    1.316    0.240
        46 -10.9990     91.9496    205.9908   1.2072666728e+02   2.3601711901e+01    0.4933805    0.1864703  57.70  0.002253683    2.752    0.637
        47  -9.5658    247.7837    249.7713   1.0084207461e+02  -4.5452533728e+00    0.1578671   0.06462927  47.98 0.0008894897    2.491    0.599
        48 -11.6467    180.9723     30.8379   6.3958055595e+01   3.6144465623e+01    0.6078293    0.4304049  22.27  0.001641097    1.608    0.378
        49  99.0000     12.6047    248.1599   1.3553015129e+02   2.6218627192e+01    0.1646919   0.08397857 -55.17  0.000855327    4.146    0.759
