#   1 NUMBER                 Running object number                                     
#   2 MAG_AUTO               Kron-like elliptical aperture magnitude                    [mag]
#   3 X_IMAGE                Object position along x                                    [pixel]
#   4 Y_IMAGE                Object position along y                                    [pixel]
#   5 X_WORLD                Barycenter position along world x axis                     [deg]
#   6 Y_WORLD                Barycenter position along world y axis                     [deg]
#   7 A_WORLD                Profile RMS along major axis (world units)                 [deg]
#   8 B_WORLD                Profile RMS along minor axis (world units)                 [deg]
#   9 THETA_WORLD            Position angle (CCW/world-x)                               [deg]
#  10 FWHM_WORLD             FWHM assuming a gaussian core                              [deg]
#  11 ELONGATION             A_IMAGE/B_IMAGE                                           
#  12 ELLIPTICITY            1 - B_IMAGE/A_IMAGE                                       
         1 -12.3527     81.1002     19.2667   2.7630764988e+01   6.1172246017e+01    0.3134101    0.1964264 -48.41  0.001264753    1.876    0.467
         2 -12.3541     75.2309     14.5921   2.7085860725e+01   6.3043087395e+01    0.2548466    0.1969361 -64.96 0.0009822897    1.574    0.365
         3 -11.2216     99.2965     10.4517   1.9863152585e+01   5.7646903000e+01    0.2201885    0.1409598 -53.09 0.0006445731    1.735    0.424
         4 -11.1709     55.1985     11.2138   3.1789463228e+01   6.7948450687e+01    0.2045202    0.1532372  34.62 0.0007524414    1.241    0.194
         5 -12.4679     82.4957      9.0986   2.2725247170e+01   6.1836090459e+01    0.4327641    0.2101036  77.80  0.001876301    2.335    0.572
         6 -12.1001     89.4977      4.0343   1.9039222228e+01   6.0566419584e+01    0.3850111     0.224555 -51.36  0.001274456    1.984    0.496
         7 -11.0330    122.2765      5.0367   1.4416045355e+01   5.2511856586e+01    0.1676943    0.1526004 -71.25 0.0002835331    1.105    0.095
         8 -12.7268    100.6498      2.4889   1.6481025301e+01   5.7971209285e+01    0.4215068    0.1920158  66.72  0.002003018    1.825    0.452
         9 -10.9998    144.2892      2.0249   1.1148722839e+01   4.7525877940e+01    0.1609581    0.1399569 -66.50 0.0002873686    1.093    0.085
        10 -12.1700    114.4894    240.5399   7.3463383098e+01   9.8371868663e+00    0.1895492    0.1560446 -20.54 0.0006630508    1.255    0.203
        11 -12.8107    245.3607    249.7244   4.9943624729e+01  -4.8573793234e+00    0.1992277    0.1324607  -4.57 0.0005083046    1.092    0.084
        12 -11.9301    237.2232    248.9415   5.1078345801e+01  -4.1020823987e+00      0.28567    0.1628685 -26.36  0.002062397    1.383    0.277
        13 -12.5990    139.0796    247.7855   6.8989475766e+01   5.8016345913e+00    0.3004342    0.2882967  41.15  0.001314211    1.450    0.310
        14 -11.2685    124.8101    249.9783   7.2306393436e+01   7.0400587020e+00    0.1917931    0.1382778  -7.37  0.001197633    1.370    0.270
        15 -12.3429    114.5521    249.5113   7.4489551997e+01   8.2688114206e+00    0.2232166    0.1836809  15.47 0.0008400222    1.024    0.024
        16 -11.3245    111.5223    249.4877   7.5154988278e+01   8.6128877452e+00    0.2084439    0.1359916  13.31 3.507119e-05    1.371    0.271
        17 -12.6104     99.0257    248.6157   7.7848356648e+01   1.0164672249e+01    0.3592122    0.2088702 -26.58  0.001170815    2.217    0.549
        18 -11.3682     84.9268    250.5544   8.1223798531e+01   1.1372463144e+01     0.331767    0.1023456  25.42  0.001348399    2.710    0.631
        19 -11.4848     63.3029    247.1642   8.5869991279e+01   1.4309868563e+01    0.4011131    0.2244928 -17.08  0.001858635    2.954    0.661
        20 -13.1816     70.5066    247.8798   8.4272896090e+01   1.3416830348e+01    0.2407885    0.2243353  39.78 0.0006606235    1.141    0.123
        21 -12.3316     68.2988    245.3106   8.4563856631e+01   1.4136851100e+01    0.2120385    0.1743321 -12.09 0.0002172992    1.380    0.276
        22 -10.9032     55.7321    250.6200   8.7864828706e+01   1.4431985716e+01    0.1595321   0.09131102  33.48 0.0003897737    1.389    0.280
        23 -13.7552     35.0077    227.4667   9.1137343999e+01   2.1129779660e+01    0.7440743     0.569678   4.33  0.004533247    1.472    0.321
        24 -13.3099     48.7768    220.2176   8.7176904793e+01   2.1325992239e+01     1.114264    0.5290816  27.61  0.005307577    1.819    0.450
        25 -13.8893     11.2539    194.4934   9.5197908772e+01   3.0731004690e+01    0.7012892    0.4376633  34.96  0.003315528    1.449    0.310
        26 -14.0117     10.3147    186.9944   9.5017403906e+01   3.2634340836e+01    0.7555636    0.6823367  89.84  0.004798666    1.097    0.088
        27 -13.2771      4.3739    181.7779   9.6392016032e+01   3.4363433521e+01    0.5355921    0.2556099 -65.73  0.002494226    2.029    0.507
        28 -13.8360      7.7459    202.8253   9.6574323765e+01   2.9021230913e+01     1.009357    0.3177689  26.45  0.004191523    2.649    0.622
        29 -14.5425     17.2970    211.4352   9.4571362903e+01   2.6263480486e+01     1.354256    0.3782096  36.56  0.005507114    2.625    0.619
        30 -14.8946      3.8517    211.5488   9.7965626234e+01   2.7308206136e+01    0.6839916    0.3903906  71.44  0.003724171    1.667    0.400
        31 -17.3305      9.0374    236.0104   9.7730263836e+01   2.1619710411e+01     2.175648     1.937294  71.56    0.0158125    1.156    0.135
        32 -12.7632    107.1931    239.8229   7.5032631656e+01   1.0813138892e+01     0.343408    0.2063279 -36.89  0.001105251    1.880    0.468
        33 -12.8970    102.6893    237.8737   7.5842665214e+01   1.1693785585e+01    0.4145834    0.2474497   4.66  0.002119785    1.904    0.475
        34 -10.5280     89.4970    241.3990   7.9277937470e+01   1.2550446620e+01    0.1264373     0.103747  21.37 0.0001737017    1.029    0.028
        35 -11.0269     70.5480    240.4389   8.3615062438e+01   1.4832800362e+01    0.2409543    0.1968733  -4.78 0.0006086251    1.336    0.252
        36 -12.8348     70.9473    234.7993   8.3006080694e+01   1.5899168031e+01    0.5741765    0.2978579 -36.79  0.002695184    2.603    0.616
        37 -12.7599     73.1004    230.0453   8.2032514138e+01   1.6616347347e+01    0.4080798    0.2583845 -87.63  0.001022511    2.155    0.536
        38 -11.8018    148.2519    239.0840   6.5919010269e+01   6.1731303942e+00      0.24676    0.1534289  19.42 0.0007692344    1.369    0.270
        39 -12.5239     52.6118    236.9581   8.7572307376e+01   1.7415795322e+01    0.3202971    0.2038149   8.13   0.00118356    1.749    0.428
        40 -12.9799     62.5652    233.6804   8.4919665855e+01   1.7035223394e+01    0.5099953    0.2752469  66.46  0.001381994    2.531    0.605
        41 -10.8792    246.6861    234.6965   4.7557230051e+01  -3.1838850662e+00    0.1087324   0.05787796 -11.21 0.0003033346    1.617    0.381
        42 -11.9440     79.2694    237.0470   8.1238256217e+01   1.4532090974e+01    0.2223497    0.1771801  24.69            0    1.070    0.065
        43 -11.7741    112.0106    234.3446   7.3280242261e+01   1.1248429522e+01    0.3407172    0.1073189  25.69  0.001310878    2.853    0.649
        44 -11.1544     39.0553    233.9352   9.0589491224e+01   1.9383898009e+01    0.1988159    0.1149129  52.72 0.0005413467    1.624    0.384
        45 -11.9085    219.5024    230.7685   5.1246426264e+01  -2.1649784744e-01    0.2122422    0.1563965 -31.90  0.001538245    1.447    0.309
        46 -11.6218     53.2741    231.4263   8.6978505048e+01   1.8477820004e+01    0.1957409    0.1667821 -74.71 0.0005323887    1.332    0.249
        47 -10.4675     67.7873    231.3425   8.3446799449e+01   1.6942918593e+01    0.1695606    0.1080829  16.61  0.000283035    1.518    0.341
        48 -12.6957    231.6993    227.7475   4.8808842968e+01  -9.7697886319e-01    0.2823232    0.1497881 -24.34 0.0005285544    1.495    0.331
        49 -11.4561    194.6038    228.6044   5.5259070585e+01   2.6259626938e+00    0.2728928    0.1456624 -15.13  0.001485759    1.954    0.488
        50 -12.3789    178.2073    228.5025   5.8333857259e+01   4.4431776045e+00    0.2128274    0.1669735  -9.10 0.0002784514    1.052    0.049
        51 -12.3302    112.3432    227.9682   7.2409437333e+01   1.2397098488e+01    0.2582234    0.1737953  15.47  0.001437513    1.361    0.265
        52 -12.6579    105.4425    226.9411   7.3901971295e+01   1.3433354828e+01    0.2739208     0.228763 -34.74  0.001708894    1.288    0.223
        53 -12.3864     91.5724    226.5492   7.7175768921e+01   1.5181104923e+01    0.3269812    0.2429173 -49.16   0.00172536    1.495    0.331
        54 -11.7835    100.4622    227.0139   7.5094444439e+01   1.4022751743e+01    0.1757778    0.1299318 -55.84 0.0004124798    1.553    0.356
        55 -11.3808    222.3476    225.6413   4.9990299166e+01   1.9609935450e-01    0.1695448    0.1366023 -11.26 0.0007959163    1.239    0.193
        56 -11.9896    116.5000    225.5108   7.1123873769e+01   1.2351761119e+01    0.2009869    0.1667057  78.09 0.0007894342    1.743    0.426
        57 -12.9865    114.5067    222.4994   7.1192931047e+01   1.3172832472e+01    0.3513072    0.1636996  30.10  0.001634348    1.862    0.463
        58 -14.0202     36.9625    246.0506   9.1841436492e+01   1.7146048343e+01    0.7970587    0.5084264  33.31  0.004870562    1.269    0.212
        59 -12.0320     68.0454    224.5991   8.2742614363e+01   1.8306740818e+01     0.277603    0.1776779 -68.31 0.0009296744    1.791    0.442
        60 -12.4354     95.9236    223.3068   7.5741031934e+01   1.5305950945e+01    0.1953294    0.1797026 -87.75 0.0005884234    1.326    0.246
        61 -13.0420     78.3495    220.3017   7.9730067749e+01   1.8026657362e+01    0.5739177    0.3919498  38.42  0.002578843    1.324    0.245
        62 -11.2748    212.8987    222.2649   5.1044285253e+01   1.6115791325e+00    0.2426132    0.1153907 -18.98  0.001257122    2.237    0.553
        63 -12.1981    160.0896    222.3553   6.1042837886e+01   7.5492320011e+00    0.3678427    0.2022797  29.18  0.001170454    1.683    0.406
        64 -13.0161    125.1686    221.7006   6.8602834351e+01   1.1989750063e+01    0.4264819    0.2149031  39.59  0.002028469    2.019    0.505
        65 -11.0684    188.6124    221.7850   5.5315212845e+01   4.3044696586e+00    0.1571561    0.1058025 -43.91  0.000955003    1.708    0.415
        66 -12.2475    237.7562    220.3139   4.6717012312e+01  -5.7457318764e-01     0.237741    0.1277979 -35.78  0.001536214    1.622    0.383
        67 -12.8288    173.1238    219.6331   5.7972971168e+01   6.4364534413e+00    0.3173713     0.214236 -24.50  0.000745452    1.342    0.255
        68 -12.3837    100.0636    220.3686   7.4374634284e+01   1.5388116949e+01    0.2614388    0.2377972   4.96   0.00112863    1.064    0.060
        69 -10.4739    138.3430    227.2883   6.6419329665e+01   9.3431568867e+00    0.1326769   0.08626127  -6.52 0.0007022579    1.648    0.393
        70 -12.0233     87.5216    220.7446   7.7497720130e+01   1.6843380985e+01    0.2306087    0.1594503  24.34 0.0004022283    1.281    0.219
        71 -11.3330    246.4590    220.5011   4.5436399704e+01  -1.4001801721e+00    0.1079704   0.07525802 -15.84 3.138874e-05    1.027    0.026
        72 -11.2675    223.0564    220.2393   4.9031584532e+01   8.6083197809e-01    0.1737732    0.1154969  -6.44  0.001188983    1.232    0.188
        73 -11.1427     32.8646    220.3713   9.1192598058e+01   2.2868573230e+01    0.1725511      0.11333   7.60 0.0006891604    1.731    0.422
        74 -11.6572    193.3752    219.1803   5.4019431278e+01   4.1660740737e+00    0.1551225    0.1034985 -43.43 0.0008363716    1.702    0.412
        75 -14.8959     13.3306    224.7063   9.6235898506e+01   2.3650478830e+01    0.7307808    0.2785031  42.23  0.003476839    2.059    0.514
        76 -13.0116    145.1456    215.7908   6.3241136128e+01   1.0547407401e+01    0.4288446    0.3769979  25.92   0.00146632    1.242    0.195
        77 -13.3607    140.2047    211.1341   6.3627841989e+01   1.2038933534e+01    0.5270818    0.4132614 -61.94  0.003048399    1.704    0.413
        78 -12.2790    129.9558    217.1040   6.6850503418e+01   1.2246158844e+01    0.2175765    0.1845385 -35.40 0.0006550131    1.248    0.198
        79 -12.1031     65.2126    216.2946   8.2633807694e+01   2.0400376386e+01    0.3484223    0.2558826 -46.81  0.001967286    1.522    0.343
        80 -13.0574    108.3846    215.5073   7.1721165188e+01   1.5319791489e+01     0.310747     0.252122 -46.35  0.001251506    1.341    0.254
        81 -13.4163     85.6689    211.4589   7.6858726672e+01   1.9024333453e+01     0.583178    0.5227315  50.27  0.001930882    1.172    0.147
        82 -12.7438     79.1557    212.6804   7.8669737446e+01   1.9556116717e+01     0.365412    0.2488339  48.74  0.000841809    1.508    0.337
        83 -12.3636     75.6121    212.1912   7.9524165962e+01   2.0087320227e+01    0.6701177    0.3295141   5.58  0.002517391    3.199    0.687
        84 -12.8181     26.8857    223.1926   9.2857087958e+01   2.2804856287e+01    0.4200777    0.2331683  42.17  0.001253437    1.514    0.340
        85 -11.1239     59.7862    214.9529   8.3894285927e+01   2.1301691909e+01     0.193314    0.1734107 -15.03  0.001013436    1.235    0.191
        86 -11.5323     35.7369    214.3739   9.0041138275e+01   2.3928209159e+01    0.3772525    0.1763001  56.37  0.001695915    2.248    0.555
        87 -11.8094     30.9265    212.2612   9.1127427112e+01   2.4863295704e+01    0.2217031    0.1738667  49.65  0.001336778    1.136    0.120
        88 -11.1326    155.5354    214.2972   6.0761722963e+01   9.4948617443e+00    0.1823695    0.1067619 -31.31 0.0008326237    1.690    0.408
        89 -12.6906    120.5227    214.4452   6.8665697021e+01   1.3969988820e+01    0.2169602    0.1852361  17.14 0.0006517054    1.051    0.048
        90 -11.8038    247.3652    212.8506   4.4107202187e+01  -5.0231445248e-01    0.1559604    0.1230093  -2.90 0.0004359026    1.262    0.208
        91 -12.5094    125.0570    212.8589   6.7368957282e+01   1.3689923682e+01    0.2146336    0.1990627   6.62 0.0003392434    1.113    0.101
        92 -10.6962     40.9074    213.1222   8.8612240439e+01   2.3702206310e+01    0.1610612    0.1478093 -28.59 0.0004323571    1.254    0.203
        93 -10.6960    215.5039    212.5262   4.9051390670e+01   2.7245609007e+00    0.1172925    0.0878355 -12.82 -3.667542e-05    1.008    0.008
        94 -12.0260     68.8387    207.4982   8.0762507657e+01   2.1928619303e+01    0.4264956    0.2140721  15.18  0.001167807    2.248    0.555
        95 -11.7698     63.8889    208.1006   8.2131733610e+01   2.2367980902e+01    0.3584088    0.1871352 -69.33  0.001658407    2.144    0.534
        96 -11.6506     46.5595    209.8656   8.6866681257e+01   2.3864341755e+01    0.3755955    0.2344415  77.66  0.001893506    1.878    0.468
        97 -13.0874    229.2597    207.2113   4.5947469927e+01   2.0316954931e+00    0.3841918    0.2235037 -36.27  0.001696894    1.514    0.340
        98 -11.1594     26.5206    209.9220   9.2107157315e+01   2.5803074575e+01    0.1846212    0.1233982 -85.39  0.001016291    1.557    0.358
        99 -11.2761     38.1263    209.2180   8.9027117732e+01   2.4866754456e+01    0.1847933    0.1643347  11.32 0.0005802785    1.196    0.164
       100 -12.2588    180.3425    207.6360   5.4623190060e+01   7.5266305969e+00    0.2438646     0.183065  41.05  0.001475881    1.742    0.426
       101 -12.5022    108.0095    207.5577   7.0716271410e+01   1.6991050045e+01    0.3514245    0.2353968  -4.23  0.001620937    1.764    0.433
       102 -12.2283    103.2872    206.3594   7.1725658412e+01   1.7862382398e+01    0.3847553    0.2527744   6.89  0.001237611    1.684    0.406
       103 -12.3687     33.7054    205.9973   8.9942666389e+01   2.6040496737e+01    0.2738291    0.2442522  82.55  0.000823033    1.135    0.119
       104 -11.6677     36.3289    203.2584   8.9027176679e+01   2.6426748321e+01    0.2093082    0.1770788   5.72  0.000235673    1.293    0.227
       105 -11.7276    225.1506    204.1664   4.6100088857e+01   2.8921756217e+00    0.1938791    0.1429599 -32.34 0.0003738194    1.319    0.242
       106 -12.7019    159.9963    206.4810   5.8566320334e+01   1.0302573997e+01    0.2887531    0.2270506  10.25 0.0006034868    1.134    0.118
       107 -13.1098    134.9902    198.9651   6.2897119343e+01   1.5075790548e+01    0.3582823    0.2613762  54.18  0.001865391    1.867    0.464
       108 -12.9710    145.3686    203.0820   6.1194386458e+01   1.2862644278e+01    0.5554845    0.2289048 -43.02  0.002388108    2.391    0.582
       109 -12.7088    141.8409    198.3294   6.1212014658e+01   1.4251676793e+01    0.3751428    0.2775002 -72.36  0.001925278    2.131    0.531
       110 -11.2061    205.1104    206.2076   4.9799732698e+01   4.8072029758e+00     0.174427    0.1265803  -9.82 0.0002838814    1.135    0.119
       111 -12.2378    123.8549    205.4391   6.6547458897e+01   1.5310443883e+01    0.2817655    0.1631036 -44.31 0.0007413235    1.771    0.435
       112 -11.3496     55.0711    205.5425   8.4209206169e+01   2.3942917640e+01    0.1815666     0.172813  71.91 0.0003395249    1.093    0.085
       113 -12.6803     48.7252    204.7236   8.5828003748e+01   2.4818949044e+01    0.2728037    0.2329956 -50.60 0.0007123988    1.291    0.226
       114 -11.4462    116.8549    205.3322   6.8220213644e+01   1.6272902018e+01    0.2219709    0.1588153  41.79 0.0008341237    1.467    0.318
       115 -12.3786     99.2164    184.8194   6.9587453392e+01   2.3148361885e+01    0.3470581      0.25704 -42.46  0.001473895    1.391    0.281
       116 -12.9177     93.9615    183.6732   7.0829968617e+01   2.4153401310e+01    0.4173224    0.3261376 -47.65  0.001672372    1.319    0.242
       117 -13.1977     89.6166    183.2999   7.1965027550e+01   2.4846222668e+01    0.7196432    0.3091007 -62.53  0.002648284    2.635    0.621
       118 -13.0738     90.1984    201.1382   7.4364101966e+01   2.0701896953e+01    0.7087305    0.3218629 -40.62   0.00269522    2.641    0.621
       119 -12.3379    100.0138    195.0189   7.0934944831e+01   2.0747847280e+01    0.3450412    0.3156854 -22.86 0.0009808365    1.110    0.099
       120 -13.2884     93.5790    193.4731   7.2402148550e+01   2.1966160142e+01    0.7478877    0.4089741  49.68  0.003223323    2.154    0.536
       121 -11.3973     41.6107    205.0815   8.7764043855e+01   2.5474412954e+01    0.2734233    0.1516864  40.76   0.00127846    1.598    0.374
       122 -11.4971    166.9598    203.0156   5.6539420010e+01   1.0007575584e+01    0.2078315    0.1343387 -11.05 0.0003855192    1.633    0.388
       123 -11.2290     78.0000    200.8528   7.7550463143e+01   2.2319651070e+01    0.3536684   0.07979804 -63.05  0.001039134    4.824    0.793
       124 -11.5234    212.2473    200.0825   4.7542365129e+01   4.9165128357e+00    0.1704573    0.1347937 -55.60  0.001076107    2.025    0.506
       125 -11.1206     84.7978    193.4180   7.4748295056e+01   2.3147779308e+01    0.2681789    0.1800783   8.52 0.0006956623    1.668    0.400
       126 -12.2215     83.9238    198.2849   7.5640048302e+01   2.2151571423e+01    0.4514199    0.2839952  79.71  0.001605017    2.494    0.599
       127 -11.9289     80.7863    194.0095   7.5915868401e+01   2.3533207027e+01    0.3174728    0.2187233  53.22  0.001480922    1.597    0.374
       128 -12.5446    113.5760    210.0806   6.9708791820e+01   1.5742798577e+01    0.2377924    0.1696354  34.06 0.0007950668    1.322    0.244
       129 -11.6535     51.0170    199.0661   8.4661179256e+01   2.5897642553e+01    0.2031226    0.1926635  27.18 0.0004663323    1.063    0.059
       130 -11.4516     39.7444    197.6155   8.7620522028e+01   2.7425445136e+01    0.3154299    0.1598353  51.81 0.0007844284    1.987    0.497
       131 -13.0030    122.6004    196.5753   6.5469640520e+01   1.7284279300e+01    0.4433394    0.2323023  41.54  0.001983324    2.011    0.503
       132 -12.1420    120.5202    191.3664   6.5139801406e+01   1.8666224972e+01    0.2635444    0.2579985 -60.05  0.000275831    1.203    0.168
       133 -13.7109    120.5543    186.5639   6.4333926909e+01   1.9681861746e+01    0.6884916     0.281428  29.02 0.0005664608    2.405    0.584
       134 -11.5562    121.2765    182.6209   6.3479807456e+01   2.0422104263e+01    0.2197707    0.1713677  44.28 0.0004971382    1.396    0.284
       135 -13.2032    117.4178    179.1287   6.3853576468e+01   2.1759473840e+01    0.5178059    0.2603475  40.00  0.001744731    2.006    0.502
       136 -11.2034     30.6224    196.7340   9.0055992401e+01   2.8525058619e+01    0.2011622    0.1397763 -37.91 0.0009555381    1.730    0.422
       137 -12.5856     26.8603    193.6941   9.0859203004e+01   2.9607702944e+01    0.5067715    0.1852114 -69.34  0.001730102    2.634    0.620
       138 -12.2566     25.9710    185.4186   9.0460935164e+01   3.1727077442e+01    0.4573075    0.3259199 -22.25  0.001834293    1.754    0.430
       139 -11.2656    245.6144    195.7675   4.1601112638e+01   1.9328800456e+00    0.1549705   0.08322556 -40.10 0.0009520937    1.720    0.418
       140 -11.8695    193.7946    193.3866   4.9647894499e+01   8.1879169286e+00    0.2417247    0.1564149 -25.76 0.0005746898    1.347    0.258
       141 -12.8705    189.9274    193.3077   5.0351464771e+01   8.6924853902e+00     0.361497    0.3537737   0.15  0.001571123    1.444    0.308
       142 -12.4261    152.2474    195.3970   5.8386627101e+01   1.3369914815e+01    0.2666118     0.221647  20.32 0.0006957887    1.166    0.142
       143 -10.2957     47.3391    196.2859   8.5399099271e+01   2.6955575374e+01    0.1367853    0.1016524 -24.28 0.0004233432    1.634    0.388
       144 -11.2064    202.2993    195.3304   4.8452002930e+01   6.8222644853e+00    0.1280158   0.07868402 -12.71 0.0006563302    1.644    0.392
       145 -11.3748    239.1890    193.3941   4.2143187692e+01   2.9224157528e+00    0.1897979    0.1139593 -25.84 0.0004226501    1.275    0.216
       146 -11.2781    217.9675    193.9915   4.5551553921e+01   5.1743652718e+00    0.1560212    0.1398416 -45.29 0.0005062136    1.621    0.383
       147 -11.8781     69.5258    193.9451   7.8992493501e+01   2.4964879918e+01    0.1916471    0.1775113  27.29 0.0003932747    1.019    0.019
       148 -11.3398    212.5010    192.9894   4.6287111060e+01   5.9633632660e+00    0.1810566   0.09901509 -37.00 0.0006926297    1.570    0.363
       149 -13.3646    161.8791    192.6901   5.5838291472e+01   1.2540214709e+01    0.4420917    0.2670465  23.71  0.001915792    1.637    0.389
       150 -10.5902     40.6379    191.2856   8.6792727383e+01   2.8865785038e+01    0.1505751   0.08894289  52.35 0.0007021092    1.686    0.407
       151 -11.2749    234.5044    190.4929   4.2352705455e+01   3.8328192297e+00    0.1157013   0.08586042 -20.04 0.0001862119    1.017    0.017
       152 -13.0062    134.6431    189.1803   6.1344328080e+01   1.7085084083e+01    0.4106429     0.242987 -30.77 0.0008660316    1.836    0.455
       153 -12.4318     50.4763    189.9819   8.3874026162e+01   2.8138870762e+01    0.3374068     0.254006  12.87 0.0006086095    1.398    0.285
       154 -14.1977     50.5161    183.6264   8.3166159560e+01   2.9699875593e+01     0.484772    0.4390694 -67.26   0.00214967    1.144    0.126
       155 -11.1483    174.1825    188.8667   5.2621507481e+01   1.1538149066e+01    0.1867195    0.1364219 -10.31 0.0007663943    1.309    0.236
       156 -13.1515     76.3565    179.0625   7.5072154337e+01   2.7660304089e+01    0.5717229    0.3297532 -42.38   0.00243232    1.907    0.476
       157 -11.7421     62.8113    177.1456   7.8758237978e+01   2.9871640742e+01    0.3243779    0.2329639  14.33 0.0008774975    1.474    0.322
       158 -13.8735     71.1016    186.6994   7.7628235017e+01   2.6493125429e+01    0.9221761     0.439209  28.36  0.002290611    1.948    0.487
       159 -13.0957     64.8081    182.3548   7.8859086538e+01   2.8334570840e+01    0.5757836    0.3650923 -51.28  0.002759415    1.634    0.388
       160 -10.9510     31.0507    188.7238   8.9281812403e+01   3.0438205597e+01    0.1812415    0.1669535  36.96 0.0003479107    1.070    0.065
       161 -11.9092    156.7735    185.4012   5.5642776236e+01   1.4622455075e+01    0.1980031    0.1795543   6.66  0.001216145    1.115    0.103
       162 -12.2373    109.6793    187.6331   6.7279785750e+01   2.1024444807e+01    0.2939353    0.2307133  58.01  0.001101089    1.560    0.359
       163 -12.6758    194.6579    187.0721   4.8374096862e+01   9.1148620722e+00    0.2581138    0.1836765  31.98  0.001099215    1.551    0.355
       164 -11.6470     43.6380    186.8654   8.5504599231e+01   2.9641763190e+01    0.2482664    0.1825503  36.06 0.0003965449    1.264    0.209
       165 -11.7355    247.4747    185.7984   3.9672251509e+01   3.1035227059e+00    0.1842896    0.1370239  10.40 0.0009812072    1.409    0.290
       166 -12.2418    164.5749    185.2595   5.3948711303e+01   1.3531574123e+01     0.237944     0.211448  -4.76 0.0004071774    1.071    0.066
       167 -11.7298    167.6214    181.8113   5.2684068836e+01   1.3732951851e+01    0.2086578    0.1222351 -40.55  0.000773261    1.597    0.374
       168 -10.7069    210.3302    182.6823   4.4839789426e+01   7.8270834232e+00    0.1071462   0.09587001 -58.50 0.0004962805    1.685    0.407
       169 -11.7770    199.2928    181.7470   4.6580305906e+01   9.3882930272e+00    0.1985151    0.1752548 -27.88 0.0006142594    1.244    0.196
       170 -11.4818    142.0612    181.4804   5.8244114668e+01   1.7553680958e+01    0.2026635    0.1311061  27.96 0.0004083086    1.514    0.339
       171 -12.0217    106.2639    180.5860   6.7017207237e+01   2.3093036123e+01    0.2623531    0.1629126 -33.39  0.001182889    1.815    0.449
       172 -10.8753     37.7388    181.3636   8.6670980244e+01   3.1624239680e+01    0.1922488    0.1307039   9.42 0.0008241155    1.644    0.392
       173 -11.4536     57.6896    177.3231   8.0299945918e+01   3.0448731292e+01    0.3208025    0.2041119  60.29  0.001467943    1.799    0.444
       174 -11.1674     33.0570    177.6620   8.7699472590e+01   3.3025031309e+01    0.1928465    0.1852696  41.25  0.001160592    1.059    0.056
       175 -12.6203     22.7442    175.8791   9.0625065392e+01   3.4424933270e+01    0.4381941    0.3120996 -55.09  0.001630721    1.462    0.316
       176 -11.6787    166.2047    177.4022   5.2161126823e+01   1.4756956450e+01    0.1793531    0.1230542  41.71 0.0006973571    1.677    0.404
       177 -13.4450    148.1956    176.2117   5.5864026341e+01   1.7686308584e+01    0.3989302    0.3211338  57.89  0.002149678    1.686    0.407
       178 -12.1210    137.3087    177.0415   5.8552104727e+01   1.9180437026e+01    0.1989229    0.1786468 -27.99 0.0006812983    1.090    0.083
       179 -12.8715    126.8091    173.9596   6.0545868043e+01   2.1450667110e+01    0.4090555    0.2236793 -63.13  0.001644908    2.556    0.609
       180 -14.0762    130.2852    169.6949   5.8884009580e+01   2.1824502533e+01    0.7478194    0.3493603  31.85  0.003048153    2.148    0.535
       181 -13.4684    126.5166    166.9353   5.9299509222e+01   2.3022551322e+01    0.5328876    0.3206762  36.00   0.00245183    1.650    0.394
       182 -12.3205     47.9786    174.4917   8.2866234779e+01   3.2285568054e+01    0.5163726    0.2355725  57.60  0.001474496    2.862    0.651
       183 -12.0584      3.6989    174.5210   9.6178448889e+01   3.6238351651e+01    0.4533557    0.2526085  73.51  0.002199424    1.766    0.434
       184 -11.2082    224.8437    175.6331   4.1234614280e+01   7.1269140834e+00    0.1416167    0.1097555  39.96 0.0009437804    1.731    0.422
       185 -13.2154     90.8563    171.6133   6.9755713506e+01   2.7443814341e+01    0.5686699    0.2457092 -47.56  0.002169792    2.356    0.576
       186 -13.5303      3.9941    149.8302   9.4476732124e+01   4.2670310082e+01    0.8494483    0.3094728 -79.84  0.003246285    2.560    0.609
       187 -13.8295     33.3916    148.5206   8.4385913958e+01   4.0670974531e+01    0.6012197    0.3048803  20.85  0.001000312    2.044    0.511
       188 -15.3598     12.0878    138.9876   9.0762718328e+01   4.5064513272e+01      1.49411    0.9093799 -85.71   0.00709248    1.604    0.377
       189 -11.6824      1.5022    137.0787   9.4356830109e+01   4.6247070910e+01    0.2622805    0.1976556 -64.34  0.001288842    1.236    0.191
       190 -13.7112     23.8197    161.2281   8.8973925255e+01   3.8152581013e+01    0.6632853    0.4709714 -50.23  0.003417253    1.461    0.315
       191 -13.8854     26.7864    151.4559   8.6979518498e+01   4.0502377007e+01    0.7979041    0.4117472 -87.38  0.003290438    2.154    0.536
       192 -13.0615     24.3462    168.8377   8.9523647949e+01   3.6105909919e+01    0.5387105    0.2902928  17.69  0.002433716    1.955    0.488
       193 -11.3601    234.7103    171.6656   3.9046102764e+01   6.5359028559e+00    0.2207747    0.1131122 -28.76 0.0007101514    1.627    0.385
       194 -12.5572    197.1421    170.2958   4.4843382930e+01   1.1583352177e+01    0.2403843    0.1486906 -28.24  0.001318157    1.442    0.307
       195 -12.1991     62.2137    170.4894   7.8028811262e+01   3.1622922834e+01    0.3232486    0.2712897  68.09  0.001718219    1.271    0.213
       196 -13.1657    152.6196    168.8045   5.3454415178e+01   1.8480177795e+01    0.3480138    0.2198706 -49.09  0.001235817    1.632    0.387
       197 -13.1630    151.6106    164.8950   5.2913717513e+01   1.9421471991e+01    0.3543031    0.2653171  11.15 0.0007551856    1.428    0.300
       198 -11.7409     41.5356    168.4389   8.4135982604e+01   3.4545857561e+01    0.3375192    0.2216273  52.78  0.001618953    1.557    0.358
       199 -13.0126     56.6258    164.1889   7.8868552609e+01   3.3931052797e+01    0.4940839    0.2539962  38.83  0.002076997    1.860    0.462
       200 -11.0711     12.9452    173.9699   9.3407303108e+01   3.5713171799e+01    0.2889485    0.1162731 -53.98  0.001140753    2.566    0.610
       201 -12.4737     10.7044    166.8651   9.3577202235e+01   3.7717185208e+01    0.5003904    0.3579486  33.38  0.002132054    1.367    0.269
       202 -12.7174     10.5689    161.4746   9.3219585270e+01   3.9138791419e+01    0.4094825    0.1613351  23.30 0.0005815895    2.448    0.592
       203 -14.0535     21.0240    151.9805   8.8973851821e+01   4.0860044263e+01    0.8719236    0.3800503 -67.40  0.002973769    2.085    0.520
       204 -11.3466      6.2944    162.7006   9.4650417376e+01   3.9114810825e+01    0.2168258    0.1730768  49.35 0.0005293603    1.201    0.167
       205 -13.0213      4.1860    160.2878   9.5147849858e+01   3.9886844714e+01    0.3988536    0.3510379  -4.82  0.002394676    1.297    0.229
       206 -12.6635    171.8723    166.3770   4.8882937559e+01   1.5964279481e+01    0.2629268     0.254298 -52.19  0.001661922    1.299    0.230
       207 -11.4389     74.7141    168.6575   7.3989637679e+01   3.0448656416e+01     0.218575    0.1892128  27.10 0.0006134258    1.123    0.110
       208 -12.4271    106.3436    167.3106   6.4677583624e+01   2.6128400600e+01    0.2569302    0.2381081  31.12  0.000277924    1.085    0.078
       209 -12.9809     87.8517    164.9089   6.9485847829e+01   2.9510350667e+01       0.3481    0.2768978  14.70  0.001500391    1.301    0.231
       210 -12.7718     83.8581    163.2504   7.0378327839e+01   3.0504761664e+01    0.3381751     0.251164 -60.80 0.0003078303    1.396    0.284
       211 -11.5062    205.8617    164.1299   4.2168353405e+01   1.1402194280e+01    0.1775011    0.1289328 -13.78 0.0005196253    1.321    0.243
       212 -10.4452     72.3131    164.6896   7.4091407725e+01   3.1773628920e+01    0.1541517    0.1101299  61.06 0.0003937006    1.630    0.386
       213 -12.2309     37.3039    162.8404   8.4822509491e+01   3.6452511776e+01    0.2807213    0.2113398  42.56 0.0005288829    1.293    0.227
       214 -12.8858     47.3361    161.2483   8.1412522531e+01   3.5792550341e+01    0.4564347    0.2712331  62.72  0.001942038    2.013    0.503
       215 -13.3266    169.9440    159.4502   4.7898870717e+01   1.7561664451e+01     0.379949    0.2597413 -46.00  0.002000576    1.446    0.308
       216 -10.8063    178.5375    160.4492   4.6389636956e+01   1.6034716922e+01     0.135104    0.1163014 -19.90  0.000111954    1.006    0.006
       217 -11.7462     77.4042    159.7159   7.1721625852e+01   3.2320720237e+01    0.2605577    0.1813447 -49.42 0.0004385861    1.445    0.308
       218 -12.4974     81.0063    156.4944   7.0060001445e+01   3.2610273644e+01    0.3411809    0.1861596  34.39  0.001423153    1.766    0.434
       219 -12.1220     77.0199    154.9440   7.1015118408e+01   3.3585209246e+01    0.2501714    0.2119714  26.27 0.0003477842    1.169    0.145
       220 -12.1538     15.7162    167.0180   9.2041281991e+01   3.7297833746e+01    0.2140817    0.2016167  78.60 0.0009914625    1.029    0.028
       221 -13.0944    188.0323    158.2805   4.4163205435e+01   1.4975701514e+01    0.3247153    0.2599531  14.05 0.0005228958    1.309    0.236
       222 -11.5833    105.5210    158.0615   6.3167334364e+01   2.8425554742e+01    0.2737307    0.2017147  46.11 0.0005694566    1.444    0.308
       223 -12.1708     71.3310    157.7262   7.3265343575e+01   3.3681483542e+01    0.3179029    0.1476841 -42.14 0.0009933952    2.480    0.597
       224 -11.6671     33.0000    158.0155   8.5658268290e+01   3.8161071107e+01    0.2299083    0.1526373  56.79  0.000373345    1.570    0.363
       225 -12.3875    106.1855    175.9736   6.6255865613e+01   2.4154117572e+01    0.2600481    0.2039126  26.17 0.0007272099    1.225    0.184
       226 -10.8543    117.6542    157.6619   5.9780890350e+01   2.6534226348e+01     0.159643    0.1122737 -14.03 0.0007048147    1.779    0.438
       227 -12.1516     56.8337    157.1046   7.7774136337e+01   3.5752288756e+01    0.3133726    0.1990511  31.16            0    1.529    0.346
       228 -12.1416    121.7256    156.0284   5.8379782812e+01   2.6225929091e+01    0.2075973    0.1859689 -35.09 0.0003439589    1.089    0.082
       229 -13.9854     63.7301    154.7074   7.5179912066e+01   3.5492410646e+01    0.5669253    0.4031162  49.03  0.002696977    1.468    0.319
       230 -11.2782     51.2948    153.6482   7.9066973729e+01   3.7339553716e+01    0.1577364    0.1077013  63.82 0.0007032406    1.683    0.406
       231 -12.0215    249.1729    151.8747   3.3524252490e+01   7.6759863612e+00    0.1801737    0.1352894 -29.34 0.0003258026    1.031    0.030
       232 -12.2666    212.1484    153.4794   3.9096673012e+01   1.2262700596e+01    0.2501913    0.1452179 -49.62 0.0009956479    1.898    0.473
       233 -10.4819    105.3112    151.6338   6.1956189001e+01   2.9981016021e+01     0.155206    0.1198818  75.00 0.0007038259    1.760    0.432
       234 -12.4443    108.6252    149.1279   6.0510819540e+01   3.0018932697e+01    0.3567929    0.3022398 -40.67 0.0008223686    1.165    0.142
       235 -12.3505     29.2268    172.6628   8.8379273706e+01   3.4671785935e+01    0.2960856     0.261558  80.66  0.001275093    1.092    0.084
       236 -11.2157     99.3711    150.2979   6.3392832309e+01   3.1279027930e+01    0.1605063    0.1161235 -12.85 0.0007029374    1.738    0.425
       237 -13.0680     84.4644    149.3633   6.7682877811e+01   3.3882856070e+01    0.2873971    0.2793057 -16.44 0.0007852498    1.019    0.019
       238 -12.0525     95.9575    148.7462   6.4084070917e+01   3.2212787999e+01    0.3126589    0.1866196   6.51  0.001157133    2.605    0.616
       239 -11.6697     77.1353    148.7908   6.9868463105e+01   3.5137073961e+01     0.215059    0.1753289 -23.24  0.000459802    1.352    0.260
       240 -13.1279     39.5692    154.2907   8.3039021826e+01   3.8488657668e+01    0.3895286    0.2275951   9.43  0.001674104    2.023    0.506
       241 -11.4191    138.2448    146.0203   5.2118148825e+01   2.5578104307e+01    0.1990684    0.1804048 -30.71 0.0002324808    1.047    0.045
       242 -12.2354    170.2771    144.6021   4.4753800398e+01   2.0316077724e+01     0.240443    0.1744077  25.36  0.001270958    1.526    0.345
       243 -13.1054    101.8082    142.6537   6.1103816455e+01   3.2714814407e+01    0.6956365    0.3701617  57.04  0.002433863    2.939    0.660
       244 -11.9882     88.4960    153.0364   6.7150426364e+01   3.2342041514e+01    0.2297166    0.1486875 -56.09 0.0006470309    1.558    0.358
       245 -12.7926     44.3947    144.8768   8.0098174372e+01   4.0488535014e+01    0.3256678     0.204453 -29.13 0.0008389878    1.960    0.490
       246 -10.6881    118.6010    143.7696   5.6635468905e+01   2.9539624227e+01    0.2001091    0.1440291 -60.56 0.0002848505    1.557    0.358
       247 -12.0536      2.9242    142.3591   9.4273851714e+01   4.4740076074e+01    0.2691825    0.2328702 -18.00 0.0008808073    1.300    0.231
       248 -11.1034    178.1754    142.2067   4.2704249645e+01   1.9438452724e+01     0.176231    0.1587666 -63.73 0.0004387946    1.338    0.253
       249 -12.0312    147.0875    149.2762   5.0734733112e+01   2.3355479541e+01    0.2576208    0.2466112 -86.90 0.0004981125    1.257    0.204
       250 -13.0905     29.5576    139.2623   8.4537081280e+01   4.3554981789e+01     0.334471    0.2925504  87.10  0.001832017    1.133    0.118
       251 -10.4501    195.2546    139.6710   3.9101220229e+01   1.7104596819e+01    0.1246529   0.09511999 -57.25 0.0002909233    1.555    0.357
       252 -11.9657    188.4941    138.6421   4.0057727793e+01   1.8375387943e+01    0.2411619    0.1900197 -46.74  0.000646574    1.257    0.204
       253 -11.7571     77.4367    139.0534   6.7895741812e+01   3.7584489857e+01    0.2405203    0.2052005  27.22 0.0004639754    1.176    0.150
       254 -12.6525     35.0938    138.6946   8.2473133399e+01   4.3166233085e+01    0.3552051    0.2306914   7.82  0.001292527    1.770    0.435
       255 -13.5308     44.9282    138.0896   7.8864587136e+01   4.2259296879e+01    0.4491259    0.3324825 -19.68 0.0006283492    1.583    0.368
       256 -12.9221     37.7628    135.3845   8.1022356440e+01   4.3789291700e+01    0.5176118    0.2366401  49.32  0.001618762    2.537    0.606
       257 -14.1758     35.7656    130.1462   8.0951858075e+01   4.5427269180e+01    0.6614477    0.4832484  30.03  0.002297839    1.392    0.282
       258 -13.1332     28.5682    124.4510   8.2814918517e+01   4.7699152455e+01    0.4530213    0.3309895 -35.40 3.625833e-05    1.446    0.308
       259 -12.5439     21.9928    127.9823   8.5844413461e+01   4.7316110203e+01    0.3409424    0.2678539  -2.49 0.0003329889    1.419    0.295
       260 -12.2181    212.5373    137.4123   3.5864493457e+01   1.4808227736e+01    0.2160978    0.1717796 -33.23 0.0001505427    1.036    0.035
       261 -11.0106    239.7426    136.6973   3.1934342657e+01   1.1066668360e+01    0.1480621    0.1126585 -45.41  0.000501783    1.294    0.227
       262 -10.9995    223.4998    137.0654   3.4190270075e+01   1.3255490549e+01    0.1799327   0.09861282 -37.36 -5.715252e-05    1.461    0.315
       263 -11.5340    126.8506    137.1500   5.2993909096e+01   2.9547346434e+01    0.2139421    0.2069388 -88.85 0.0003437719    1.158    0.136
       264 -12.4965    119.6186    135.9582   5.4625799331e+01   3.1132794936e+01    0.4273649    0.3217595 -82.84   0.00121906    1.913    0.477
       265 -12.0299    174.1601    135.8306   4.2098544998e+01   2.1298632044e+01    0.1960351    0.1557836 -12.24  0.001079034    1.345    0.257
       266 -12.7544     77.4975    134.2744   6.6898557618e+01   3.8798572352e+01    0.4085015    0.2609498 -17.52 0.0009509073    2.283    0.562
       267 -12.1412    102.7212    134.0193   5.8943991264e+01   3.4625527587e+01     0.221873    0.2072447 -46.86  0.001171603    1.069    0.064
       268 -12.2845     61.2098    133.8826   7.2367149420e+01   4.1313458516e+01    0.3032609    0.1980194 -12.00  0.001242026    2.113    0.527
       269 -11.5649    128.1605    132.9777   5.1701458148e+01   3.0224840274e+01    0.2242172    0.2034439  88.59 0.0006750096    1.310    0.236
       270 -11.8223    114.6081    132.9397   5.5300125360e+01   3.2736088906e+01    0.3430472    0.2059146  14.47  0.001283964    2.570    0.611
       271 -10.3733    138.6846    132.7345   4.9038066598e+01   2.8319598784e+01    0.1456089    0.1133578  -3.29 0.0003497066    1.547    0.354
       272 -12.8909      2.1382    131.2143   9.3643276161e+01   4.7802092847e+01    0.4084296    0.2114334 -75.92  0.001197549    1.737    0.424
       273 -13.3829     83.5175    127.9608   6.3548804350e+01   3.9423658582e+01     0.594499    0.3597517 -56.75   0.00252278    1.668    0.401
       274 -12.0388     80.1610    127.2126   6.4490040582e+01   4.0167455410e+01     0.272841    0.2220523  85.79 0.0003722555    1.501    0.334
       275 -10.5393    230.4207    130.5279   3.1964731102e+01   1.3270877711e+01    0.1213867    0.0940394 -35.01 0.0001507824    1.032    0.031
       276 -12.0209    206.2527    129.2865   3.5163889389e+01   1.7104156544e+01    0.2226568     0.181024 -41.82 0.0003107537    1.125    0.111
       277 -10.8631    199.6759    130.6844   3.6491329488e+01   1.7926373854e+01     0.130551   0.09437441  -8.53 0.0005421638    1.666    0.400
       278 -11.5911     50.3691    130.0808   7.5534739311e+01   4.3762437686e+01    0.2183067     0.191319 -71.74 0.0009646372    1.141    0.124
       279 -11.4340    121.8387    128.2857   5.2247870244e+01   3.2445455794e+01    0.2592848    0.2057004 -58.50 0.0007235662    1.349    0.259
       280 -12.0743    188.0016    127.7951   3.7819744976e+01   2.0367166398e+01    0.2188219    0.1680299 -36.01 0.0003504544    1.133    0.117
       281 -10.5128    130.4823    128.4746   5.0056583105e+01   3.0770016684e+01    0.1491918     0.142421 -25.23 9.133403e-05    1.001    0.001
       282 -13.1671     44.7655    127.6806   7.7174104637e+01   4.5094036478e+01    0.4920358    0.2545753  54.86  0.001588387    2.485    0.598
       283 -11.7483    167.5204    126.6522   4.1344315190e+01   2.4197583911e+01    0.3495477    0.1660893  30.54  0.001303359    3.167    0.684
       284 -13.5754     59.8628    125.6698   7.1226835326e+01   4.3672410581e+01    0.3414737    0.3193177 -83.17  0.001823281    1.111    0.100
       285 -12.2046     74.9619    125.0270   6.5760023361e+01   4.1565148067e+01     0.230513    0.2203343 -30.70 0.0003089342    1.038    0.036
       286 -13.6486     19.2290    123.3914   8.6300997399e+01   4.8800725406e+01     0.519953    0.3779029 -32.17    0.0024057    1.474    0.322
       287 -11.8059     23.8412    114.8147   8.3206997332e+01   5.0763326290e+01    0.3028733    0.2339842  86.60 0.0006280485    1.380    0.275
       288 -12.2928     22.0029    117.7542   8.4405494351e+01   5.0118167701e+01    0.2957787    0.2230781   1.75 0.0003780556    1.466    0.318
       289 -13.1894     19.4177    114.6008   8.4990887982e+01   5.1192617453e+01    0.4366162    0.3410753 -60.28 0.0008988017    1.181    0.153
       290 -11.5944    189.0341    121.6870   3.6306054197e+01   2.1253602424e+01     0.174012    0.1648223 -21.95 0.0002805867    1.101    0.092
       291 -12.7602    103.9498    121.3544   5.5595355243e+01   3.7397299151e+01    0.3715622    0.3043071  62.98  0.001717063    1.422    0.297
       292 -12.6884     97.9469    117.2426   5.6391026211e+01   3.9484812571e+01    0.5679246    0.2841008  40.02  0.001487708    2.007    0.502
       293 -10.9485    100.4917    113.5695   5.4675690268e+01   3.9864953189e+01    0.2485143    0.1990198  28.76 0.0001462108    1.301    0.232
       294 -13.8884      5.9207    119.6039   9.1083261648e+01   5.0754064313e+01    0.6701773    0.3736139 -33.13  0.003021863    1.982    0.495
       295 -10.4702     97.3004    125.3525   5.8569313112e+01   3.7670278904e+01    0.1623815    0.1191544 -18.63 0.0004833528    1.698    0.411
       296 -11.6751     43.8235    121.3557   7.6381351696e+01   4.6914026672e+01    0.2067654    0.1429712   6.85 0.0004208696    1.663    0.399
       297 -11.4920    200.4884    120.4663   3.4191331205e+01   1.9503183546e+01    0.1307012    0.1106679 -34.55 0.0001331303    1.009    0.009
       298 -11.5067    179.2630    120.0177   3.7627492595e+01   2.3281969248e+01    0.1962922    0.1892751  -2.92 0.0003706565    1.117    0.105
       299 -12.4689     64.0562    118.6695   6.8205122787e+01   4.4895803478e+01    0.2131266    0.2009704   3.52 0.0006885027    1.081    0.075
       300 -13.4324     21.5101    131.4306   8.6472945550e+01   4.6410950888e+01     0.525193    0.2891683  21.97  0.001620703    1.876    0.467
       301 -12.1240     51.3633    116.8790   7.2587613083e+01   4.7163175590e+01    0.4365655    0.2938104 -60.46  0.002001819    1.444    0.308
       302 -10.9911    196.7833    115.4146   3.3671534180e+01   2.0974977200e+01    0.1601051    0.1239735  31.51 0.0005598674    1.551    0.355
       303 -13.3741     82.8071    112.1105   5.9999655106e+01   4.3475084656e+01    0.6435987    0.2615974 -50.68  0.002254779    2.392    0.582
       304 -11.6924    104.9920    114.4650   5.3554561735e+01   3.8794935753e+01    0.2347933    0.1516785  39.50 0.0006060267    1.568    0.362
       305 -14.0953     62.3421    111.5499   6.7207713925e+01   4.6994462130e+01    0.6638533    0.5291862 -57.00  0.003277708    1.239    0.193
       306 -13.8042     12.6812    112.4551   8.7474580554e+01   5.2279383965e+01     0.516886    0.2518715 -73.36  0.002181966    1.910    0.476
       307 -10.7452      2.2908    114.3322   9.1978561407e+01   5.2390673770e+01    0.1509146   0.08950047 -45.90 0.0002750704    1.629    0.386
       308 -12.0526    116.3109    112.6936   4.9868734638e+01   3.6972800601e+01    0.3888135    0.2964579  79.27  0.001686905    1.820    0.450
       309 -12.2315    109.7499    112.0180   5.1533932268e+01   3.8422192038e+01    0.3165329    0.2568759  -0.24 0.0003276235    1.491    0.329
       310 -12.0832    113.0162    110.4990   5.0209371605e+01   3.8112514015e+01    0.2773137    0.2143837 -38.79 0.0005576681    1.291    0.225
       311 -12.1883     89.9722    110.9749   5.7321909647e+01   4.2452619017e+01    0.3120014    0.2825472  79.96 0.0003306845    1.249    0.199
       312 -11.0846     92.2720    107.7148   5.5718387906e+01   4.2793030556e+01    0.2161174    0.1818441 -14.37 -0.000430966    1.339    0.253
       313 -12.9671     73.8508    109.5761   6.2485345344e+01   4.5648292286e+01    0.4099731    0.2659955 -73.23 0.0007818894    2.021    0.505
       314 -12.0053     52.7300    110.6827   7.0713233708e+01   4.8612432271e+01    0.3263451    0.2441463  38.92  0.000739111    1.372    0.271
       315 -11.4789    161.7923    110.3698   3.8639686940e+01   2.8337211500e+01    0.1912308    0.1320861  36.68  0.000374205    1.651    0.394
       316 -11.1616    209.6925    108.5618   3.0289013817e+01   1.9886343926e+01    0.2354944   0.09754638 -38.44  0.001069758    1.997    0.499
       317 -12.1219    170.8859    109.1284   3.6612869663e+01   2.6799120849e+01    0.2415802    0.2017944  74.44  0.001292294    1.443    0.307
       318 -10.3296    155.6691    108.3093   3.9362215527e+01   2.9934697938e+01    0.1440925    0.1116133 -76.78 0.0007041342    1.667    0.400
       319 -10.7563    139.6697    107.3163   4.2584384040e+01   3.3365383870e+01    0.1493225    0.1167712 -81.75  0.000704627    1.682    0.405
       320 -13.6507     10.1376    105.9103   8.7657740384e+01   5.4229198266e+01    0.4333659    0.4155846 -53.31  0.001580524    1.049    0.047
       321 -12.1864      2.1174    107.1161   9.1258029037e+01   5.4359551268e+01    0.2289987    0.1741246 -47.26  0.001239319    1.245    0.197
       322 -12.0757    229.4616    103.1376   2.6634515177e+01   1.7508110471e+01    0.1913137    0.1680553 -48.42  0.000314957    1.141    0.123
       323 -11.9225    219.3045    105.9939   2.8467461555e+01   1.8698167182e+01    0.1759969    0.1319918 -38.60 0.0003858386    1.081    0.075
       324 -12.4255     78.8970    101.5514   5.8574303485e+01   4.6726517443e+01    0.2945242    0.2752764  47.37 0.0006269467    1.106    0.096
       325 -11.7208    191.5224    100.5191   3.1144806065e+01   2.4381626601e+01    0.1982217    0.1677851 -42.00   0.00121562    1.023    0.022
       326 -12.9583     33.0821     98.1122   7.6143185111e+01   5.4352230369e+01    0.5445175    0.2998633 -34.19   0.00115104    2.051    0.512
       327 -12.6254    162.8604     99.6181   3.5781162788e+01   3.0090266755e+01    0.2744467     0.190353 -48.21 0.0006570523    1.365    0.267
       328 -11.3102    208.4706     99.5600   2.8514690623e+01   2.1502304186e+01    0.1264596    0.1060845 -40.79 7.867855e-05    1.015    0.014
       329 -12.2007     24.4722     97.0998   7.9800867665e+01   5.5485496445e+01     0.511826    0.3209019  13.37  0.001491939    1.716    0.417
       330 -10.9120     15.4925    103.0000   8.4880725801e+01   5.4648062166e+01    0.3632411    0.1638704  13.58  0.001451677    2.426    0.588
       331 -12.6772    155.3143     96.9920   3.6570506930e+01   3.2108004520e+01    0.2459158    0.2092771  39.50 0.0003788103    1.289    0.224
       332 -11.1341     76.3796     97.2704   5.8287542525e+01   4.8199401844e+01    0.1588198    0.1197757  -4.79 0.0006994717    1.693    0.409
       333 -11.0769     57.4764     97.4955   6.5602759784e+01   5.1305613666e+01    0.2822129     0.149141  31.14   0.00070003    1.910    0.476
       334 -11.4341     45.8575     97.3765   7.0404610520e+01   5.2998772514e+01    0.2100796    0.1792648  11.16  0.001086128    1.212    0.175
       335 -12.0736     93.7648     99.2294   5.2908057129e+01   4.4459206926e+01     0.330687    0.2484396  43.61  0.001421359    1.343    0.255
       336 -12.3764     82.3281     95.9282   5.5791641408e+01   4.7417538939e+01    0.3307237    0.2468759  -3.71  0.001476003    1.771    0.435
       337 -11.2450    211.0128     95.2870   2.7254396609e+01   2.1717959190e+01    0.1696844    0.1468163 -44.72 0.0006507173    1.048    0.046
       338 -12.1770     63.6556     93.3387   6.1996349135e+01   5.1345499010e+01    0.4243517    0.2093052  52.78  0.001472738    2.866    0.651
       339 -11.5624     78.5162     92.5185   5.6149863129e+01   4.8919186333e+01    0.1507148    0.1495795   2.43 -2.014681e-05    1.029    0.028
       340 -10.6145    249.5690     91.5697   2.2213543818e+01   1.6094007280e+01    0.1132941   0.08498111 -41.17 0.0001456411    1.008    0.008
       341 -11.2888    224.0271     90.9134   2.4751317711e+01   2.0162960259e+01    0.1774417     0.144449 -42.15 0.0002998761    1.025    0.024
       342 -12.4453    230.1234     89.7841   2.3841372530e+01   1.9329213765e+01    0.1981651     0.179394 -30.92 0.0004314206    1.199    0.166
       343 -11.2808     28.3369     90.3028   7.6577943221e+01   5.6897067973e+01    0.1571989    0.1010847 -30.47 0.0003374459    1.666    0.400
       344 -11.5206     22.9970     90.0738   7.9048578140e+01   5.7474143378e+01    0.2194329    0.1918216 -40.48            0    1.069    0.065
       345 -11.4416    187.3877     89.1791   2.9126154067e+01   2.6998775504e+01    0.1907076    0.1057141 -46.93 0.0001799521    1.628    0.386
       346 -11.1496     88.2840     89.3880   5.1826998822e+01   4.7740356116e+01    0.2186802    0.1422949  50.22 0.0009501959    1.627    0.386
       347 -11.6221     70.9843     90.0000   5.8189002932e+01   5.0878703559e+01    0.2526716   0.08626453  36.68 0.0006659895    2.932    0.659
       348 -12.2843    178.3024     87.0038   2.9988778243e+01   2.9135515821e+01     0.225968    0.1932812  85.24 0.0005787151    1.293    0.227
       349 -12.3647     54.4238     85.7857   6.3621617510e+01   5.4653757943e+01    0.4634861    0.3842441   0.39  0.002370943    1.297    0.229
       350 -12.2116     10.6615     86.8897   8.4392648752e+01   5.9284047934e+01    0.4116548    0.2321261  12.06  0.001904507    1.897    0.473
       351 -10.9869    202.4863     86.4026   2.6391285922e+01   2.4587429049e+01    0.1257726    0.1077912 -47.48 9.357081e-05    1.019    0.019
       352 -10.6834     34.6007     86.4567   7.2715230029e+01   5.7198754500e+01    0.1476581    0.1330222 -35.32 3.587972e-05    1.048    0.045
       353 -11.7569    159.4906     85.0466   3.2671606911e+01   3.3339258794e+01    0.2015715    0.1884256  75.88  0.000323521    1.122    0.109
       354 -13.2945     61.3378     84.0912   6.0220766999e+01   5.3935316890e+01     0.432663    0.3246002 -21.88  0.001849516    1.527    0.345
       355 -11.5761    190.3239     83.9209   2.7460765270e+01   2.7259487552e+01    0.1825026    0.1488256 -42.77 0.0004015438    1.076    0.071
       356 -11.5865    133.1073     84.1082   3.7772854000e+01   3.9225696102e+01    0.2071343    0.2008144 -68.94 0.0002937996    1.011    0.011
       357 -11.1978    125.5278     84.1681   3.9566511741e+01   4.0885410336e+01    0.3141435     0.203813  73.28  0.001327835    2.137    0.532
       358 -12.2717    112.7943     83.8033   4.2719340920e+01   4.3753187284e+01    0.4108348    0.2305903  58.24  0.001448396    2.047    0.512
       359 -11.8163    150.1596     83.1867   3.3929774749e+01   3.5658488807e+01    0.2831007    0.1550879  35.10  0.001132769    2.624    0.619
       360 -12.5779    182.3411     81.0480   2.7919423717e+01   2.9278181038e+01     0.272002    0.1994808 -53.18 0.0003184439    1.267    0.211
       361 -10.9879    216.0012     80.0105   2.3346598452e+01   2.3099814874e+01    0.1471734     0.120867 -47.33 0.0003840661    1.012    0.012
       362 -11.4662    206.4760     80.9626   2.4669735061e+01   2.4668512185e+01    0.1893875    0.1057305 -38.23 0.0003549875    1.511    0.338
       363 -10.6338    108.9622     80.0355   4.2613636316e+01   4.5327876915e+01    0.1798675     0.171768  53.33 0.0003275996    1.044    0.042
       364 -12.6025     78.5945     82.3121   5.3002359354e+01   5.1199332569e+01    0.2759371     0.271001  19.74  0.000298526    1.022    0.022
       365 -11.4807    112.8823     79.1029   4.1258292942e+01   4.4642922674e+01    0.2390965    0.2051483 -81.90  0.001221885    1.326    0.246
       366 -11.6491     88.3565     78.8498   4.8501548542e+01   4.9976797054e+01    0.3099244    0.2186645  35.59  0.001445642    1.457    0.313
       367  99.0000     51.4494     79.1987   6.2937486615e+01   5.6683839338e+01    0.6208331    0.3056714  16.64  0.002154571    3.036    0.671
       368 -11.0977     48.4419     76.3090   6.3390572780e+01   5.7822405408e+01    0.2183252    0.1959629  54.05 0.0003758045    1.256    0.204
       369 -11.5344    161.5286     77.0145   3.0195620101e+01   3.4242357308e+01    0.2139938    0.1267857 -39.64 0.0006814801    1.568    0.362
       370 -11.8927     75.2132     75.3722   5.1977973065e+01   5.3352171518e+01     0.314537    0.2093851 -41.24  0.001109445    1.528    0.345
       371 -11.0021    215.0001     75.0279   2.2378214951e+01   2.3982829303e+01    0.1518839    0.1186411 -45.30 0.0005485332    1.046    0.044
       372 -12.2235     86.1652     74.1851   4.7696968998e+01   5.1385618557e+01    0.4541737    0.1991843 -40.19  0.001331565    2.394    0.582
       373 -11.6961      1.8780     68.7839   8.5585022958e+01   6.4460757284e+01    0.2373963    0.1625398 -51.01 0.0009175239    1.265    0.210
       374 -11.0763    155.7733     73.6115   3.0281267412e+01   3.6041836916e+01    0.1873342    0.1312582  74.41 0.0006795166    1.618    0.382
       375 -11.4400    105.6245     72.5595   4.1168280231e+01   4.7490329091e+01    0.2664158    0.2383184 -26.47  0.001149807    1.182    0.154
       376 -11.0290     51.1549     73.1586   6.1145041229e+01   5.8128607635e+01    0.1947557    0.1771612 -89.86 0.0004894175    1.319    0.242
       377 -11.0847     10.6782     71.5846   8.1277229813e+01   6.3222467377e+01    0.2463924    0.1332558   5.33  0.001092321    2.016    0.504
       378 -10.6401    236.2710     69.3477   1.9080799475e+01   2.1118296641e+01     0.105521   0.08288296 -14.74 0.0002952337    1.623    0.384
       379 -12.5158     98.1397     66.8819   4.1431381930e+01   5.0207934839e+01    0.2837738     0.269635 -59.60 0.0004613283    1.089    0.081
       380 -11.8384     52.8021     68.5978   5.8861263437e+01   5.8882154797e+01    0.2093687    0.1324643  44.12 0.0009459792    1.670    0.401
       381 -10.7178    242.1693     66.8113   1.8063043392e+01   2.0493445962e+01    0.1387315     0.117419 -28.71 0.0003575658    1.310    0.237
       382 -12.4941      1.6837     73.3951   8.6572373591e+01   6.3301389453e+01    0.4762403    0.2094582 -51.96   0.00209501    1.886    0.470
       383 -11.9761     60.0726     67.0164   5.5114308443e+01   5.7966729329e+01    0.2206944     0.207634  -5.01 0.0003675063    1.028    0.027
       384 -10.8838    203.4389     66.4681   2.1754133329e+01   2.7309107748e+01    0.1244742    0.1039389 -50.43 6.844146e-05    1.016    0.016
       385 -12.0861    199.0604     65.4780   2.2024404272e+01   2.8286807376e+01    0.2325842    0.1617006 -40.11  0.000387011    1.251    0.201
       386 -12.0896    178.6915     64.2763   2.4278918622e+01   3.2559041517e+01    0.2178384    0.2025506 -47.63 0.0002799809    1.112    0.100
       387 -12.1955     10.0745     63.1527   7.9584372065e+01   6.5353397705e+01    0.3383732    0.1853929 -24.63  0.001077931    1.948    0.487
       388 -12.0927     40.7959     60.1960   6.1618705804e+01   6.2610039689e+01    0.4182421    0.1911483  37.06  0.001709347    2.167    0.538
       389 -12.0305    108.9309     59.8637   3.6061368148e+01   4.8982201334e+01    0.2608572    0.2115282 -60.88  0.001159506    1.337    0.252
       390 -12.1059     32.2639     57.1414   6.5004253719e+01   6.4478087022e+01    0.3906141      0.19428  52.97  0.001385843    3.575    0.720
       391 -11.9532    192.9045     57.5211   2.0857497274e+01   3.0595965795e+01    0.1733013    0.1208815  71.94 0.0005363476    1.545    0.353
       392 -11.4366    160.1186     57.1762   2.5071236911e+01   3.7595425590e+01    0.1905105    0.1451104 -66.56 0.0005690065    1.310    0.237
       393 -11.4158    120.5474     56.9844   3.2315177503e+01   4.6739573347e+01    0.2059703    0.1395982 -35.94 0.0003272953    1.518    0.341
       394 -11.1501     18.1304     56.8766   7.3009013425e+01   6.6162979100e+01    0.1992818    0.1878053  47.26  0.001207408    1.254    0.202
       395 -11.2588     52.8096     56.5932   5.4435865342e+01   6.1408569794e+01    0.3434502     0.120679  46.11  0.001138335    3.253    0.693
       396 -11.9229    110.4878     54.5279   3.3850123968e+01   4.9485109902e+01    0.2502499     0.143809 -22.02  0.001035792    2.333    0.571
       397 -13.6558     30.9606     49.9242   6.3000741531e+01   6.6205390490e+01    0.4203195    0.3209476  50.79  0.001301304    1.630    0.387
       398 -11.6752    132.8450     49.5718   2.7421739330e+01   4.4953929532e+01    0.2776816    0.1890188 -12.40  0.001321755    2.035    0.509
       399 -10.5291    222.9742     50.0000   1.6237182134e+01   2.5867140159e+01    0.1559531   0.06425549  69.49 0.0003549913    2.786    0.641
       400 -10.6612    102.6996     49.6954   3.4116076151e+01   5.2063147492e+01    0.1423418    0.1092466  23.82 0.0002389768    1.591    0.371
       401 -12.2559     19.2080     47.6264   6.9151640872e+01   6.8131194738e+01     0.477197    0.1714133 -49.16  0.001570834    2.474    0.596
       402 -11.2968    190.8192     47.8164   1.8758921781e+01   3.2299106884e+01    0.1707218    0.1570282 -50.81 0.0004126274    1.153    0.132
       403 -12.0850     40.8560     47.1290   5.6437408850e+01   6.5300045407e+01    0.2060143    0.1939816  52.85 0.0006424107    1.263    0.208
       404 -10.6561     98.2947     43.9855   3.3167312663e+01   5.3953843409e+01    0.1650673    0.1279847 -35.38 0.0008660791    1.364    0.267
       405 -11.1584    158.7215     41.9338   2.1049574635e+01   3.9981695784e+01    0.2389352    0.1228706 -57.40  0.001085244    2.095    0.523
       406 -10.8366    103.5800     41.1872   3.0788547413e+01   5.3102681845e+01    0.1889165    0.1377643 -13.15 0.0008586764    1.720    0.418
       407 -13.2055     36.6716     40.0987   5.5586766220e+01   6.7311705500e+01    0.4104592    0.2635059  29.02  0.001238513    1.496    0.331
       408 -11.6642    241.9035     40.0879   1.2826271954e+01   2.3791196227e+01    0.1644175     0.120719 -51.07 0.0003661404    1.009    0.009
       409 -13.4101     25.4927     38.1075   6.1260986571e+01   6.9337695079e+01    0.5769451    0.3600122  13.32  0.002699768    1.712    0.416
       410 -12.9932     31.6727     32.6457   5.4886231229e+01   6.9454308116e+01    0.3815145    0.3218296  11.26  0.001549353    1.068    0.064
       411 -10.3696     78.2715     37.3296   3.6360872179e+01   5.9547581676e+01    0.1395917    0.1046316  18.95 0.0006868868    1.586    0.369
       412 -11.2698     67.8669     33.6952   3.8343312028e+01   6.2380740452e+01    0.1913754    0.1597644  49.41 0.0003167122    1.124    0.110
       413 -11.5218    106.4978     32.4941   2.6900314934e+01   5.3548185848e+01    0.2653831    0.1365097 -30.26  0.001191407    2.097    0.523
       414 -10.7786     95.3307     33.3174   2.9826491046e+01   5.6124611744e+01    0.1443647    0.1004023  31.29 0.0007047142    1.686    0.407
       415 -12.1353     44.3013     32.6200   4.7966738137e+01   6.7306772898e+01    0.3140457     0.193049  -2.16  0.001346427    2.573    0.611
       416 -12.4171     78.4857     31.2242   3.3666560858e+01   6.0344609156e+01    0.2620516    0.2091094 -89.99  0.001336724    1.538    0.350
       417 -12.4001     67.5258     25.0114   3.4423850012e+01   6.3629884747e+01    0.2171931    0.1908157  76.88  0.001245426    1.276    0.216
       418 -12.5347     58.8459     26.1470   3.8194212846e+01   6.5374762332e+01    0.2495972    0.2198472 -19.34 0.0003935354    1.212    0.175
       419 -10.5254    162.2787    247.3138   6.4162330293e+01   3.3249703528e+00    0.1199369   0.07450381  -9.16 0.0006979621    1.568    0.362
       420 -12.6268     84.0253     23.5205   2.8717425070e+01   6.0006026805e+01    0.2778113    0.1988097 -76.56  0.001156427    1.810    0.448
       421 -12.0914     45.5521     25.8777   4.3896553695e+01   6.8112990436e+01    0.2551549    0.1847328  48.52 0.0006157035    1.371    0.271
       422 -11.9422      4.5629     25.0501   7.0134355578e+01   7.4252063525e+01    0.2713568    0.1679269 -38.01 0.0008343202    1.452    0.311
       423 -11.7523    166.4283     22.6517   1.4867732296e+01   4.0505482109e+01    0.2419872    0.1649766 -58.32  0.001161585    1.321    0.243
       424 -10.7201     46.3376     19.7073   4.0192877642e+01   6.8815271730e+01    0.1237736    0.1053222  86.42 0.0003965364    1.645    0.392
       425 -10.5748    143.4875     18.5577   1.6186741373e+01   4.6199840683e+01    0.1288836    0.1108052 -81.08 0.0001373017    1.021    0.020
       426 -11.1531    131.2007     18.1429   1.7615319396e+01   4.9165261778e+01    0.1839807    0.1669446  50.67 0.0007185355    1.226    0.185
       427 -10.4541     31.2800     16.3101   4.6099685548e+01   7.2118294101e+01    0.1301361   0.09051607   9.62 0.0002497038    1.563    0.360
       428 -11.1448    153.0532    246.4712   6.5913996370e+01   4.4589525449e+00    0.1674395    0.1359431 -11.53 0.0004780221    1.147    0.128
       429 -11.1648     67.0000     14.9218   2.9681950990e+01   6.4916409499e+01    0.2024702   0.07629077 -26.20 0.0008067509    2.972    0.664
       430 -10.4908     80.2810    246.3046   8.1886595325e+01   1.2658153965e+01    0.1180065   0.08763003 -12.50 0.0002149758    1.554    0.356
       431 -11.4575    167.4229    242.9702   6.2545892383e+01   3.4236344741e+00    0.1749789    0.1312868   7.65  0.000361556    1.068    0.064
       432 -11.1739     60.9199    242.4185   8.6041982994e+01   1.5472137455e+01     0.187947     0.150684  64.85  0.000642195    1.350    0.259
       433 -12.0821    199.2725    241.3038   5.6308040264e+01   3.4146949148e-01    0.1887715     0.145685   0.84 0.0002693453    1.129    0.114
       434 -11.2299    143.0576    242.1829   6.7427256954e+01   6.2609147322e+00    0.1838015    0.1345856   2.72 0.0002701726    1.184    0.155
       435 -12.7530    117.9073    240.3495   7.2673438893e+01   9.4736330404e+00    0.2235852    0.1672043  -3.27 0.0006078854    1.306    0.234
