#   1 NUMBER                 Running object number                                     
#   2 MAG_AUTO               Kron-like elliptical aperture magnitude                    [mag]
#   3 X_IMAGE                Object position along x                                    [pixel]
#   4 Y_IMAGE                Object position along y                                    [pixel]
#   5 X_WORLD                Barycenter position along world x axis                     [deg]
#   6 Y_WORLD                Barycenter position along world y axis                     [deg]
#   7 A_WORLD                Profile RMS along major axis (world units)                 [deg]
#   8 B_WORLD                Profile RMS along minor axis (world units)                 [deg]
#   9 THETA_WORLD            Position angle (CCW/world-x)                               [deg]
#  10 FWHM_WORLD             FWHM assuming a gaussian core                              [deg]
#  11 ELONGATION             A_IMAGE/B_IMAGE                                           
#  12 ELLIPTICITY            1 - B_IMAGE/A_IMAGE                                       
         1 -14.1025    227.2325     52.1899   6.3306243287e+01   2.1549746725e+01     2.081446    0.7391847 -35.44  0.007664337    2.663    0.624
         2 -13.4432    222.7458     19.7367   5.5766861673e+01   2.6892481337e+01     1.647926    0.3533675 -34.28  0.005449792    3.897    0.743
         3 -14.1528    240.1217     78.7137   6.8012342433e+01   1.4462200051e+01     2.466261     1.089039 -52.24  0.008961473    2.822    0.646
         4 -14.4933    235.4450     26.8597   5.6041191045e+01   2.2926548143e+01     2.202751    0.9068334 -27.76  0.008939936    2.706    0.631
         5 -12.6952    247.1627     36.4051   5.6968132327e+01   1.8915666193e+01     1.022114     0.529731 -31.42  0.004756229    1.971    0.493
         6 -14.4402    244.9656     53.0061   6.1142820080e+01   1.7165012268e+01     2.313788      1.04177 -44.09  0.009791896    2.094    0.522
         7 -13.8399    246.6749     16.4443   5.2443297176e+01   2.1509521385e+01     2.016026    0.8602584 -35.47  0.009171425    2.225    0.551
         8 -11.9586    206.7739     22.2071   5.8372430695e+01   3.0603622674e+01    0.5094848    0.2485079 -46.01  0.002074718    2.145    0.534
         9 -10.0976    155.7409     16.0037   6.4444185167e+01   4.4166349306e+01    0.2679493    0.1655833 -23.25  0.001319702    1.788    0.441
        10  -9.8030    160.4787      9.0123   6.1438835126e+01   4.3706443172e+01    0.1900741    0.1075936  18.42 0.0008097737    2.511    0.602
        11 -11.4035    218.0523      4.8848   5.2634732722e+01   2.9687234268e+01    0.4237733    0.2356103 -31.15  0.002120575    1.922    0.480
        12  -9.7922     50.8599      3.8396   8.7449801698e+01   6.6105680141e+01    0.1723283    0.1208738  -0.31 0.0003396254    1.201    0.167
        13  -9.9731    158.8963      2.1130   5.9563463264e+01   4.4733896578e+01    0.2027399    0.1754218 -83.73 0.0009499686    1.263    0.208
        14  -9.9144    171.8627     22.3264   6.3590423940e+01   3.9460843084e+01     0.437479   0.07689535 -29.16   0.00122122    5.175    0.807
        15 -10.8189    210.0396    247.8701   1.0818418673e+02  -5.4701455212e+00    0.3148378    0.2506708 -66.50  0.002065142    2.051    0.512
        16 -11.4215    193.5174    247.8874   1.1103161190e+02  -2.6890613342e+00    0.3704227    0.2700051 -44.69  0.002453213    1.785    0.440
        17 -10.0670    167.7758    249.9986   1.1575753006e+02   1.4093933844e+00     0.221192    0.1214266  37.49 0.0005681633    1.630    0.386
        18 -10.8396    230.2928    236.5526   1.0296028735e+02  -7.4954221694e+00    0.2785493    0.2149983 -55.23  0.001474696    2.084    0.520
        19 -10.2429    206.2902    236.3833   1.0711311672e+02  -3.4056072986e+00    0.2410922    0.2175302 -77.91  0.001666009    1.582    0.368
        20 -11.2424    216.6986    233.5736   1.0484577068e+02  -4.8406242542e+00     0.383032    0.3237005 -48.01  0.002598097    1.605    0.377
        21  -9.8825    156.6443    248.3312   1.1746417141e+02   3.5267734993e+00    0.1233688   0.07924879  67.05 0.0003142528    1.787    0.440
        22 -10.1957    240.4683    231.8046   1.0043876021e+02  -8.6132781979e+00    0.1938501    0.1675521 -53.96  0.001134291    1.805    0.446
        23 -10.5110    198.9010    226.9910   1.0697005976e+02  -8.5018168743e-01    0.2571374    0.1870788 -52.44  0.001258923    1.829    0.453
        24  -9.6487    245.3973    231.2580   9.9507754284e+01  -9.3503623500e+00      0.14235    0.1097197 -35.31 0.0006999228    1.643    0.391
        25 -10.8881    235.1653    229.1374   1.0090585145e+02  -7.4223719923e+00    0.3140398    0.1915792 -36.39  0.001612746    1.951    0.488
        26 -10.2623    229.2072    227.9727   1.0174642899e+02  -6.2774933546e+00    0.2209084    0.1642595 -44.98  0.001162357    1.817    0.450
        27  -9.9137    211.7242    227.3948   1.0473547274e+02  -3.1794967516e+00    0.1957801    0.1520003 -46.21  0.001231946    1.670    0.401
        28 -10.9054    232.8761    213.0503   9.8538287885e+01  -5.0086814947e+00    0.3329716    0.2352025 -45.69  0.001464559    1.869    0.465
        29 -11.2095    246.7308    226.1582   9.8416872275e+01  -8.9761994922e+00    0.3475721    0.2427604  56.95  0.001980813    2.051    0.512
        30 -11.3136    239.3837    220.0144   9.8620714060e+01  -7.0171143565e+00    0.4983509    0.3704733 -34.91  0.003160826    1.598    0.374
        31 -10.1309    223.1479    226.6951   1.0259680750e+02  -5.0797684300e+00    0.1885762     0.168303 -32.51  0.001127667    1.398    0.285
        32 -10.2368    205.9055    225.5743   1.0548321154e+02  -1.9054379560e+00    0.2257997      0.16553 -59.01  0.001313228    2.023    0.506
        33 -11.1529    217.0897    222.8755   1.0303704219e+02  -3.5262120539e+00    0.3659548    0.2651601 -50.73  0.001694525    1.912    0.477
        34 -11.7845    217.6752    213.7383   1.0137927402e+02  -2.3938544710e+00    0.7191712     0.430682 -60.16  0.003204433    3.415    0.707
        35 -10.0487    212.5902    211.3589   1.0189113685e+02  -1.1344366033e+00    0.2728054    0.1805054 -42.28  0.001171171    1.802    0.445
        36  -9.8942    190.4034    226.2350   1.0839009113e+02   7.8159252257e-01    0.1561252    0.1220051 -58.74 0.0009522342    1.704    0.413
        37 -11.9168    247.8697    216.7461   9.6581328218e+01  -8.0386631430e+00    0.5047074    0.3122497 -35.51  0.002533724    1.851    0.460
        38 -11.3146    247.7220    207.4187   9.4923768785e+01  -6.8491904711e+00    0.3897412    0.2542961 -50.23  0.001826482    2.378    0.580
        39 -10.7003    243.2195    201.0102   9.4520279966e+01  -5.2322620737e+00    0.3817829    0.2258265 -34.88  0.002002561    1.827    0.453
        40 -10.2465    193.6628    219.6816   1.0675951350e+02   1.1379631285e+00    0.2312647    0.1573451 -69.11   0.00117461    2.529    0.605
        41  -9.5563    154.4934    219.9716   1.1407381315e+02   8.2479840144e+00    0.1650692    0.1076647 -85.51 0.0008088528    2.438    0.590
        42  -9.8796    210.8168    218.6153   1.0345287491e+02  -1.8300726446e+00     0.185913    0.1547162 -37.12  0.001144812    1.437    0.304
        43  -9.0768    205.2929    217.6500   1.0429571109e+02  -6.9381182681e-01    0.1196492   0.09903754  75.91 0.0007030233    1.674    0.403
        44 -11.1282    240.3460    208.3554   9.6379148845e+01  -5.6989692217e+00    0.4762765    0.3201275 -58.77  0.002383458    2.841    0.648
        45 -10.7508    235.1256    203.4089   9.6395123579e+01  -4.1189702438e+00    0.3129522    0.2267217 -51.90  0.001155035    1.983    0.496
        46 -10.3873    231.4794    199.4481   9.6312209702e+01  -2.9134717522e+00    0.3635386    0.2120474 -50.52  0.001494423    2.528    0.605
        47 -10.5528    231.0084    194.2275   9.5413389106e+01  -2.0867010697e+00    0.3075953    0.1864259 -41.54  0.001242748    1.903    0.475
        48 -10.9175    228.9906    205.6316   9.7898517612e+01  -3.3205089405e+00    0.5895986    0.1963808 -46.11   0.00203022    4.832    0.793
        49 -10.7180    250.4585    200.4149   9.3149770689e+01  -6.4146440700e+00    0.3549188    0.1373791 -35.66  0.001569956    2.723    0.633
        50  -9.5308    223.5056    201.4922   9.8133605465e+01  -1.7380894199e+00    0.1309659    0.1140615  28.76 0.0008099417    1.058    0.055
        51 -10.4926    228.4353    222.0067   1.0087857143e+02  -5.3953787623e+00    0.3050275    0.2353504  68.20  0.001782353    2.022    0.505
        52  -9.5645    215.4834    197.9897   9.8962468836e+01   2.7444784097e-01    0.1726066     0.116824 -63.70 0.0008103133    2.564    0.610
        53  -9.3864    176.3658    198.6885   1.0654451565e+02   7.7057239922e+00    0.1388019    0.1014979  72.94 0.0007038554    1.760    0.432
        54  -9.4804    202.3066    197.6569   1.0137160397e+02   2.8456600804e+00    0.1291146    0.1060532  81.15 0.0004339415    1.690    0.408
        55 -11.5271    246.3558    193.4561   9.2538423759e+01  -4.7682205545e+00    0.4393659    0.3140551 -50.91  0.002070523    1.997    0.499
        56 -10.7400    243.5237    188.4851   9.2071901200e+01  -3.5709614580e+00    0.2752895    0.2266708 -15.15 0.0009615696    1.196    0.164
        57 -10.5217    224.3574    192.5065   9.6296523718e+01  -5.9094992824e-01    0.3239188    0.1928813 -47.43  0.001426977    2.135    0.532
        58 -10.7742    237.1662    187.7594   9.3058664852e+01  -2.2994107044e+00    0.3284628    0.2090802 -38.42  0.001303518    1.721    0.419
        59 -10.0536    210.4313    188.8046   9.8184958093e+01   2.6547840321e+00    0.2396356    0.1315939 -43.81  0.000925829    2.082    0.520
        60 -10.4818    230.0301    187.2872   9.4253880650e+01  -8.9250440439e-01    0.2765293    0.1820519 -43.85   0.00119116    1.786    0.440
        61  -9.4393    219.5341    194.5124   9.7564371700e+01   2.5006216886e-02    0.1330376      0.11824  29.94 0.0004458521    1.062    0.058
        62 -10.3815    249.6048    184.9171   9.0307381726e+01  -4.1726719587e+00    0.3891024    0.1675186 -41.01  0.001690301    2.631    0.620
        63 -11.0208    247.7836    178.4165   8.9326101870e+01  -2.9207929848e+00     0.534579    0.2628803 -45.37  0.002113059    2.584    0.613
        64 -10.2391    224.0147    184.3055   9.4772949863e+01   7.0695084855e-01    0.2285076    0.1928711 -65.16 0.0009536324    1.647    0.393
        65 -10.9002    210.9993    182.9679   9.6950417022e+01   3.4698074767e+00    0.3481597    0.2289952 -43.08  0.001507586    1.704    0.413
        66 -11.0202    241.4820    180.9664   9.0946536155e+01  -2.1198378786e+00    0.4704277    0.2633832 -47.71  0.002186135    2.366    0.577
        67 -10.7224    235.4555    181.1124   9.2052691095e+01  -1.0062942132e+00     0.291415    0.2267426 -45.92  0.001245119    1.552    0.356
        68  -9.5098    225.5387    179.5038   9.3539339758e+01   1.1480617076e+00    0.1364761    0.1230945  21.21 0.0002238617    1.027    0.027
        69 -10.4443    150.4942    178.4972   1.0822961037e+02   1.6419934692e+01    0.2442552    0.1333248 -62.18  0.001034153    2.372    0.578
        70  -9.5693    219.1908    177.8552   9.4390214068e+01   2.6572595230e+00    0.2848796   0.09837059 -43.90   0.00100758    3.381    0.704
        71 -10.9123    182.6307    177.0714   1.0136123776e+02   1.0217194810e+01    0.2960811    0.1738319 -54.56  0.001323495    2.110    0.526
        72 -10.5037    233.6031    175.0970   9.1173913366e+01   2.5433286333e-01    0.3336634    0.2494717  62.88  0.001754955    1.761    0.432
        73 -10.5932    183.7545    183.1624   1.0229698595e+02   8.9127794599e+00    0.3162219    0.2255471 -59.43  0.001602952    1.755    0.430
        74 -10.1951    223.5743    173.7957   9.2749768207e+01   2.4286157726e+00    0.2633451    0.1633577 -49.37  0.001242642    2.012    0.503
        75  -9.9816    241.4721    173.0210   8.9338614874e+01  -9.4615582511e-01     0.205579     0.169247 -46.43 0.0007977049    1.463    0.316
        76 -10.4527    237.3605    169.5815   8.9362643016e+01   3.6698628443e-01    0.3301422    0.2117451 -44.39  0.001389285    1.782    0.439
        77 -10.3199    227.9117    171.4890   9.1474209271e+01   1.9299859524e+00    0.3131306    0.1857136 -45.38  0.001161994    1.952    0.488
        78  -9.9422    229.0235    166.2851   9.0188465787e+01   2.5310217642e+00    0.2339525    0.1893852 -39.97 0.0008374837    1.341    0.254
        79 -11.5905    235.3271    147.4338   8.4980341984e+01   4.2815662993e+00    0.5082808    0.3686768 -59.50  0.001720317    1.866    0.464
        80 -11.1351    245.9564    168.9968   8.7718619370e+01  -1.1996548935e+00     0.395196    0.2787362 -41.57  0.001399287    1.568    0.362
        81 -10.5707    241.8589    153.6221   8.5177264846e+01   1.9586579059e+00    0.3845846    0.2701404 -55.63  0.001107863    1.906    0.475
        82 -10.9892    244.1585    149.2359   8.3820666508e+01   2.1879547692e+00    0.4371766    0.2954677 -52.02  0.001610509    1.853    0.460
        83 -10.5840    247.0086    163.0003   8.6281305136e+01  -5.0064419017e-01    0.2948857    0.2329535 -56.30  0.001179929    1.690    0.408
        84 -11.0266    246.3578    158.3710   8.5412528104e+01   3.3053988024e-01    0.4340794    0.2242658 -40.76  0.001820029    2.017    0.504
        85 -10.1924    135.3376    170.6614   1.1004210656e+02   2.0894851597e+01    0.1484597    0.1045746  79.03 0.0007051046    1.758    0.431
        86 -10.4560    218.4450    168.5794   9.2637442872e+01   4.3029209856e+00    0.2873276    0.2432834 -68.08  0.001248858    1.567    0.362
        87  -9.5108    212.2926    169.6596   9.4031213435e+01   5.3844248350e+00     0.135622    0.1139436 -83.79 0.0004421783    1.651    0.394
        88 -10.2512    199.4734    165.0572   9.5575684977e+01   8.8413516904e+00    0.3042935    0.1377752 -46.06  0.001189678    2.481    0.597
        89 -10.4826    240.2509    164.1389   8.7708967092e+01   6.3852507397e-01    0.2900451    0.2292827 -56.04  0.001200821    1.660    0.398
        90 -10.7800    237.7620    159.0584   8.7073832620e+01   1.9230365805e+00    0.3576927    0.2664571 -55.92  0.001223521    1.767    0.434
        91 -10.1896    234.1354    164.4891   8.8879154747e+01   1.7925457516e+00    0.2733692    0.1711984 -49.22  0.001184657    1.982    0.495
        92 -10.7130    212.7770    163.1651   9.2583026828e+01   6.3740839800e+00    0.3357866    0.2321744 -41.47  0.001325986    1.542    0.352
        93 -10.8956    205.4676    161.4642   9.3640359951e+01   8.2028165783e+00    0.5789293    0.2763622 -45.90  0.002084868    2.349    0.574
        94 -10.6199    205.7935    154.7807   9.2142153423e+01   9.3027625575e+00    0.3019443    0.2928891 -64.66  0.001147959    1.153    0.132
        95  -9.8115    221.4768    152.9528   8.8733220472e+01   6.2697241999e+00     0.206237    0.1364218 -46.33  0.000929199    1.675    0.403
        96 -10.5291    221.8455    161.7536   9.0563239752e+01   4.7264185669e+00    0.3029298    0.2209968 -36.49  0.001182814    1.420    0.296
        97 -10.2138    176.5166    159.5644   9.9108290856e+01   1.4723441035e+01    0.2906035    0.1466212 -43.92  0.001193455    2.108    0.526
        98 -12.9545    240.6555    123.8743   7.8706990882e+01   7.0173462023e+00      2.70958    0.4733234 -34.16  0.006382002    6.310    0.842
        99 -10.7691    247.7447    112.7067   7.4940844915e+01   7.3059725347e+00    0.3982698    0.2676064 -69.24  0.001769644    2.253    0.556
       100 -10.4203    250.6647    153.2836   8.3580058699e+01   2.6979819717e-01    0.4829514    0.1154606 -36.57  0.001519716    3.967    0.748
       101 -10.6231    247.9684    145.2753   8.2296077191e+01   2.0454547471e+00    0.6144559    0.2646962 -50.72  0.002090394    3.781    0.736
       102 -11.0462    243.7086    140.4948   8.1966610359e+01   3.6702628214e+00    0.4616109    0.2317736 -39.02  0.001534364    1.957    0.489
       103 -10.7894    242.1087    134.1644   8.0817485329e+01   5.0250346251e+00    0.4033042    0.2517006 -45.22  0.001216104    1.701    0.412
       104 -12.2354    241.3963    106.1927   7.4432023154e+01   9.7588391512e+00    0.4751871    0.2858634 -42.59  0.002184859    1.621    0.383
       105 -11.7504    239.1430    102.1701   7.3837167638e+01   1.0923437211e+01    0.4762496    0.4138654   8.13  0.001765676    1.281    0.219
       106 -10.2892    197.1075    157.6692   9.4487953301e+01   1.0657636517e+01    0.2576349    0.2012407 -51.43  0.001312691    1.435    0.303
       107  -9.8612    222.2146    157.2003   8.9518356686e+01   5.4039347887e+00    0.2913326    0.1242104 -42.16  0.001127815    2.484    0.597
       108  -9.8050    154.6649    157.3020   1.0331183246e+02   1.9758673835e+01    0.1497666    0.1128541  80.40 0.0007036236    1.660    0.398
       109  -9.7749    187.5254    156.0082   9.6075864885e+01   1.3027278518e+01    0.2253537    0.1470015 -39.79  0.001041583    1.623    0.384
       110 -10.3386    233.4141    154.1416   8.6794848998e+01   3.5880164368e+00    0.3078761    0.2239894 -60.45  0.001245091    1.922    0.480
       111  -9.9171    202.4766    151.9825   9.2185260225e+01   1.0516594900e+01    0.2756723    0.2182692 -60.48  0.001048322    1.532    0.347
       112 -10.4667    157.4936    153.4981   1.0191551404e+02   1.9933987943e+01    0.2633829    0.1389563 -58.01  0.001031082    2.366    0.577
       113  -9.5203    228.3480    152.1172   8.7275617733e+01   4.9662245103e+00    0.1977608    0.1270579 -44.60  0.000810238    1.692    0.409
       114 -10.1141    196.8745    150.5905   9.2998399426e+01   1.1989486306e+01    0.2863065    0.2166209 -48.23  0.001165711    1.433    0.302
       115 -10.1856    223.5534    146.8895   8.7006109873e+01   6.8514998586e+00    0.2734922    0.2338979 -87.30  0.001442742    1.545    0.353
       116  -9.5746    200.3181    145.6678   9.1213629123e+01   1.2127966880e+01    0.1490908    0.1195092 -83.83 0.0005595122    1.691    0.409
       117 -10.3292    172.4963    149.0053   9.7714976684e+01   1.7620599173e+01    0.2212517     0.148643 -45.08 0.0006681278    1.561    0.359
       118 -11.1305    162.6281    142.9769   9.8535930154e+01   2.0954048687e+01    0.4726981    0.2650412 -67.08  0.001659403    3.122    0.680
       119 -10.5746    230.0921    141.4819   8.4593601652e+01   6.3643677435e+00    0.3570485     0.204077 -39.99  0.001245917    1.763    0.433
       120  -9.6700    214.4504    142.9490   8.7837338717e+01   9.4993258421e+00    0.2066961    0.1234458 -59.11 0.0008081982    2.515    0.602
       121 -10.0415    182.1956    142.9746   9.4322869900e+01   1.6654529583e+01    0.2457656    0.1743671 -72.73 0.0009937889    2.029    0.507
       122  -9.9475    250.5145    140.5273   8.0816797439e+01   2.2792103604e+00    0.2685567     0.124835 -38.94  0.001132005    2.091    0.522
       123 -10.4346    248.7902    135.7352   8.0037950635e+01   3.3865932390e+00     0.365032    0.1860528 -42.68  0.001164753    2.011    0.503
       124 -11.0095    247.9583    129.9648   7.8875728886e+01   4.4797607289e+00     0.429886    0.2711971 -44.83  0.001156447    1.653    0.395
       125 -10.6149    249.4700    124.0379   7.7276543076e+01   5.1142949645e+00     0.296678    0.2347024 -33.75 0.0008467675    1.202    0.168
       126 -11.0594    247.8912    119.2179   7.6427013539e+01   6.2235411223e+00    0.4435187    0.2251323 -41.93  0.001425454    1.931    0.482
       127 -10.2147    233.7554    129.6746   8.1242630318e+01   7.5500245596e+00    0.3347394    0.1790869 -42.53  0.001417214    1.897    0.473
       128 -10.1153    238.5030    140.5135   8.2875836153e+01   4.7474108074e+00    0.2319813    0.2086033  51.08  0.000746789    1.199    0.166
       129 -11.2717    235.0472    136.1929   8.2508808094e+01   6.1870756263e+00    0.4862527    0.3006103 -49.92  0.001427953    1.888    0.470
       130 -10.6079    224.1013    140.2456   8.5409900376e+01   7.8613599918e+00    0.3186786     0.265621 -57.67  0.001095949    1.408    0.290
       131 -10.8659    218.9414    138.3740   8.5944558485e+01   9.3099216686e+00    0.3459831    0.2907842 -71.86  0.001661625    1.502    0.334
       132 -10.8977    166.1389    140.6946   9.7257370781e+01   2.0647004967e+01    0.2655873    0.2110809 -59.55  0.001261661    1.380    0.275
       133  -9.8625    198.9810    136.9850   8.9502285511e+01   1.4014410380e+01    0.2412318    0.1892477 -80.63  0.001131358    1.736    0.424
       134  -9.6261    192.6298    137.2264   9.0845094716e+01   1.5403837510e+01    0.2085521    0.1437819 -29.00  0.000904809    1.605    0.377
       135 -10.2501    208.5738    138.3294   8.7916919890e+01   1.1616359542e+01     0.267222    0.2164599 -61.42  0.001108334    1.472    0.321
       136 -10.4742    155.9845    136.0346   9.8464387823e+01   2.3796287106e+01    0.2437512    0.1868891 -88.63  0.001000603    1.698    0.411
       137 -10.2896    224.5182    134.0126   8.3906175625e+01   8.8351899161e+00    0.3905116    0.2131753  54.14  0.001653445    1.947    0.486
       138 -10.5948    206.0104    131.3185   8.6785916707e+01   1.3455282149e+01    0.2706093    0.2124819 -66.05 0.0009829897    1.587    0.370
       139 -10.1021    220.9800    129.2936   8.3460681016e+01   1.0433471507e+01    0.2793164    0.2060246 -59.24   0.00132512    1.668    0.401
       140 -10.1679    186.1276    128.9449   9.0245762337e+01   1.8450865171e+01    0.2395059    0.2102166 -80.63 0.0007484313    1.317    0.241
       141 -10.6718    200.0743    126.7082   8.6863681729e+01   1.5656474211e+01    0.3388842    0.2094104 -54.00 0.0009789414    1.938    0.484
       142 -11.4473    180.2033    124.1947   9.0353659726e+01   2.0727566352e+01    0.5238222    0.3186598 -39.00  0.002250281    1.693    0.409
       143 -10.0498    235.0128    123.7163   7.9638483781e+01   8.2715114337e+00    0.2640167    0.1781068 -49.09  0.001001421    1.618    0.382
       144 -11.8523    219.8098    121.3061   8.1785590191e+01   1.2087524818e+01    0.7975737    0.4663594 -69.47  0.002631114    3.816    0.738
       145 -10.3937    227.6600    125.5010   8.1353963846e+01   9.5951543253e+00    0.2897325    0.2132608 -59.82   0.00100511    1.682    0.405
       146 -10.1394    140.3731    119.1377   9.8141049988e+01   3.0627792901e+01    0.2224523    0.1380004 -56.66 0.0009478893    1.786    0.440
       147  -9.6112    230.7786    116.0537   7.8566724145e+01   1.0501093609e+01    0.1986766    0.1166837 -36.26 0.0008685694    1.658    0.397
       148  -9.7614    187.9939    123.4468   8.8533806983e+01   1.9065500205e+01    0.3321773    0.1816621 -55.63  0.001244159    2.393    0.582
       149 -10.1536    217.4080    125.2701   8.3175395824e+01   1.1940895060e+01    0.2106575    0.1371757 -46.09 0.0009459807    1.615    0.381
       150 -10.9422    212.9824    121.1181   8.3013229864e+01   1.3686828337e+01    0.6095521    0.1972137 -32.16  0.001796903    3.774    0.735
       151  -9.1836    173.3088    114.6458   8.9481078066e+01   2.4180690802e+01    0.1600331    0.1227199 -79.26 0.0007043146    1.723    0.419
       152 -10.7402    122.3105    113.4186   1.0118796856e+02   3.5499176899e+01    0.4506175    0.2003805 -38.87  0.001654818    2.567    0.610
       153  -9.5009    250.6707    159.2101   8.4847074697e+01  -6.3239985450e-01     0.193845     0.118203 -22.96 0.0009390574    1.698    0.411
       154  -9.6445    177.0000    110.9604   8.7749500772e+01   2.4027403943e+01    0.2534205   0.08853004 -39.59 0.0007982539    2.914    0.657
       155 -10.1997    168.0000    111.0605   8.9740483444e+01   2.6115853206e+01    0.2545792   0.08833905 -40.59 0.0008007241    2.931    0.659
       156  -9.7559    150.4546    110.5023   9.3606778536e+01   3.0219318983e+01    0.1507396     0.148205  87.13 8.202178e-05    1.022    0.022
       157  -9.7425    189.6436    108.8538   8.4561900251e+01   2.1420165390e+01    0.2265861    0.1387818 -48.08 0.0009441669    1.738    0.425
       158 -10.4360    248.6778    107.3908   7.3551703005e+01   7.9599222473e+00    0.3242057    0.2254059 -71.66  0.001492824    2.073    0.518
       159  -9.5057    236.2619    107.6595   7.5625970159e+01   1.0669750355e+01    0.1465178    0.1096485 -61.68 0.0004868745    1.590    0.371
       160  -9.8043    205.6199    105.7439   8.0619382225e+01   1.8158409230e+01    0.2201053    0.1378472 -46.69 0.0009429214    1.666    0.400
       161 -10.6253    222.4373    104.3417   7.7188492439e+01   1.4412529822e+01     0.360825      0.13807 -38.15  0.001157381    2.518    0.603
       162 -10.1790    229.8318    103.2769   7.5648903444e+01   1.2870395649e+01    0.2687037    0.1930887 -44.87 0.0008417169    1.390    0.280
       163 -10.1231    140.6810    103.1764   9.4053265661e+01   3.3842698861e+01    0.3151326    0.1314077 -49.70  0.001090789    2.623    0.619
       164 -10.1698    150.0000    102.9897   9.1770198891e+01   3.1827094858e+01     0.254915    0.0868658 -41.75 0.0007516411    2.954    0.661
       165 -10.5760    166.9309    100.4910   8.7227908352e+01   2.8413243098e+01    0.3654778    0.2181587 -43.37   0.00153659    1.702    0.412
       166 -10.2418    160.4571    100.4808   8.8680742842e+01   2.9931253553e+01     0.323142    0.1513576 -40.71  0.001112751    2.156    0.536
       167 -10.0165    224.4012    248.6185   1.0584619907e+02  -7.9223401193e+00    0.1787599    0.1115197 -39.20 0.0008995803    2.073    0.518
       168 -10.4562    224.4304    243.0369   1.0498864842e+02  -7.2867933157e+00     0.264185     0.206243 -36.10  0.001753319    1.633    0.388
       169 -10.1875    218.4872    248.1581   1.0678236587e+02  -6.9033291232e+00    0.1995845    0.1734036 -52.79  0.001091912    1.683    0.406
       170  -9.7195    242.2449    248.4045   1.0281294999e+02  -1.0738756223e+01    0.1569868   0.09089339  44.31 0.0008384072    1.584    0.369
       171 -11.3007    215.4506     98.7089   7.7026966637e+01   1.7035326011e+01     0.530546    0.3291793  86.85  0.001950564    2.900    0.655
       172  -9.7677    202.5449     98.0102   7.9233541246e+01   2.0273698300e+01    0.2357361    0.1496174 -36.93   0.00102539    1.581    0.367
       173  -9.7500    195.0212     97.9703   8.0678731571e+01   2.2112088532e+01     0.248198     0.188474 -73.00  0.001053308    1.676    0.403
       174 -10.4429    235.2011     95.4238   7.2845396949e+01   1.2930104686e+01    0.2981224    0.1992548 -44.09 0.0009373708    1.468    0.319
       175 -10.2552    215.8053     94.5124   7.5903592372e+01   1.7668895556e+01    0.3047044    0.1825637 -50.62 0.0008316247    1.834    0.455
       176  -9.9952    241.9147     93.2725   7.1260989516e+01   1.1738624533e+01    0.2563957    0.1832824 -45.51  0.001009079    1.367    0.268
       177 -10.7164    188.8647     93.0346   8.0603475186e+01   2.4503383536e+01     0.401437    0.2400054 -42.99  0.001342649    1.700    0.412
       178 -10.2640    188.3663     87.2544   7.9156532646e+01   2.5653814434e+01    0.3143854    0.2062712 -46.52 0.0009850648    1.587    0.370
       179 -10.9827    175.8332     88.1141   8.1957327537e+01   2.8580769049e+01    0.3864182    0.2463125 -48.50  0.001141063    1.678    0.404
       180  -9.9052    210.2895     91.4397   7.6105694592e+01   1.9530719551e+01     0.270801     0.175616 -55.35   0.00116777    1.781    0.438
       181 -10.4077    231.0581     90.8229   7.2389743867e+01   1.4649709872e+01    0.2667415    0.2044495 -40.59 0.0007755746    1.265    0.210
       182  -9.9391    157.6950     90.5240   8.6612769897e+01   3.2479513795e+01    0.2758793     0.139566 -39.13  0.001068038    2.000    0.500
       183  -9.7144    236.4507     90.2750   7.1391151928e+01   1.3478409816e+01    0.2056394    0.1294226 -45.50 0.0006520877    1.572    0.364
       184 -10.5022    217.7644     90.3208   7.4496917366e+01   1.7905456349e+01    0.2703072    0.1964957  43.92  0.001289698    1.428    0.300
       185 -11.1143    225.9293     87.7032   7.2454940209e+01   1.6377364643e+01    0.2946734    0.2047343 -44.18 0.0009508922    1.420    0.296
       186 -10.0885    124.5073     88.0320   9.4024081155e+01   4.0271147870e+01    0.2118542    0.1260553 -63.95 0.0008100353    2.570    0.611
       187  -9.6122    197.5251     87.0184   7.7314056340e+01   2.3429493888e+01    0.2339287    0.1500343 -37.30  0.001022506    1.568    0.362
       188  -9.7437    164.0000     86.9580   8.4201203071e+01   3.1651723628e+01    0.2536722   0.08797268 -37.86 0.0008009541    2.932    0.659
       189 -11.1433    222.0330     85.3038   7.2498326671e+01   1.7707784571e+01    0.3492773    0.2128814 -10.78   0.00135449    2.561    0.609
       190  -9.8789    205.9861     84.7037   7.5134635762e+01   2.1732942806e+01    0.2615128    0.1589354 -34.96  0.001125919    1.660    0.398
       191  -9.5144    193.0000     82.9787   7.7098476626e+01   2.5249019453e+01    0.2494667   0.08753104 -35.33 0.0007958777    2.897    0.655
       192  -9.9571    164.4580     94.0199   8.6041107660e+01   3.0227693307e+01    0.2390196    0.1521167 -38.97  0.001030445    1.594    0.372
       193 -10.6032    158.9797     81.9737   8.3924851348e+01   3.3758175823e+01    0.3774326    0.2169729 -45.40  0.001566248    1.820    0.450
       194 -10.5754    225.1630     81.7294   7.1080344875e+01   1.7535178303e+01    0.2639569    0.1921574 -47.33 0.0007807157    1.371    0.271
       195 -10.1096    232.6921    247.2874   1.0424117706e+02  -9.1101728396e+00    0.1776506    0.1393059 -40.46  0.001228449    1.757    0.431
       196  -9.6157    214.9962     80.0494   7.2341318481e+01   2.0285696671e+01    0.1860269    0.1677954 -39.31 0.0009877053    1.107    0.097
       197  -9.7470    150.5751     79.3041   8.5091859628e+01   3.6217156131e+01    0.2899208     0.143362 -42.09  0.001127205    2.052    0.513
       198  -9.8587    206.5168     78.0793   7.3297183145e+01   2.2707594366e+01    0.3363141    0.1330591 -40.54  0.001038379    2.479    0.597
       199  -9.9168    206.1428     74.1555   7.2324446111e+01   2.3442885231e+01    0.2447002    0.1788772 -67.73 0.0007283568    1.639    0.390
       200 -10.0229    174.5006     78.0374   7.9440598831e+01   3.0694185472e+01    0.2379891    0.1518665 -36.50  0.001035328    1.598    0.374
       201  -9.9113    166.6203     77.8441   8.1059648577e+01   3.2658195791e+01    0.2271862    0.1384921 -46.68 0.0009546807    1.747    0.428
       202 -10.6550    130.4730     78.0347   8.9630796983e+01   4.0939995557e+01     0.230197    0.1433798 -39.25 0.0008155603    1.595    0.373
       203  -9.5308    183.3926     77.2002   7.7396802277e+01   2.8632461932e+01    0.2218446    0.1382926 -46.75  0.000943078    1.695    0.410
       204 -10.5277    157.4132     75.8193   8.2512287499e+01   3.5231656794e+01    0.3473283    0.1873626 -38.49  0.001298303    1.876    0.467
       205  -9.4517    223.4543     76.4531   7.0021627944e+01   1.8796806555e+01    0.1459402    0.1403337 -70.75 0.0001474281    1.015    0.015
       206  -9.4838    139.6693     74.3190   8.6240292353e+01   3.9607156910e+01    0.1507632    0.1197248 -80.13 0.0007047981    1.690    0.408
       207 -10.0772    195.1349     72.6569   7.3896980358e+01   2.6448871956e+01    0.2692575    0.1980904 -44.59 0.0007826172    1.387    0.279
       208 -10.4657    163.2807     71.3623   7.9918033562e+01   3.4592189419e+01    0.4055021    0.2062453 -36.32  0.001578428    2.003    0.501
       209 -10.2794    190.6415     72.2309   7.4618206068e+01   2.7649042200e+01    0.2086266    0.1465607 -23.32 0.0007688418    1.604    0.377
       210 -10.6887    222.3513     70.8196   6.8762792332e+01   1.9956403176e+01     0.294469    0.1946256 -34.35 0.0009980976    1.513    0.339
       211 -11.9815    223.4550     66.9581   6.7605533123e+01   2.0284635600e+01    0.5477459    0.2886449 -22.54  0.002160945    2.404    0.584
       212  -9.9870    200.9982     78.0137   7.4269181071e+01   2.4094301490e+01    0.2499347    0.1797796 -65.43 0.0007975735    1.685    0.407
       213  -9.6580    198.8660     69.3399   7.2317672554e+01   2.6047335642e+01    0.2145711    0.1802926 -44.86 0.0008745094    1.206    0.171
       214 -10.5323    187.4229     68.7231   7.4254777777e+01   2.9033074440e+01    0.2884058    0.1405225 -39.28  0.001119503    2.063    0.515
       215  -9.1979    218.2941     68.6172   6.8841571026e+01   2.1299953501e+01    0.1592761    0.1080314 -64.37 0.0004843831    1.759    0.431
       216 -10.4250    193.9123     67.7956   7.2790137430e+01   2.7545071333e+01    0.2705027    0.2188135 -36.47 0.0009055216    1.264    0.209
       217  -9.8990    182.4465     68.0502   7.5022135343e+01   3.0395115099e+01    0.2334995    0.1498823 -34.48 0.0009833731    1.602    0.376
       218 -10.1218    203.1296     66.6723   7.0848215736e+01   2.5396646346e+01    0.2748512     0.196081 -46.77  0.001191234    1.434    0.303
       219  -9.4803    170.5226     70.4796   7.8119810184e+01   3.2966696023e+01     0.151022    0.1471487  56.34 0.0008098667    1.014    0.014
       220 -10.2493    163.5223     65.4265   7.8126882486e+01   3.5527715513e+01    0.3024654     0.150186 -34.05   0.00107452    2.082    0.520
       221  -9.7704    197.0564     64.2938   7.1264075200e+01   2.7304923483e+01    0.2152249    0.1954107  74.94 0.0007987415    1.091    0.084
       222 -10.3155    192.6027     62.7571   7.1636320701e+01   2.8673827283e+01    0.2121368     0.136393 -44.60 0.0009425993    1.607    0.378
       223 -10.5123    187.2472     62.6922   7.2599045328e+01   3.0040998020e+01    0.2731284    0.1797684 -36.70 0.0008288681    1.552    0.355
       224 -10.4386    182.4713     62.4664   7.3434918745e+01   3.1284072726e+01    0.2736191    0.1291202 -44.40 0.0009389034    2.261    0.558
       225 -11.3874    176.1992    245.9125   1.1376388749e+02   5.3049591094e-01    0.3937159    0.2686885 -39.45  0.002492065    1.901    0.474
       226 -10.5880    153.2011     59.5196   7.8609162830e+01   3.8986001980e+01    0.2821881    0.2055646 -34.60 0.0009699433    1.411    0.291
       227  -9.6250    206.5868     59.2138   6.8264246278e+01   2.5674470186e+01    0.2055402    0.1459627 -16.48 0.0009494112    1.708    0.414
       228  -9.8563    111.6707     64.3293   9.0456133861e+01   4.7274427371e+01    0.1391632    0.1141357 -79.38 0.0007051417    1.712    0.416
       229 -10.5847    157.9642     61.5504   7.8173638239e+01   3.7512612857e+01    0.3741362    0.2156917 -34.01  0.001474348    1.787    0.440
       230 -11.0886    192.3302     55.1195   6.9559597855e+01   2.9909529192e+01    0.3281369    0.2031694 -35.08  0.001227773    1.656    0.396
       231 -10.5708    152.8630     52.5739   7.6550129662e+01   4.0152653922e+01    0.2492558      0.17471 -37.41  0.001053346    1.480    0.324
       232 -10.1449    194.4844     50.5010   6.7902642450e+01   3.0038724429e+01    0.1474257    0.1398774  78.31 9.898144e-05    1.015    0.014
       233  -9.4045    178.5278     50.5171   7.0740184704e+01   3.4098477033e+01      0.14784     0.141055  69.56 0.0001496528    1.027    0.026
       234 -10.0849    208.0000     47.9786   6.5036303081e+01   2.6958646604e+01    0.2918278     0.213375 -24.87 0.0009047198    1.514    0.339
       235 -10.5704    207.4743     44.4747   6.4181460014e+01   2.7581387097e+01    0.2565487    0.1840053 -35.23  0.001279787    1.436    0.304
       236 -10.4687    168.9941     44.3309   7.0715768827e+01   3.7387822769e+01    0.3270926    0.1913856 -39.73  0.001452209    1.792    0.442
       237  -8.9180    200.3191     43.3248   6.4973697880e+01   2.9560738546e+01     0.150192    0.1088649  30.77 0.0005915511    1.676    0.403
       238  -9.7843    191.5426     40.4819   6.5592919356e+01   3.2189755737e+01    0.1450315    0.1362473  73.49  7.76745e-05    1.006    0.006
       239  -9.7740    173.3682     39.8284   6.8548892998e+01   3.6905227564e+01    0.2009194     0.141062 -11.65 0.0009446601    1.732    0.423
       240  -9.5478    165.0000     39.9520   7.0160391546e+01   3.8989447446e+01    0.2278274    0.0839879 -29.65  0.000794722    2.889    0.654
       241 -11.0809    168.7224     36.3121   6.8350638535e+01   3.8541871582e+01    0.5871595    0.1397224 -27.52  0.001623519    4.950    0.798
       242  -9.7343    186.8346    247.3353   1.1211087776e+02  -1.4801489486e+00    0.1567114    0.1376027  49.39 0.0008101982    1.174    0.148
       243  -9.7112    164.0000     32.9777   6.8216170487e+01   4.0152584190e+01    0.2232065     0.082995 -28.27 0.0007037498    2.895    0.655
       244  -9.3806    125.6732     30.3394   7.5512829848e+01   4.9553873029e+01    0.1356079    0.1088456 -69.21 0.0007051552    1.731    0.422
       245 -10.3932    225.2430     99.9793   7.5623796002e+01   1.4494840860e+01    0.2140491    0.1875701 -38.67 0.0006395035    1.119    0.107
       246  -9.7162    166.3676     28.1381   6.6299133501e+01   4.0160080429e+01    0.2033701    0.1240602 -40.93 0.0007202043    1.776    0.437
       247  -9.0915    162.3180     25.6743   6.6276424761e+01   4.1464063480e+01    0.1436559    0.1070562 -69.82 0.0003865844    1.675    0.403
       248  -9.6311    136.7758     25.0021   7.1151878451e+01   4.7697187752e+01    0.1743416    0.1136818 -24.41  0.000866081    1.630    0.386
       249  -9.0783    251.0000    245.9491   1.0097159650e+02  -1.1831924609e+01    0.1570465   0.06218242 -31.05 0.0007888154    2.894    0.654
       250 -10.1259     83.7777     19.1804   8.2762885155e+01   5.9224861351e+01    0.1737973    0.1268501  10.06 0.0003777262    1.295    0.228
       251  -9.6738    237.8287    245.0047   1.0302044032e+02  -9.6782986519e+00    0.1532333    0.1349552 -71.57  0.001055243    2.009    0.502
       252  -9.6055    142.5076     11.5078   6.5453127268e+01   4.7817668504e+01    0.1369313    0.1200849  44.15 0.0008105851    1.008    0.008
       253 -10.8872    241.8000    242.0743   1.0188761167e+02  -9.9873589392e+00    0.2675244    0.2242091  89.40  0.001702947    2.417    0.586
       254 -10.4443    201.9015    242.1411   1.0874838444e+02  -3.3878138392e+00    0.2439561    0.1722959 -54.15  0.001504285    2.041    0.510
       255  -9.7397    248.4404    240.2788   1.0048414748e+02  -1.0836638675e+01    0.1345773    0.1080887 -31.58  0.000940107    1.598    0.374
       256 -10.9316    190.1398    234.9834   1.0976258593e+02  -3.9883857979e-01    0.3325268    0.2201359 -57.37  0.001911818    2.169    0.539
