#   1 NUMBER                 Running object number                                     
#   2 MAG_AUTO               Kron-like elliptical aperture magnitude                    [mag]
#   3 X_IMAGE                Object position along x                                    [pixel]
#   4 Y_IMAGE                Object position along y                                    [pixel]
#   5 X_WORLD                Barycenter position along world x axis                     [deg]
#   6 Y_WORLD                Barycenter position along world y axis                     [deg]
#   7 A_WORLD                Profile RMS along major axis (world units)                 [deg]
#   8 B_WORLD                Profile RMS along minor axis (world units)                 [deg]
#   9 THETA_WORLD            Position angle (CCW/world-x)                               [deg]
#  10 FWHM_WORLD             FWHM assuming a gaussian core                              [deg]
#  11 ELONGATION             A_IMAGE/B_IMAGE                                           
#  12 ELLIPTICITY            1 - B_IMAGE/A_IMAGE                                       
         1 -13.2924    244.6794    157.3841   9.0850466719e+01   3.1091739130e-01     4.140474    0.6806982 -44.70  0.008897434    8.193    0.878
         2 -16.0213    246.4230     69.5839   7.1078953573e+01   1.5124644116e+01     6.086834     3.378588 -20.58    0.0244874    3.049    0.672
         3 -14.8054    247.6656    118.2191   8.1778630320e+01   6.6327459830e+00     9.892904    0.3441823 -41.91   0.01675868   12.066    0.917
         4 -15.1590    247.4312     89.3799   7.5361300553e+01   1.1668242136e+01      5.32125     2.050826 -55.55    0.0175129    3.649    0.726
         5  -9.8072    215.5110    173.0465   9.9558329815e+01   3.1577488651e+00    0.2137226    0.1380458 -40.45  0.000745757    1.538    0.350
         6 -10.7488    224.5073    249.8566   1.1212612768e+02  -1.0581227055e+01    0.2179508    0.1865224  56.63  0.001212362    1.627    0.385
         7 -11.2436    209.5806    249.4310   1.1478707913e+02  -8.1613622442e+00    0.3140666    0.2450212  36.62  0.001855076    1.150    0.130
         8 -11.4698    191.6569    248.6838   1.1800858799e+02  -5.1018130332e+00    0.4000984    0.3155733  60.00  0.002329278    1.527    0.345
         9 -10.0003    156.4930    248.0260   1.2457416260e+02   1.0061767682e+00    0.1681845    0.1281398 -53.79  0.001031196    1.587    0.370
        10 -12.0988    236.7950    230.2492   1.0658456129e+02  -9.8708575854e+00    0.5397897    0.4328277  76.92  0.002482446    2.441    0.590
        11 -10.2131    243.6033    236.8396   1.0651377738e+02  -1.1803388234e+01     0.187155    0.1677451 -66.49 0.0008899035    1.880    0.468
        12 -10.6428    250.3210    246.1046   1.0691428207e+02  -1.3958185716e+01    0.2310421    0.1633483 -22.48 0.0008949367    1.410    0.291
        13 -11.2924    247.0043    241.8282   1.0676960508e+02  -1.2948439586e+01      0.29466    0.2610681 -49.36  0.001236482    1.738    0.425
        14 -11.4892    225.4542    243.4288   1.1090171393e+02  -9.8808464972e+00    0.3189581     0.265571  40.78  0.001256185    1.328    0.247
        15 -10.7975    201.7318    242.5100   1.1514988294e+02  -5.8927628375e+00    0.2683361    0.2209925 -70.00  0.001277437    1.838    0.456
        16 -10.1718    169.1287    242.6934   1.2139558965e+02  -3.2273695405e-01    0.2028163    0.1802487 -78.30  0.001315065    1.389    0.280
        17 -10.7325    240.3166    240.9808   1.0780956767e+02  -1.1847207495e+01    0.2418131    0.2192736  89.12  0.001010086    1.942    0.485
        18 -10.3219    214.2596    241.2309   1.1259894290e+02  -7.7839499166e+00    0.2101955    0.1870856  50.85 0.0008401836    1.381    0.276
        19 -10.7229    211.6560    227.7332   1.1081007615e+02  -5.3760650845e+00     0.278622    0.2214123 -42.50  0.001030087    1.479    0.324
        20 -10.5423    219.9428    240.4654   1.1141999988e+02  -8.5994458646e+00    0.2125204    0.1801058 -38.47 0.0009778586    1.449    0.310
        21 -11.6493    216.3869    234.1542   1.1101923051e+02  -7.1241616809e+00    0.4072221    0.3604962  66.40  0.001722676    1.571    0.363
        22 -10.8296    183.6219    240.0411   1.1820572746e+02  -2.4264176812e+00    0.3108126    0.2434434  87.75  0.001735944    1.948    0.487
        23 -10.6955    159.0634    238.9249   1.2279317033e+02   2.0628836343e+00    0.2875977    0.1902779 -67.09  0.001530127    2.058    0.514
        24  -9.9747    148.3170    240.6475   1.2512672368e+02   3.6560152873e+00    0.1330384   0.09175571  70.33 0.0006501839    1.740    0.425
        25 -11.9159    230.9869    236.8803   1.0879029719e+02  -9.8667080240e+00    0.4521357    0.3567223  69.68  0.002017203    2.264    0.558
        26 -11.5544    191.1753    235.7231   1.1606912873e+02  -3.0665201931e+00    0.5035159    0.3476035 -67.72  0.002610616    2.392    0.582
        27 -11.6431    205.2976    235.7321   1.1337214017e+02  -5.4959313432e+00    0.4270411    0.3514943  88.57  0.002160377    1.971    0.493
        28 -10.8397    176.5031    235.5883   1.1889082616e+02  -4.6767484579e-01    0.3561886     0.131383 -45.87  0.001470804    3.168    0.684
        29 -12.1188    247.8752    226.8695   1.0399936165e+02  -1.1122350716e+01    0.4317443    0.3405132  49.69  0.001612197    1.690    0.408
        30 -11.7969    240.6410    208.7171   1.0195418108e+02  -7.3801407783e+00    0.6186037    0.3537793 -53.71  0.002351026    2.872    0.652
        31 -10.9997    235.1890    203.5544   1.0196615796e+02  -5.6728982877e+00     0.328592    0.2167959 -37.74 0.0009948936    1.550    0.355
        32 -12.1188    238.6291    220.3297   1.0447501780e+02  -8.7632009739e+00    0.4490004    0.3841399 -60.16  0.001676687    1.768    0.434
        33 -11.6388    232.9702    213.1855   1.0419484474e+02  -6.7807130368e+00    0.4071368    0.2984481 -38.90  0.001790607    1.488    0.328
        34 -12.5464    247.9628    217.0777   1.0220273440e+02  -9.7779646197e+00    0.5906101    0.3625802 -39.17  0.002154311    1.754    0.430
        35 -11.5849    237.2385    198.1441   1.0054343632e+02  -5.1713701370e+00    0.5331047    0.2678153 -39.50  0.002514869    1.999    0.500
        36 -11.1603    247.3419    207.4699   1.0051448636e+02  -8.2861191291e+00    0.3997112    0.2425191 -47.29  0.001468274    2.083    0.520
        37 -11.5927    242.9178    201.0536   1.0007749248e+02  -6.5900021229e+00    0.4008432    0.3088611 -33.61  0.001346492    1.309    0.236
        38 -11.4834    236.9931    187.5413   9.8489207613e+01  -3.4115969048e+00    0.5019843    0.2588754 -39.89  0.002336935    1.912    0.477
        39 -11.0707    234.9784    181.8206   9.7699539798e+01  -2.0938007831e+00    0.4616046    0.2388241 -36.28  0.001422719    1.872    0.466
        40 -12.2024    241.5166    180.3794   9.6218958234e+01  -3.0304611767e+00    0.8348269    0.3045117 -43.58   0.00318973    2.841    0.648
        41 -11.2481    250.1990    200.4478   9.8662709820e+01  -7.6977243393e+00    0.4129429    0.1649803 -39.99  0.001794904    2.499    0.600
        42 -12.3917    245.8241    192.1983   9.7824516081e+01  -5.6967132614e+00    0.7477207    0.5178226 -55.30  0.003749366    2.041    0.510
        43  -9.9368    170.4782    234.9817   1.1997396599e+02   7.0125828140e-01    0.1793455    0.1321753 -47.81  0.001032051    1.591    0.372
        44 -10.9915    229.3263    228.3719   1.0761701613e+02  -8.4149812409e+00    0.2791913    0.2205675 -48.29  0.001131404    1.675    0.403
        45 -11.6796    248.3801    233.6942   1.0511999754e+02  -1.2107112904e+01    0.4614929    0.3305427  57.91  0.002624308    2.362    0.577
        46 -10.6300    223.3172    226.9329   1.0847621222e+02  -7.2212870826e+00     0.231562    0.2182109 -12.38 0.0008828466    1.234    0.190
        47 -10.7032    198.9719    227.0521   1.1312619101e+02  -3.0686446014e+00     0.276331    0.1951985 -50.85   0.00114151    1.757    0.431
        48 -10.0375    184.5091    227.9775   1.1610432576e+02  -6.4577292402e-01    0.1844751    0.1329041 -43.96  0.001031655    1.590    0.371
        49 -10.8392    205.9731    225.4855   1.1150658717e+02  -4.0489570421e+00    0.3221128    0.1942506 -45.82  0.001190759    1.951    0.487
        50 -10.5009    190.4842    226.0903   1.1461732132e+02  -1.4065659309e+00    0.3036798      0.13239 -43.93  0.001328598    2.600    0.615
        51  -9.7366    162.6304    227.2279   1.2032747721e+02   3.4409906683e+00    0.1719317    0.1272033 -37.41 0.0009502168    1.619    0.382
        52 -11.2339    217.0262    223.6666   1.0908047605e+02  -5.6754188824e+00     0.358701     0.269516 -61.46  0.001450085    2.045    0.511
        53 -10.3235    180.4473    223.4551   1.1615935181e+02   8.4797180205e-01    0.2509377    0.1342596 -45.95  0.001191682    2.127    0.530
        54 -11.9064    227.7008    220.8454   1.0657485589e+02  -7.0507614614e+00    0.4164661    0.3951208 -81.72  0.002186882    1.511    0.338
        55  -9.6390    174.5855    222.7905   1.1722031857e+02   2.0347228954e+00    0.1762846    0.1308753 -62.43  0.000950538    1.704    0.413
        56 -10.1908    185.7629    221.5361   1.1477926390e+02   2.0464438631e-01    0.2584597    0.1578262 -56.27  0.001253676    2.159    0.537
        57 -11.0742    202.2495    218.8525   1.1106618696e+02  -2.3326874695e+00    0.3695437    0.2408262 -45.25  0.001536406    1.751    0.429
        58 -11.0229    193.4258    219.0866   1.1283933990e+02  -7.7865789079e-01    0.3552644    0.2564614 -58.85  0.001773307    1.833    0.454
        59 -10.8848    210.8498    218.6123   1.0935799329e+02  -3.8206945139e+00    0.3268105     0.189951 -46.50  0.001200951    2.027    0.507
        60 -11.8403    217.6532    213.3490   1.0709883899e+02  -4.1797920315e+00    0.5747383    0.3512319 -52.70  0.002810937    2.238    0.553
        61 -10.2546    170.5596    216.7912   1.1703618976e+02   3.8436860058e+00    0.3037585    0.1373648 -49.56   0.00128461    2.531    0.605
        62  -9.9627    179.3961    217.1880   1.1531242937e+02   2.1272527995e+00    0.1788407    0.1314441 -59.95 0.0009448932    1.698    0.411
        63  -9.5035    185.6754    215.3392   1.1372899705e+02   1.2849792916e+00    0.1351837    0.1065913  75.73 0.0007051218    1.725    0.420
        64 -10.7884    222.6398    201.0545   1.0383183703e+02  -3.0752990260e+00    0.3883533    0.2958367  75.57  0.001754178    2.219    0.549
        65 -10.2434    226.0600    213.4297   1.0552456407e+02  -5.6489631275e+00    0.2243008    0.1811377 -48.22 0.0008685495    1.536    0.349
        66 -11.1313    225.6212    207.6831   1.0453251095e+02  -4.6730790603e+00    0.3554519    0.3405821  87.02  0.001509326    1.403    0.287
        67 -10.3741    209.8543    212.3436   1.0841394387e+02  -2.6335687135e+00    0.2113989    0.1902407 -44.70 0.0008860695    1.301    0.231
        68 -10.3024    192.9567    210.2336   1.1136043647e+02   8.1865024374e-01     0.234923    0.1963878 -78.55  0.001199582    1.634    0.388
        69 -10.2790    176.8070    210.7418   1.1472253442e+02   3.7665209484e+00    0.2689328    0.1962003 -59.67  0.001403219    1.670    0.401
        70  -9.8842    160.7592    211.0038   1.1807963483e+02   6.7587198854e+00     0.175659     0.119685 -49.76   0.00088849    1.628    0.386
        71 -10.4937    205.9533    207.8576   1.0834690587e+02  -1.1800651996e+00    0.2343439    0.1989844 -31.13  0.001121867    1.240    0.194
        72 -10.5566    197.5437    204.2773   1.0934716248e+02   1.0004117864e+00    0.2825165    0.2290559 -31.39   0.00122942    1.306    0.235
        73 -10.1068    186.8675    203.5247   1.1136634776e+02   3.1640537412e+00    0.2667508    0.1874923 -64.26  0.001252845    1.941    0.485
        74  -9.7627    178.7742    204.0342   1.1312178320e+02   4.6250156318e+00     0.179407    0.1178204 -45.83 0.0008763174    1.660    0.398
        75 -10.8786    210.4482    201.3081   1.0623141404e+02  -8.9617981797e-01    0.3565688    0.2368352 -61.53  0.001566168    2.305    0.566
        76 -10.5858    217.4243    204.9115   1.0556594446e+02  -2.7736734240e+00    0.2883533    0.2120804 -43.00  0.001002651    1.494    0.331
        77 -10.8999    230.2148    180.5629   9.8322387428e+01  -1.0034323135e+00    0.3774891    0.1840577 -36.07  0.001171717    2.019    0.505
        78 -11.0990    230.9830    193.6636   1.0081835080e+02  -3.3506748638e+00    0.4730756    0.2259305 -36.54  0.001612599    2.082    0.520
        79 -11.0151    230.0531    187.2431   9.9710658646e+01  -2.1126460021e+00    0.3342665    0.2445115 -45.41  0.001041921    1.489    0.329
        80 -11.2100    228.5052    199.6565   1.0245470716e+02  -3.8906555620e+00    0.4601337     0.360758 -70.59  0.002440551    2.058    0.514
        81 -11.1471    224.1596    192.6174   1.0189385080e+02  -1.9440275358e+00    0.4004143    0.2571912 -47.86    0.0012025    1.778    0.438
        82 -10.4185    215.4208    197.7496   1.0457746744e+02  -1.2084360704e+00    0.2916878    0.1596878 -45.19  0.001156032    1.997    0.499
        83 -10.5308    202.1049    197.3948   1.0712923588e+02   1.3530760298e+00    0.2662271     0.206866 -49.30  0.001135718    1.449    0.310
        84 -10.2163    219.5490    194.4881   1.0314341079e+02  -1.4146722883e+00    0.2517209    0.1858874 -54.98 0.0009813376    1.714    0.417
        85 -10.2326    209.2274    194.5046   1.0515443547e+02   5.1122447315e-01    0.2518415    0.1888891 -38.94 0.0007957969    1.383    0.277
        86  -9.8927    194.2853    194.4580   1.0813953748e+02   3.3906524282e+00    0.2325685     0.175138 -66.68  0.001154585    1.792    0.442
        87 -10.8929    215.1418    190.4722   1.0320006559e+02   1.0040716442e-01    0.4266802    0.1888691 -39.30  0.001758791    2.302    0.566
        88  -9.9649    198.8358    191.0999   1.0656049834e+02   3.1208078057e+00    0.2103303     0.194586 -83.50 0.0008751195    1.304    0.233
        89  -9.4937    185.2748    190.6434   1.0925548672e+02   5.8792530939e+00    0.1412145    0.1147201 -88.78 0.0003804893    1.649    0.394
        90 -10.0165    210.4442    189.0581   1.0383742587e+02   1.2437894515e+00    0.2074671    0.1358637 -41.51 0.0008016595    1.576    0.365
        91 -10.1927    220.4466    188.0111   1.0168292851e+02  -4.6838912028e-01     0.256944    0.1298471 -43.94 0.0009237835    2.073    0.518
        92 -10.0960    217.9449    183.6996   1.0129229386e+02   7.6084988371e-01    0.2393717    0.1888302 -46.08 0.0008760273    1.366    0.268
        93 -12.2316    238.8396    160.7970   9.2603583062e+01   8.1912616281e-01     1.176485    0.5901439 -58.80  0.003941264    4.057    0.753
        94 -12.0259    248.8393    181.3013   9.5108359974e+01  -4.4679425213e+00     1.097586    0.2873817 -45.19  0.003285256    4.898    0.796
        95 -12.7269    235.0054    146.7226   9.0226480647e+01   4.0853539508e+00      1.18185    0.7158862 -56.16  0.005218323    2.042    0.510
        96 -14.3056    233.9555    132.7726   8.7295915394e+01   6.8458143842e+00      3.11534    0.9092939 -47.99  0.009038389    4.122    0.757
        97 -11.0150    242.6328    248.3290   1.0863472483e+02  -1.3119472198e+01    0.2436328    0.2026463  28.61 0.0008725276    1.258    0.205
        98 -13.3747    242.8221    136.8993   8.6710843652e+01   4.2912237938e+00     2.825752    0.4275921 -44.81  0.005913679    8.037    0.876
        99 -11.4100    233.3724    247.3050   1.1011179129e+02  -1.1611286638e+01     0.329104    0.2340335  38.98  0.001246747    1.375    0.273
       100  -9.5783    192.5129    173.4996   1.0428365505e+02   7.7373858175e+00    0.1465631    0.1416987  20.66 0.0008105565    1.001    0.001
       101 -10.7271    237.2791    169.3339   9.4693012640e+01  -3.7825062295e-01    0.3743944    0.2101118 -45.80   0.00116104    1.852    0.460
       102 -10.7999    233.8914    164.0949   9.4197154947e+01   1.1832248657e+00    0.4171809    0.2189303 -51.71  0.001435536    2.345    0.574
       103 -10.4797    231.2573    159.4043   9.3670027481e+01   2.5336645820e+00    0.2761174    0.1924222 -22.12 0.0008325231    1.551    0.355
       104 -10.4415    205.2546    169.5235   1.0083908300e+02   5.8844189190e+00    0.3451675    0.1964554 -51.82  0.001332732    2.020    0.505
       105  -9.2346    200.6696    171.7064   1.0222871522e+02   6.4057902678e+00    0.1496317    0.1139834   7.38 0.0005333694    1.631    0.387
       106 -11.0494    218.7710    168.2891   9.7920072006e+01   3.3850325554e+00     0.396026    0.2771449 -45.53  0.001358625    1.465    0.317
       107 -10.9914    176.2607    247.1787   1.2069192705e+02  -2.2622315846e+00    0.2824059    0.2522936 -66.22  0.001739859    1.412    0.292
       108 -10.4416    229.1070    166.0896   9.5500327618e+01   1.7516940028e+00    0.3052942    0.1908306 -41.79 0.0009285016    1.561    0.360
       109 -10.3074    191.5067    165.5342   1.0280140308e+02   9.5261610788e+00    0.3122582    0.1473292 -43.51  0.001204567    2.145    0.534
       110  -9.7177    184.5842    165.7617   1.0431226447e+02   1.0946481219e+01    0.2115967    0.1434601 -54.90 0.0009469583    1.636    0.389
       111 -10.9671    212.9399    163.0473   9.7923527534e+01   5.5404303413e+00    0.4277237    0.2101857 -41.13  0.001442033    2.001    0.500
       112 -10.5996    205.1917    161.6465   9.9153044096e+01   7.4128142769e+00    0.3386969    0.2113158 -49.82  0.001328483    1.712    0.416
       113 -10.2887    221.1793    161.7143   9.6046821072e+01   4.1159948482e+00    0.2531604    0.1892934 -47.03 0.0008459386    1.374    0.272
       114  -9.8188    176.5904    159.7854   1.0474316836e+02   1.3893526499e+01    0.2199942    0.1451393 -55.63 0.0009543865    1.672    0.402
       115 -10.9080    226.5800    157.3748   9.4090109933e+01   3.8305523636e+00    0.3992817      0.22982 -43.62  0.001299154    1.699    0.411
       116 -10.8643    228.2721    150.8463   9.2346484900e+01   4.6893113829e+00    0.5409154    0.2055729 -33.85  0.001867863    2.897    0.655
       117 -10.3151    197.0406    157.1974   9.9829945947e+01   1.0013816260e+01    0.3302166    0.2133044 -46.34  0.001438723    1.568    0.362
       118 -11.0741    221.3845    153.7409   9.4263659222e+01   5.5581327555e+00    0.6469076    0.1946015 -44.76  0.002040581    3.379    0.704
       119 -10.3547    216.2064    156.4793   9.5853850389e+01   6.1103832466e+00    0.2757673    0.1982297 -41.45  0.000855503    1.357    0.263
       120  -9.8278    187.4965    156.0057   1.0155911093e+02   1.2314405012e+01    0.2370367    0.1498855 -43.22  0.001032639    1.589    0.371
       121  -9.8858    199.4780    164.9704   1.0103181656e+02   7.9609814743e+00    0.2298403    0.1449697 -43.25  0.001030344    1.594    0.373
       122  -9.8875    205.5562    154.0343   9.7399689635e+01   8.8179691643e+00    0.2298501    0.1439783 -41.20  0.001019854    1.571    0.364
       123 -10.7535    223.9337    183.9745   1.0020087562e+02  -4.2115250644e-01    0.3114684    0.1961496 -46.60  0.001028152    1.726    0.421
       124 -10.6603    215.3595    149.0110   9.4355363267e+01   7.7085760633e+00    0.3639203    0.2311999 -60.64  0.001224441    2.083    0.520
       125  -9.8412    196.5204    150.0534   9.8335305063e+01   1.1557298278e+01    0.2341276    0.1482991 -41.37 0.0009781815    1.567    0.362
       126 -10.2924    225.6497    179.1832   9.8894242261e+01   9.2010008903e-02    0.2669025    0.1638136 -40.45 0.0007120832    1.616    0.381
       127  -9.4911    191.2901    148.6390   9.9099027016e+01   1.2990846319e+01    0.1571134    0.1214697 -78.30 0.0007026567    1.694    0.410
       128 -11.0044    223.4404    146.3862   9.2243575052e+01   6.5106772173e+00    0.3461395    0.2870122 -30.51  0.001175938    1.171    0.146
       129 -10.3719    207.9787    144.8740   9.4851266715e+01   1.0089670207e+01     0.273606    0.2155935 -41.30  0.001006258    1.237    0.191
       130  -9.9320    200.2038    145.1926   9.6474805625e+01   1.1724672455e+01     0.212782    0.1799771 -69.92  0.000774273    1.349    0.259
       131  -9.8672    218.5048    144.1249   9.2655961089e+01   7.9749214999e+00    0.2236756    0.1411523 -38.62 0.0007063194    1.526    0.345
       132 -10.2996    214.0229    142.4434   9.3124343573e+01   9.2550300830e+00    0.2925257    0.1960926 -52.97 0.0008044165    1.603    0.376
       133 -10.0884    138.5233    143.5098   1.0992566991e+02   2.5658421988e+01    0.1549474    0.1493454 -89.30 0.0008101483    1.003    0.003
       134  -9.9783    181.5810    141.7769   9.9579704951e+01   1.6571490085e+01    0.2246978    0.1456131 -54.30 0.0009486157    1.668    0.400
       135 -10.5770    224.1990    140.0071   9.0666858246e+01   7.5486189860e+00    0.3448011    0.1990248 -38.97 0.0009627974    1.647    0.393
       136 -11.2972    218.4622    137.9538   9.1258269181e+01   9.1598591665e+00    0.3496563    0.2636683 -46.54  0.001113265    1.294    0.227
       137 -10.5326    208.6119    137.8822   9.3118085454e+01   1.1319696860e+01    0.3382925    0.2223733 -47.88  0.001233873    1.520    0.342
       138  -9.8902    172.5775    137.8080   1.0062064392e+02   1.9441979108e+01    0.2294147    0.1469748 -55.36  0.000952105    1.700    0.412
       139  -9.7291    192.5053    136.9620   9.6135714685e+01   1.5101472395e+01    0.2373738    0.1505974 -42.33 0.0007057584    1.555    0.357
       140 -11.0160    225.6755    133.5809   8.8936689926e+01   8.4404435691e+00    0.4117658    0.2512061 -40.30  0.001095987    1.544    0.352
       141  -9.6176    187.5195    135.4837   9.6827393974e+01   1.6534577650e+01    0.1542433    0.1510247 -71.41 0.0008100876    1.017    0.016
       142 -10.4545    179.5406    132.3125   9.7774522313e+01   1.9015934719e+01    0.3018733    0.1499507 -47.31  0.001127427    2.036    0.509
       143 -10.7293    205.8213    130.8608   9.2016662023e+01   1.3318383966e+01    0.2839123    0.1982856 -46.10 0.0009431299    1.400    0.286
       144 -11.3520    211.8866    128.6546   9.0332442475e+01   1.2389586739e+01     0.358063    0.2237822 -55.10  0.001523288    1.778    0.438
       145 -10.1870    192.5364    129.2298   9.4285476218e+01   1.6665491819e+01     0.294874    0.1473744 -45.56  0.001078893    1.983    0.496
       146 -10.2929    198.5690    136.7892   9.4854160785e+01   1.3770586225e+01    0.2884445     0.148373 -38.18  0.001114117    1.965    0.491
       147 -10.1237    179.6046    124.2129   9.5783686713e+01   2.0687514141e+01    0.3106987     0.147333 -45.88  0.001135141    2.105    0.525
       148 -11.1481    212.4659    122.0275   8.8654543104e+01   1.3537220469e+01      0.40403    0.1824183 -37.27  0.001504871    2.212    0.548
       149  -9.9595    187.9752    123.0087   9.3714339455e+01   1.8983248795e+01    0.2510917    0.1900852 -73.90 0.0008815875    1.635    0.389
       150 -10.4940    203.4126    183.8145   1.0418118730e+02   3.5654970594e+00    0.3128486    0.2176185 -51.85  0.001275045    1.633    0.388
       151  -9.9261    194.4445    121.0291   9.1903877400e+01   1.7874327428e+01    0.2438344    0.1491208 -42.54  0.001027946    1.599    0.375
       152  -9.1510    189.6545    185.3041   1.0729266754e+02   6.0271374739e+00     0.145409    0.1157894  80.25   0.00070409    1.690    0.408
       153  -9.9682    194.8637    113.2807   8.9906063893e+01   1.9311808329e+01    0.3120391     0.161125 -51.21  0.001115379    2.089    0.521
       154 -10.7309    210.9306    182.3682   1.0238979729e+02   2.3544011603e+00    0.3216816    0.2066161 -39.70  0.001277985    1.574    0.365
       155  -9.9839    183.4870    183.0315   1.0812824172e+02   7.7143943428e+00    0.2214246    0.1455137 -45.47  0.001031949    1.593    0.372
       156  -9.5012    197.2946    182.6480   1.0518433561e+02   5.0007733001e+00    0.1428604    0.1165851 -86.20 0.0004413515    1.683    0.406
       157  -9.4310    196.2969    107.6419   8.8215566797e+01   2.0072011971e+01    0.1626595    0.1181042 -72.28 0.0007033906    1.703    0.413
       158  -9.5434    176.6006    181.7854   1.0934224062e+02   9.3654677680e+00    0.2054218    0.1409805 -57.48 0.0009479401    1.675    0.403
       159 -10.0580    205.5262    104.9648   8.5799792508e+01   1.8397023943e+01    0.2366776    0.1459987 -40.70  0.001025513    1.572    0.364
       160 -10.0716    190.8719    179.5382   1.0587456238e+02   6.8945769120e+00    0.2927596    0.1930317 -59.63  0.001309654    1.921    0.479
       161 -10.6531    219.1003    177.8259   9.9862137317e+01   1.5864983153e+00    0.3565328    0.1954692 -39.88  0.001322557    1.809    0.447
       162 -10.0237    205.0253    177.0461   1.0246768642e+02   4.5064800531e+00    0.2199568    0.1813015 -80.32 0.0008169984    1.641    0.391
       163 -10.0948    197.5249    176.5531   1.0388604589e+02   6.1163441353e+00    0.2865159    0.1433762 -43.50  0.001066506    2.045    0.511
       164 -10.1407    195.4825     97.0301   8.5687049551e+01   2.2289258586e+01    0.2414329    0.1489438 -39.90  0.001036432    1.602    0.376
       165 -10.0292    210.4457    175.7104   1.0111006501e+02   3.6722005242e+00    0.2621328    0.1371208 -45.44 0.0008267956    1.988    0.497
       166  -9.7017    188.4928     92.5117   8.5866026707e+01   2.4830550047e+01    0.1537837     0.147071 -81.19 6.887069e-05    1.004    0.004
       167 -11.2398    210.1152     90.8737   8.1489711948e+01   1.9903192636e+01    0.2404808    0.1963523 -67.96 0.0007178998    1.252    0.201
       168  -9.7569    182.4035    176.2123   1.0697370437e+02   9.2905997306e+00    0.2095943    0.1410263 -56.44 0.0009473169    1.707    0.414
       169  -9.9354    203.2878     90.3436   8.2552427934e+01   2.1635784530e+01    0.1484119    0.1215385   9.79 0.0003694057    1.648    0.393
       170 -10.8996    205.9830     84.5449   8.0619946842e+01   2.2019270763e+01     0.245263    0.1912433 -43.16 0.0008402506    1.256    0.204
       171  -9.8615    200.6437     83.3063   8.1235291402e+01   2.3532946366e+01    0.1599942     0.113062 -76.61 0.0007041201    1.722    0.419
       172 -10.6369    232.8628    174.6480   9.6609631712e+01  -4.7432608780e-01    0.3115802    0.2131617 -33.50  0.001022252    1.402    0.287
       173 -11.7693    215.1082     79.8053   7.7929756289e+01   2.0648646770e+01    0.3173788    0.2090296 -33.94 0.0009547976    1.589    0.371
       174 -10.8477    201.2629     77.9824   7.9767946332e+01   2.4307896108e+01    0.2169412    0.1872051 -47.54 0.0009473192    1.145    0.127
       175 -11.7892    211.2698     76.0761   7.7624260844e+01   2.2201500169e+01    0.3208933    0.1976592 -31.20  0.001106793    1.792    0.442
       176  -9.7887    233.2181    169.9639   9.5563787451e+01   2.7628182641e-01    0.2139854    0.1387741 -37.93 0.0006445455    1.475    0.322
       177 -11.3113    225.3219    173.3162   9.7735893281e+01   1.1918849952e+00    0.3860118    0.2956394 -47.68  0.001397143    1.399    0.285
       178 -11.1277    221.9994     70.9769   7.4729159777e+01   2.0483692435e+01    0.2224526    0.2020823 -63.05 0.0006454417    1.050    0.047
       179  -9.6174    163.3052     71.3351   8.5194449896e+01   3.4818444984e+01     0.153141    0.1184764  18.61 0.0003626337    1.668    0.400
       180 -11.7548    218.4557     68.0085   7.4535713061e+01   2.1806572962e+01     0.257409    0.1835443 -33.86 0.0007847134    1.489    0.329
       181 -10.2694    203.2820     65.9963   7.6375955135e+01   2.5807933070e+01    0.2120554    0.1844705 -51.90 0.0007767546    1.133    0.117
       182  -9.9211    208.3634     64.1418   7.5108278381e+01   2.4861415249e+01    0.2143041    0.1208652 -48.23 0.0008195462    1.743    0.426
       183 -10.9022    212.4698     65.9999   7.4941413174e+01   2.3567793802e+01    0.2180886    0.1387138 -38.21  0.000805702    1.576    0.365
       184 -10.3948    206.7405     58.5924   7.3966905648e+01   2.6126236201e+01    0.2529484     0.180451 -25.00   0.00120853    1.690    0.408
       185 -10.3304    217.2751     57.3625   7.2128057861e+01   2.3759420413e+01    0.1341716    0.1124784  19.08 0.0007005956    1.663    0.399
       186 -12.3320    225.9359     44.5781   6.7962767344e+01   2.3577213988e+01    0.2972953     0.217842  20.81  0.001464018    2.309    0.567
       187 -10.2521    163.4977    247.4758   1.2316363932e+02  -1.1238676964e-01    0.2009854    0.1233976 -64.82  0.001034363    2.372    0.578
       188 -11.6897    228.2066     36.9691   6.5949584125e+01   2.4097683608e+01    0.2885965    0.1851348  29.23  0.001282882    2.930    0.659
       189  -9.4145    166.3121    186.6378   1.1250971549e+02   1.0473879019e+01    0.1516418    0.1153097  84.30 0.0007040992    1.752    0.429
       190 -10.0979    246.2901     26.3286   6.1751940704e+01   2.1379716099e+01    0.1129968   0.09879704  40.31 0.0003549059    1.620    0.383
