#   1 NUMBER                 Running object number                                     
#   2 MAG_AUTO               Kron-like elliptical aperture magnitude                    [mag]
#   3 X_IMAGE                Object position along x                                    [pixel]
#   4 Y_IMAGE                Object position along y                                    [pixel]
#   5 X_WORLD                Barycenter position along world x axis                     [deg]
#   6 Y_WORLD                Barycenter position along world y axis                     [deg]
#   7 A_WORLD                Profile RMS along major axis (world units)                 [deg]
#   8 B_WORLD                Profile RMS along minor axis (world units)                 [deg]
#   9 THETA_WORLD            Position angle (CCW/world-x)                               [deg]
#  10 FWHM_WORLD             FWHM assuming a gaussian core                              [deg]
#  11 ELONGATION             A_IMAGE/B_IMAGE                                           
#  12 ELLIPTICITY            1 - B_IMAGE/A_IMAGE                                       
         1 -14.7180    155.8863     45.5026   8.6346804016e+01   4.0759840450e+01      1.26876     1.063986 -15.94  0.003665009    1.230    0.187
         2 -14.6680    166.3586     13.7493   7.3710332162e+01   4.1996593630e+01    0.9924757    0.9739074  22.11  0.003628716    1.057    0.054
         3 -12.6948    189.1105     14.1450   7.0647679921e+01   3.5993261511e+01     0.382327    0.2513562 -60.82  0.001310088    1.695    0.410
         4 -12.1998     59.4254      3.8619   9.5481563240e+01   6.6715393682e+01    0.2068701    0.1365753  31.57  0.001240017    1.461    0.315
         5 -11.6007    146.7277    243.9231   1.3151014853e+02   7.2939864077e+00     0.250939    0.1974919  43.34  0.001536528    1.112    0.101
         6 -13.5141    187.6031    250.5299   1.2551692940e+02   2.3458277342e-02     1.017572    0.1929524  41.17  0.003656726    4.203    0.762
         7 -12.5881    181.5173    250.1074   1.2646195816e+02   1.0258638498e+00    0.2494136    0.1497838  40.35  0.001621469    1.258    0.205
         8 -20.0764     97.8850    228.8218   1.3824951970e+02   1.7002277115e+01     7.796513     5.434228  66.00   0.04683449    1.206    0.171
         9 -12.9236    203.6360    172.3700   1.1010116620e+02   7.8215552480e+00    0.6452689    0.4399999 -25.91  0.002672384    1.600    0.375
        10 -14.1201    195.4921    170.5495   1.1127868699e+02   9.7072478276e+00    0.9014573    0.4946842 -52.08  0.002409963    2.464    0.594
        11 -12.4197    218.8540    178.4093   1.0850504438e+02   4.0105865090e+00    0.2693743    0.1695254 -11.04  0.001333191    1.964    0.491
        12 -12.6412    196.5629    234.5630   1.2187417934e+02   4.7623825424e-01    0.2176996    0.1785261  44.16  0.000718087    1.187    0.158
        13 -11.8017     12.7407    241.1449   1.5266724584e+02   2.5314709167e+01     0.176879    0.1210211 -82.10  0.001513491    1.481    0.325
        14 -12.4236    185.7755    168.3918   1.1272974124e+02   1.1989306142e+01     0.299193    0.2555865 -21.11  0.001562159    1.262    0.208
        15 -12.2373    230.2623    167.1687   1.0423587462e+02   3.4643317903e+00    0.3839496     0.162122 -42.42  0.001572901    2.804    0.643
        16 -10.5008      4.8422    233.4579   1.5350239822e+02   2.7326223156e+01       0.1127   0.07138317  55.65 0.0002913233    1.309    0.236
        17 -11.2418    222.1805    161.4131   1.0446878270e+02   5.8595041038e+00    0.2811867    0.2096092 -53.45  0.001074393    1.796    0.443
        18 -12.3605    151.1735    238.6049   1.3013966437e+02   7.3229234617e+00    0.2873569    0.1909578  31.72 0.0009822637    1.562    0.360
        19 -14.7265    134.2231    146.9566   1.1929339894e+02   2.6278935966e+01     1.537555    0.4895784 -55.74  0.004683808    4.163    0.760
        20 -10.5153     22.9849    156.2659   1.4567227945e+02   4.0147735220e+01    0.1529604    0.1208233  80.73 0.0004200896    1.085    0.078
        21 -11.4824    191.8903    153.9491   1.0856598367e+02   1.3192612498e+01    0.3670162    0.2537822  -8.70  0.001715603    1.923    0.480
        22 -15.4218    143.6306    143.9131   1.1656182542e+02   2.5049594823e+01     1.063374    0.8624258 -68.05  0.004591503    1.350    0.259
        23 -14.3162    155.1936    147.5544   1.1478281056e+02   2.1985501630e+01    0.6412135    0.4544492  63.49  0.003105526    1.601    0.376
        24 -14.3898    157.2501    151.5400   1.1516823301e+02   2.0795425570e+01    0.7540907    0.4798253  18.16  0.003094396    2.579    0.612
        25 -12.1890    134.5656    105.7840   1.0975994747e+02   3.4795798884e+01     0.530837    0.1413003 -46.21  0.001523643    3.744    0.733
        26 -10.6437    182.5208    149.4834   1.0947170561e+02   1.5932338574e+01    0.2387894    0.1352347 -51.11  0.000744187    2.097    0.523
        27 -13.3617    174.0533    148.5043   1.1099180559e+02   1.7889964389e+01    0.4836135    0.3671299 -57.80  0.001637561    1.534    0.348
        28 -19.0358     81.0278     89.4563   1.1993414486e+02   4.8175016214e+01     17.69371    0.7007442 -51.97   0.02277885   21.752    0.954
        29 -13.0639     28.2568    145.2621   1.4347924721e+02   4.2001560853e+01    0.4514467    0.3382153 -35.41   0.00295175    1.977    0.494
        30 -11.1223     28.3363    237.3790   1.5018355631e+02   2.4326487085e+01    0.1280516   0.08794917  80.38 0.0003529238    1.146    0.127
        31 -12.2896    176.3452    142.9089   1.0929297012e+02   1.8434517556e+01    0.2545644    0.2023343  58.39 0.0007331112    1.328    0.247
        32 -14.1826    135.9792    128.8124   1.1502898689e+02   2.9694307284e+01     2.112705    0.3469733 -50.51  0.004192951    8.683    0.885
        33 -12.1553     21.7125    235.2734   1.5107856432e+02   2.5366704159e+01    0.1701064    0.1090373  89.54  0.001084156    1.309    0.236
        34 -10.4566     24.1469    216.2282   1.4970319812e+02   2.8371363863e+01    0.1298657   0.09962862  74.44 0.0002940751    1.152    0.132
        35 -13.5798    160.5074    128.3864   1.0934593590e+02   2.4622275351e+01    0.4991873    0.4315502 -46.62    0.0018065    1.179    0.152
        36 -13.0748     11.4355    205.9319   1.5122083240e+02   3.1469634470e+01    0.3584564      0.24703  34.64  0.002135915    1.909    0.476
        37 -11.9433    142.1026    121.3660   1.1185571513e+02   2.9978729746e+01    0.4267788     0.244525  66.54  0.001508474    2.661    0.624
        38 -10.9235     24.8244    202.8642   1.4879579504e+02   3.0722653061e+01    0.1431164    0.1092902  85.33 0.0002777093    1.150    0.131
        39 -11.5547     36.8706    116.4906   1.3782845034e+02   4.7537853370e+01    0.1937178    0.1429469 -55.24 0.0005654244    1.306    0.234
        40 -12.5425    108.0007    114.8553   1.1871141448e+02   3.8068107260e+01    0.3650847    0.2090088 -51.67 0.0009153524    1.664    0.399
        41  -9.8531     13.3073    236.2110   1.5237392978e+02   2.6059439688e+01   0.07561621   0.06398202  67.53 0.0003160061    1.463    0.316
        42 -12.2783     26.7534    194.7154   1.4792791193e+02   3.2056955221e+01    0.2063302    0.1537989  70.03 0.0004952457    1.102    0.093
        43 -10.4297     20.9643    194.8450   1.4895961185e+02   3.2611971030e+01    0.1391853    0.1097812  87.53 0.0003263671    1.192    0.161
        44 -10.9116    205.4346    110.1606   9.5627417843e+01   1.7763365581e+01    0.3273287    0.2105368  41.25 0.0009543195    1.598    0.374
        45 -10.9561     35.4811    103.1030   1.3610236477e+02   5.0680852144e+01    0.1775564    0.1624537 -31.17  0.001245869    1.337    0.252
        46 -13.6709    210.1799    187.6602   1.1182371517e+02   4.3031373343e+00    0.8259185    0.3327419 -48.65  0.003086427    4.005    0.750
        47 -10.4047     41.6948     91.9539   1.3226980738e+02   5.2580951714e+01    0.1778456    0.1372618 -62.80 0.0004940796    1.061    0.058
        48 -10.1565    107.8160     82.8298   1.1039978580e+02   4.4970863272e+01    0.1868363    0.1670913 -78.69 0.0002677697    1.264    0.209
        49 -11.0614    141.8142     80.8535   1.0094398288e+02   3.8177536892e+01     0.235084    0.2101551   5.60 0.0005930274    1.209    0.173
        50 -12.2353    201.0902    164.9406   1.0908756918e+02   9.4957308211e+00    0.4547246    0.3161143 -49.37  0.001534653    1.727    0.421
        51 -14.3661    145.4776     60.2111   9.3536160638e+01   4.1021390731e+01     1.127814    0.8779146  -5.74  0.001008524    1.473    0.321
        52 -10.9933    155.9144    247.2814   1.3035862210e+02   5.4032577707e+00     0.159836    0.1410159  52.27  0.000328114    1.169    0.144
        53 -13.2933    159.4317     36.3346   8.2543337694e+01   4.1137756785e+01    0.4707322    0.4373178   1.32 0.0008513154    1.096    0.088
        54 -11.0959     13.3567     59.8613   1.3481719794e+02   6.1883997349e+01    0.1628408    0.1522323 -83.64 0.0004820813    1.273    0.215
        55 -11.3880     26.5839     58.7121   1.2978256183e+02   6.1166961684e+01    0.3149591    0.1888307   0.31  0.001674291    2.366    0.577
        56 -10.7722     15.5793    246.8270   1.5249682203e+02   2.4127717105e+01    0.1379724   0.06114133  80.40 0.0009403835    1.863    0.463
        57 -13.5197    206.9529    177.7480   1.1053712665e+02   6.3606376335e+00    0.5814944    0.4197262  23.32  0.002626159    1.384    0.277
