#   1 NUMBER                 Running object number                                     
#   2 MAG_AUTO               Kron-like elliptical aperture magnitude                    [mag]
#   3 X_IMAGE                Object position along x                                    [pixel]
#   4 Y_IMAGE                Object position along y                                    [pixel]
#   5 X_WORLD                Barycenter position along world x axis                     [deg]
#   6 Y_WORLD                Barycenter position along world y axis                     [deg]
#   7 A_WORLD                Profile RMS along major axis (world units)                 [deg]
#   8 B_WORLD                Profile RMS along minor axis (world units)                 [deg]
#   9 THETA_WORLD            Position angle (CCW/world-x)                               [deg]
#  10 FWHM_WORLD             FWHM assuming a gaussian core                              [deg]
#  11 ELONGATION             A_IMAGE/B_IMAGE                                           
#  12 ELLIPTICITY            1 - B_IMAGE/A_IMAGE                                       
         1 -16.9590    237.8306     90.4452   4.7775017183e+01   1.4906477598e+01     6.962642     2.131509 -39.12   0.02630217    2.842    0.648
         2  -9.9479     40.7826     14.3841   7.0529606622e+01   6.8193663956e+01    0.1623487   0.09390851  26.41 0.0002817734    1.587    0.370
         3 -10.6886    162.9265    225.1469   8.8885031505e+01   3.8941429109e+00    0.2374761    0.1970553 -12.27  0.001414186    1.291    0.225
         4 -10.1735     99.5222    225.5165   1.0279982884e+02   1.3933259010e+01    0.1342217    0.1158074  53.84 0.0001053033    1.018    0.018
         5 -10.2823    126.0423    220.6900   9.6238684513e+01   1.0737920591e+01    0.1938899    0.1595446  40.74 0.0005082771    1.084    0.078
         6 -10.2194    199.0000    214.9187   7.9789391136e+01  -6.3594949902e-02    0.2019934   0.07151399 -42.68  0.000754616    2.901    0.655
         7 -11.2054    185.9536    214.0062   8.2248846318e+01   2.1549807718e+00    0.2886944    0.1952014 -49.43  0.001111867    1.714    0.417
         8 -11.5715    217.5554    209.8227   7.5327270744e+01  -2.0523058083e+00    0.3029888    0.1175706 -42.81  0.001298117    2.624    0.619
         9 -11.8530    185.9284    203.5478   8.0410106352e+01   4.0213102540e+00    0.3740816    0.2007374 -47.90  0.001542896    2.042    0.510
        10 -10.8253    198.4940    203.4989   7.7858474079e+01   1.9669891545e+00    0.2697724     0.126885 -42.48   0.00120538    2.149    0.535
        11 -11.9005    164.6870    201.0339   8.4470644616e+01   8.1123473702e+00    0.5948431    0.3069504 -50.47  0.002577301    2.134    0.531
        12 -11.3486    162.2897    193.6156   8.3663258956e+01   1.0000510589e+01    0.3468161    0.2534275 -68.72  0.001692435    1.851    0.460
        13 -10.7477     88.9934    199.2566   1.0182745425e+02   2.1249099733e+01    0.2541983    0.1332369  75.18 0.0008920108    3.462    0.711
        14 -10.3296    149.3231    198.6596   8.7474281697e+01   1.1271213568e+01    0.1443615    0.1112575  72.49 0.0004282431    1.724    0.420
        15 -11.0231    124.4391    197.9865   9.3135022710e+01   1.5747149915e+01    0.2662047     0.177653  56.49  0.001263225    1.636    0.389
        16 -10.0958    203.2097    197.2115   7.5772297175e+01   2.3010672915e+00    0.2043493    0.1018232 -50.76 0.0008693394    2.477    0.596
        17 -10.3271    112.3549    197.6749   9.5966112406e+01   1.7861209110e+01     0.153094    0.1042541  66.82 0.0007046309    1.768    0.434
        18 -12.2319    245.9259    192.2691   6.7101250564e+01  -3.3951583991e+00    0.2779289    0.1886092 -53.30  0.001189859    2.032    0.508
        19 -10.8959    172.7606    190.8973   8.0865876892e+01   8.6776271455e+00    0.2633067     0.205898 -68.10  0.001349219    1.689    0.408
        20  -9.9411    179.4969    190.5111   7.9350875011e+01   7.5607924861e+00    0.1390649    0.1314962   9.91 7.027826e-05    1.046    0.044
        21 -10.7710    138.8921    189.5318   8.8278345555e+01   1.5042689697e+01    0.2870992    0.2003867 -74.47  0.001317899    1.935    0.483
        22  -9.8202    192.3247    187.6491   7.6139300673e+01   5.8602877307e+00      0.13465    0.1133391  88.72 0.0005890784    1.756    0.430
        23 -10.6417    165.0338    185.3187   8.1505957809e+01   1.1183608930e+01     0.454467    0.1953196 -53.49    0.0016744    2.784    0.641
        24 -11.2170    120.5071    185.5108   9.1993761888e+01   1.9199323613e+01    0.4085119    0.1517887 -59.41  0.001365052    3.229    0.690
        25 -11.3957     95.4791    186.9995   9.8452593268e+01   2.3070898340e+01    0.2787088     0.187252  69.02  0.001298262    1.760    0.432
        26 -10.1370     17.4651    185.0699   1.1748577540e+02   3.3519006999e+01    0.1840785    0.1052989 -75.42 0.0005892045    1.516    0.340
        27 -10.5351    203.8452    183.7206   7.3081328464e+01   4.6029662379e+00    0.2614312      0.15564 -49.30  0.001239983    1.854    0.461
        28 -11.5145    174.1059    182.0413   7.8882918577e+01   1.0188971528e+01    0.4363659    0.2224092 -45.22   0.00185722    1.987    0.497
        29 -12.1562    243.9214    180.8033   6.5286616710e+01  -1.2936024393e+00    0.2820562    0.1592694 -40.53  0.001171815    1.618    0.382
        30 -11.6119    147.6627    180.1564   8.4489572591e+01   1.5466634903e+01    0.3316841    0.1876483 -61.12  0.001350649    2.231    0.552
        31 -11.0402    137.8731    178.5871   8.6518664946e+01   1.7622651014e+01    0.2982219    0.2025478 -71.14  0.001321629    1.926    0.481
        32 -10.4563    192.3588    177.5568   7.4159720585e+01   7.7580319196e+00     0.268754    0.1226814 -55.06 0.0009544546    3.187    0.686
        33 -10.9480    183.1038    175.0120   7.5568448621e+01   9.9340357896e+00    0.3529029    0.2049282 -42.99  0.001602811    1.704    0.413
        34 -10.8731     77.9596    176.4783   1.0133272299e+02   2.8301699961e+01    0.3680924   0.08016174  43.68   0.00103883    4.377    0.772
        35 -11.0791    177.0510    170.3145   7.5907516400e+01   1.2002168904e+01    0.3307472    0.2080733 -48.92  0.001521446    1.643    0.391
        36 -10.4073    134.4159    171.1971   8.5947776283e+01   1.9921849592e+01    0.2146124    0.1452087 -65.64 0.0009495339    1.748    0.428
        37 -11.1486    121.8233    169.4839   8.8763879919e+01   2.2649662921e+01    0.4094491    0.2643834  85.17  0.001575884    2.637    0.621
        38 -10.4067    205.9625    169.0201   6.9747488397e+01   6.9352420782e+00    0.2136608    0.1741462 -74.46  0.001126297    1.724    0.420
        39 -10.4926    168.0105    168.7784   7.7574599120e+01   1.4038144994e+01    0.2695759    0.1945592 -61.67  0.001269082    1.663    0.399
        40 -10.6144    149.4266    169.2044   8.1931263403e+01   1.7516447070e+01    0.2119307    0.1446692 -62.23 0.0009452797    1.725    0.420
        41 -10.4160    185.2520    166.5849   7.3400167320e+01   1.1202365470e+01    0.2732731    0.1722586 -53.29  0.001199028    1.770    0.435
        42 -11.1790    192.3106    163.9185   7.1393809575e+01   1.0400252780e+01    0.5654492    0.1715863 -43.71  0.001860368    3.188    0.686
        43 -11.6053    139.1336    164.4299   8.3446230425e+01   2.0556886816e+01    0.4905467    0.2799081 -68.72  0.001808063    2.691    0.628
        44 -11.7505    213.1430    163.2390   6.7212522395e+01   6.7269360201e+00    0.3080409    0.1888958 -44.63  0.001505136    1.574    0.365
        45 -10.4346    159.4951    163.5565   7.8423816454e+01   1.6791743583e+01    0.2735077    0.1438412 -58.06  0.001033376    2.391    0.582
        46 -10.5844     79.9912    164.2318   9.8864210272e+01   3.1002974615e+01    0.2733122    0.1462179  76.97 0.0008932794    3.638    0.725
        47 -11.4977    205.6205    161.5424   6.8278166728e+01   8.3931343851e+00    0.4025378    0.2161483 -50.77  0.001429071    2.054    0.513
        48 -10.8971    177.5189    160.1617   7.3694861905e+01   1.3980949135e+01    0.3491453    0.2384015 -66.25  0.001539283    2.014    0.504
        49 -10.5087    151.5036    160.5014   7.9650925918e+01   1.9023946458e+01    0.2691918    0.1462904 -59.18  0.001028745    2.278    0.561
        50 -10.3327    128.4675    158.9684   8.4998902496e+01   2.3855207524e+01    0.2163652    0.1368682 -78.71 0.0008095233    2.534    0.605
        51 -11.4422    196.4584    156.8953   6.9086919034e+01   1.0984798276e+01    0.3962951    0.2518418 -52.86  0.001594592    1.728    0.421
        52 -11.2022    167.8521    157.1018   7.5162403324e+01   1.6519461357e+01    0.3258916    0.2216912 -65.84  0.001419645    1.944    0.486
        53 -10.4476    188.3007    157.0412   7.0763860714e+01   1.2518116295e+01    0.2160093    0.1798888 -42.76 0.0009870477    1.172    0.146
        54 -10.5208    105.3264    157.6732   9.0808417151e+01   2.8434753052e+01    0.1588886    0.1161309  74.28 0.0007049933    1.698    0.411
        55 -10.6812    157.4954    155.5551   7.7191910703e+01   1.8916185477e+01    0.2781323    0.1446265 -57.73  0.001033025    2.385    0.581
        56 -10.9215    119.4884    155.4758   8.6604711112e+01   2.6376793674e+01    0.2815284    0.1496071 -65.01  0.001034412    2.419    0.587
        57 -11.6744    204.4075    154.4913   6.7032565447e+01   9.9480982721e+00    0.2669612    0.2099163 -41.31 0.0009768113    1.203    0.169
        58 -10.5344     49.5053    155.0021   1.0587477224e+02   3.7474972501e+01    0.2045232    0.1105585  83.95 0.0008105028    2.554    0.608
        59 -12.4407    159.7809    239.4781   9.1717327386e+01   1.8926628101e+00    0.3864536     0.184081 -44.00  0.001848794    2.377    0.579
        60 -10.9748    142.7067    130.4321   7.5051716743e+01   2.7513036708e+01    0.4045737     0.189886 -49.24  0.001489478    2.155    0.536
        61 -11.9817    212.1700    129.2635   6.0149418366e+01   1.3199059500e+01    0.2973912     0.180963 -50.48  0.001277313    1.637    0.389
        62 -10.8473    192.9404    129.3235   6.3701337106e+01   1.7072975838e+01    0.3469035    0.2088006 -42.17  0.001367059    1.572    0.364
        63 -11.2116    168.5265    128.4611   6.8539906632e+01   2.2412899063e+01    0.4470702    0.2048332 -48.37  0.001658706    2.211    0.548
        64 -10.2739    186.4832    129.0241   6.4904307303e+01   1.8478373564e+01    0.2319746    0.1410276 -43.14  0.000914291    1.571    0.363
        65 -11.1173    152.6059    127.7745   7.2010618273e+01   2.5985221283e+01    0.5239347    0.1836308 -48.20  0.001666697    2.919    0.657
        66 -10.4646     73.3299    129.6612   9.4413239321e+01   4.0629292677e+01    0.1543713    0.1119711  74.10 0.0007051849    1.737    0.424
        67 -10.6778     12.4857    128.9921   1.1316009803e+02   4.7522847392e+01    0.1917442   0.09414709  80.67  0.000810467    2.642    0.622
        68 -11.1676     98.8797    127.7849   8.6314429717e+01   3.6843819003e+01    0.3006766    0.2057581 -84.22  0.001244093    2.106    0.525
        69 -10.9675    107.1741    145.1841   8.7781429440e+01   3.1128600407e+01    0.4002905    0.2470553 -88.83  0.001415394    2.978    0.664
        70 -10.9914     59.2697    124.0152   9.7672605201e+01   4.4016895866e+01    0.4928155    0.2743843  82.82  0.001694536    3.650    0.726
        71 -11.2170    179.8767    123.7354   6.5007504806e+01   2.0937684891e+01    0.4439939    0.2533825 -39.63  0.001890661    1.722    0.419
        72 -10.6055    117.4904    124.9917   8.0354703456e+01   3.3954632001e+01    0.2215279    0.1383674 -74.58  0.000810263    2.525    0.604
        73 -10.6072    188.5491    123.2494   6.3153395090e+01   1.9181413586e+01    0.2875403    0.1364321 -45.95  0.001126213    2.035    0.508
        74 -11.5013     43.5521    122.6045   1.0244794657e+02   4.6277060942e+01    0.5003784    0.2669678  89.14  0.001903093    3.050    0.672
        75 -11.4557     28.4139    122.2319   1.0725248044e+02   4.7891475576e+01    0.5956572    0.2696972  74.66  0.001751977    5.693    0.824
        76 -12.1307    189.9984    149.0066   6.8684971920e+01   1.3783918511e+01    0.5734524    0.3009798 -48.58  0.002215106    1.935    0.483
        77 -11.9955    203.1150    121.6762   6.0055086022e+01   1.6436656326e+01     0.265918    0.1872294 -52.00  0.001314063    1.402    0.287
        78 -10.6012    194.8902    121.5722   6.1545455666e+01   1.8167503900e+01    0.3141352    0.1760394 -55.01  0.001303728    2.016    0.504
        79 -10.5856    172.3376    120.3845   6.5782370273e+01   2.3248065462e+01    0.3083119    0.1856853 -45.91  0.001076459    1.620    0.383
        80 -10.5958    158.4781    120.0158   6.8751581784e+01   2.6362846291e+01     0.418884    0.1498424 -43.79  0.001368681    2.755    0.637
        81 -11.3566    141.2593    117.9311   7.2347736750e+01   3.0573029359e+01    0.6423848    0.2613099 -55.59  0.001968282    3.335    0.700
        82 -10.7972    165.5520    142.8487   7.2537408502e+01   2.0009625641e+01    0.3826465    0.1465417 -47.34   0.00130099    2.619    0.618
        83 -10.8655    185.7793    115.2291   6.1801177561e+01   2.1340611010e+01    0.3405313     0.188762 -41.24  0.001449465    1.732    0.423
        84 -11.1857    192.9846    114.3201   6.0209171444e+01   1.9959120962e+01    0.3509134    0.2077633 -41.84  0.001385006    1.598    0.374
        85 -11.2582    124.8507    142.9586   8.2525896899e+01   2.8297805242e+01    0.3743957    0.2117017 -73.00  0.001247647    3.149    0.682
        86 -10.9933    108.7043    113.6893   8.0036132143e+01   3.8300850276e+01    0.3163527    0.1929217 -71.31  0.001180017    2.522    0.604
        87 -10.9875     92.8603    112.7793   8.4532670514e+01   4.1492486650e+01    0.2975805    0.2057079 -82.40  0.001156495    2.129    0.530
        88 -11.0363     79.1075    112.8748   8.8869363939e+01   4.3816293211e+01    0.3300708    0.2220151  77.00  0.001369898    2.356    0.575
        89 -10.9579    174.5608    110.5646   6.2918712408e+01   2.4722870921e+01    0.4179778    0.1436173 -41.92  0.001376012    2.823    0.646
        90 -10.8911    159.0000    110.4925   6.6253316459e+01   2.8219617469e+01    0.3422412   0.08628343 -42.59 0.0009327193    3.918    0.745
        91 -10.7851    189.2742    106.9569   5.9149284695e+01   2.2159569069e+01    0.3771198    0.1846035 -43.37  0.001532335    1.936    0.483
        92 -10.5519    182.2473    150.6113   7.0633679951e+01   1.4998082507e+01    0.2815049    0.1744493 -52.71  0.001021907    1.733    0.423
        93 -10.2519    162.3982    150.1729   7.4888801951e+01   1.9090612696e+01    0.2228735    0.1421217 -56.94 0.0009501465    1.764    0.433
        94 -11.7344     22.3703    101.6771   1.0580589099e+02   5.3390473161e+01    0.6463813    0.3318946  74.73  0.002425598    3.880    0.742
        95 -11.0989     83.2905    131.7849   9.1828511783e+01   3.8547560581e+01    0.2976818    0.2293587  85.47  0.001225746    1.571    0.364
        96 -12.1471     45.3027    101.9989   9.7750303895e+01   5.1088647111e+01    0.6607649    0.3643435  74.33  0.002221031    4.450    0.775
        97 -10.9065    182.0793    141.1863   6.8579615268e+01   1.6947071694e+01    0.3372183    0.2085758 -48.90  0.001461559    1.618    0.382
        98 -11.0752    149.7427    101.6807   6.6097952525e+01   3.2097924406e+01    0.4247783    0.1200517 -47.11  0.001197283    3.784    0.736
        99 -10.6814    182.5321    108.4548   6.0801321358e+01   2.3362032503e+01    0.3115407    0.1412566 -41.91  0.001193278    2.117    0.528
       100 -10.3147    175.5126    100.9678   6.0335712844e+01   2.6369321408e+01    0.2353099    0.1443256 -40.88  0.001035019    1.598    0.374
       101 -11.1639    108.3973     98.2300   7.6023168079e+01   4.1801080076e+01    0.2193979    0.1433988 -56.89 0.0009511649    1.698    0.411
       102 -11.7102     63.5631     95.9134   8.9868439764e+01   5.0156761054e+01    0.4423218    0.2761123 -85.92  0.001712409    3.071    0.674
       103 -12.0384    196.0299    143.2124   6.6215606797e+01   1.3733106014e+01    0.3594869    0.2664814  37.03 0.0009936175    1.445    0.308
       104 -10.8920     13.9772    110.0181   1.1008011636e+02   5.2024304587e+01    0.3374879    0.1639564 -85.01  0.001480896    2.447    0.591
       105 -11.2314     34.7170     89.3937   9.8775909833e+01   5.5158433217e+01    0.4365016    0.2151571 -75.34  0.001721296    3.016    0.668
       106 -10.6485    124.3191     90.6697   6.9437106763e+01   4.0016289047e+01    0.1555351     0.121471 -86.09 0.0007047924    1.689    0.408
       107 -10.6035     86.3450     86.6742   7.9574333210e+01   4.8500663753e+01    0.1474839    0.1176892  81.36 0.0007050456    1.743    0.426
       108 -11.4008     48.3337     84.2598   9.2370319231e+01   5.4808752678e+01    0.3337594    0.2243146  79.32  0.001476977    2.715    0.632
       109 -10.7389    104.6707     83.3287   7.2846324002e+01   4.5660284560e+01     0.150334    0.1198871  89.36 0.0004456851    1.710    0.415
       110 -11.2145     24.2113     78.9788   1.0043182101e+02   5.8469407145e+01     0.574374    0.1984496 -64.39  0.002219845    2.994    0.666
       111 -12.2752    200.2245    147.5055   6.6339052535e+01   1.2079844545e+01    0.5195489    0.2374041 -43.53  0.002019854    2.068    0.516
       112 -11.3906    197.9662    136.0330   6.4249997269e+01   1.4742812186e+01    0.6039335    0.2064858 -43.33  0.002087963    2.747    0.636
       113 -11.0222     23.3263    138.2161   1.1110243927e+02   4.4386653987e+01    0.3683405    0.1676404  77.89  0.001336945    3.577    0.720
       114 -11.1115     82.1567     72.5072   7.6673970492e+01   5.2136902460e+01    0.2590124    0.1735377 -66.99  0.001143146    2.265    0.558
       115 -10.7663    172.1070    137.2420   6.9806711077e+01   1.9824322547e+01    0.3657613    0.1927753 -53.83  0.001420201    2.137    0.532
       116 -11.0063    133.1879    152.6571   8.2479944894e+01   2.4402457103e+01    0.3372763    0.2487817 -86.36  0.001479315    1.866    0.464
       117 -10.8745    162.4800    135.4945   7.1544669652e+01   2.2219539622e+01    0.2813121    0.1424564 -54.85  0.001035757    2.297    0.565
       118 -11.1956     51.1046     68.7694   8.6900289969e+01   5.7751746479e+01    0.3312642    0.1814079 -66.81  0.001337684    3.043    0.671
       119 -10.3352     39.3092    136.6318   1.0611067331e+02   4.3239131590e+01    0.1454948   0.09665722  72.21 0.0007036377    1.760    0.432
       120 -10.5309    187.6122    134.7497   6.5990530553e+01   1.7104486001e+01    0.2878085    0.1374334 -39.63  0.001126576    2.047    0.511
       121 -10.6563     73.3750     59.5842   7.5485176560e+01   5.6112030021e+01    0.2578256    0.1212179 -55.00 0.0009552048    3.225    0.690
       122 -11.4132      7.6198     53.5954   1.0121696674e+02   6.5053850434e+01    0.6192585          nan -55.82  0.001906607    5.188    0.807
       123 -10.7994     39.7832    148.1745   1.0766490437e+02   4.0295792117e+01    0.2473122    0.1223516  65.87 0.0009582389    2.888    0.654
       124 -11.4963     56.0734    145.8753   1.0259218529e+02   3.8957492139e+01    0.4158691    0.2121224  67.69  0.001493619    3.246    0.692
       125 -10.7992     30.6381     50.4226   8.9679834939e+01   6.3765754979e+01     0.299645    0.1625355 -65.98  0.001321379    3.089    0.676
       126 -10.4570     45.3036     49.3467   8.2874793313e+01   6.2233597872e+01    0.1360347   0.08850623 -14.78 0.0003786527    1.691    0.409
       127 -11.1212      4.9243     40.1923   9.8682322135e+01   6.7834059800e+01    0.4112175    0.1468752 -64.41  0.001665729    3.792    0.736
       128 -10.6719     16.7150     43.1102   9.3777381894e+01   6.6435758456e+01    0.2894147    0.0841694 -51.35  0.001223268    2.831    0.647
       129 -10.9859    179.2781    132.9136   6.7278514281e+01   1.9210360035e+01    0.3734063    0.1978628 -45.55  0.001438452    1.833    0.454
       130 -11.1483    131.6947    130.3310   7.7827383486e+01   2.9837953820e+01    0.5402279    0.2210507 -59.80  0.001522479    4.008    0.750
       131 -11.9708    148.5791    143.1697   7.6573070622e+01   2.3452560152e+01     0.732343    0.3381915 -56.55  0.002530682    2.674    0.626
       132 -11.0591     27.5064     29.9877   8.3665423152e+01   6.7678200133e+01     0.305189   0.07445637 -37.04  0.001041872    4.494    0.777
       133 -11.6940    204.4666    129.8736   6.1659483336e+01   1.4615488394e+01    0.3992367    0.2414559 -61.82  0.001692847    2.214    0.548
