#   1 NUMBER                 Running object number                                     
#   2 MAG_AUTO               Kron-like elliptical aperture magnitude                    [mag]
#   3 X_IMAGE                Object position along x                                    [pixel]
#   4 Y_IMAGE                Object position along y                                    [pixel]
#   5 X_WORLD                Barycenter position along world x axis                     [deg]
#   6 Y_WORLD                Barycenter position along world y axis                     [deg]
#   7 A_WORLD                Profile RMS along major axis (world units)                 [deg]
#   8 B_WORLD                Profile RMS along minor axis (world units)                 [deg]
#   9 THETA_WORLD            Position angle (CCW/world-x)                               [deg]
#  10 FWHM_WORLD             FWHM assuming a gaussian core                              [deg]
#  11 ELONGATION             A_IMAGE/B_IMAGE                                           
#  12 ELLIPTICITY            1 - B_IMAGE/A_IMAGE                                       
         1 -12.3915     60.5216     45.8513   1.1010103817e+02   6.1246504713e+01     1.213364    0.5289946 -47.04  0.004915718    2.129    0.530
         2 -12.4882    104.9374     12.9482   7.9211804951e+01   5.7390673740e+01    0.8056349    0.4272785 -25.40  0.003534621    1.890    0.471
         3 -11.4053    111.7228      2.0676   7.2603019684e+01   5.6768257087e+01      1.76884    0.2849569  66.37  0.004301328    6.046    0.835
         4 -12.1603    125.0678     27.7083   8.0744915805e+01   5.0578994520e+01     0.816345    0.7461292  54.99  0.003546294    1.105    0.095
         5 -12.3566    130.9514     13.8491   7.3888868455e+01   5.0688832485e+01     1.962687    0.7600529  67.20  0.007100455    2.645    0.622
         6 -13.6775    118.2791     41.7068   8.8025864728e+01   5.0242986278e+01     1.408548     1.069656  16.63  0.003099005    1.472    0.321
         7 -12.8357    113.1759     24.7143   8.2379374416e+01   5.3932401512e+01      1.10185     0.604781  56.47  0.004757436    1.780    0.438
         8 -10.5673    140.0043     33.8639   7.9874617009e+01   4.5985884960e+01     1.014685    0.3620583 -30.48  0.003540706    2.663    0.625
         9 -11.8109    145.5352     48.1541   8.3861631428e+01   4.2572320551e+01     1.217252    0.5140349 -22.71  0.004140838    2.830    0.647
        10 -11.8210    182.1754     25.4253   7.0038086534e+01   3.6262750639e+01    0.6277291     0.332244  48.25  0.002047886    1.970    0.492
        11 -11.4895    178.3301     21.0994   6.9161773617e+01   3.7690860737e+01    0.5939031    0.3514881  25.94  0.002586137    2.219    0.549
        12 -11.5485    154.9850     23.8143   7.3444079413e+01   4.3367654630e+01    0.8348131      0.62098  27.85  0.004169192    1.474    0.322
        13 -10.0219    147.2538     15.8198   7.1799434468e+01   4.6239955078e+01    0.6003348    0.3291078  51.52  0.002326817    1.731    0.422
        14 -11.6493    163.4543     27.8435   7.3488616351e+01   4.0726813304e+01    0.6161125    0.3787507  60.85  0.001946174    1.596    0.373
        15 -10.3555     60.5621     23.8789   1.0026653525e+02   6.5466103126e+01    0.6222962    0.2547646 -36.69  0.002493229    2.323    0.569
        16 -11.5036     26.1948     27.7163   1.2039497800e+02   6.9463342109e+01    0.5509747    0.5176443  56.35  0.002923642    1.386    0.278
        17 -10.9150     22.8666     10.9290   1.1459109061e+02   7.3219829836e+01    0.8501012    0.4452254  -1.93  0.003772315    2.795    0.642
        18 -11.2025     13.4210      9.2159   1.2043738181e+02   7.4441575637e+01    0.9253752     0.393344 -28.21  0.004020586    2.699    0.630
        19 -11.6352     19.9035     22.9682   1.2230614546e+02   7.1050416823e+01    0.5749564    0.3579878 -55.22  0.002875401    1.439    0.305
        20 -11.2857     15.0205     23.1651   1.2551649164e+02   7.1391287306e+01    0.5098877    0.4293782  66.53  0.002462669    1.641    0.391
        21  -8.9747     87.1143      7.0804   8.1255275129e+01   6.2317622627e+01    0.6730951    0.3525294  58.46  0.002762961    1.911    0.477
        22 -11.5126     90.7290     20.2466   8.6768411880e+01   5.9862234637e+01    0.6385661    0.4563641 -17.93  0.002337145    1.401    0.286
        23 -11.4932     85.9876     14.4067   8.5405061730e+01   6.1708306845e+01    0.6021245    0.3507245  -9.83  0.002049014    1.988    0.497
        24  -9.4491     32.1387     12.1635   1.0919662842e+02   7.1903706273e+01    0.3594083    0.2111508  54.01  0.001553775    3.394    0.705
        25 -10.9044     46.5507     18.4260   1.0433590978e+02   6.8741610335e+01    0.4521505    0.3621818  47.32  0.002592791    1.588    0.370
        26 -12.2046     49.2543     13.0553   9.9927151505e+01   6.9217367885e+01    0.7963467    0.3695413  42.34  0.003558992    2.282    0.562
        27 -11.3006     38.7272     19.5219   1.0923195764e+02   6.9673831338e+01    0.7594719    0.2025114 -49.33  0.002446257    4.084    0.755
        28 -11.5248     35.5520     18.7686   1.1068726558e+02   7.0234780382e+01     0.553218    0.2315423 -42.99  0.001590384    2.097    0.523
        29 -10.1768    206.5288     20.3111   6.5773996107e+01   3.0898582775e+01    0.5353842    0.2588929 -27.11  0.001565295    1.882    0.469
        30 -11.9195     68.9004     17.8532   9.3503485445e+01   6.4871976539e+01    0.8531358    0.4924028  57.07  0.003815518    2.229    0.551
        31 -11.2267    239.3188      7.2495   5.9741893883e+01   2.4869286176e+01      0.36849    0.2091386 -47.03  0.001118721    1.540    0.351
        32 -11.3797    245.8583      7.9567   5.9505831784e+01   2.3459775851e+01    0.4491742    0.2889819 -16.65  0.001744538    1.561    0.359
        33 -10.8667    242.1884      4.3656   5.8869658103e+01   2.4532253525e+01    0.2692289    0.2042112 -79.46  0.001428364    1.358    0.264
        34 -11.1816    165.3164     17.2480   6.9612152236e+01   4.1406352040e+01    0.3977697    0.2645656  37.25   0.00086345    1.640    0.390
        35 -12.1860    239.4601     15.5100   6.1751671758e+01   2.4071870168e+01    0.7152597    0.4294229  59.87  0.003032526    1.854    0.461
        36  -9.2367    185.1669      7.7447   6.4195684732e+01   3.7279239897e+01    0.3366529     0.141894 -51.66    0.0013167    2.643    0.622
        37 -10.2150    198.7871      5.6166   6.2297235128e+01   3.4134503426e+01    0.2639587    0.1292993  76.08 0.0007299527    2.090    0.521
        38 -11.4839    192.1330      7.9132   6.3569489321e+01   3.5543896358e+01    0.5931476    0.3619424  12.99  0.001851882    2.191    0.544
        39  -9.9767    193.9688      1.4438   6.1492570737e+01   3.5659087767e+01    0.1930631    0.1252901  77.52  0.000442425    1.538    0.350
        40 -11.6035    211.4193      9.8835   6.2435426914e+01   3.0769023649e+01    0.4865952     0.328506  14.83  0.001675327    1.910    0.476
        41  -9.2796    157.6444     10.7988   6.8430918253e+01   4.4026923716e+01    0.2083533    0.1185981 -33.79   0.00060087    1.727    0.421
        42 -10.8333     66.2629     10.5192   9.0563004768e+01   6.6450284513e+01    0.5512862    0.2463895  45.78  0.002360875    2.161    0.537
        43 -10.1571     62.8894      6.4605   8.9610366360e+01   6.7666497507e+01    0.3568142    0.2403409  -1.21  0.001235012    1.566    0.361
        44 -10.4960     71.6304      3.5616   8.4457201582e+01   6.6194178001e+01    0.4956118    0.3909453   0.66  0.002807765    1.197    0.165
        45 -10.5517     76.8359      6.6044   8.4335610625e+01   6.4706105106e+01    0.3204439    0.2540118  66.78  0.001297838    1.527    0.345
        46 -10.6958     77.1932      2.9932   8.2185278276e+01   6.5030204375e+01      0.37186     0.238763  29.86  0.001318212    1.522    0.343
        47  99.0000      4.3413      9.6033   1.2751157580e+02   7.4983447065e+01    0.5202058    0.1387529 -48.58  0.002041117    2.504    0.601
        48 -10.4030    169.1966      9.7779   6.6600104167e+01   4.1135578953e+01    0.3645104    0.1950276  48.57  0.001629898    1.899    0.473
        49  -9.4206    162.8507     10.1618   6.7518654121e+01   4.2735741754e+01    0.2276707    0.1825406  39.57   0.00075896    1.291    0.225
        50 -10.3599    158.2302      2.4422   6.5412087161e+01   4.4615314728e+01    0.4192564    0.2152621  57.95   0.00188178    1.801    0.445
        51 -10.0751    162.6744      5.5654   6.5960662064e+01   4.3195874370e+01    0.3984694    0.2638178   1.50  0.001940224    1.766    0.434
        52  -9.4121    162.6886      1.3059   6.4497322011e+01   4.3551456295e+01    0.2015069     0.137148  81.74 0.0002179803    1.474    0.322
        53 -10.3779    151.2251      7.4610   6.8119949863e+01   4.6009487940e+01    0.4841477    0.2421108  65.84  0.001086869    1.870    0.465
        54 -10.3185      1.3055      7.2601   1.2888496303e+02   7.5635605790e+01    0.2000855    0.0883638 -58.56 0.0002458589    1.818    0.450
        55 -10.5759    186.3080     15.2923   6.6398141784e+01   3.6285641734e+01    0.3215177    0.2522886  45.62 0.0005813154    1.348    0.258
        56 -10.8140     41.8421     14.3714   1.0468207719e+02   7.0166043651e+01    0.3233296    0.1829697  30.73  0.001614612    1.838    0.456
        57 -10.4884     42.7720      3.4193   9.7490857994e+01   7.1779598477e+01      0.47509    0.2806484  -1.17  0.002230412    2.177    0.541
        58 -10.8308    218.5813      3.2379   6.0105803755e+01   2.9728631702e+01    0.2848953    0.2664728 -31.99 0.0009930501    1.095    0.087
        59 -11.3235    224.8809      2.3394   5.9445652848e+01   2.8401937093e+01     0.619288    0.2986324 -79.23  0.002879052    2.472    0.595
        60 -10.6738    173.8255      4.3370   6.4288239689e+01   4.0436501788e+01    0.5870008    0.2456981  78.41  0.002313507    2.550    0.608
        61 -10.2540     23.0544      2.7943   1.0963782730e+02   7.4691505943e+01     0.305049    0.2126566 -17.61  0.001310863    1.295    0.228
        62 -10.5825    206.0254      2.4369   6.0808876748e+01   3.2690126820e+01    0.4186961    0.2292847 -84.58  0.002018762    2.037    0.509
        63 -10.8538      2.7408      1.8423   1.2515437813e+02   7.6677497258e+01    0.3840029    0.1941013  -2.96  0.002018795    2.242    0.554
        64 -10.6056    141.6439      3.7271   6.8094216549e+01   4.8847468235e+01    0.4202787    0.2546042  67.83  0.001346203    1.565    0.361
        65 -12.0271    133.7948      2.7068   6.8890983534e+01   5.0992242287e+01    0.4195587    0.2888581  62.59 0.0007463475    1.352    0.260
        66 -12.1044     16.9165     13.5438   1.2006992045e+02   7.3273742023e+01    0.6292344    0.2914479 -30.55 0.0003423919    2.224    0.550
        67  -9.2734    239.8326    146.7948   9.2706081581e+01   8.0358326364e+00    0.1593365    0.1391331 -20.00 0.0009089087    1.326    0.246
        68 -10.7254    249.4578    142.5323   9.0354700408e+01   7.0778122611e+00    0.5343961    0.1931034 -28.95  0.002402286    2.386    0.581
        69  -8.8201    108.9271    145.9873   1.2002124099e+02   3.0875328574e+01    0.1647954    0.1495048  34.04 0.0009564247    1.048    0.046
        70 -10.0139    133.5183    140.4561   1.1270379040e+02   2.7828951569e+01     0.302519    0.2445642  -7.13  0.001071559    1.382    0.277
        71  -9.5477     32.8148    139.1818   1.4001258662e+02   4.2109249137e+01    0.2819808    0.2053879  77.97  0.001283876    1.290    0.225
        72 -11.9571     23.3631    136.3528   1.4240916365e+02   4.3563015896e+01     0.678543    0.5110273  75.55  0.004283659    1.200    0.167
        73 -11.7110     29.9020    132.8312   1.4022300933e+02   4.3850475860e+01    0.4884523    0.3187006 -82.96 0.0004696831    1.406    0.289
        74  -8.4239     54.3001    139.3042   1.3395586610e+02   3.9921828393e+01    0.1273604   0.09667767 -35.66 0.0005836851    1.590    0.371
        75 -10.7087     81.4079    135.4331   1.2565943761e+02   3.7382986532e+01    0.5512118    0.3713051  -9.07  0.002522675    2.319    0.569
        76 -10.1060     88.2626    134.1884   1.2350196438e+02   3.6671823021e+01    0.4301074    0.2776396  -2.83  0.001320709    2.606    0.616
        77 -10.7723     47.7422    134.6710   1.3525532633e+02   4.1717699621e+01    0.3312913    0.2095232 -57.77  0.001056996    1.546    0.353
        78 -10.8648     71.5682    133.9245   1.2823270108e+02   3.9073838788e+01    0.6395148    0.4051524   0.16  0.002838801    2.540    0.606
        79 -11.1809     92.9647    129.8932   1.2137680697e+02   3.6929803243e+01    0.6379173     0.313697 -60.38  0.002664925    2.186    0.543
        80  -9.7887     62.4355    132.3320   1.3064744484e+02   4.0602800849e+01    0.3520657    0.1391342 -57.27  0.001454958    2.354    0.575
        81  -8.9904    106.8515    130.9114   1.1769610268e+02   3.4461060982e+01    0.1870353    0.1652355  84.66 0.0004662729    1.299    0.230
        82 -10.4913     80.0153    126.3716   1.2447811633e+02   3.9672171986e+01    0.5901104    0.3621439 -33.29  0.001499572    2.117    0.528
        83 -10.9926     55.4451    123.1426   1.3136649706e+02   4.3615477467e+01    0.7255434    0.3817387  22.14  0.002798171    2.204    0.546
        84 -10.4264     45.6604    120.6117   1.3403197707e+02   4.5293850796e+01    0.3680226    0.2523665  80.88  0.001328767    1.567    0.362
        85  -9.7381     18.7240    124.2252   1.4270136274e+02   4.6771098690e+01    0.3265441    0.1238634 -67.48  0.001483673    2.214    0.548
        86  -9.9939      1.6402    124.0542   1.4770557989e+02   4.7885748915e+01    0.3671327    0.1591163  88.85  0.001748299    2.062    0.515
        87  -9.9092      3.6733    121.3235   1.4694380515e+02   4.8414886307e+01    0.4176777    0.1661503  55.57  0.001948749    2.514    0.602
        88 -10.4526    239.6744    123.1324   8.7675364854e+01   1.1121497026e+01     0.360815    0.1772988 -24.09  0.001747778    1.815    0.449
        89 -11.7108    104.8710    121.0205   1.1617476786e+02   3.6978958006e+01    0.5285622    0.5211395  58.27  0.002223682    1.044    0.042
        90  -9.4091    221.0497    120.5145   9.0013007584e+01   1.4754934094e+01    0.1876185    0.1297966  42.46 0.0005230311    1.550    0.355
        91  -9.4538    148.6680    119.6364   1.0433814472e+02   2.9059796308e+01    0.2410454    0.1742156   3.20  0.001112087    1.721    0.419
        92  -9.2816     72.2931    120.0068   1.2564786509e+02   4.2248661388e+01    0.2384658     0.182162   3.95  0.001087461    1.641    0.391
        93 -11.2523     34.1577    119.6030   1.3749671811e+02   4.6643845246e+01    0.4439589    0.3877526 -51.99 0.0003654808    1.206    0.170
        94 -11.1041     44.7544     85.2457   1.2828048019e+02   5.4089878424e+01    0.8671659    0.4929729  75.40  0.003512676    2.863    0.651
        95 -12.5405     36.5748     88.1055   1.3195895111e+02   5.4193433850e+01     2.030246     1.285264 -63.43  0.006663864    1.383    0.277
        96 -12.2916     10.0589     97.8009   1.4298728931e+02   5.3728468561e+01     1.280538    0.6492689  44.26  0.006569264    2.087    0.521
        97 -12.1298      7.4014     88.7439   1.4299321434e+02   5.6094974100e+01    0.6013941    0.4523376 -72.22 0.0008790742    1.109    0.098
        98 -12.1692     20.8800     95.2494   1.3887391413e+02   5.3683034818e+01    0.5947971    0.4915679   1.62  0.003718255    1.453    0.312
        99 -12.2572     18.5033     90.4941   1.3911265809e+02   5.5022456498e+01    0.6446237    0.3480389 -46.39 0.0006998984    1.832    0.454
       100 -12.1348     18.7841    106.2108   1.4090913324e+02   5.1124489102e+01    0.3174089    0.2420719 -57.86 0.0002442199    1.250    0.200
       101 -11.5501     28.6499    112.9212   1.3844125263e+02   4.8740888774e+01    0.5155824    0.3369047   3.44   0.00276071    1.998    0.499
       102 -12.6735     25.7708    107.3236   1.3870826652e+02   5.0342097343e+01      1.29749    0.5927278 -38.02  0.005533985    2.860    0.650
       103  -9.4818     81.4827    117.8762   1.2242254433e+02   4.1445008293e+01     0.208434    0.1351043 -56.03 0.0004323104    1.504    0.335
       104 -10.3447    113.9334    115.9664   1.1247732814e+02   3.6488380484e+01     0.235487    0.2079617  30.38 0.0003333883    1.121    0.108
       105 -10.6364     67.1003    112.2809   1.2584299851e+02   4.4794126788e+01    0.5122136    0.3267872 -73.94  0.002449303    1.705    0.414
       106  -9.1131    126.8374    114.1689   1.0852523112e+02   3.4447459450e+01    0.2077704    0.1734849   3.79 0.0006992287    1.313    0.238
       107 -10.6173    107.4856    112.3518   1.1345907462e+02   3.8446484350e+01    0.4751344    0.3615734  84.34  0.001856603    1.867    0.464
       108 -10.9931    103.8798    108.4281   1.1357624610e+02   3.9963320111e+01    0.6728203    0.5085297  -4.04  0.003201746    1.707    0.414
       109 -11.6445      2.4104    112.2471   1.4671527552e+02   5.0634636240e+01    0.4807691    0.3090347  45.71  0.001857008    1.581    0.367
       110 -10.6127      5.7756    108.4518   1.4537211507e+02   5.1369695415e+01    0.2341757    0.2070358 -50.65  0.000737516    1.247    0.198
       111 -11.7418      3.3696    104.8987   1.4586839936e+02   5.2351260377e+01    0.3687957    0.3554354   9.54  0.001098577    1.269    0.212
       112  -9.9524     49.1516    112.3776   1.3168542142e+02   4.6929004582e+01    0.2526994    0.2317618 -63.09 0.0009666956    1.063    0.059
       113 -11.2900    171.5716    109.6534   9.6654981342e+01   2.6217727770e+01    0.6865489     0.430687  25.72  0.002978952    1.847    0.459
       114  -9.3117     87.7245    114.4730   1.1981526489e+02   4.1288426362e+01    0.2646808    0.1325927  40.55   0.00110311    1.998    0.500
       115  -9.2375     82.0246    102.9750   1.1905954523e+02   4.4871374531e+01    0.2214497     0.206498 -40.56  0.000560614    1.056    0.053
       116 -11.1282     79.3857    108.5112   1.2114120800e+02   4.3965622178e+01     0.707563    0.4427607  44.75  0.002739603    1.671    0.402
       117 -11.1686     86.1657    105.3202   1.1827271701e+02   4.3669032889e+01    0.4546266    0.3719587  12.12  0.001473594    1.384    0.278
       118  -9.4536     60.5660    110.8369   1.2769153451e+02   4.5979950851e+01    0.2240724    0.1752928  57.32 0.0005915769    1.363    0.266
       119  -9.8702    119.9787    109.0131   1.0911081976e+02   3.6854498267e+01    0.1846157    0.1732059 -30.42 0.0006326335    1.056    0.053
       120 -10.5745    157.8452    105.4982   9.8610929061e+01   2.9844895419e+01    0.4005954    0.2893993  -6.34  0.001538116    1.656    0.396
       121 -10.1381    143.5028    106.0007   1.0216179843e+02   3.2755732613e+01    0.3701642    0.2982278  67.40  0.001494351    1.586    0.370
       122 -11.1292    145.5824    100.7506   1.0024963106e+02   3.3337099227e+01    0.5712534    0.4179554  -6.25  0.002624537    1.673    0.402
       123 -10.6754     57.7159     98.3747   1.2625455874e+02   4.9372663772e+01     0.682111    0.2775955 -62.10  0.002691362    2.303    0.566
       124 -10.5033     47.9976    102.9833   1.3050183199e+02   4.9361073010e+01    0.3331608    0.2583791 -15.07  0.000356176    1.582    0.368
       125 -10.0656     52.7604     96.4104   1.2760616246e+02   5.0447275180e+01    0.6554407    0.1852075 -50.19  0.002214188    3.221    0.690
       126 -10.7347    120.2714     84.9533   1.0242669408e+02   4.1839754931e+01    0.5327383    0.2331102  45.98  0.001945022    2.342    0.573
       127 -10.3029    117.2970     93.0089   1.0561550500e+02   4.0778851660e+01     0.389737    0.2520717  31.13  0.001287996    1.677    0.404
       128 -10.9418    122.0576     89.3212   1.0320964461e+02   4.0572579529e+01    0.4693141    0.3094992  10.16  0.001776705    2.294    0.564
       129 -11.2200    122.9508     96.2816   1.0493230071e+02   3.8950473515e+01    0.6376935    0.3230151 -38.60  0.001231042    2.012    0.503
       130 -10.4872    126.3666     93.1136   1.0310447625e+02   3.8900186369e+01    0.4270863    0.3084176  46.24 0.0009760666    1.422    0.297
       131 -11.2251     67.6491     97.1141   1.2253375016e+02   4.8382451158e+01    0.6455454    0.3861414 -53.07  0.001445541    1.556    0.357
       132  -9.6736     66.1069     73.2440   1.1701390544e+02   5.4292502030e+01    0.2759433    0.1973418 -59.21 0.0006535684    1.397    0.284
       133 -10.1787     98.3102     62.0618   1.0171254097e+02   5.1048398988e+01     0.329468    0.2234234  41.59  0.001523035    1.507    0.336
       134 -12.0639     90.2977     59.2510   1.0343408161e+02   5.3215612188e+01    0.9052845    0.7951671 -85.17  0.004723852    1.472    0.321
       135 -10.3485     78.0046     97.0188   1.1898577805e+02   4.6898130846e+01    0.4490049    0.2093499 -60.27  0.001749171    2.268    0.559
       136 -11.3453     81.9365     93.0260   1.1667814033e+02   4.7222046079e+01    0.7298381    0.4572015  50.68  0.002450281    1.846    0.458
       137 -11.2795     90.0069     89.2763   1.1299714227e+02   4.6739957761e+01    0.7556303    0.4331203 -30.62  0.003031279    2.228    0.551
       138 -10.6592     94.0334     76.0361   1.0778740853e+02   4.8963362383e+01    0.5225239     0.427291  15.55  0.001081504    1.337    0.252
       139 -12.4265     74.8481     50.0504   1.0574603594e+02   5.7980221811e+01     1.138534    0.8242707 -53.05  0.004696557    1.505    0.335
       140 -11.8082     85.6009     73.5987   1.0991790303e+02   5.1039844562e+01    0.7985614    0.6422554 -54.44  0.004095962    1.277    0.217
       141 -11.4822     78.6658     67.1800   1.1037321058e+02   5.3669414861e+01    0.7274107    0.6007842  85.41   0.00308456    1.645    0.392
       142 -12.4881     69.8882     79.9578   1.1747630968e+02   5.2159099473e+01     1.203362    0.6923969   8.51  0.004611101    2.918    0.657
       143 -10.3130    211.0167     97.8054   8.6209005103e+01   1.9959336382e+01    0.3682328     0.277976   3.51  0.001235072    1.380    0.275
       144  -9.1888    140.4411     96.5085   1.0036333275e+02   3.5252378407e+01    0.2508044    0.1490769  44.62 0.0008456102    1.692    0.409
       145  -9.6783    138.2172     93.3796   1.0004918354e+02   3.6338574144e+01    0.4081666    0.2477197  19.84  0.001560844    2.419    0.587
       146 -10.9888    102.5173     90.1376   1.0922531616e+02   4.4280481289e+01    0.6722041    0.5459385   3.44  0.003349793    1.426    0.299
       147  -9.5463    160.4407     93.4776   9.4767316471e+01   3.1467772198e+01    0.2656451    0.1493976  60.19  0.001033951    2.345    0.574
       148 -10.3589    152.7017     91.8777   9.6083715776e+01   3.3464574407e+01    0.3296844    0.2945847  55.89  0.001167294    1.238    0.192
       149 -10.1623    212.1788     87.1761   8.3320525995e+01   2.1255949636e+01    0.2543622    0.2044022  -3.95 0.0004963593    1.218    0.179
       150 -10.1791    183.8641     85.8899   8.7841992716e+01   2.7546001577e+01    0.6458889    0.1981592 -38.29  0.002114925    3.050    0.672
       151 -10.0188    103.9767     77.2847   1.0495121505e+02   4.6770194089e+01    0.7048023    0.3308911 -32.71   0.00249169    2.604    0.616
       152 -11.0170    113.5109     83.3060   1.0389215125e+02   4.3580748826e+01    0.5409032    0.3560487 -38.16  0.001819131    1.501    0.334
       153 -10.9554    108.7935     80.7604   1.0453554277e+02   4.5072501350e+01    0.4200581    0.3332389 -19.82  0.001367082    1.363    0.266
       154  -9.2365     67.5332     87.9963   1.2042977258e+02   5.0592523340e+01    0.2231756    0.1315342 -53.29  0.001015254    1.570    0.363
       155 -10.6648    165.7393     82.9942   9.0632953904e+01   3.2105523517e+01    0.4127101    0.3756463 -51.40  0.001432908    1.216    0.178
       156 -11.4179    143.4997     83.3638   9.5805541491e+01   3.7086548256e+01    0.4770458    0.3594075 -18.53  0.001550441    1.421    0.296
       157 -10.2387    127.4871     83.5262   9.9991556315e+01   4.0589946663e+01    0.3157806     0.264414  39.34  0.001011065    1.201    0.167
       158  -9.5208     46.5374     73.0233   1.2477128275e+02   5.6888558083e+01      0.31331    0.1662685 -72.85 0.0009214507    2.245    0.554
       159 -11.2472     57.8647     78.1543   1.2155399869e+02   5.4271540912e+01    0.5719732    0.4085862  86.50  0.001851965    1.923    0.480
       160 -11.6119     52.8647     76.1205   1.2299602976e+02   5.5394124599e+01    0.8987996    0.3965514 -57.67  0.003718093    2.038    0.509
       161 -10.4219    120.5093     80.0071   1.0085336308e+02   4.2790391855e+01    0.4733157    0.2287522  45.64  0.001815492    2.104    0.525
       162 -10.2192     20.8158     47.4266   1.2994114380e+02   6.5434123512e+01    0.3719662    0.2362484 -52.46    0.0020449    1.294    0.227
       163 -11.3429     26.3451     55.9439   1.2940965253e+02   6.2977414029e+01     1.557361    0.7016792  20.38   0.00705404    2.515    0.602
       164  99.0000     51.8088     46.9688   1.1447197040e+02   6.2285371515e+01    0.8391846    0.4188752 -59.04  0.003482887    2.295    0.564
       165 -11.2594     27.8458     47.1866   1.2627264718e+02   6.4930575908e+01    0.4434372    0.2501568 -10.79   0.00206291    2.342    0.573
       166 -11.5628     32.5836     42.4831   1.2233742214e+02   6.5572811352e+01    0.8124027    0.5687069  49.55   0.00214595    1.873    0.466
       167 -11.8308     13.9583     74.5960   1.3862873503e+02   5.9244323071e+01    0.5430372    0.4749863  74.53  0.003068882    1.216    0.177
       168 -11.4634     39.9152     55.6698   1.2292669978e+02   6.1765237025e+01    0.5828983    0.5002891  48.15  0.003443471    1.379    0.275
       169 -11.4378     51.6421     61.5972   1.1945974688e+02   5.8998208933e+01    0.6693942    0.3941649 -70.80  0.002437958    2.178    0.541
       170 -11.3872     46.2263     58.4418   1.2088157139e+02   6.0401294895e+01    0.6255128    0.3420541 -57.76  0.002901144    1.694    0.410
       171 -12.0007      2.0980     71.2261   1.4307451122e+02   6.0640293294e+01    0.6814129    0.2740689 -71.75  0.002945331    1.943    0.485
       172 -11.4288     13.6132     66.2673   1.3743334206e+02   6.1320718151e+01    0.3388321    0.2784424  56.07 0.0008843951    1.392    0.281
       173 -12.3194      9.7070     62.1614   1.3848056158e+02   6.2534965178e+01    0.6797383    0.5984926 -11.58 0.0003191484    1.304    0.233
       174 -11.6313     46.2299     48.9775   1.1780457504e+02   6.2571410802e+01    0.4833277    0.3508787 -18.29  0.001136244    1.500    0.333
       175 -12.7462     41.8087     45.4633   1.1870410917e+02   6.3895830749e+01    0.3741992    0.3360745 -13.56 0.0003158778    1.109    0.099
       176  -9.4448      5.0112     78.0402   1.4270488625e+02   5.8844210035e+01    0.1950586    0.1610152 -76.76 0.0005885691    1.027    0.026
       177  -8.8976    134.6341     77.2955   9.6179188287e+01   4.0214145819e+01    0.1543865    0.1249272 -83.98 0.0007030361    1.719    0.418
       178  -8.6785     46.6534     77.3034   1.2576600491e+02   5.5833988471e+01    0.1400843     0.103609  67.86 0.0007040352    1.691    0.408
       179 -12.1371    186.3197     70.3966   8.3022002802e+01   2.9377263851e+01    0.9134638    0.6440822 -24.84  0.003456686    1.356    0.263
       180  -9.4429    192.0603     65.4847   8.0645944030e+01   2.8769454892e+01    0.2083726    0.1456452  59.86  0.000725997    1.561    0.359
       181 -11.1454     33.0268     71.8375   1.3013049671e+02   5.8541478077e+01    0.6005919    0.2907324  24.75  0.002764837    2.280    0.561
       182 -10.4846     38.9644     73.7938   1.2808184942e+02   5.7502519156e+01    0.2817043    0.2186292 -30.64 0.0008638091    1.346    0.257
       183 -11.1809     40.2487     70.0062   1.2664949573e+02   5.8298316534e+01     0.419617    0.3060994  47.39  0.001657858    1.591    0.372
       184  -9.1048     24.3375     73.4696   1.3412003706e+02   5.8845747501e+01    0.2806542    0.1816572  69.38 0.0006576963    1.903    0.474
       185  -9.2702     20.1884     71.5715   1.3552200256e+02   5.9607448864e+01    0.2190308    0.1222965  -7.69  0.001043929    2.379    0.580
       186  -9.1880    230.7763     73.6124   7.7213742277e+01   1.9292822772e+01    0.1669106    0.1316227  80.33 0.0006717652    1.680    0.405
       187  -8.7644    151.3333     73.3280   9.0885793516e+01   3.7089343425e+01    0.1622893    0.1168033  13.40 0.0007051746    1.718    0.418
       188 -11.7814    122.6106     68.1158   9.6430254928e+01   4.4646134795e+01    0.7972859    0.5191358  43.71   0.00271438    1.545    0.353
       189  -9.1625     61.3207     72.8477   1.1876719297e+02   5.5069576409e+01    0.1903677    0.1727236  42.38 0.0004121989    1.211    0.174
       190 -10.1736    161.9669     70.4644   8.7683169618e+01   3.5068861456e+01    0.3631366    0.2889693  82.62  0.001750243    1.638    0.389
       191 -11.5461    219.6824     66.2554   7.6786265470e+01   2.2536970671e+01    0.5823013    0.3854314  56.92  0.002409216    1.676    0.403
       192 -10.5293    172.0448     67.7166   8.4833555157e+01   3.3121017040e+01    0.4261914    0.3243899 -46.47  0.001930333    1.388    0.279
       193  -9.8067    167.7731     63.0278   8.4218842066e+01   3.4862515332e+01    0.2446966    0.2131079  52.16 0.0008695712    1.190    0.160
       194 -10.2777    128.8466     64.4800   9.3516965591e+01   4.3895701918e+01    0.4739226    0.3176406 -59.83  0.001990486    2.033    0.508
       195  -9.4659    111.2221     67.1234   9.9392567555e+01   4.7338810153e+01    0.2416232    0.2115923  55.10 0.0003466317    1.254    0.203
       196 -10.4833     58.5324     62.3261   1.1675757787e+02   5.7908063244e+01    0.7654337     0.380482 -63.33  0.003022865    2.454    0.592
       197  -9.9869    142.9701    249.4953   1.2676755258e+02   8.5367169396e+00    0.1754359   0.08074242  33.23  0.001037662    1.604    0.377
       198 -10.5971     60.6724     36.4150   1.0612711496e+02   6.3137062750e+01    0.4151666    0.1894752 -43.03  0.001223584    2.045    0.511
       199 -11.3100     80.0886     82.8239   1.1459177875e+02   4.9893445094e+01    0.5602834    0.5205473 -87.34  0.002041048    1.205    0.170
       200 -10.2400     21.0193     65.0788   1.3392961937e+02   6.1151607399e+01    0.1958893    0.1809605 -45.49 0.0007263433    1.108    0.098
       201  -9.6343    198.1735     62.8587   7.8935367781e+01   2.7735355278e+01    0.3073895    0.1724307 -40.05  0.001077618    1.712    0.416
       202 -10.1411    105.8548     62.5656   9.9464806081e+01   4.9376968952e+01    0.4480968    0.3174005  87.85  0.001787075    2.616    0.618
       203 -10.0452    207.8420     68.2419   7.8975004862e+01   2.4830839319e+01    0.3979806     0.184451  43.72  0.001641121    2.394    0.582
       204 -10.7343    159.5637     61.6656   8.5423658764e+01   3.7052946760e+01    0.4862515    0.2872791  38.73  0.002057882    1.836    0.455
       205  -9.4077    174.9991    246.4956   1.2067418239e+02   4.8816846245e+00    0.1725913   0.08083133  32.30  0.000550728    1.588    0.370
       206  -9.9178    198.5745    244.5022   1.1631874064e+02   2.1664272658e+00    0.2268405   0.08039589  33.63  0.001205621    2.146    0.534
       207 -10.9114    128.1512    242.1462   1.2874797404e+02   1.1350309469e+01    0.3014599    0.2565608  14.72  0.002382249    1.216    0.178
       208 -10.6652    150.0395    237.9926   1.2420352629e+02   9.1086136055e+00    0.2170237    0.1203222  32.40  0.001358494    1.368    0.269
       209 -11.7489    119.3755     58.2662   9.3928528381e+01   4.7193073010e+01      1.19097    0.6506265  48.65  0.004903693    1.845    0.458
       210  -9.4344     15.3586    233.5761   1.4931560966e+02   2.4895269436e+01    0.1662877    0.1091416 -85.78  0.001154679    1.594    0.373
       211 -10.6650    242.4700    231.7255   1.0729476206e+02  -1.8334350702e+00    0.2023578    0.1578252  51.62  0.001316313    3.115    0.679
       212  -9.7524    147.6019     60.5815   8.7636732988e+01   4.0119246935e+01    0.3816273    0.1540941  57.21   0.00130765    2.701    0.630
       213  -9.3553    228.7174     59.3831   7.3862372953e+01   2.1508302717e+01    0.1763569    0.1221542  48.48 0.0003394595    1.596    0.373
       214 -10.4041    198.1629    231.6172   1.1465369655e+02   3.6251445278e+00    0.1696503   0.07964074  25.45 0.0009568731    1.759    0.432
       215 -10.1885    139.4680     43.9306   8.3688414240e+01   4.4709925465e+01    0.4870226      0.23625  44.75   0.00188882    2.093    0.522
       216 -11.2844    136.6119     55.9906   8.8635998748e+01   4.3525286186e+01    0.7202687    0.5073882 -21.19  0.002506377    1.486    0.327
       217  -9.0609     23.2360    231.6094   1.4781788436e+02   2.4535990451e+01    0.1265106   0.08336591  28.59 0.0004872873    1.521    0.342
       218 -10.7419    157.4686     56.5311   8.4192925151e+01   3.8358304931e+01    0.4386654    0.2898314  47.91 0.0007181321    1.515    0.340
       219 -11.3463    156.6666     53.3176   8.3298298293e+01   3.9041867656e+01    0.7787442    0.4321988 -40.48  0.002913959    1.809    0.447
       220  -9.9497     67.1564     55.1017   1.1073654111e+02   5.8224080409e+01    0.2432456     0.220377 -28.58 0.0006404181    1.009    0.009
       221  -9.7699      2.0725     56.0104   1.4101699583e+02   6.4361949897e+01    0.1915682    0.1522695 -59.70 0.0005230405    1.053    0.050
       222  -9.4280    188.1269     55.1057   7.8252387073e+01   3.1137883642e+01    0.2291466    0.1888836  22.88 0.0007122322    1.308    0.236
       223  -9.9576    249.2352     53.0382   7.0056695431e+01   1.8142969801e+01    0.1943737    0.1908311 -83.44 0.0006153293    1.202    0.168
       224 -11.0792    239.9796     50.3549   7.0334319788e+01   2.0276738532e+01    0.3716607    0.3131721 -55.53  0.001455994    1.248    0.199
       225 -10.2791    244.4923     50.4901   6.9910440386e+01   1.9360039355e+01    0.2572795    0.1830545 -42.65 0.0009018431    1.290    0.225
       226 -11.5069    105.6074     33.1067   8.8053675367e+01   5.4572697210e+01    0.6359784    0.3786534   8.24  0.001113084    2.620    0.618
       227 -10.0267    203.8888     52.1111   7.5077488886e+01   2.7855264783e+01    0.2747343    0.2463581 -81.23 0.0004607016    1.255    0.203
       228 -11.1826    202.5121     47.1895   7.3870600300e+01   2.8794133731e+01    0.6225342    0.4833365 -41.11  0.003401448    1.230    0.187
       229 -11.2183    173.7287     48.1057   7.8458304608e+01   3.5575017503e+01    0.6126562    0.3770921  61.19  0.001940703    1.691    0.409
       230 -10.0060    176.6337     43.2095   7.6436520220e+01   3.5510284894e+01    0.3579799    0.2725501 -78.24  0.001604511    1.607    0.378
       231  -9.8317     90.5658     48.1517   9.9138981292e+01   5.5334849428e+01    0.2614312    0.2344922  87.34 0.0006767901    1.442    0.307
       232  -9.3819      3.7076     49.0624   1.3905693498e+02   6.5983394272e+01    0.1934766    0.1631648  22.89  0.001275897    1.434    0.303
       233  -9.6289     14.1407     46.6742   1.3320370436e+02   6.6050809844e+01    0.4081316    0.1196623 -47.69   0.00161995    2.667    0.625
       234  -9.6182     17.8591     41.9726   1.3001055153e+02   6.6927053150e+01     0.300022    0.1861665 -13.53  0.001594567    1.850    0.459
       235  -9.3920    193.1068     45.8722   7.4777636997e+01   3.1169297128e+01    0.2218873    0.1845448 -61.48   0.00110053    1.306    0.235
       236  -9.4795    132.3536     44.9994   8.5718690954e+01   4.6311550631e+01    0.2749037     0.220139  15.18 0.0008453751    1.358    0.264
       237 -10.0686    161.7670     43.7612   7.9143115564e+01   3.9141266763e+01    0.4252604     0.234419  60.73  0.001803763    1.856    0.461
       238 -11.7130    156.2047     41.7032   7.9476273442e+01   4.0821141621e+01    0.4251941    0.3839185  25.55 0.0008462723    1.119    0.107
       239 -11.2196    153.5544     36.4028   7.8136682745e+01   4.2200581811e+01    0.3666933    0.3258225 -49.40 0.0007875522    1.180    0.152
       240 -10.3194    100.4678     43.5858   9.3992150529e+01   5.4047867624e+01    0.4588149    0.3455862 -80.67  0.002049411    2.133    0.531
       241 -11.2611     93.9056     41.4220   9.5252848645e+01   5.5853596659e+01    0.5410634    0.3342471  41.48  0.001585278    1.623    0.384
       242  -9.4134      2.9989     44.5183   1.3856790499e+02   6.7101103346e+01    0.2212471    0.1241625   5.88 0.0007017778    2.119    0.528
       243 -10.0082    189.4846     37.9945   7.2932124292e+01   3.3015080643e+01     0.584483    0.1591265 -20.30  0.001556801    5.111    0.804
       244 -10.3935    190.1246     32.7274   7.1257994845e+01   3.3481555215e+01    0.3413246    0.3076701 -48.96  0.001069426    1.091    0.084
       245 -10.0741    189.5131     27.6224   6.9790735603e+01   3.4207804606e+01    0.3965945    0.2770118   9.14  0.001544114    1.751    0.429
       246 -11.5183     69.9902     32.5935   1.0035100147e+02   6.2221774854e+01    0.5740041    0.3040738  37.40 0.0006459927    1.949    0.487
       247 -11.1820     81.7578     39.4412   9.8737598510e+01   5.8721107221e+01    0.5116892    0.3636234  48.44  0.001646781    1.530    0.346
       248 -10.8215     78.0094     34.5825   9.8031581386e+01   6.0331714235e+01    0.4268131    0.3077953  44.04  0.001160759    1.447    0.309
       249 -11.0758     82.3543     31.5534   9.5011386813e+01   5.9971814763e+01    0.4427479    0.3908423  50.80  0.001880455    1.275    0.216
       250 -10.5266    231.2953     39.0892   6.8371699824e+01   2.3350720673e+01    0.3825524    0.1744939 -38.26  0.001585702    1.876    0.467
       251 -10.7144    176.8683     37.2465   7.4513060864e+01   3.6208386923e+01    0.4180007    0.2890735 -19.00  0.001816994    1.470    0.320
       252 -10.5633    172.3543     33.5702   7.4016984044e+01   3.7787780409e+01     0.428252    0.3091907  62.06  0.001796734    1.399    0.285
       253 -10.2320    175.8903     29.6510   7.2229702072e+01   3.7361252384e+01    0.3358685     0.303882   1.40   0.00100232    1.147    0.128
       254  -9.1034    189.9760    229.9747   1.1587392504e+02   4.8759344971e+00     0.138352      0.10073  18.87 0.0004620164    1.011    0.010
       255  -9.7532      9.1335    227.1985   1.5024690966e+02   2.6464927267e+01    0.1369052    0.1125672  54.00 0.0003465186    1.166    0.143
       256 -10.8102     22.7644     36.5947   1.2566101207e+02   6.7802602279e+01    0.3630554    0.2676294  49.05  0.001410316    1.769    0.435
       257 -10.2241    206.7479     37.0305   7.0464973802e+01   2.9032298329e+01    0.3130842    0.2108431 -41.99 0.0008037466    1.398    0.285
       258  -9.9608    133.3478     37.1929   8.2566631447e+01   4.7212268004e+01    0.4571346    0.3163396 -84.02  0.001954879    2.152    0.535
       259 -10.5374      4.9378     35.9942   1.3565591774e+02   6.9043576152e+01    0.3088229    0.2729608  27.87  0.001817653    1.385    0.278
       260  99.0000      6.3204     30.9995   1.3355225158e+02   7.0143416472e+01    0.4336876    0.2472015  -3.05  0.002224693    2.024    0.506
       261  -9.3032    218.3084     38.9476   6.9684492541e+01   2.6186963550e+01    0.1951056    0.1598575 -25.93 0.0007912936    1.119    0.106
       262  -9.0568     94.1809     36.1799   9.2935447423e+01   5.6683414437e+01     0.194755    0.1783032 -70.58 0.0007576109    1.355    0.262
       263  -9.6860    234.5118    222.5301   1.0717773600e+02   1.6896516893e-02    0.1125687    0.0778132   9.67 0.0001032536    1.017    0.017
       264 -10.4673    144.3055     25.0970   7.5764227562e+01   4.5980892575e+01    0.5139362    0.3241394  76.74  0.002285451    1.832    0.454
       265 -10.0698      9.8738    217.6713   1.4982182887e+02   2.8030522939e+01    0.1570364    0.1215341  88.71 0.0005913862    1.319    0.242
       266 -10.2457    160.8223     33.2836   7.5771250076e+01   4.0745671476e+01    0.3740198    0.3198647 -64.35  0.001273855    1.280    0.218
       267  -9.5069    166.8965    213.4192   1.1784466235e+02   1.0124595885e+01    0.2088121    0.1502951  76.15 0.0009563748    3.527    0.716
       268 -11.0384    140.5094     20.4570   7.4710442512e+01   4.7496595443e+01    0.7870433    0.2807702  49.33  0.002790178    2.635    0.621
       269  -9.3359    152.9553    207.9596   1.1981899694e+02   1.2890504887e+01    0.1820619    0.1362024  53.87  0.001029369    1.679    0.404
       270 -11.7585     47.7119     30.6485   1.0977103823e+02   6.6270168118e+01    0.7538552    0.3407554  27.66  0.002727373    2.550    0.608
       271 -10.8692     56.9078     30.7222   1.0529412302e+02   6.4848240031e+01    0.5802361    0.2835817  25.81  0.001312455    2.590    0.614
       272 -10.5389    240.9699     30.9440   6.5434818646e+01   2.2212731276e+01    0.3832719    0.2594496 -11.69  0.002168967    1.545    0.353
       273  -9.1584    182.5124     32.0237   7.2055839891e+01   3.5433232587e+01       0.2105    0.1344938 -26.83 0.0004184642    1.504    0.335
       274  -9.5725    210.9393     30.1203   6.8065751033e+01   2.8840638696e+01    0.2425699    0.1778656 -30.99 0.0007323864    1.243    0.195
       275  -9.5774    203.3072     27.5657   6.8168856465e+01   3.0896102892e+01    0.2139126    0.1664864 -15.77 0.0007156946    1.297    0.229
       276 -10.9027    198.0318     28.8402   6.9133140612e+01   3.2010577890e+01    0.5327911    0.3414692  61.44  0.002692855    1.602    0.376
       277 -10.3209    199.8324     24.8705   6.7773328306e+01   3.2009859323e+01    0.3107681    0.2425907  17.81 0.0009359624    1.490    0.329
       278  -9.7960    100.5065     30.0593   8.8249363801e+01   5.6217352379e+01    0.3347867    0.2279382  17.14   0.00138585    1.741    0.426
       279 -10.0646    238.7408    204.3621   1.0359074200e+02   1.3856174140e+00    0.1876322    0.1227145 -28.76  0.001252315    1.680    0.405
       280 -10.4710      4.4980    204.5825   1.5045068260e+02   3.0789812150e+01     0.331648    0.1206745 -75.41  0.001850478    2.683    0.627
       281 -12.5857      5.4249    185.5574   1.4962570120e+02   3.4329759656e+01    0.9080627    0.4442317  85.32  0.005479516    1.842    0.457
       282  -9.1750    176.5141    202.4731   1.1436042861e+02   1.0262433566e+01    0.1249426   0.09721576  15.78 -8.757032e-06    1.051    0.049
       283  -9.9643    245.4813    200.9869   1.0194655741e+02   8.8306633947e-01    0.1574275   0.09258216 -21.04 0.0004928137    1.532    0.347
       284  -9.5403    230.8824     30.5302   6.6216932558e+01   2.4369403521e+01    0.2111799    0.1556636 -42.66 0.0003549524    1.216    0.178
       285  -9.5989    250.5382     25.0658   6.3253458790e+01   2.0887067308e+01    0.1876417    0.1031404 -27.05 0.0004414878    1.541    0.351
       286 -11.1360    214.8853     23.5701   6.5868163955e+01   2.8632943333e+01    0.4248754    0.3250977 -11.60  0.001339295    1.362    0.266
       287  -9.9772    134.0380     24.6807   7.7595902079e+01   4.8675754793e+01    0.4633293    0.2980379 -54.96  0.001788992    1.916    0.478
       288 -10.1920    234.0432    196.8631   1.0309440202e+02   2.8282426314e+00    0.2934709    0.1798326   1.74  0.001219825    1.458    0.314
       289 -11.0428     17.0905    192.5925   1.4743074683e+02   3.2044587003e+01    0.2019216     0.161801  50.81 0.0004011904    1.113    0.101
       290  -9.7159    169.4703    191.2746   1.1397365045e+02   1.2935882348e+01     0.309762    0.1471595  22.69  0.001108594    2.447    0.591
       291  -8.7581    168.3332    188.2913   1.1371513772e+02   1.3561709657e+01    0.1307364   0.08739323   7.54 0.0007021836    1.633    0.388
       292 -10.0404    212.5684    181.9996   1.0416364507e+02   7.6737741428e+00    0.2327116    0.1391549  14.94  0.001284006    1.625    0.384
       293  -9.4695    250.1156    180.3329   9.7596380257e+01   2.5276173470e+00    0.2119936    0.1284157 -11.81  0.001320787    1.391    0.281
       294  -8.9947     57.3105    175.0247   1.3709880515e+02   3.1705535761e+01    0.1642874    0.1443288  80.42 0.0004852128    1.097    0.089
       295  -9.7635     51.9636    174.2385   1.3831242407e+02   3.2453591115e+01    0.2579236    0.1258666  72.87  0.001188137    2.610    0.617
       296  -9.4974    223.2352     22.3855   6.4786099073e+01   2.6879409706e+01    0.2369781    0.1953159 -78.60 0.0007653155    1.280    0.219
       297 -10.2528    220.8018     19.1104   6.4132550255e+01   2.7749456008e+01    0.2198123    0.2053098   6.19 0.0004514347    1.182    0.154
       298  -9.6356    248.0189    173.6375   9.6688304136e+01   3.5734906397e+00    0.2999482    0.1104438  23.43  0.001128863    4.162    0.760
       299 -10.1202     66.2588     22.0239   9.6792793095e+01   6.4731983751e+01    0.2401012    0.1985561  37.76 0.0004270191    1.260    0.207
       300 -10.1766     39.4692    173.2962   1.4122978279e+02   3.3928948766e+01    0.2118951    0.1028671 -69.08  0.001001335    2.021    0.505
       301 -11.0820     35.2208    170.7007   1.4205164362e+02   3.4881325348e+01    0.3061409    0.1947269  84.39  0.001106866    1.515    0.340
       302  -9.9304      8.8752    155.9146   1.4754360958e+02   4.0226595034e+01    0.2335217    0.1867222  51.92  0.001508547    1.167    0.143
       303 -11.8427      9.2528    166.7420   1.4798758017e+02   3.7880370463e+01    0.5360309    0.3712063 -71.02  0.002978424    1.452    0.311
       304  -9.5013      1.8614     20.4691   1.3331815194e+02   7.2733919974e+01    0.1643577     0.114183  -6.96  0.001011122    1.558    0.358
       305 -10.6378     14.2331    159.9553   1.4644472679e+02   3.8960320820e+01     0.261041     0.193538  81.29 0.0006438643    1.155    0.134
       306  -9.5927    225.1226     16.8614   6.3180970524e+01   2.7012150990e+01     0.202934    0.1545723 -54.93 0.0006389589    1.246    0.198
       307  -9.7009    191.4735     16.8950   6.6324515182e+01   3.4853492265e+01    0.2593027       0.2023  34.40  0.001013808    1.432    0.302
       308 -10.3123     13.5031    156.5504   1.4643190965e+02   3.9754800779e+01    0.1930726    0.1783116 -55.75 0.0005218008    1.312    0.238
       309  -9.3598    198.1154    167.8399   1.0418446439e+02   1.1872496573e+01    0.1847017    0.1650902   5.42 0.0006054446    1.185    0.156
       310  -8.8916    149.4647    168.5211   1.1433258681e+02   1.9821289584e+01    0.1342496    0.1186416  21.44  0.000399707    1.024    0.023
       311 -10.1171     18.7700    165.2974   1.4565097335e+02   3.7460184750e+01    0.2470503    0.2154901 -20.37  0.001570651    1.539    0.350
       312 -10.1383    206.2940    162.5471   1.0162736264e+02   1.1300011491e+01    0.4712767    0.2685442  17.40  0.001423283    1.938    0.484
       313  -9.6260    219.2663     12.7586   6.2574050115e+01   2.8709682325e+01    0.3063035    0.1260455  60.61  0.001363997    2.464    0.594
       314  -9.7511    188.9346    164.0394   1.0522188214e+02   1.3948730156e+01    0.2175192    0.1436477   3.06  0.001102438    1.673    0.402
       315  -9.0012     94.5282     12.4439   8.1792829650e+01   5.9966588823e+01    0.1421451    0.1318561  21.55 0.0004335681    1.037    0.035
       316 -10.2512     28.3207    163.0231   1.4317505280e+02   3.7149570906e+01    0.3136086    0.1434315 -69.50  0.001631331    2.056    0.514
       317 -10.1261     80.7025    159.9584   1.2954868732e+02   3.2037999642e+01    0.3455166    0.2684794  30.25  0.002026279    1.274    0.215
       318  -9.0562    223.9939    156.7467   9.7331647084e+01   9.2429719654e+00    0.1598531   0.09946306  34.64 0.0007977952    1.561    0.359
       319 -10.5652    104.3176    153.1582   1.2245459497e+02   3.0090544347e+01    0.5069041    0.2723649 -68.18  0.002180417    2.504    0.601
       320 -10.9005     33.2752    144.4224   1.4037918136e+02   4.0857771653e+01    0.2809608    0.2436807  60.56  0.000700018    1.084    0.077
       321 -10.4845     31.4507    154.1373   1.4170605131e+02   3.8824463279e+01    0.3718809    0.2305837  53.87  0.002166583    1.483    0.326
       322 -10.7814     30.4903    148.9770   1.4153042043e+02   4.0068216229e+01    0.3257782    0.2287948  63.02 0.0007989627    1.313    0.239
       323 -10.1262     23.1191    155.2011   1.4392694649e+02   3.9301813983e+01    0.2586954    0.1658295  20.94  0.001492046    1.771    0.435
       324 -10.1209     14.3392    133.2982   1.4470494192e+02   4.4944102783e+01    0.2806746    0.1571672  63.09  0.001535552    1.714    0.416
       325 -10.8509     10.5146    127.3333   1.4536113013e+02   4.6593355842e+01    0.4870239    0.2016582 -58.85   0.00168929    2.262    0.558
       326 -11.5813     12.4113    138.3548   1.4559282867e+02   4.3909071489e+01    0.7935865    0.3219654  65.75  0.003604047    2.600    0.615
       327 -11.9149     22.4982    149.5660   1.4368423993e+02   4.0608284381e+01    0.5809494    0.3268166 -31.14  0.002893258    2.814    0.645
       328 -10.5623     81.6180     19.1048   8.9280911222e+01   6.2046016904e+01    0.3781896    0.2184809  44.63 0.0005846599    1.671    0.401
       329 -10.5996     15.8750    147.9395   1.4530218676e+02   4.1485936052e+01    0.3686951    0.2146595  45.25  0.001431187    1.579    0.367
       330  -9.1840    140.9586    153.7654   1.1355277168e+02   2.3942745467e+01    0.1829756    0.1083635  35.90 0.0003352409    1.571    0.363
       331 -10.1833     72.2783    151.5873   1.3062262279e+02   3.4964978423e+01    0.4413923    0.2135679  48.40   0.00199997    2.089    0.521
       332 -11.9904      5.3524    147.5856   1.4799893519e+02   4.2296209676e+01    0.5518246    0.4207456 -83.11  0.002682076    1.179    0.152
       333  -9.8401      7.9938    144.2492   1.4713576047e+02   4.2868515859e+01    0.1916749    0.1529907  54.06 0.0003205951    1.178    0.151
       334 -11.1846      3.8107    141.1687   1.4806513450e+02   4.3829581433e+01    0.3759121    0.2413073  25.48  0.001401926    1.709    0.415
       335 -11.8824      3.8299    136.4052   1.4780302952e+02   4.4908476825e+01    0.2576138    0.2094375 -77.68 0.0004549072    1.162    0.140
       336  -9.7537    214.7443    152.0109   9.7975038895e+01   1.1394678058e+01     0.167799    0.1013435 -28.15 0.0005608228    1.549    0.355
       337 -11.0559     62.4850    149.7561   1.3301365679e+02   3.6583663701e+01    0.4725625    0.3819347  50.68  0.002017325    1.168    0.144
       338 -10.3762     48.0727    151.6954   1.3710612636e+02   3.7759289998e+01     0.710706    0.1831453  42.13  0.002677125    3.297    0.697
       339 -11.0455     48.0156    147.9858   1.3672451523e+02   3.8604916769e+01    0.7007909    0.1983664  27.11  0.002601495    3.569    0.720
       340  -9.9339     46.4752    144.5481   1.3676890024e+02   3.9551492903e+01    0.3173045    0.2181272 -29.11 0.0007074904    1.993    0.498
       341 -10.0673     56.5137    149.1783   1.3455710229e+02   3.7407303137e+01    0.2114363     0.173761  84.89 0.0007091101    1.176    0.150
