#   1 NUMBER                 Running object number                                     
#   2 MAG_AUTO               Kron-like elliptical aperture magnitude                    [mag]
#   3 X_IMAGE                Object position along x                                    [pixel]
#   4 Y_IMAGE                Object position along y                                    [pixel]
#   5 X_WORLD                Barycenter position along world x axis                     [deg]
#   6 Y_WORLD                Barycenter position along world y axis                     [deg]
#   7 A_WORLD                Profile RMS along major axis (world units)                 [deg]
#   8 B_WORLD                Profile RMS along minor axis (world units)                 [deg]
#   9 THETA_WORLD            Position angle (CCW/world-x)                               [deg]
#  10 FWHM_WORLD             FWHM assuming a gaussian core                              [deg]
#  11 ELONGATION             A_IMAGE/B_IMAGE                                           
#  12 ELLIPTICITY            1 - B_IMAGE/A_IMAGE                                       
         1 -12.7757     40.0736     32.2521   7.6301763539e+01   6.6061535506e+01    0.3711484    0.2575832 -16.61 0.0005656218    1.314    0.239
         2 -11.4123     75.5131     21.7717   5.7666028822e+01   6.1504534541e+01    0.3872336    0.3206878  83.69  0.001379955    1.823    0.452
         3 -11.1449      1.9986     21.0937   9.1815711909e+01   7.1724562039e+01    0.3307641    0.2190202 -29.10  0.002243953    1.150    0.131
         4 -10.7776     14.6587      8.8771   7.8639381598e+01   7.2487340872e+01    0.2827479    0.1488295   4.66 0.0005674714    2.036    0.509
         5  -8.3731     20.3428     17.4583   7.9639267676e+01   7.0676999301e+01    0.3616123    0.1469117 -29.89   0.00175235    2.419    0.587
         6 -11.3909     13.5934     15.5880   8.2556560280e+01   7.1644798513e+01    0.3441318    0.2540805 -35.63    0.0013972    1.417    0.294
         7 -11.9829     83.6390     14.9500   5.2343172861e+01   6.0578457894e+01    0.4649056    0.2686366  18.16 0.0006127204    2.106    0.525
         8 -11.7717    234.8500     15.0316   2.9947569327e+01   2.6428419103e+01    0.2290517    0.1674405 -68.88  0.000293015    1.079    0.073
         9 -10.8329    172.0353     11.9265   3.4996032448e+01   4.0514129223e+01    0.1877663    0.1573414 -89.09 0.0003353565    1.031    0.030
        10 -11.5807    208.0140     13.1597   3.1690425259e+01   3.2248574939e+01    0.1962002     0.158537 -54.00 0.0005582125    1.204    0.169
        11 -10.4108     72.1490     12.6852   5.4886501328e+01   6.3123775730e+01      0.31503     0.201996 -32.66  0.001805774    1.797    0.443
        12 -11.6452     34.8291     12.6353   6.9777491327e+01   6.9505783137e+01    0.3034729    0.2488867   7.37 0.0008665651    1.124    0.111
        13 -11.7396     30.4058      7.6065   6.9412538272e+01   7.0724947402e+01    0.4610107    0.2609503  24.79  0.002753249    1.545    0.353
        14 -10.7587     28.2983      2.4379   6.7744445494e+01   7.1599289104e+01    0.2445901    0.1647639 -18.50  0.001568277    1.394    0.283
        15 -10.2002     40.5486      7.5513   6.4549656351e+01   6.9242151868e+01    0.2000154    0.1290048  28.74 4.006426e-05    1.296    0.229
        16 -10.4901     37.5330      6.4696   6.5377365557e+01   6.9821680437e+01    0.2101112    0.1856418  12.36 0.0009930183    1.305    0.234
        17 -11.1691    192.9265     11.8375   3.2772441448e+01   3.5727710665e+01    0.1824415    0.1563074  64.11 0.0009930271    1.282    0.220
        18 -12.2399    127.0612     10.3294   4.0891599510e+01   5.1276030331e+01    0.6035237    0.3192061  77.31  0.001345763    2.012    0.503
        19 -11.2196    117.2250      8.9924   4.2227992640e+01   5.3683305732e+01    0.4289569    0.2908616 -84.57    0.0023187    1.848    0.459
        20 -10.9256     22.5084      9.2399   7.4397281968e+01   7.1548924676e+01    0.2988892    0.1681601  11.08   0.00115027    1.741    0.426
        21 -10.4583      2.2989      6.7818   8.5150059988e+01   7.3935870249e+01    0.2271085    0.1709575  -8.52 0.0008829116    1.089    0.082
        22  -9.9176     45.5342     10.0576   6.3604970853e+01   6.8180404420e+01     0.199015    0.1359346  18.29 0.0008258198    1.257    0.204
        23 -10.5643     57.0039      8.0529   5.8037197224e+01   6.6426338402e+01    0.1732663    0.1411497  13.71 0.0005066973    1.080    0.074
        24  -9.3278     54.6283      5.5669   5.7743111734e+01   6.7088948434e+01    0.3133229    0.1756222  17.87  0.001688233    1.898    0.473
        25 -10.9160     58.1602      2.6830   5.5065802891e+01   6.6709227319e+01    0.2874191     0.265715 -63.07 0.0008869124    1.637    0.389
        26 -10.4252    188.4037      6.7666   3.2016158379e+01   3.7256009554e+01    0.1481198    0.1202032 -13.42 0.0007177946    1.674    0.403
        27 -10.1530    165.4862      7.5328   3.4611328991e+01   4.2463923938e+01    0.1256193    0.1058266  79.75 1.319612e-05    1.033    0.032
        28  -9.7175     97.8949      7.1786   4.5604551915e+01   5.8213558312e+01    0.1773196    0.1569346  74.54 0.0004100575    1.236    0.191
        29 -11.2097    150.5296      5.6525   3.5941763806e+01   4.6148237978e+01    0.2761019    0.1829021 -76.89 0.0008045276    1.610    0.379
        30 -10.0090     70.4452      6.0206   5.2503632697e+01   6.4075529292e+01    0.2386634    0.1982859  14.65  0.001606926    1.139    0.122
        31 -10.2990     74.7282      3.9011   5.0277954189e+01   6.3398422031e+01    0.2846816    0.1211001  42.60 0.0009779853    1.935    0.483
        32 -10.6936     80.2157      1.4814   4.7709516260e+01   6.2462660858e+01    0.2594457     0.117684  51.21 0.0006254783    1.733    0.423
        33 -10.7258    160.1771      4.8532   3.4521799337e+01   4.3949179639e+01    0.1672505     0.132503  51.63 0.0003156896    1.323    0.244
        34 -10.5407    104.4443      3.9717   4.2986572943e+01   5.7009170524e+01    0.2648305    0.2070182 -19.91  0.001129986    1.488    0.328
        35 -12.0727    216.9216      8.5308   2.9971605116e+01   3.0830071563e+01    0.3454863    0.2085456 -39.56  0.001765304    1.631    0.387
        36 -10.9843     20.9331      2.1578   7.1500906545e+01   7.2604452580e+01    0.3219891    0.1525641  28.89  0.001193927    1.865    0.464
        37 -10.4927    237.8123      2.3505   2.7300933458e+01   2.7210824267e+01    0.1477138   0.08644821  71.39  0.000392387    1.675    0.403
        38  -9.4723      1.0000      1.7871   8.3421628331e+01   7.4745472945e+01    0.1589949   0.05221679 -42.37  0.000780753    2.794    0.642
        39 -10.2592     10.8791      1.3131   7.6879316224e+01   7.3869744062e+01      0.16813   0.08586259  29.50 0.0002857069    1.870    0.465
        40  -9.7619      6.0319    192.2308   1.1981994556e+02   3.2182622666e+01    0.1736117    0.1414422  81.54  0.001157005    1.026    0.026
        41 -10.9301     27.1104    250.2809   1.1913754025e+02   1.7511417119e+01     0.391925    0.0685944  41.00  0.001593134    3.360    0.702
        42 -11.9199     18.0287    248.9667   1.2077681360e+02   1.8727346420e+01    0.2825148    0.2439469 -46.40  0.002076628    1.693    0.409
        43 -11.3590      1.8718    247.6573   1.2368123036e+02   2.0570587994e+01      0.90611    0.1549003 -79.64  0.003173534    5.612    0.822
        44 -12.1794      4.1164    232.8188   1.2257538196e+02   2.3358196316e+01    0.4076419     0.248081 -82.81   0.00262501    1.454    0.312
        45 -12.7041     10.5051    244.5267   1.2195190166e+02   2.0364649131e+01    0.7589397    0.2705043 -88.18  0.003596484    2.849    0.649
        46 -12.0582      6.5199    240.9683   1.2252046296e+02   2.1464375717e+01    0.3818822    0.2466256  87.84  0.002570574    1.320    0.243
        47  -9.2175      7.3227    188.2728   1.1924965813e+02   3.3009029912e+01    0.1154794   0.08640885 -49.79 0.0003043233    1.574    0.365
        48  -9.1255     22.3349    180.2646   1.1500461794e+02   3.3627109678e+01    0.1226416   0.09285583 -43.00 0.0003202559    1.584    0.369
        49 -10.3066      4.5084    167.4842   1.1834546737e+02   3.8244537196e+01    0.1277599    0.1035899 -87.21 0.0004468459    1.001    0.001
        50  -9.4338    226.3462    163.8699   6.2686970604e+01   4.5244243470e+00     0.200739    0.1104481 -31.20  0.000931818    1.709    0.415
        51 -10.7729      4.4848    158.8300   1.1762381320e+02   4.0377998996e+01    0.2235062    0.1851991 -88.90  0.001446948    1.038    0.037
        52 -11.3483      6.2193    153.3223   1.1666506001e+02   4.1626039140e+01    0.5833642    0.2052469  13.76  0.002296044    4.035    0.752
        53  -9.4883     27.4537    147.0912   1.1000254660e+02   4.1519980170e+01    0.2034783    0.1177242 -70.38 0.0004634454    1.492    0.330
        54 -10.3820     12.3528    147.0278   1.1433730465e+02   4.2768266741e+01    0.1917767    0.1426346 -74.56 0.0003897554    1.118    0.105
        55  -9.7556    236.3014    138.9567   5.5830011979e+01   7.3098752656e+00    0.1964565    0.1552357 -32.91 0.0007554682    1.092    0.084
        56  -9.4505      2.2710    138.3404   1.1630331824e+02   4.5621493945e+01    0.1335821   0.07689107 -51.93 0.0002425766    1.607    0.378
        57 -10.7162      3.2683    134.1395   1.1557482709e+02   4.6610781319e+01    0.3434729    0.2019608  74.00  0.001254614    1.863    0.463
        58 -10.1525    212.4949    133.9465   5.8746646339e+01   1.2524436926e+01    0.2380117    0.2029841  77.41   0.00054798    1.476    0.323
        59  -9.6692     96.1534    133.8545   8.6699182739e+01   3.5851413734e+01    0.2180569    0.1814797 -26.01 0.0005738802    1.306    0.235
        60  -9.0697     61.6690    130.6885   9.6766422220e+01   4.1981214979e+01    0.1545498    0.1070992 -29.87 0.0004717782    1.673    0.402
        61  -9.5439     40.3143    130.3349   1.0356746911e+02   4.4592876555e+01    0.1504699   0.09495816 -38.35   0.00042568    1.688    0.408
        62 -10.6974     12.3679    129.3759   1.1226809181e+02   4.7227061839e+01    0.2686708    0.1444328 -72.92  0.001331722    1.574    0.365
        63 -10.8004     28.4910    128.1068   1.0700237184e+02   4.6295213666e+01    0.2188481     0.202541  18.74 0.0003382188    1.250    0.200
        64  -9.5943     47.2178    127.1704   1.0076999749e+02   4.4658701132e+01    0.1872228    0.1601712  69.44 0.0004123806    1.302    0.232
        65 -11.2129     24.1072    122.0282   1.0747995474e+02   4.8211945935e+01     0.230175    0.2118468  29.49 0.0002693082    1.259    0.206
        66 -10.4375     17.9905    121.9322   1.0946739942e+02   4.8708316640e+01    0.1964135    0.1662696 -59.81  0.001201548    1.041    0.039
        67 -11.0480      9.6553    120.6522   1.1198942294e+02   4.9595928732e+01    0.3936108    0.1708045 -65.63  0.001821901    1.805    0.446
        68 -10.4435     69.0365    116.9639   9.1407576343e+01   4.4435626113e+01     0.226097    0.2068372 -40.85            0    1.028    0.027
        69 -11.5525      2.2506    112.8909   1.1338135749e+02   5.1945147957e+01    0.7181147    0.1550152 -50.61  0.002607433    3.331    0.700
        70 -11.0713     13.8471    110.6182   1.0914628926e+02   5.1826114031e+01    0.3630874    0.1484236 -80.74  0.001382184    2.973    0.664
        71 -10.5253     45.3424    110.7915   9.8169144954e+01   4.9014572090e+01    0.2326569    0.2166196 -27.08 0.0003621572    1.096    0.087
        72  -9.9605     64.9451    109.5382   9.1045953252e+01   4.6855013821e+01    0.2115692    0.1465486  28.89 0.0003633559    1.542    0.352
        73 -11.1845     55.5715    108.3718   9.4036130728e+01   4.8397193586e+01    0.4677694    0.2713676   0.30  0.001142156    2.641    0.621
        74  -9.9445     22.4694    109.5195   1.0597219995e+02   5.1481746799e+01    0.1354801    0.1155123 -59.39 5.085439e-05    1.022    0.021
        75 -10.8783      1.5899    104.2668   1.1243422659e+02   5.4087371092e+01     0.241648    0.1239637 -60.37 0.0009251955    1.496    0.332
        76  -9.8519     16.9633    105.0000   1.0713758440e+02   5.3002378073e+01    0.1852849   0.07663225  17.12 0.0003884377    2.841    0.648
        77  -9.6367    246.6809    101.6866   4.6521401358e+01   1.1874458129e+01    0.1223977   0.09865633  -8.15 0.0004209887    1.650    0.394
        78  -9.3345     91.8832     99.8948   7.9451876037e+01   4.4769935411e+01    0.1888846    0.1763451  87.61 0.0009952531    1.245    0.197
        79 -10.4856      3.8331     96.3492   1.1044737741e+02   5.5887549600e+01    0.2145087    0.1505569 -75.03 0.0005772591    1.311    0.237
        80 -11.9965     20.5038     92.9374   1.0358200338e+02   5.5673843842e+01     0.358974    0.2278374 -36.33  0.000519981    1.476    0.323
        81 -11.2055     58.1263     91.3499   8.8850723333e+01   5.2124393079e+01    0.3828452    0.2287637 -24.03 0.0008652111    2.069    0.517
        82 -10.0346     29.0451     91.9820   1.0009554602e+02   5.5212425674e+01    0.2361508    0.1811905  14.04 0.0007207068    1.447    0.309
        83  -9.9251     45.1777     91.3234   9.3731644559e+01   5.3744905561e+01    0.2123519    0.1633396 -41.95  0.001159273    1.147    0.128
        84  -8.9069      1.3499     90.2795   1.1038711678e+02   5.7451637975e+01    0.1344704   0.07270039 -40.44 0.0006403753    1.645    0.392
        85 -11.8330     11.5995     86.7065   1.0579378687e+02   5.7747197671e+01    0.5500958    0.2668712 -86.05  0.002195051    3.294    0.696
        86 -10.2734      7.0344     84.9430   1.0725149151e+02   5.8420719993e+01     0.288451    0.1406818 -58.30  0.000979758    1.584    0.369
        87 -12.0485    125.2487     93.3200   6.7591717361e+01   3.9442939887e+01    0.2855869    0.2694517  55.51 0.0002072968    1.094    0.086
        88 -10.9844     66.2971     91.6450   8.5928697434e+01   5.0897022215e+01    0.4300158    0.2884398 -74.85  0.001533777    2.233    0.552
        89 -11.5132      7.6580     91.2087   1.0815721178e+02   5.6912650312e+01    0.3510299    0.2398535  38.72  0.000424533    1.801    0.445
        90  -9.4182     55.0159     85.2875   8.8352824808e+01   5.3919477123e+01    0.1911528    0.1492264 -73.48  0.000604895    1.634    0.388
        91  -9.3314    145.9904     83.2427   5.9462103679e+01   3.6720991334e+01    0.1921834    0.1264664  52.14 0.0003392224    1.511    0.338
        92  -9.3183     76.5457     82.9893   7.9712733839e+01   5.1185155219e+01    0.2096665    0.1375366 -43.88 0.0003622753    1.465    0.318
        93 -10.0806     89.3288     80.5016   7.4542473408e+01   4.9430563861e+01    0.3203259    0.2215937  70.78 0.0005491193    2.465    0.594
        94  -9.3845    250.3265     80.7053   4.1759769370e+01   1.4555678128e+01    0.1297068   0.08245376 -64.87 0.0005582809    1.625    0.385
        95 -11.6738     48.5579     78.8632   8.9044286305e+01   5.6172229427e+01     0.386047    0.2324363   8.55 0.0008679411    2.019    0.505
        96 -11.9198     55.1887     74.9858   8.5258861382e+01   5.6146319630e+01    0.3043555    0.2341638 -28.95            0    1.200    0.167
        97  -9.2125    141.7123     79.6989   5.9440374160e+01   3.8365341700e+01    0.1479934     0.118571  12.27 0.0002228544    1.560    0.359
        98  -9.2349    124.4874     79.3876   6.3667770016e+01   4.2354166979e+01    0.1484785    0.1428916  56.44 0.0001543776    1.062    0.059
        99  -9.5140     80.4290     79.2773   7.7195219631e+01   5.1297078180e+01    0.1948841    0.1388983 -54.80 0.0009313835    1.583    0.368
       100  -9.6883     31.1855     79.0954   9.6155136772e+01   5.8004089906e+01    0.1996717    0.1532354 -29.45 0.0006674678    1.180    0.152
       101 -10.2240    176.7611     76.9621   5.1408535599e+01   3.0655035704e+01    0.2583405     0.211907  62.31  0.001376808    1.225    0.184
       102  -9.6301    159.3975     77.1915   5.4824872297e+01   3.4675859236e+01    0.2044375    0.1824456  49.69 0.0005503152    1.137    0.121
       103 -10.7971      7.2368     76.3907   1.0546827300e+02   6.0377777512e+01     0.246454    0.1731777  47.22 0.0009514017    1.898    0.473
       104 -10.4031     41.9450     75.1541   9.0648291123e+01   5.7766234114e+01    0.3142434    0.2173429  53.88  0.001573767    2.113    0.527
       105  -9.9049     22.3262     76.1972   9.9104832485e+01   5.9418944702e+01    0.1847763    0.1122209 -67.50 0.0009382878    1.750    0.429
       106 -10.9238     15.7612     75.4675   1.0169180705e+02   6.0065385670e+01    0.3005906    0.2145176 -16.51  0.001781074    1.417    0.294
       107 -10.6957     36.2875     72.3264   9.2187053221e+01   5.8995658988e+01    0.4711182    0.3013812 -52.16  0.001704303    1.439    0.305
       108  -9.5297    198.4664     72.0441   4.6569921422e+01   2.6516919730e+01    0.1942429    0.1303938 -38.22 0.0003400219    1.452    0.311
       109 -12.7593    105.8589     71.0152   6.6283541944e+01   4.7967292813e+01    0.3140503    0.2981094  87.64 0.0005823122    1.221    0.181
       110  -9.6199     32.9903     73.2099   9.3825949689e+01   5.9137631616e+01    0.1790822     0.176905  19.67 0.0003983764    1.257    0.205
       111  -9.5337     92.6930     71.7716   7.0631865774e+01   5.0506928011e+01    0.2277755    0.1154665  51.67 0.0007677256    2.327    0.570
       112 -10.3975     81.1971     68.6807   7.3485315922e+01   5.3264468023e+01    0.4248607    0.2780527 -60.43  0.001895443    2.185    0.542
       113 -10.2730     45.4779     69.3891   8.7462872688e+01   5.8580082982e+01    0.2674046    0.2183585 -40.69  0.001564703    1.147    0.128
       114 -10.2046     10.1850     70.1447   1.0283302142e+02   6.1609637797e+01    0.1583875    0.1437437 -81.82 0.0004741593    1.344    0.256
       115 -10.1419      4.3160     67.3122   1.0474536445e+02   6.2557919358e+01    0.2275525    0.1841065  63.99  0.001446239    1.709    0.415
       116 -10.2552      1.4085     66.4751   1.0583759281e+02   6.2882268103e+01    0.1537263    0.1023041 -67.02 5.421653e-05    1.423    0.297
       117  -9.6649    167.9798     65.7425   5.0005897137e+01   3.4562421213e+01    0.1949895    0.1751936  72.53 0.0001841714    1.079    0.073
       118  -9.8359     51.5642     66.0637   8.3889946291e+01   5.8481882887e+01    0.2225297    0.1659722 -11.61 0.0006830604    1.343    0.256
       119 -11.7404     96.9162     63.9697   6.6680503284e+01   5.1090792237e+01    0.2905595    0.2389789  29.80 0.0002805012    1.171    0.146
       120 -10.5640     15.4178     63.2656   9.8787996869e+01   6.2765013116e+01    0.3140382    0.1985447  -1.07  0.001779953    1.686    0.407
       121 -12.7512     20.8241     57.8852   9.4781627851e+01   6.3479496686e+01    0.4008962    0.2687111 -32.75 0.0006607632    1.255    0.203
       122 -10.4614     62.4887     61.9065   7.8101623334e+01   5.7709945766e+01    0.3306111    0.1806472 -46.88  0.001527422    1.878    0.468
       123 -10.4287     39.0461     60.8046   8.7472366392e+01   6.1096934265e+01    0.4039774    0.1797617 -26.45  0.001534344    3.126    0.680
       124  -9.3317     54.7985     61.3658   8.0991613539e+01   5.8960100985e+01    0.1793194    0.1209952  17.35  0.000283154    1.528    0.345
       125 -10.6034     10.4420     59.1596   9.9968358160e+01   6.3965746648e+01    0.2528858    0.1487396 -31.57  0.001080481    1.482    0.325
       126  -9.7413     85.2942     58.9825   6.8738882298e+01   5.4264336567e+01    0.1951696    0.1684527 -17.34 0.0002160032    1.132    0.117
       127  -9.2012    109.4963     58.3820   6.1060452533e+01   4.9370086618e+01    0.1440495    0.1308163  32.71 0.0001005943    1.035    0.034
       128  -9.6022     48.5635     58.2118   8.2497166851e+01   6.0426253162e+01    0.1894636    0.1115943 -34.10 0.0004949684    1.590    0.371
       129 -10.1382     71.7918     56.4367   7.2612433342e+01   5.7177590730e+01     0.209018     0.170344 -37.22 0.0004283636    1.273    0.215
       130 -10.0818     32.6711     56.0785   8.8760299056e+01   6.2735558523e+01    0.2540878    0.1475178 -27.94 0.0009396505    1.657    0.396
       131 -10.0179      6.3842     56.6410   1.0119710534e+02   6.4735760312e+01    0.3094433     0.143802 -20.83 0.0009693711    2.323    0.569
       132 -12.1318    114.6495     53.1489   5.7904217361e+01   4.9050665302e+01    0.2748365    0.2542716   2.35 0.0003049525    1.112    0.100
       133 -11.4934     87.8188     53.3965   6.5908397418e+01   5.4711236122e+01    0.4914726    0.3462132  -6.82  0.002442407    1.690    0.408
       134 -10.0354    156.0527     53.1818   4.8697180453e+01   3.9323681987e+01    0.3815683    0.1563518 -50.35  0.001371196    3.025    0.669
       135 -11.9250     66.8417     52.7638   7.3136268767e+01   5.8661560778e+01    0.4365568    0.2114215  34.06  0.001799262    2.046    0.511
       136 -10.0246    149.2761     52.1259   4.9685772112e+01   4.1099500083e+01    0.2528044    0.1775972  50.34   0.00071104    1.377    0.274
       137 -11.4872    106.0179     50.5426   5.9362959839e+01   5.1361154437e+01    0.2739493    0.2190786 -17.31 0.0003801385    1.343    0.256
       138  -9.0190     78.3419     52.2957   6.8733186594e+01   5.6708048424e+01    0.1447824    0.1008213   8.90 0.0006145885    1.662    0.398
       139 -10.0437    121.6992     50.7015   5.5299001637e+01   4.7812872638e+01    0.1902036    0.1650859 -73.70 0.0004798769    1.355    0.262
       140 -10.7360    119.4826     47.9989   5.4952192491e+01   4.8715441193e+01    0.3030446    0.2078384 -43.50  0.001002167    1.599    0.375
       141  -9.7800     33.0531     51.1348   8.6903707389e+01   6.3651387486e+01    0.2755447    0.1616804  34.81 0.0008313777    1.934    0.483
       142  -9.6569      4.1020     51.1275   1.0080247099e+02   6.6000064566e+01    0.1989773    0.1225899 -37.13 0.0005659607    1.281    0.220
       143  -9.7503     58.8018     50.1143   7.5314268602e+01   6.0420225871e+01    0.1839226    0.1809009 -11.77 0.0006749822    1.314    0.239
       144  -9.4252     38.4065     48.7716   8.3599890445e+01   6.3480347483e+01    0.1717712    0.1423471   3.43  0.001074943    1.122    0.109
       145 -10.6380      9.8963     47.9939   9.7030826102e+01   6.6281819328e+01    0.2586899     0.224415   6.21  0.001810518    1.300    0.231
       146 -10.8100    137.3920     47.1118   5.0582703774e+01   4.4649211990e+01      0.34183    0.2300057  59.93  0.001247556    1.397    0.284
       147 -10.1049     52.8303     48.2066   7.7058470637e+01   6.1654161823e+01    0.3289491    0.1672506  23.56  0.001493928    2.161    0.537
       148 -10.1111     69.9641     46.8127   6.9716707078e+01   5.9115447858e+01     0.331519     0.158151  47.71  0.001007724    2.343    0.573
       149 -10.3984     79.0181     45.8694   6.6099442532e+01   5.7608050129e+01    0.1968573    0.1809506  16.41 0.0003572449    1.084    0.078
       150 -10.3707     25.5487     43.5093   8.7758811505e+01   6.5851171347e+01    0.3124113    0.2085265 -68.69  0.001216792    2.584    0.613
       151 -11.2217     18.9116     44.5092   9.1397416375e+01   6.6275253059e+01    0.4282428    0.3012682  12.54  0.002417746    1.429    0.300
       152 -11.2001     22.2408     38.2244   8.7445639095e+01   6.7126137390e+01    0.2560266     0.179528 -35.01 0.0006561183    1.224    0.183
       153  -9.5043     36.4529     45.4301   8.3262292004e+01   6.4318440935e+01    0.1794535    0.1040061 -31.96   0.00027274    1.570    0.363
       154 -10.1845     36.0124     41.5232   8.1978229632e+01   6.5059181595e+01    0.2526348    0.1593339 -42.80 0.0005919085    1.555    0.357
       155  -9.3998    152.1393     44.5521   4.6923989480e+01   4.1474089514e+01    0.1943199    0.1284383  64.51 0.0002626296    1.425    0.298
       156 -10.2758      2.7863     43.4587   9.9247757960e+01   6.7604730573e+01    0.3121015    0.1500556 -31.92  0.001690623    1.761    0.432
       157  -9.7297     69.2389     42.0165   6.8129062694e+01   5.9994105348e+01    0.1786315     0.158896  -3.61  0.001098134    1.083    0.077
       158 -10.6215     59.2870     41.7979   7.1902815380e+01   6.1718227756e+01    0.3150326    0.1724363  43.76  0.001507712    1.963    0.490
       159  -9.3755    183.6928     41.1817   4.1013480380e+01   3.4423523027e+01    0.2752042    0.1296318 -65.52  0.001029687    3.190    0.686
       160 -10.0384    170.9593     40.5173   4.2669623937e+01   3.7507832169e+01    0.2382411    0.1201125  61.00 0.0009428124    1.825    0.452
       161  -9.9611    138.5231     40.3124   4.8244861541e+01   4.5295475402e+01    0.3313229    0.1652016  73.54  0.001301549    2.587    0.614
       162 -10.6029    128.2186     38.7640   4.9894898070e+01   4.7937582611e+01     0.264331      0.19536 -48.71 0.0008051732    1.517    0.341
       163  -9.3699     99.4423     40.4506   5.7640122690e+01   5.4240564447e+01    0.1380471    0.1226612  29.67 0.0002366486    1.021    0.021
       164  -9.4319     42.8952     40.6766   7.8469562820e+01   6.4328405848e+01    0.1742691    0.1077131  37.25 0.0009333922    1.761    0.432
       165  -9.1089    204.7230     39.7077   3.8020230926e+01   2.9823000538e+01    0.1144946   0.09969852  36.33 0.0002002523    1.524    0.344
       166 -11.7445    121.2130     37.1839   5.0932838052e+01   4.9777104839e+01    0.3973431     0.369019 -27.13  0.001436892    1.177    0.150
       167  -9.5020    151.7029     38.6941   4.5293090672e+01   4.2347423479e+01    0.1357411     0.100887  33.69 0.0003454953    1.587    0.370
       168  -9.4981    238.9742     37.4633   3.4095140162e+01   2.2895417603e+01    0.1674184    0.1082678  76.13  0.001014074    1.545    0.353
       169  -8.9598    212.7369     37.6572   3.6668268785e+01   2.8328663259e+01    0.1118923   0.09974121  23.25 0.0002643545    1.597    0.374
       170  -9.7366    229.9059    247.7665   7.7548488842e+01  -9.4890073565e+00    0.1606502    0.1241075   4.03 0.0004443812    1.071    0.066
       171  -9.3240     69.3304     36.2877   6.5812778977e+01   6.0821897294e+01    0.1374222   0.09191739  13.55 0.0003659982    1.619    0.382
       172  -9.3742    133.2475     34.9471   4.7621251463e+01   4.7227413660e+01    0.1751226    0.1416919  32.28 0.0003280388    1.329    0.248
       173 -10.3972     27.3566     34.5385   8.3417229498e+01   6.7241006405e+01    0.3076368     0.170105 -13.23  0.001082074    2.040    0.510
       174 -10.4327      3.1689     35.0871   9.6365027275e+01   6.9179815552e+01    0.2347647     0.171977  40.72  0.001271674    2.005    0.501
       175  -9.7409      7.0099     34.0081   9.3901017064e+01   6.9132143898e+01    0.1686687    0.1493329 -26.04 0.0007133457    1.252    0.201
       176 -10.5734     89.2562     30.4373   5.6854623029e+01   5.7699563484e+01    0.2984693     0.185958  64.08  0.001179479    1.976    0.494
       177 -11.1843     48.9551     33.1995   7.2704061757e+01   6.4652163164e+01    0.3809954     0.185626  31.71  0.001862737    1.959    0.490
       178 -10.3377    127.0586     31.4910   4.7775949873e+01   4.9105159749e+01    0.3135313    0.2579747 -17.23   0.00182376    1.383    0.277
       179 -10.5519    144.0920     31.2658   4.4432633379e+01   4.5081852810e+01    0.2247307    0.1881613 -46.89 0.0006589732    1.283    0.221
       180 -10.4945     73.0794     31.9648   6.2708482208e+01   6.0723037118e+01    0.2811764    0.1728015  45.31 0.0004520704    1.540    0.351
       181 -10.5893     70.2565     28.9933   6.2483930281e+01   6.1639405319e+01    0.4929321     0.228328 -46.06  0.002051097    3.231    0.690
       182 -10.1443     18.0596     32.2063   8.7279197931e+01   6.8567883338e+01    0.3090539    0.1420086   9.22  0.001318275    2.557    0.609
       183 -11.5636     10.2791     29.9061   9.0581675023e+01   6.9623428353e+01    0.3179488    0.2085632  30.31   0.00198925    1.843    0.457
       184 -10.2057    135.6076     29.3795   4.5405392590e+01   4.7326301997e+01    0.2235955    0.1804984  64.68 0.0005594559    1.118    0.105
       185  -9.3162    151.1812     29.5764   4.2723429984e+01   4.3580446776e+01    0.1805451    0.1112888  54.78 0.0004817522    1.491    0.329
       186  -9.7726    147.2028     27.5371   4.2783195103e+01   4.4766114337e+01    0.3137701    0.1636794 -35.77  0.001500408    2.032    0.508
       187  -9.5212    139.9518     26.9592   4.3858897936e+01   4.6564442746e+01    0.2131447    0.1511708 -76.46  0.001116586    1.678    0.404
       188  -9.0585    123.6953     27.7049   4.7230973807e+01   5.0330034020e+01    0.1371482   0.09316782  34.37 0.0002527201    1.581    0.367
       189 -10.4478     46.3465     26.6700   7.1021385949e+01   6.5988294654e+01    0.2119866    0.1964917 -80.16  0.001373252    1.851    0.460
       190 -11.1777     45.5468     21.2496   6.8926824086e+01   6.6840805884e+01    0.2960846    0.2217944 -46.73  0.001317838    1.928    0.481
       191 -10.6186     34.9935     29.3985   7.7489685481e+01   6.7166654981e+01    0.2340869    0.1695562 -22.82 0.0006259107    1.220    0.180
       192  -9.7943    114.1556     26.1910   4.8792142828e+01   5.2711373221e+01    0.1698048    0.1529711 -69.10 0.0006159049    1.293    0.226
       193  -9.3568     59.4083     25.6973   6.5139654227e+01   6.4008612757e+01    0.1169798    0.1028285  78.54 0.0002252188    1.856    0.461
       194 -10.4986    229.3962     21.5298   3.1667751468e+01   2.6789207957e+01    0.3277615    0.1576343 -76.49  0.001625753    2.289    0.563
       195  -9.6826    225.6647     22.6988   3.2215497854e+01   2.7421856612e+01    0.1911699    0.1297188  55.54 0.0008466298    1.779    0.438
       196 -10.4060    225.0291    247.2374   7.8356657466e+01  -8.8216823382e+00    0.2140407    0.1473451 -22.99  0.001383823    1.318    0.242
       197  -9.5885    170.9457    246.9840   8.8928653104e+01  -1.4849868822e+00    0.2048851    0.1379833   0.12  0.001099868    1.676    0.403
       198  -9.4186      6.3267     20.6727   8.9081814979e+01   7.1482782472e+01    0.2206456    0.1306867  -5.42 0.0009017278    1.552    0.356
       199  -9.3741     97.1866     21.8710   5.1352839005e+01   5.6984343264e+01    0.1725146    0.1521052  30.70  0.001083351    1.057    0.054
       200 -10.6477     54.7150     22.0166   6.5384274546e+01   6.5272927341e+01    0.2213766    0.1500112  28.60 0.0005183715    1.287    0.223
       201  -9.5668    116.1261    246.7677   1.0051199646e+02   6.6376284277e+00     0.166149    0.1436732   6.62  0.001042789    1.293    0.227
       202  -7.7062     21.4598     21.5057   8.0905834739e+01   6.9957207411e+01    0.2132393    0.1249142   6.82 0.0009123037    1.676    0.404
       203 -10.2597     33.7451    247.3688   1.1767877089e+02   1.7361509046e+01    0.1946473   0.09362305  35.85 0.0005747946    1.881    0.468
       204 -11.0358     13.8101     20.9309   8.4877051753e+01   7.0809509946e+01     0.367086    0.2235683  34.18  0.001004485    2.033    0.508
       205 -11.0771      5.9952    250.0245   1.2304233426e+02   1.9716218888e+01    0.4113876     0.201943 -70.90  0.002479324    2.026    0.506
       206  -9.8581    100.5128     21.5181   5.0367819314e+01   5.6290802136e+01    0.2404213    0.1775948  22.93 0.0008818446    1.417    0.294
       207 -10.0069     84.4964     20.9228   5.4515188418e+01   5.9785912214e+01    0.1768225    0.1252365 -17.67 0.0005742132    1.526    0.345
       208 -10.0776     30.3854     21.1643   7.6082080058e+01   6.8967424477e+01    0.2390388    0.1328913  15.10  0.001300586    1.816    0.449
       209 -10.7525     38.9681     19.6353   7.1178781539e+01   6.8025788168e+01    0.2855287    0.2016989  54.15  0.001600123    2.389    0.581
       210  -9.5826    120.7779     19.3981   4.5054186832e+01   5.1893946294e+01    0.1834906    0.1041455  52.39   0.00019661    1.512    0.339
       211 -10.2964     60.9092     18.4303   6.1349662635e+01   6.4628136263e+01    0.3726159    0.1252782  45.23  0.001406212    2.609    0.617
       212  -9.8695    145.7225     17.0077   3.9906932889e+01   4.6234807302e+01    0.1673441    0.1598913  89.19 0.0003243352    1.113    0.102
       213  -9.5563    125.4160     17.4518   4.3505820798e+01   5.1001579804e+01     0.129518    0.1137298  60.02  5.51044e-05    1.011    0.011
       214  -9.4645     39.6400    243.3307   1.1623938772e+02   1.7508623226e+01    0.1347217   0.06844307  60.77 0.0007041278    1.798    0.444
       215  -9.8520     26.9143     16.7319   7.5772958575e+01   7.0018518065e+01    0.1659728    0.1224589  12.05 0.0005215542    1.152    0.132
       216 -10.8976     29.4366    241.1770   1.1812395101e+02   1.9088072209e+01     0.216994   0.08537728  29.07  0.001010876    2.741    0.635
       217 -11.1673    202.5786     16.0536   3.2822984971e+01   3.3127588222e+01    0.2095764    0.1442187 -83.73 0.0005977174    1.291    0.225
       218 -10.1289     66.6161     15.7358   5.8080106108e+01   6.3876756918e+01    0.1965752    0.1545095  67.39 0.0008585781    1.769    0.435
       219  -9.8902    168.7645     14.9475   3.6168851849e+01   4.0978564040e+01     0.183786    0.1548289  61.68 0.0003001824    1.191    0.161
       220  -9.1379    202.3188    240.3145   8.1551867755e+01  -4.8579827054e+00    0.1309792   0.08356732  -1.84 0.0004160263    1.651    0.394
       221  -9.8924    154.9574     15.4844   3.8116082371e+01   4.4188614143e+01    0.1875087   0.09880352 -83.52  0.000809349    2.508    0.601
       222  -9.5737     35.6764    240.2973   1.1682180326e+02   1.8579113265e+01    0.1286529   0.07003576  60.96  0.000378901    1.624    0.384
       223  -9.5723     99.2189     14.2010   4.7945821415e+01   5.7302684932e+01    0.1577443    0.1431466  79.66 0.0003150579    1.258    0.205
       224  -9.6712      1.3259    191.6191   1.2083680721e+02   3.2705658813e+01    0.2264797   0.09425002 -86.15 0.0009351906    2.127    0.530
       225  -9.1959     91.0000    237.1187   1.0483552624e+02   1.2156383645e+01    0.1891217   0.07392634 -62.56  0.000788208    2.845    0.648
       226 -11.0988     25.0937    236.1408   1.1866359576e+02   2.0593319242e+01    0.2112514    0.1329401  47.76 0.0002914864    1.355    0.262
       227  -8.9558    204.2948    235.3013   8.0336733412e+01  -4.3551602292e+00    0.1290146   0.08436311  -2.94 0.0002838494    1.573    0.364
       228  -9.5388    249.4825    233.5575   7.1704451404e+01  -9.8605580993e+00    0.1188224   0.08892714  -7.13 0.0001308848    1.011    0.011
       229 -10.8908      2.4925    219.9805   1.2223651707e+02   2.6225007797e+01    0.2572796    0.1449639  86.40  0.001464358    1.498    0.332
       230  -9.3945      7.3564     14.3434   8.5652923930e+01   7.2396935915e+01    0.1265708   0.06633173 -16.56 0.0007037077    1.825    0.452
       231 -11.7708      3.1849    226.0525   1.2241508617e+02   2.4862898499e+01    0.4910699    0.1595933  47.30  0.002409504    2.414    0.586
       232 -11.6850     11.0317    231.7770   1.2118305793e+02   2.2924676710e+01    0.3067885    0.1243407  50.29 0.0009886955    2.006    0.502
       233 -10.1484     56.7839    229.9478   1.1158377931e+02   1.8251003686e+01    0.1740134    0.1484529  75.76 0.0004052431    1.068    0.064
       234  -9.4497     47.7953    229.8539   1.1351068661e+02   1.9370909805e+01    0.1726024    0.1180629  62.85 0.0002154017    1.293    0.227
       235  -9.8828      3.7715     10.5687   8.6070488274e+01   7.3261156016e+01    0.1266098   0.09238761  15.65 0.0002836848    1.413    0.293
       236 -11.6736      9.6667    227.6495   1.2122420660e+02   2.3925794501e+01    0.2454116    0.2258489 -27.38  0.001760568    1.603    0.376
       237  -9.9664    209.7172    229.4509   7.8288694221e+01  -4.1899605858e+00    0.1728507    0.1067517  18.27 0.0006501444    1.537    0.349
       238  -9.8446    131.9401     20.8691   4.3400074783e+01   4.9121458321e+01    0.2020537    0.1585407  44.07 0.0005344842    1.246    0.198
       239 -10.9020    140.2495    228.1217   9.2677835349e+01   6.5149313581e+00    0.3084376    0.2247203 -74.31  0.001605617    1.941    0.485
       240  -9.8489    223.2450    226.9812   7.5282526236e+01  -5.6445329876e+00    0.1756594    0.1363381 -11.04 0.0003902304    1.069    0.065
       241  -9.0823    167.3163    221.6879   8.5691207693e+01   3.4557900986e+00    0.1288757    0.1067789  62.71 0.0007034049    1.640    0.390
       242 -10.1311    134.5685     11.4975   4.0002884832e+01   4.9404245649e+01    0.1280488    0.1109199  67.67 5.836253e-05    1.011    0.011
       243  -8.9394    114.4757    221.5046   9.7566266131e+01   1.1888918873e+01    0.1365158    0.1254323  33.79 0.0002268893    1.041    0.039
       244  -9.7787    233.1305    219.0717   7.2069436982e+01  -5.7435086123e+00    0.1920894    0.1370464  -8.01 0.0003883067    1.217    0.178
       245 -10.9743      8.2316    218.2310   1.2097929822e+02   2.6090103016e+01    0.2243419    0.1890213 -69.19  0.001223152    1.355    0.262
       246  -9.4098    137.6554    215.6794   9.1338856270e+01   9.4000075747e+00    0.1448614    0.1062018  -5.44 0.0007049747    1.728    0.421
       247  -8.8592     85.7000    215.2916   1.0345736544e+02   1.7570821332e+01    0.1399876   0.09497318  63.42 0.0002071957    1.565    0.361
       248  -9.9029     15.8119    213.1755   1.1908403601e+02   2.6500154677e+01    0.1921702    0.1343605  66.55 0.0008969735    1.207    0.171
       249  -9.0290    249.3322    211.3258   6.7831438123e+01  -6.6521110924e+00    0.1297278   0.07829355  -8.08  0.000705112    1.710    0.415
       250  -9.6269    205.4886    212.1441   7.6064559266e+01  -7.4414149435e-01    0.1914826    0.1206789 -36.20 0.0007773523    1.522    0.343
       251  -9.4634    123.9948    205.9791   9.2991763433e+01   1.3687751306e+01    0.1646188     0.150876  34.39            0    1.025    0.024
       252  -9.4570    193.4858    202.4753   7.6710122878e+01   2.8227711433e+00    0.1387725    0.1214438  -3.41 0.0001583353    1.007    0.006
       253 -11.0774      4.0770    200.9059   1.2081553302e+02   3.0335484476e+01    0.3499998    0.1070411 -62.49  0.001503377    2.934    0.659
       254  -9.3962     24.5778    195.7726   1.1582868860e+02   2.9666036091e+01    0.1840792    0.1050636  88.11 0.0009445755    1.657    0.396
       255  -9.5204     14.0671    192.7929   1.1802761579e+02   3.1359599933e+01    0.1949793    0.1328697  65.71 0.0006156203    1.320    0.243
