#   1 NUMBER                 Running object number                                     
#   2 MAG_AUTO               Kron-like elliptical aperture magnitude                    [mag]
#   3 X_IMAGE                Object position along x                                    [pixel]
#   4 Y_IMAGE                Object position along y                                    [pixel]
#   5 X_WORLD                Barycenter position along world x axis                     [deg]
#   6 Y_WORLD                Barycenter position along world y axis                     [deg]
#   7 A_WORLD                Profile RMS along major axis (world units)                 [deg]
#   8 B_WORLD                Profile RMS along minor axis (world units)                 [deg]
#   9 THETA_WORLD            Position angle (CCW/world-x)                               [deg]
#  10 FWHM_WORLD             FWHM assuming a gaussian core                              [deg]
#  11 ELONGATION             A_IMAGE/B_IMAGE                                           
#  12 ELLIPTICITY            1 - B_IMAGE/A_IMAGE                                       
         1  -9.6284    247.8868     14.8493   3.7435557887e+01   2.1980254851e+01    0.1802209    0.1726291  83.43  0.001253314    1.265    0.210
         2  -9.0620     80.5941     12.8509   6.3891673013e+01   6.1928842252e+01    0.3182971    0.1930939 -42.78 0.0009220606    2.132    0.531
         3  -9.1524     50.4942     12.4471   7.4728002677e+01   6.7221078404e+01     0.279828    0.2331462 -61.61  0.001360907    2.185    0.542
         4  -8.5365     15.8889     10.9193   9.0616323107e+01   7.1620118024e+01    0.1686355    0.1248027 -22.45 0.0002969021    1.033    0.032
         5  -9.0862    245.5735      9.8135   3.6504358588e+01   2.3050865140e+01    0.1857612   0.09103109 -44.93 0.0009522755    1.726    0.421
         6  -7.8458     96.3024      9.6489   5.7918975643e+01   5.9020471960e+01    0.1254052    0.1016879 -58.95 0.0004221367    1.699    0.411
         7  -8.3654    110.2996      8.3077   5.3923919406e+01   5.6027878126e+01    0.1410374   0.08788262  30.93 0.0002322057    1.596    0.373
         8  -9.0431    236.4234      6.8201   3.6529736160e+01   2.5405377479e+01    0.1592391    0.1203856 -15.69 0.0007570923    1.698    0.411
         9  -7.7660    155.6056      7.1973   4.5227631373e+01   4.5102472949e+01    0.1794784    0.1301621   2.58 0.0009463719    1.683    0.406
        10  -9.3943     14.2983      3.6312   8.7838943398e+01   7.2853638186e+01    0.4548336    0.1694127 -31.79  0.002288802    2.333    0.571
        11  -7.6879     18.2947      2.7014   8.5138123441e+01   7.2594985705e+01    0.1373893   0.08495667  20.71 0.0002797449    1.599    0.375
        12  -9.4082     77.4583      4.4220   6.0969455750e+01   6.3402061621e+01    0.2219665    0.2161796 -75.68  0.001308384    1.426    0.299
        13  -8.5652     55.7038      4.7072   6.8706604597e+01   6.7312169659e+01    0.1719899    0.1430223 -60.96   0.00104699    2.159    0.537
        14  -8.4296    250.4776      3.9960   3.4898441340e+01   2.2621969721e+01    0.1756853    0.1086657 -34.89 0.0005816674    1.563    0.360
        15  -9.2745    243.9039      2.7334   3.5077062601e+01   2.4179520875e+01    0.2425556    0.1813966  -7.20  0.001452312    1.924    0.480
        16  -8.0626     67.8042      1.8084   6.2832924471e+01   6.5486209246e+01    0.1498083    0.1417911   7.49 0.0003800573    1.302    0.232
        17  -8.2009     59.8045      2.6156   6.6074312150e+01   6.6837972850e+01    0.1505615    0.1113023  50.56 0.0009215394    1.599    0.375
        18  -8.6863    106.4894      3.5258   5.2850265933e+01   5.7316087862e+01    0.1316528    0.1149553  38.51 -0.0001004223    1.024    0.023
        19  -8.1224    115.6843      1.3086   4.9997308714e+01   5.5375641238e+01    0.1265496    0.0995404 -67.06 0.0007029867    1.631    0.387
        20  -8.7695     39.9954      1.4964   7.3618794408e+01   7.0088378667e+01    0.4509307   0.09917278  40.74  0.001688497    4.351    0.770
        21  -8.7570    194.8166    237.0200   9.4702572357e+01  -2.1622978070e+00    0.2110801    0.1526812  -2.65  0.000840215    1.542    0.351
        22  -8.9291    249.3023    250.0240   8.7125539280e+01  -1.1640855295e+01    0.1609752    0.1296463  17.29 0.0006112982    1.265    0.210
        23  -8.5423    248.0411    246.0000   8.6695479762e+01  -1.1044630093e+01    0.2412013   0.07796361  40.52  0.001106897    2.995    0.666
        24  -9.1327    224.6175    246.2893   9.0759470399e+01  -7.8340684260e+00    0.2382065    0.1348267 -20.27  0.001401103    1.963    0.491
        25  -9.2009    219.7345    244.0469   9.1270138055e+01  -6.8596426046e+00     0.201034    0.1641576   5.12 0.0009167457    1.136    0.120
        26  -9.4089    214.9450    250.6172   9.3120322911e+01  -6.9478375958e+00    0.4425635   0.09332331  36.21  0.001579227    4.115    0.757
        27  -9.4507    219.0616    248.2377   9.2034980896e+01  -7.2628812860e+00    0.3180631    0.1827004  31.39  0.001940006    1.391    0.281
        28  -7.8657    197.6707    250.6915   9.6210907300e+01  -4.3996737567e+00    0.1743348   0.09795435  26.30 0.0006341292    1.592    0.372
        29  -9.0740    202.4845    249.0228   9.5102207788e+01  -4.9134001179e+00    0.3511764    0.1869357  17.57  0.001565253    2.274    0.560
        30  -9.0787    206.3229    245.3145   9.3859504026e+01  -5.0246281893e+00    0.1910881    0.1331966  20.65 0.0006553252    1.216    0.178
        31  -9.2860    186.9618    239.5122   9.6538291047e+01  -1.2657623891e+00    0.2842411    0.2073244 -10.01 0.0007943895    1.611    0.379
        32  -8.9574    190.8582    244.8023   9.6595419076e+01  -2.5955316992e+00    0.2650391    0.1356023  38.10 0.0008394644    1.586    0.370
        33  -9.4343    182.4371    239.0767   9.7319152479e+01  -4.8678360287e-01    0.2352636    0.1637815 -18.94 0.0009615708    1.767    0.434
        34 -10.1985    193.0157    248.1255   9.6683179104e+01  -3.3649393719e+00    0.6407677    0.3509017  -8.88  0.002904157    3.512    0.715
        35  -9.4160    180.2711    249.7875   9.9244097578e+01  -1.6250277243e+00    0.3001537    0.1439215  30.44   0.00153287    1.932    0.482
        36 -10.2983    188.5589    232.5425   9.5185885630e+01  -5.3767321523e-01    0.4945475    0.3244312 -40.41  0.002927856    1.800    0.444
        37  -9.1691    184.0512    235.0436   9.6416830354e+01  -1.7041683629e-01    0.2751203    0.1856781   8.09 0.0009361451    1.790    0.441
        38  -9.7384    185.9584    249.7052   9.8193231246e+01  -2.4903924852e+00    0.4472543    0.2030052  44.40  0.002298042    1.965    0.491
        39  -8.8338    187.3547    244.7967   9.7238518193e+01  -2.0509399906e+00    0.2551321    0.1871643 -16.30  0.001419194    1.597    0.374
        40  -9.3675    169.8333    250.5143   1.0125861960e+02  -1.0635946287e-01     0.346197    0.1184613  38.18  0.001548951    2.365    0.577
        41  -9.4363    171.1530    246.2788   1.0044445061e+02   2.8058128502e-01    0.2577705    0.1835291 -18.27  0.001587348    1.832    0.454
        42 -10.2612    163.8709    247.0539   1.0190256665e+02   1.3151017222e+00    0.5988815    0.3118403  17.85  0.002495571    3.601    0.722
        43  -9.4656    168.4851    242.1128   1.0037064769e+02   1.3005790509e+00    0.2997286    0.2293939  11.96  0.001669291    1.438    0.305
        44  -8.4005    167.3292    237.3073   9.9917378204e+01   2.1962166497e+00    0.2180978    0.1698149  20.20 0.0007130824    1.273    0.215
        45  -8.4928    153.1781    250.6384   1.0434704085e+02   2.4686509236e+00    0.2567429    0.0983758  37.95 0.0007271047    2.143    0.533
        46 -10.2114    156.6086    245.7520   1.0308703801e+02   2.6498778857e+00    0.4343401    0.3001107 -22.01  0.001732125    2.075    0.518
        47  -9.7805    171.9858    238.1645   9.9155257723e+01   1.3180171056e+00    0.2911838    0.2203683  68.17  0.001741551    1.866    0.464
        48  -9.0784    170.6362    233.1598   9.8689400109e+01   2.2838257037e+00    0.3716137    0.2339297   2.99  0.001804237    2.613    0.617
        49  -8.2861    148.7903    250.2290   1.0510802694e+02   3.2116094316e+00    0.1602975    0.1256312  21.71  0.001059866    1.360    0.264
        50  -9.3594    150.1070    245.2229   1.0423773140e+02   3.7554152791e+00     0.329374    0.2186882 -15.14  0.001762366    2.601    0.615
        51  -8.6037    153.8253    240.7498   1.0295641420e+02   3.8466757610e+00    0.1898539    0.1493802  22.36  0.000742826    1.306    0.234
        52  -8.9552    144.1970    248.5778   1.0575871715e+02   4.1740320110e+00    0.3237253    0.2155958 -19.92  0.001784143    2.568    0.611
        53  -7.7095    139.4697    250.4796   1.0686272628e+02   4.6192023217e+00     0.119656   0.09586728  39.89 0.0006086054    1.065    0.061
        54 -10.2172     24.7765    249.3699   1.2695753866e+02   2.0270630252e+01    0.3637888   0.09865332  51.56  0.001888784    2.549    0.608
        55 -11.3857      3.7100    236.0357   1.2972735662e+02   2.4774311724e+01    0.4108535    0.2805909  69.56  0.003265227    1.030    0.029
        56  -9.4280    159.9675    235.7503   1.0110606902e+02   3.6262898505e+00    0.3108724    0.2220678  21.91   0.00171742    1.470    0.320
        57  -8.2055    209.3900    236.3469   9.1918478004e+01  -4.3412143720e+00    0.2066055   0.09925181 -21.30  0.000837335    3.005    0.667
        58  -8.9472     18.9566    237.4789   1.2730776754e+02   2.3001036150e+01    0.1592134   0.04822262  55.03 0.0008093283    2.502    0.600
        59  -8.9320    178.6235    235.5032   9.7511329892e+01   6.3779963492e-01    0.2699033    0.1699317  13.17  0.001010222    2.032    0.508
        60  -7.7263    135.4767    236.4707   1.0591557392e+02   7.4617853264e+00    0.1236054    0.1032132  38.47 0.0002913297    1.101    0.091
        61  -7.9231    243.7828    235.3557   8.5677438448e+01  -9.2714868684e+00    0.1612274   0.08613225  25.93 0.0003636637    1.603    0.376
        62  -8.3959    204.3160    234.6037   9.2571478791e+01  -3.3250303794e+00    0.2200378     0.126757  28.74  0.001226339    1.505    0.335
        63  -8.3930    130.6915    234.6589   1.0661390730e+02   8.5250957798e+00    0.1783485    0.1398136   9.25 0.0006516027    1.737    0.424
        64  -8.1145    125.3626    234.2945   1.0760110050e+02   9.4308145747e+00    0.1188677    0.0925696  14.03 0.0007030643    1.708    0.415
        65  -7.8356    248.3922    233.2921   8.4547164272e+01  -9.6716334360e+00    0.1258879    0.0712691  10.57 0.0007007395    1.778    0.438
        66  -8.3694    153.6670    232.6362   1.0189018961e+02   5.1432513732e+00    0.1845355    0.1378755  10.26 0.0006490321    1.675    0.403
        67 -10.9387     15.6439    247.4213   1.2832281129e+02   2.1569946279e+01    0.3171601    0.2134703  57.32  0.002488577    1.186    0.157
        68  -9.0465    195.0168    230.1618   9.3598254499e+01  -1.2386356604e+00    0.4590321    0.2648496 -10.71   0.00217752    2.729    0.634
        69  -8.1524    166.5504    232.2533   9.9343154375e+01   3.0913055014e+00    0.1529646    0.1174235 -22.11 0.0006247996    1.591    0.371
        70  -8.0841    134.4855    231.5429   1.0548261250e+02   8.4429800944e+00    0.1257861    0.1050643  43.99  0.000266689    1.032    0.031
        71  -8.1418    241.5690    230.1945   8.5190972168e+01  -8.3500202228e+00    0.1602689   0.09598572 -13.55 0.0009374585    1.680    0.405
        72  -8.2737    202.8730    229.4793   9.2020477994e+01  -2.3997574501e+00    0.2367887    0.1483262 -14.66 0.0007959614    1.949    0.487
        73 -11.3473      4.1895    246.0344   1.3006020805e+02   2.2951381384e+01    0.5113261    0.3321353  87.70  0.004060469    1.277    0.217
        74  -7.9144    208.4976    229.5188   9.0985661948e+01  -3.2942199653e+00    0.1256081    0.1000851  18.54 0.0008102742    1.024    0.023
        75  -8.1610    177.4757    227.9523   9.6594457330e+01   1.9500826383e+00    0.1706315    0.1255874 -38.27  0.001027726    1.579    0.367
        76  -8.6004    151.9183    227.8344   1.0156117312e+02   6.2100847814e+00    0.1952334    0.1553334  20.81 0.0006927616    1.330    0.248
        77  -7.9996    138.6122    228.1201   1.0422352095e+02   8.3537854858e+00    0.1587767    0.1172098 -35.68 0.0008993631    1.739    0.425
        78  -7.9595    108.9957    227.4864   1.0999000245e+02   1.3185416180e+01    0.1626188    0.1059948  18.23  0.000808902    2.440    0.590
        79 -10.2906      8.5149    226.7852   1.2852352455e+02   2.6021039353e+01    0.3291571   0.07300511  58.16  0.001384321    3.887    0.743
        80  -8.4556    212.0619    225.1649   8.9610197072e+01  -3.2628391032e+00    0.2534003    0.1414786  -8.93  0.001187088    2.632    0.620
        81  -8.2720    158.6311    229.6784   1.0050817830e+02   4.7999510961e+00    0.1889453    0.1408659   6.77  0.001087749    1.697    0.411
        82  -8.4906    184.9074    225.7575   9.4822476524e+01   1.0528645097e+00     0.205441    0.1611401  -7.70 0.0006947141    1.409    0.290
        83  -7.6779    223.4439    225.5101   8.7593705465e+01  -5.0803436872e+00    0.1261263   0.09682348  11.83  0.000806519    1.084    0.078
        84  -8.0354    190.6013    225.1265   9.3631805669e+01   2.0782516348e-01    0.1671434    0.1128611 -20.55 0.0007361184    1.741    0.426
        85  -8.5271    168.0799    225.0647   9.7980942788e+01   3.9631821557e+00    0.1964531    0.1535524  17.15  0.000595934    1.320    0.243
        86  -8.2862    127.0505    224.9845   1.0610561944e+02   1.0780316196e+01    0.1870292    0.1506674   8.96 0.0005797889    1.664    0.399
        87  -8.2182    248.8146    223.7489   8.2839963123e+01  -8.6029304861e+00     0.201157     0.102965   5.32 0.0009374619    2.682    0.627
        88  -8.4817    174.8068    222.0382   9.6196314600e+01   3.3121437359e+00    0.2273159    0.1691175 -11.12  0.001016662    1.646    0.392
        89 -10.4773      9.0313    221.7287   1.2818945230e+02   2.6929458053e+01    0.3103649    0.1297948  80.32  0.001739198    2.132    0.531
        90  -8.2793    206.8336    222.2151   9.0086103551e+01  -2.0180441550e+00    0.1784658    0.1270995  12.70 0.0005984124    1.356    0.263
        91  -8.1931    147.8974    221.4916   1.0145496880e+02   7.9467628437e+00    0.1998847    0.1113317  40.31 0.0006540097    1.537    0.349
        92  -7.8942    116.0252    221.4550   1.0786590267e+02   1.3188374647e+01    0.1667125    0.1080733  18.08 0.0006002692    2.401    0.584
        93  -7.8978    242.5399    219.9580   8.3253982891e+01  -7.2315361334e+00    0.1607477   0.08832859  -5.79 0.0006040482    2.214    0.548
        94  -8.0988    225.0016    219.2129   8.6230119442e+01  -4.4847590354e+00    0.1777384    0.1160857  -7.52 0.0006866585    1.617    0.382
        95  -8.3356    194.9833    218.4661   9.1701018377e+01   4.7311562830e-01    0.2301551    0.1667658 -12.90 0.0006484461    1.543    0.352
        96  -8.0115    184.9763    218.9628   9.3717121102e+01   2.0771686729e+00    0.1591437    0.1378045  22.07  0.001010922    1.032    0.031
        97  -8.3061    140.9363    219.0289   1.0250500642e+02   9.5452139078e+00    0.1954086    0.1529556   7.48 0.0008869274    1.667    0.400
        98  -7.7927    157.7962    218.3868   9.9007737620e+01   6.7985963130e+00    0.1872769    0.1094371  31.27 0.0005424496    1.671    0.402
        99  -8.4246    211.3390    216.1491   8.8207878440e+01  -1.8848475990e+00    0.2380421    0.1088092 -28.36  0.001071735    2.588    0.614
       100  -8.6437    204.8247    215.6672   8.9349349471e+01  -7.4629612160e-01    0.2057447    0.1588891  -4.28 0.0006276437    1.301    0.231
       101  -8.9150    179.9027    215.4661   9.4138060818e+01   3.4910442423e+00    0.2465847    0.1638028 -17.75 0.0007206793    1.950    0.487
       102  -8.3635    136.8129    215.3372   1.0281825745e+02   1.0899819265e+01    0.2308659    0.1652889 -20.17   0.00103691    2.128    0.530
       103  -8.0114    248.8075    215.2063   8.1328740848e+01  -7.5476496865e+00    0.1710546    0.1148985   5.76 0.0005178163    1.341    0.255
       104  -8.1815    144.0216    215.4508   1.0135940709e+02   9.6582998578e+00    0.2020794    0.1146861  38.65 0.0005249272    1.557    0.358
       105  -8.0025    151.0197    216.4904   1.0008920363e+02   8.2815689314e+00    0.1960238    0.1146105  37.95 0.0004197636    1.507    0.336
       106  -9.0711      4.6063    212.1329   1.2847895702e+02   2.9202073144e+01    0.2754599    0.1094288  77.01  0.001468446    2.285    0.562
       107  -8.7888    170.1754    210.9693   9.5340006828e+01   5.9139809546e+00    0.2596364    0.1771976   2.31  0.001014661    2.075    0.518
       108  -8.2402    154.9057    212.0512   9.8617753655e+01   8.3885290704e+00    0.2077357    0.1545531   9.84  0.001025598    1.698    0.411
       109  -7.7968    170.7243    217.6382   9.6307381124e+01   4.7121966821e+00    0.1292477   0.09582431   2.31 0.0007006894    1.663    0.399
       110  -7.6940    199.4010    209.7714   8.9359270381e+01   1.0498377619e+00    0.1731399    0.1180162 -22.30 0.0009431503    1.604    0.377
       111  -8.5394    162.5131    208.4326   9.6482544427e+01   7.6927330094e+00     0.298727    0.1817159 -15.31  0.001257044    3.009    0.668
       112  -8.2966    146.8356    209.1827   9.9835113552e+01   1.0302575037e+01    0.1835562    0.1518215  15.18  0.001067286    1.365    0.268
       113  -8.0089    176.6667    208.1018   9.3553136272e+01   5.2584159013e+00     0.180832    0.1187711 -29.12  0.000932605    1.783    0.439
       114  -8.5517    247.8812    205.9015   7.9788444968e+01  -6.2122342697e+00    0.2015561    0.1386801   5.01 0.0007928022    1.327    0.246
       115  -9.0865     12.1444    205.9161   1.2678722919e+02   2.9741356862e+01    0.1825664    0.1134398  73.55  0.001232945    1.247    0.198
       116  -7.8660    207.3114    205.3204   8.7046531730e+01   3.8604973034e-01    0.1359299    0.0922942   6.46 0.0004356807    1.648    0.393
       117  -8.2953    192.8136    208.5573   9.0426333063e+01   2.3685840639e+00    0.2433594   0.09935262 -37.92  0.001024424    2.713    0.631
       118  -7.9803    139.7009    204.7132   1.0063786707e+02   1.2371122364e+01    0.1275138    0.1035127   6.82 0.0002160035    1.554    0.357
       119  -8.2246    175.5406    202.3257   9.2788364186e+01   6.4383746407e+00    0.2298839    0.1493132  22.30 0.0009007272    1.706    0.414
       120  -8.0160    242.6113    201.2103   7.9824166884e+01  -4.7785523844e+00    0.2184536    0.1350842   5.40 0.0008089755    1.757    0.431
       121  -8.6790    243.8649    196.8564   7.8779511646e+01  -4.3737276473e+00    0.2742286    0.1501184 -23.57 0.0008839396    1.782    0.439
       122  -8.4206    198.9453    200.6216   8.7806054795e+01   2.5652965016e+00    0.2301356    0.1740344 -14.24 0.0009558258    1.394    0.283
       123  -8.7721    250.5170    198.4194   7.7932079067e+01  -5.6129042836e+00    0.3075134    0.1095023 -29.61  0.001294559    2.802    0.643
       124  -8.4617    161.4404    199.3346   9.5185231934e+01   9.5058125739e+00    0.2639862     0.117118 -32.77  0.000949305    3.548    0.718
       125  -8.1485    238.4287    198.7738   8.0098155593e+01  -3.7846158991e+00       0.1746    0.1074017 -17.90 0.0008614947    1.614    0.380
       126  -8.7669    230.5074    198.0420   8.1375807971e+01  -2.4048019466e+00    0.2385473     0.154116  20.95 0.0005593642    1.494    0.331
       127  -8.0209    151.1827    198.5284   9.7212583293e+01   1.1504121509e+01    0.1939325    0.1227874  29.38 0.0007866778    1.666    0.400
       128  -7.9252    210.5007    198.4829   8.5177866637e+01   8.9220780958e-01    0.1361362    0.1131495  10.38 -5.141106e-05    1.065    0.061
       129  -8.7778    203.0188    195.2339   8.6009581807e+01   2.7141752347e+00    0.2509143    0.1744103  -4.49  0.001077315    1.672    0.402
       130  -8.2453    180.7088    195.4242   9.0502293808e+01   6.6994748544e+00    0.2344289    0.1603973 -17.57 0.0009801172    1.819    0.450
       131  -8.0594    195.4816    195.0016   8.7447820610e+01   4.0962116879e+00    0.1899983    0.1121633 -13.95 0.0008094726    2.489    0.598
       132  -7.6655    215.3626    195.2695   8.3647922364e+01   5.5206011954e-01    0.1387672   0.09223497  11.35 0.0005618185    1.652    0.395
       133  -8.4159    237.3799    192.5710   7.9093696383e+01  -2.7331229297e+00    0.2992485    0.1126448 -30.18  0.001171256    2.750    0.636
       134  -7.8327    209.5674    193.4435   8.4402888329e+01   1.8459997350e+00    0.1376608    0.1139896   8.40 0.0001526291    1.098    0.089
       135  -8.0176    232.4916    190.4752   7.9559822985e+01  -1.6235049001e+00    0.1349313    0.1089217   3.41 0.0002610531    1.075    0.070
       136  -8.5331    224.3869    189.9282   8.0931129390e+01  -1.7532158620e-01    0.2520603    0.1640785  13.60 0.0009053178    1.668    0.400
       137  -8.1204    215.0129    190.4698   8.2790723816e+01   1.3618392359e+00    0.1909897     0.103886  19.62 0.0005440749    2.390    0.582
       138  -8.3299    191.6797    189.7961   8.7224535030e+01   5.6642233354e+00     0.214973    0.1629153 -10.68 0.0007497047    1.456    0.313
       139  -8.1869    185.6455    190.1505   8.8514984424e+01   6.7135445223e+00    0.1928765    0.1251251 -28.51 0.0009418664    1.718    0.418
       140  -7.9578    162.4951    190.4455   9.3402279453e+01   1.0955621237e+01    0.1406932    0.1269195  26.03 0.0003221213    1.055    0.052
       141  -8.6246    243.6041    187.6572   7.7039675442e+01  -3.0318673106e+00    0.2980556    0.1430468 -27.09  0.001401903    2.048    0.512
       142  -8.0280    199.5524    189.1714   8.5533612019e+01   4.3321627293e+00    0.1865303    0.1244856 -21.56 0.0007675434    1.654    0.396
       143  -8.0505    179.3946    188.8118   8.9547933447e+01   8.1095488204e+00    0.1882535    0.1292431 -27.96 0.0008181246    1.632    0.387
       144  -8.3576    173.0487    187.9732   9.0714826436e+01   9.4466316152e+00    0.2255723    0.1640532   8.57 0.0008531054    1.700    0.412
       145  -8.5971    238.0305    185.7086   7.7632082579e+01  -1.8370794967e+00    0.3207019    0.1605237 -17.79  0.001374636    2.534    0.605
       146  -8.9124    230.3197    185.0770   7.8888309266e+01  -4.4747438954e-01    0.2974127    0.2028721  15.52 0.0008047713    1.492    0.330
       147  -8.9237    249.8966    182.6617   7.4967864540e+01  -3.3243287010e+00    0.2803991    0.1697696  -7.68 0.0005978447    1.831    0.454
       148  -7.5781    206.2751    184.3344   8.3267335860e+01   3.9155383260e+00    0.1403836   0.09974454   0.60 0.0006994674    1.602    0.376
       149  -7.7704    177.3421    183.3401   8.8934330511e+01   9.4885211808e+00    0.1493205      0.10744   4.17 0.0007049063    1.774    0.436
       150  -7.9613    224.4796    182.0354   7.9349271070e+01   1.0314844017e+00    0.2000199    0.1242092 -30.54 0.0007169444    1.561    0.359
       151  -8.4232    211.8050    181.9149   8.1714407560e+01   3.3105036165e+00    0.2190859    0.1677444   3.69 0.0006723358    1.329    0.247
       152  -8.6345    182.7741    180.7017   8.7285697320e+01   8.9387449433e+00     0.325367    0.1836812 -25.62 0.0009988047    2.304    0.566
       153  -7.8601    199.5070    180.9929   8.3936067660e+01   5.7282813956e+00    0.1959064    0.1160492 -13.84 0.0008092925    2.440    0.590
       154  -8.3002    235.7562    178.5900   7.6606396144e+01  -3.8521715712e-01    0.2545167    0.1446446 -22.44  0.001233965    1.795    0.443
       155  -9.1120    242.4979    176.6551   7.5027198173e+01  -1.2324789718e+00    0.4108876    0.2046226 -21.12  0.001816547    2.271    0.560
       156  -7.7416    215.6095    178.6985   8.0337366397e+01   3.1484085735e+00    0.1483692   0.09834822   8.79 0.0007012286    1.800    0.445
       157  -7.8646    226.4848    177.4844   7.8057228924e+01   1.3965903124e+00    0.1403547     0.115364   1.71 0.0001757638    1.104    0.094
       158  -8.3138    176.8643    176.7848   8.7751963858e+01   1.0799009209e+01    0.2259722    0.1857627   6.89 0.0007663542    1.315    0.240
       159  -8.2361    200.7039    174.7723   8.2436787026e+01   6.5819975885e+00    0.2751506    0.1201524 -31.61  0.001045153    2.628    0.619
       160  -7.9150    224.0000    172.9967   7.7590952903e+01   2.5587412229e+00    0.2198524   0.07369184 -37.01 0.0007692963    2.896    0.655
       161  -8.2594    190.0005    176.2412   8.4901669567e+01   8.3652074665e+00    0.2315689    0.1516545  15.88 0.0006146619    1.920    0.479
       162  -8.6148    246.5077    167.2999   7.2408294072e+01  -4.9487388844e-01    0.2730649    0.1764135  14.31  0.001176439    1.755    0.430
       163  -8.2658    237.2164    167.7388   7.4106354154e+01   1.0424395856e+00    0.1946273    0.1421157  -2.34  0.001009303    1.389    0.280
       164  -7.9004    229.7574    163.9630   7.4636710150e+01   2.9808716845e+00    0.1793243     0.108237 -32.22 0.0005981192    1.556    0.357
       165  -7.7747    153.3140    173.3282   9.2211750257e+01   1.6046540093e+01    0.1473204    0.1145013  -1.00 0.0007043796    1.672    0.402
       166  -9.0997    250.6142    154.3026   6.8970622637e+01   7.9607028945e-01    0.2566917    0.1118611 -38.07 0.0008220614    2.098    0.523
       167  -7.4511    249.3162    146.3469   6.7459738934e+01   2.2691205744e+00    0.1426724   0.09713013  -0.39 0.0007047994    1.723    0.420
       168  -8.3604    234.6680    144.6760   6.9547682777e+01   5.2425563446e+00    0.1468367    0.1029444   3.19 0.0007050527    1.705    0.414
       169  -8.2214     65.4137    141.9243   1.0819824566e+02   3.8254429034e+01    0.1983049    0.1102915 -89.83 0.0008037577    2.504    0.601
       170  -7.7040    235.2929    137.3427   6.7785424593e+01   6.3454404321e+00    0.1456763    0.1038646  -1.07 0.0007028643    1.657    0.397
       171  -8.8463    248.4726    134.0289   6.4868114730e+01   4.3868459705e+00    0.3150547    0.1239667 -29.52  0.001194253    2.558    0.609
       172  -8.4453    241.8922    132.0764   6.5486780264e+01   5.9468191199e+00     0.265277     0.174701 -26.69  0.001011867    1.408    0.290
       173  -9.0310    231.6218    129.1964   6.6535922654e+01   8.4440738873e+00    0.3520069    0.2460509 -12.85   0.00140485    1.606    0.377
       174  -9.2123    239.9341    124.2764   6.4014664613e+01   7.6169191406e+00    0.4767247    0.2609336 -17.59   0.00193834    2.415    0.586
       175  -8.8527    249.0203    122.9968   6.2289185026e+01   6.0623927525e+00     0.222371     0.189093 -22.69  0.001298241    1.047    0.045
       176  -8.5429    224.6041    120.8004   6.5756558938e+01   1.1329592314e+01    0.4108636    0.1691149 -32.28  0.001513025    2.405    0.584
       177  -9.2116    248.4944    116.4992   6.0882050831e+01   7.2141010628e+00    0.3408623    0.2132403 -17.18  0.001605574    1.830    0.454
       178  -9.2919    248.9473    109.1961   5.9129101195e+01   8.3041238308e+00    0.6910835    0.2551877 -24.95  0.002108035    4.181    0.761
       179  -8.5842    240.4292    116.2441   6.2065620068e+01   8.8506302790e+00    0.2726275     0.215375   7.07  0.001159168    1.470    0.320
       180  -8.9679    219.9778    113.5389   6.4797581998e+01   1.3585198547e+01    0.5198342    0.2792627  24.86  0.001782434    3.457    0.711
       181  -7.7589    194.3242    110.3524   6.8739423169e+01   1.9910762563e+01     0.161713    0.1207857   6.39 0.0007047681    1.758    0.431
       182  -7.8851    134.5965    110.5166   8.2404072374e+01   3.3530712638e+01    0.1560543    0.1499211 -45.19 0.0001427971    1.022    0.022
       183  -9.2075    241.4433    107.1776   5.9776314256e+01   1.0140505283e+01    0.4103408    0.2489409 -14.45  0.001785131    2.172    0.540
       184  -9.7548      4.2258    105.9693   1.2011216094e+02   5.2684614412e+01     0.265676    0.1616865  51.81  0.001111616    1.941    0.485
       185  -8.3660    229.5067    102.9825   6.0624916120e+01   1.3344286013e+01    0.2289601    0.1329855 -34.19  0.001027294    1.577    0.366
       186  -7.8298    219.3121    102.3393   6.2136398507e+01   1.5685686550e+01    0.1511146    0.1145895   6.22 0.0007045979    1.694    0.410
       187  -9.1949    242.6171     97.6208   5.7337540070e+01   1.1455822641e+01    0.4179375    0.1783783 -44.35  0.001673968    2.201    0.546
       188  -8.1714    247.4621    101.9366   5.7655269553e+01   9.7682800536e+00    0.2237786    0.1230491 -34.31   0.00103306    1.600    0.375
       189  -8.0488    225.5660     97.8893   6.0000834774e+01   1.5062377033e+01    0.2075364     0.125954 -10.28  0.000805088    2.553    0.608
       190 -10.2434      6.3668     95.8238   1.1809435271e+02   5.4915556529e+01    0.3702046    0.1853745 -44.44  0.002007892    1.907    0.475
       191  -8.2244    249.0087     95.9558   5.6037940767e+01   1.0409572908e+01      0.22129    0.1656417   1.76  0.001137531    1.736    0.424
       192  -8.2062    234.8121     94.4270   5.7719719825e+01   1.3625352266e+01    0.1960455    0.1317218  41.61 0.0009495944    1.714    0.417
       193  -8.9535     22.7803     91.9215   1.1215186903e+02   5.4742420176e+01    0.1877219    0.1676805 -52.14 0.0003882819    1.130    0.115
       194  -8.4719    248.5017     90.9954   5.4945570731e+01   1.1297108175e+01    0.2195243    0.1232153 -33.61 0.0006613793    1.584    0.369
       195 -10.1131    246.8167     83.7799   5.3472723199e+01   1.2776440249e+01    0.3166344     0.210228  12.68  0.001407338    2.540    0.606
       196  -7.9148    212.3315     84.7101   5.8794397910e+01   2.0295965583e+01    0.1519069    0.1118931 -68.98 0.0003774017    1.626    0.385
       197  -9.3250      2.6173     80.2563   1.1692290826e+02   5.8670792835e+01    0.1847466   0.07792483 -59.98  0.000890227    1.682    0.406
       198  -8.1167    184.2015     77.7911   6.1874102888e+01   2.8266210731e+01    0.2093624    0.1815702   8.16 0.0004869598    1.330    0.248
       199  -9.2278      1.2999     58.5022   1.1332812535e+02   6.3522856295e+01    0.3156088   0.09871086 -71.58  0.001232422    3.481    0.713
       200  -8.3816     94.9680     52.8274   7.5720626019e+01   5.3414816631e+01    0.2019763    0.1888962 -57.78 0.0005006201    1.284    0.221
       201  -8.2950     33.2274     57.2489   1.0006304378e+02   6.1589680750e+01    0.1532537    0.1438904 -73.07  0.000399158    1.329    0.247
       202  -8.0564     44.7150     51.4222   9.3518936772e+01   6.1567728747e+01    0.1674072    0.1172214   5.57 0.0009414822    1.588    0.370
       203  -9.7261    243.5567     46.4414   4.5036031028e+01   1.8967434953e+01    0.2180744    0.1823864  65.67  0.001311474    1.307    0.235
       204  -8.6528     95.9431     45.5214   7.2680498982e+01   5.4445955000e+01    0.2185365    0.1358423  44.52  0.001039567    1.612    0.380
       205  -7.9350      4.6787     44.3079   1.0848307887e+02   6.6322373930e+01    0.1025666   0.08641779  82.69 0.0004057709    1.642    0.391
       206  -7.5991      9.6840     42.6725   1.0578351808e+02   6.6371423943e+01    0.1280923   0.06487446 -35.85 0.0005811915    1.675    0.403
       207  -8.8117    249.5149     40.4793   4.3047735355e+01   1.8465913143e+01    0.1313894     0.112126 -57.96 0.0008101261    1.009    0.009
       208  -8.7607     21.1458     40.1699   9.9806462332e+01   6.6061762929e+01    0.1819069    0.1293975 -30.28 0.0004007329    1.165    0.142
       209  -8.3892     73.2466     37.0302   7.6935766631e+01   6.0035456590e+01    0.1785368    0.1055196 -32.83 0.0008846287    1.590    0.371
       210  -8.0998    231.7554     34.0062   4.3316101801e+01   2.3276877827e+01    0.1831113    0.1054058 -34.03 0.0009005141    1.652    0.395
       211  -8.3638     95.0129     33.6646   6.8318963697e+01   5.6430057485e+01    0.1891792    0.1626905  28.17 0.0003736776    1.091    0.084
       212  -8.7650     15.4295     34.3432   1.0045867847e+02   6.7611130179e+01    0.1769748    0.1391612  40.44  0.001144781    1.803    0.445
       213  -9.6184    245.9558     31.6738   4.1374605580e+01   2.0378712961e+01    0.2537869    0.1477784 -54.71  0.001062219    1.560    0.359
       214  -8.3159     21.8506     32.1391   9.6616810105e+01   6.7512621214e+01     0.164502    0.1073237 -28.33            0    1.277    0.217
       215  -8.3358    230.3476     25.9667   4.1522263905e+01   2.4605160690e+01    0.1994539    0.1115432   0.70 0.0007047166    4.391    0.772
       216  -8.8678     91.0341     24.7687   6.5866236312e+01   5.8435957371e+01    0.1908226    0.1572146  31.37 0.0004125852    1.115    0.103
       217  -8.4667    237.7615     23.9717   4.0351721836e+01   2.3153403659e+01     0.172334    0.1011393 -33.50 0.0008889919    1.641    0.391
       218  -9.9936    247.9881     21.8921   3.8987721674e+01   2.1135178033e+01     0.269041    0.2136857   1.87  0.001592076    1.844    0.458
       219  -8.7337    137.3868     21.8848   5.3297596752e+01   4.8189975362e+01    0.2155435    0.1826419  70.41 0.0003501415    1.189    0.159
       220  -9.2023     84.7850     21.5399   6.6426148079e+01   6.0092885035e+01    0.2241171    0.1987157 -24.42 0.0005297273    1.241    0.194
       221  -7.6178    161.2972     19.3002   4.8226629862e+01   4.2459623635e+01    0.1425135   0.09928202  36.30  0.000259407    1.576    0.365
       222  -9.3289     74.6486     16.6419   6.7576029383e+01   6.2628880635e+01    0.2346418    0.1485118  47.33 0.0005172255    1.610    0.379
       223  -7.5938    133.2678     16.6894   5.2257936496e+01   4.9757863590e+01    0.1326488     0.104032 -62.97 0.0001898264    1.542    0.351
       224  -8.0976    103.2986     16.3340   5.8891558692e+01   5.6810866516e+01    0.1437847   0.09165634  24.34 0.0002614905    1.650    0.394
       225  -7.7438    239.6008    249.7021   8.8707918479e+01  -1.0312163243e+01    0.1232201   0.06803302  12.54 0.0006999744    1.815    0.449
       226  -8.7741    128.9862    248.6552   1.0859362914e+02   6.5151141419e+00    0.3210796    0.1958151  15.94  0.001558157    2.972    0.664
       227  -9.2398    112.3485    248.8635   1.1168826679e+02   8.9972846617e+00    0.2634001    0.1478385  35.37 0.0009914472    1.685    0.407
       228  -7.8381    151.1332     12.5988   4.7672060933e+01   4.5720992617e+01    0.1917235    0.1120957  54.64   0.00043579    1.525    0.344
       229  -8.4184    146.1559     14.2011   4.9031493987e+01   4.6813704819e+01    0.1987459    0.1688027  45.88 0.0003319529    1.116    0.104
       230  -8.6203     36.2433    247.9876   1.2501184681e+02   1.9243690900e+01    0.1280084    0.0756317 -85.01 0.0008747479    1.569    0.363
       231  -9.6390    211.9083    246.7674   9.3078531528e+01  -6.0385759179e+00    0.3360908    0.1900862   3.41  0.001734745    2.459    0.593
       232 -10.1999    177.0204    244.0724   9.9047981197e+01  -3.3236261268e-01    0.3527648    0.2460796 -19.53  0.002155113    1.821    0.451
       233  -8.5383    136.5354    245.9684   1.0687483851e+02   5.7697901439e+00     0.223943    0.1448048  28.62 0.0007636623    1.615    0.381
       234  -8.2988    237.4904     13.0267   3.7854076490e+01   2.4486000448e+01    0.1862581    0.1185023 -31.41 0.0008985668    1.602    0.376
       235  -8.4524    128.2680    244.5895   1.0826338486e+02   7.2723216598e+00    0.1730763   0.09891092  33.10 0.0009456521    1.700    0.412
       236 -10.5652     10.8590    248.9276   1.2914185998e+02   2.1792838142e+01    0.4187592     0.148472  56.47   0.00250548    2.025    0.506
       237  -9.0263    146.3137    242.2887   1.0458016776e+02   4.8059947058e+00     0.175128    0.1516696 -46.06 0.0006700525    1.423    0.297
       238  -7.9243    210.4466    242.4356   9.2678133885e+01  -5.2825220634e+00    0.1217358   0.09207246  18.71 0.0001330188    1.073    0.068
       239  -7.8697    113.5332    242.4967   1.1079598951e+02   9.8715240877e+00    0.1200681   0.09773169  50.51 0.0001345947    1.040    0.038
       240  -8.4706    225.7821    250.4520   9.1198270250e+01  -8.4816264594e+00     0.210275   0.09189364  39.01 0.0007738536    1.969    0.492
       241  -7.7459    206.4964    240.4564   9.3086801272e+01  -4.4316187976e+00    0.1229489   0.09455378  20.08  0.000223868    1.054    0.051
       242  -8.7260    201.9491    240.0174   9.3847770410e+01  -3.6767190308e+00    0.1944641    0.1248456  11.61 0.0006955707    1.691    0.409
       243  -8.3078    248.2719    238.2980   8.5402466576e+01  -1.0225807567e+01    0.2173687   0.08682397 -24.65  0.001062225    2.755    0.637
       244  -8.2113    220.6982    238.0971   9.0159782331e+01  -6.2729224861e+00    0.2516707    0.1303572  -9.02   0.00115831    3.032    0.670
       245  -7.9613    214.7501    239.4100   9.1432750705e+01  -5.5483474960e+00    0.1676004   0.09202747  27.96 0.0007962105    1.563    0.360
       246  -7.7930    118.3060    239.2862   1.0953942216e+02   9.6836351879e+00    0.1100717   0.09081811  16.30 0.0003597044    1.566    0.362
