#   1 NUMBER                 Running object number                                     
#   2 MAG_AUTO               Kron-like elliptical aperture magnitude                    [mag]
#   3 X_IMAGE                Object position along x                                    [pixel]
#   4 Y_IMAGE                Object position along y                                    [pixel]
#   5 X_WORLD                Barycenter position along world x axis                     [deg]
#   6 Y_WORLD                Barycenter position along world y axis                     [deg]
#   7 A_WORLD                Profile RMS along major axis (world units)                 [deg]
#   8 B_WORLD                Profile RMS along minor axis (world units)                 [deg]
#   9 THETA_WORLD            Position angle (CCW/world-x)                               [deg]
#  10 FWHM_WORLD             FWHM assuming a gaussian core                              [deg]
#  11 ELONGATION             A_IMAGE/B_IMAGE                                           
#  12 ELLIPTICITY            1 - B_IMAGE/A_IMAGE                                       
         1 -12.1575      5.0716     39.0578   7.9031845978e+01   6.6672365759e+01    0.6279584    0.1376105 -59.20  0.002548567    3.418    0.707
         2 -10.2825     57.8028     41.4028   5.8208442819e+01   6.1210727925e+01    0.2501201    0.1537758 -69.26 0.0009587684    4.311    0.768
         3 -10.7159     40.9381     13.9696   5.3782469299e+01   6.7751464283e+01    0.1769284    0.1380118  -9.76 0.0003040661    1.027    0.026
         4 -10.8614    162.0178    225.1373   7.2047208805e+01   4.7999534626e+00    0.3355862    0.2325718  16.41   0.00180477    1.955    0.488
         5 -10.1647     99.2082    225.0693   8.4089045023e+01   1.5337359443e+01    0.1744886    0.1543574  58.58 0.0006406048    1.203    0.169
         6 -10.4554     60.0174    223.0358   9.1193224577e+01   2.1376247640e+01    0.2025869    0.1066414  68.29  0.001136898    1.738    0.425
         7 -10.7338    126.1729    220.5569   7.8359276453e+01   1.1776333379e+01    0.2363851    0.1715482  72.92 0.0007195331    1.448    0.309
         8 -10.1596     74.9998    219.2098   8.8073592368e+01   2.0054367813e+01    0.2143383    0.1025598  61.60  0.001079487    1.993    0.498
         9 -10.1282    143.8282    216.5940   7.4356712024e+01   9.4314330878e+00    0.1986106    0.1597369 -68.19  0.001205219    1.446    0.308
        10 -10.4644     76.6718    212.5147   8.7094071343e+01   2.1122180388e+01    0.2102148    0.1049333 -69.17  0.001097827    2.028    0.507
        11  -9.6626    148.3249    209.6478   7.2447082111e+01   9.8625563448e+00    0.1377862   0.09651538  72.37 0.0006047437    1.760    0.432
        12 -10.1451     99.4744    205.9928   8.1839646033e+01   1.8950957594e+01    0.1834996     0.101129  87.11 0.0008097951    2.582    0.613
        13  -9.7281     56.6827    205.3378   9.0274926350e+01   2.5305986000e+01    0.1310496   0.07212264  69.90 0.0007048671    1.703    0.413
        14 -12.3116    165.3478    202.3072   6.7861900433e+01   8.0454360492e+00    0.5206457      0.36347  89.58  0.002496452    2.340    0.573
        15 -13.0639    163.5468    194.3283   6.6884212518e+01   9.8171227606e+00    0.5483336    0.3724051  73.34  0.002590022    2.112    0.527
        16 -11.5649    125.1228    197.2180   7.5354308704e+01   1.6369346254e+01    0.3449909    0.2309235  52.92  0.001834519    1.337    0.252
        17 -11.2593    112.9426    196.0368   7.7744936262e+01   1.8726395498e+01    0.4589782     0.222942 -65.61  0.002040402    2.383    0.580
        18 -10.1098     88.5040    198.0160   8.3113598416e+01   2.2294652414e+01    0.1887648   0.09995118  86.92 0.0008105387    2.642    0.622
        19 -11.9405    186.4464    193.7966   6.2159550373e+01   5.5476618368e+00    0.2637408    0.2157994  67.42  0.001060811    1.480    0.325
        20  -9.8835     66.3111    193.9812   8.7230320126e+01   2.6376406277e+01    0.2044773   0.08668467  88.89 0.0007042317    4.216    0.763
        21 -10.0697     43.7964    193.2068   9.1705849699e+01   2.9427726588e+01    0.2204263   0.09161338  68.47 0.0009580184    2.844    0.648
        22 -11.2021    149.1582    197.9915   7.0462336956e+01   1.1846532840e+01    0.3427029    0.2151173 -80.50  0.001495397    2.662    0.624
        23 -11.8971    172.7933    190.7374   6.4359227691e+01   8.6985869122e+00     0.263567    0.1996167 -60.24  0.001149056    1.592    0.372
        24 -11.4035    139.3281    189.4833   7.1142534207e+01   1.5318705940e+01    0.3231072    0.2348783 -88.06  0.001447106    1.740    0.425
        25 -11.1178      7.6848    188.9249   9.8352583494e+01   3.4108471435e+01    0.2985116    0.1054096 -86.47   0.00145108    2.531    0.605
        26 -10.6369    129.6305    188.2813   7.3025020894e+01   1.7350933444e+01    0.2304507    0.1570836  75.61  0.001120702    1.788    0.441
        27 -11.0252    166.1219    186.6215   6.4995850850e+01   1.0746348911e+01    0.2926435    0.2230259  88.82  0.001474562    1.808    0.447
        28 -13.1946    177.8841    197.1158   6.4458417913e+01   6.5993304008e+00    0.4382631    0.3714501  61.50  0.001936785    1.279    0.218
        29 -11.0905    149.2003    187.2014   6.8658320510e+01   1.3902902963e+01    0.2004509    0.1606242  72.51 0.0007813073    1.363    0.267
        30 -11.3728     96.2055    186.7692   8.0032483456e+01   2.3444924603e+01    0.5710826    0.2431042  59.22  0.002184438    2.954    0.661
        31 -10.6919     94.6538    182.0455   7.9716082041e+01   2.4711778469e+01    0.3017841    0.2255433  69.36   0.00168537    1.250    0.200
        32  -9.9991     34.4989    186.9929   9.3017169409e+01   3.1813495147e+01    0.1789978    0.0783503  80.83 0.0008106563    2.601    0.616
        33 -10.8064    109.6230    185.4718   7.6929834334e+01   2.1484532886e+01    0.3187329    0.1930691  69.12  0.001488389    1.940    0.485
        34 -10.2500     54.8078    186.2095   8.8791552595e+01   2.9561895398e+01    0.2260546    0.1004123  69.29 0.0009536071    2.836    0.647
        35 -11.0461    204.5015    184.9917   5.6970390330e+01   3.5925867401e+00    0.1824635    0.1210077 -64.42 0.0008103051    2.531    0.605
        36 -11.6532    183.3812    184.5254   6.1062876554e+01   7.7572308392e+00    0.2434316    0.2349488 -53.98  0.001024855    1.160    0.138
        37 -10.8893    120.4223    184.6852   7.4452353519e+01   1.9756556151e+01    0.2582567    0.1341866 -62.76  0.001137307    2.153    0.536
        38 -11.4979    174.9572    183.6384   6.2618459901e+01   9.5704009195e+00    0.3111632    0.2122465  61.52  0.001397625    1.727    0.421
        39 -11.4740      4.1788    183.9159   9.8697558149e+01   3.5454446135e+01    0.2501301    0.1436644  45.97  0.001667036    1.709    0.415
        40 -10.1122     74.1747    183.1971   8.4338568943e+01   2.7587441631e+01    0.1913169    0.1319043  77.55 0.0006917925    1.374    0.272
        41 -10.5409    197.5135    182.5144   5.7854458745e+01   5.3538229230e+00    0.1386921    0.1275454  28.05 0.0001313933    1.026    0.026
        42 -10.0604     44.3981    182.1714   9.0554343022e+01   3.1716170852e+01    0.1781356   0.09659119 -87.42 0.0008759696    1.724    0.420
        43 -11.8422    148.2184    179.8062   6.7574186889e+01   1.5554451137e+01    0.3111935    0.2430486  73.84  0.001622451    1.445    0.308
        44 -10.6874    138.0355    179.0001   6.9652147142e+01   1.7678508152e+01    0.2316606    0.1674578  78.43 0.0007524592    1.691    0.409
        45 -10.8434    192.7747    178.1916   5.7951991713e+01   7.0348669465e+00    0.2293625    0.1595438  86.99 0.0009544823    2.808    0.644
        46 -10.5000     12.8682    175.7793   9.6453989685e+01   3.6392102109e+01    0.3070115    0.1167673  86.16  0.001394304    2.776    0.640
        47 -11.1153     78.2425    175.6755   8.2485091242e+01   2.8650953651e+01    0.3064711    0.1857482  71.43  0.001528056    1.780    0.438
        48  -9.9403     59.6615    176.3426   8.6676057210e+01   3.1094299685e+01    0.1400177   0.08127831  71.62 0.0007049462    1.771    0.435
        49 -10.8511    159.8683    175.1492   6.4202702701e+01   1.4183897711e+01    0.2339994    0.1949187  73.75  0.001244278    1.336    0.252
        50 -11.3826      3.2316    173.1494   9.8184370362e+01   3.7789866421e+01     0.434178    0.1388902  83.75  0.001695958    3.959    0.747
        51  -9.9874     34.6649    173.3340   9.1749549190e+01   3.4752004601e+01    0.1318232   0.07280438  70.67 0.0007052157    1.738    0.425
        52 -11.0625    135.1760    171.5318   6.8964717770e+01   1.9782256656e+01    0.2917136    0.2213728  82.38  0.001314893    1.542    0.352
        53 -11.7169    177.4685    170.7177   5.9603726975e+01   1.1483603204e+01    0.3095436    0.2501403  71.34  0.001441899    1.477    0.323
        54 -10.7315    206.5854    169.7619   5.3531618661e+01   5.7719556111e+00    0.1939064    0.1327904 -48.94 0.0009478639    1.664    0.399
        55 -11.2709    150.1849    169.4079   6.5224815122e+01   1.7277421124e+01    0.3001084    0.2178652  74.86  0.001420526    1.724    0.420
        56 -11.7078    121.9408    168.3333   7.1398726414e+01   2.2970649477e+01    0.5803437    0.3644635 -78.13  0.002566666    2.086    0.521
        57 -11.2889    168.3571    168.7238   6.1134972020e+01   1.3731011956e+01    0.3193025    0.2435476  84.60  0.001533745    1.776    0.437
        58 -10.1089     55.2460    169.2521   8.6823499791e+01   3.3247877013e+01    0.2054659   0.09384256 -81.83  0.000887904    2.429    0.588
        59 -11.3551     16.8363    166.6674   9.4924648238e+01   3.7997509796e+01    0.3599413    0.2235199   7.09  0.001603633    3.186    0.686
        60 -12.6404    139.8183    164.3766   6.6588437837e+01   2.0393878593e+01    0.5831993    0.3772964 -79.52  0.002463767    2.271    0.560
        61 -10.5038     99.2729    165.9649   7.6247976901e+01   2.7508382108e+01    0.3097383    0.1502122  61.79  0.001178416    2.758    0.637
        62 -10.7207     79.9847    163.5156   8.0385247771e+01   3.1134240547e+01    0.4801036    0.2399499  85.63  0.001688036    3.701    0.730
        63 -10.1144    160.3038    164.6395   6.2064703374e+01   1.6197883558e+01    0.1515692    0.1156137  86.73 0.0005187875    1.726    0.421
        64 -11.0978    148.1402    163.8360   6.4604232124e+01   1.8843728413e+01    0.2235565    0.1956516  77.39 0.0004434934    1.193    0.161
        65  -9.7432     38.3105    164.6506   9.0086395191e+01   3.6284582559e+01    0.1331088   0.07672494  73.29 0.0007045057    1.715    0.417
        66  -9.5990     47.3329    163.6569   8.7951852418e+01   3.5480046559e+01    0.1374406   0.08020218  72.39 0.0007050672    1.757    0.431
        67 -12.1302    178.0016    159.1261   5.7112178770e+01   1.3606126347e+01     0.615902      0.24299 -46.30  0.002214165    2.687    0.628
        68 -11.2123      8.6407    159.5593   9.6078917393e+01   4.0265948306e+01    0.3627852    0.1305853  82.49  0.001467229    3.531    0.717
        69 -11.2148    144.4380    159.6906   6.4624255140e+01   2.0466978303e+01    0.2480035    0.2156364  62.85 0.0003486388    1.123    0.109
        70  -9.9488     31.4084    159.6398   9.1104520630e+01   3.8144339204e+01    0.2486325   0.09431808 -87.02 0.0009577562    3.335    0.700
        71 -10.2965    128.8437    158.7325   6.8039709332e+01   2.3765387272e+01    0.2913162    0.1925848 -85.54   0.00124309    2.140    0.533
        72 -11.6246    197.2140    157.5130   5.2804193661e+01   9.8733201260e+00    0.2794599    0.2089484 -39.15  0.001124831    1.367    0.269
        73 -11.6275    189.0508    157.1910   5.4393080321e+01   1.1647664279e+01    0.3538381    0.2484536 -58.72  0.001651652    1.743    0.426
        74 -11.8456    168.0712    157.1445   5.8827554225e+01   1.6094774940e+01    0.3790378    0.2853956 -86.86  0.001749835    1.843    0.458
        75 -10.9959    157.9159    155.8235   6.0791521909e+01   1.8502410208e+01    0.2901271    0.2001576 -77.51  0.001240268    2.095    0.523
        76 -10.7512    119.7411    155.4155   6.9558513386e+01   2.6240027147e+01     0.331439    0.2144228 -87.39   0.00140105    2.194    0.544
        77 -10.5763     81.7474    154.0471   7.8511881446e+01   3.3049389922e+01    0.3219901    0.1991844  84.35  0.001414153    1.994    0.499
        78 -10.5237     49.3786    154.1683   8.6329077646e+01   3.7407178615e+01    0.3589559     0.181432  81.43  0.001567571    2.566    0.610
        79 -10.6984     93.0762    159.7604   7.6703778677e+01   2.9943119543e+01    0.3191218    0.2003357  83.24  0.001449331    2.017    0.504
        80 -11.4616    133.8002    153.0543   6.5762749662e+01   2.4041047095e+01    0.4353742    0.2743868  76.16  0.001726688    2.437    0.590
        81 -11.0295     68.2412    153.0941   8.1651254763e+01   3.5233830669e+01    0.4293639    0.2543602  71.15  0.001774087    1.974    0.493
        82 -12.5481    189.7144    149.5985   5.2599793379e+01   1.2953042864e+01    0.4562584    0.3263706 -48.90   0.00202179    1.483    0.326
        83 -10.2395    182.3282    150.6694   5.4374981893e+01   1.4337110579e+01    0.1525368    0.1202518 -88.90 0.0007051434    1.712    0.416
        84 -10.5389    105.7162    157.6712   7.3325700096e+01   2.8279868817e+01    0.3763328    0.2110566  70.59  0.001462522    2.667    0.625
        85  -9.7601     98.4062    150.2355   7.3779043955e+01   3.1248881771e+01    0.2060514    0.1302319 -71.88 0.0009510622    1.688    0.407
        86 -10.7247     28.5055    149.0091   9.0642457596e+01   4.0841956947e+01    0.3736492    0.1432796  87.25  0.001293207    4.328    0.769
        87 -11.3651    200.2754    148.3716   5.0189728666e+01   1.0918720699e+01    0.2637934    0.1974604  56.74  0.001259481    1.453    0.312
        88 -10.8535     39.4080    146.8639   8.7799003422e+01   4.0220507924e+01    0.4355323    0.2088464  83.32  0.001869474    2.748    0.636
        89 -11.1534     55.8377    144.8922   8.3503809161e+01   3.8778114006e+01    0.5254225    0.2749306  83.78  0.002228512    2.646    0.622
        90 -12.2061    149.5158    144.7125   6.0331718830e+01   2.2624257319e+01    0.5865347    0.3940798  82.96  0.002359431    2.333    0.571
        91 -11.1913    107.3815    144.7628   7.0529923389e+01   3.0944237743e+01    0.5550935    0.3219357  75.24  0.002069302    2.892    0.654
        92  -9.8765     78.3158    146.6387   7.8153805305e+01   3.5295751139e+01    0.1484315   0.09777583  78.24 0.0007042237    1.760    0.432
        93 -10.5938     13.0209    145.0727   9.3840749627e+01   4.3115036486e+01    0.2826253    0.1238089  81.70  0.001313983    2.577    0.612
        94 -10.9146    166.0043    144.0229   5.6431738535e+01   1.9219489147e+01    0.2513194    0.1922626 -89.27  0.001141628    1.745    0.427
        95 -10.0647    138.3886    144.1672   6.2829763854e+01   2.5069359662e+01    0.2185764    0.1416939 -61.98 0.0008282023    1.723    0.420
        96 -11.5156    125.2285    142.3656   6.5627862455e+01   2.8125035055e+01    0.5833831    0.3514802 -82.83  0.002122211    2.922    0.658
        97 -10.5739     87.9142    143.2955   7.5156319868e+01   3.4597648040e+01    0.3274048    0.1941906 -77.28  0.001450599    1.970    0.492
        98 -10.2260    182.3378    141.6675   5.2353684187e+01   1.6107254831e+01     0.156577     0.121832 -86.82 0.0007051947    1.742    0.426
        99 -11.3396      2.1966    139.7600   9.5849284166e+01   4.5123390293e+01    0.3840536    0.1086701 -82.65   0.00148421    3.557    0.719
       100 -11.2130     22.8213    136.2284   9.0574078067e+01   4.4288912628e+01    0.6083438    0.2370635 -84.13  0.002540606    2.873    0.652
       101 -10.4523    172.4806    137.9795   5.3625818491e+01   1.9034417669e+01    0.2213889     0.132538 -65.69 0.0008102407    2.559    0.609
       102 -11.0711     38.7842    134.6729   8.6369688209e+01   4.3116297490e+01    0.3276441    0.1337087 -69.11  0.001482455    2.081    0.519
       103 -10.4593    179.5037    133.0096   5.0941627866e+01   1.8465927843e+01    0.2261386    0.1311682 -63.26 0.0008106555    2.626    0.619
       104 -10.3011    112.9731    132.9955   6.6710071432e+01   3.2631651789e+01    0.2506515    0.1802669  82.62  0.001138854    1.763    0.433
       105 -10.3408    143.3105    131.3279   5.8779443159e+01   2.6859468447e+01    0.3194421    0.2256174  89.89  0.001333442    2.045    0.511
       106 -11.1588    132.2770    130.8621   6.1365938746e+01   2.9291398562e+01     0.450469    0.2684291 -72.24  0.001675022    2.570    0.611
       107 -11.0307     83.3790    130.7253   7.3994915962e+01   3.8274753877e+01    0.5221998    0.2674655 -68.32  0.002175647    2.134    0.531
       108 -10.6165    153.2024    129.2160   5.5932766091e+01   2.5159752553e+01     0.401648    0.2419431 -73.13  0.001398443    2.935    0.659
       109 -11.8799     12.5208    125.9655   9.1978809228e+01   4.7469585347e+01     0.775802    0.1985457 -72.77  0.003041322    3.155    0.683
       110 -10.7993    168.7940    129.2017   5.2368630168e+01   2.1665426120e+01    0.2701387    0.1762313 -85.66 0.0009614718    2.867    0.651
       111 -11.4862     98.8676    126.4949   6.9002652077e+01   3.6708599011e+01    0.7221439    0.3456124 -67.72  0.002576605    2.849    0.649
       112 -10.3628     72.9079    128.5981   7.6396216188e+01   4.0344118771e+01    0.2926768    0.1749962 -80.43  0.001322184    1.983    0.496
       113 -10.8425    117.9990    125.0258   6.3643246752e+01   3.3495204135e+01    0.4675325    0.2855271  75.65  0.001715628    2.820    0.645
       114 -10.0708    180.3817    124.5982   4.8728335726e+01   1.9951131009e+01     0.306415    0.1285452 -52.97 0.0009547545    3.166    0.684
       115 -11.2493     58.6972    121.9388   7.9059605227e+01   4.3830185516e+01    0.7786488    0.3143426 -74.16  0.002696073    3.514    0.715
       116 -11.5630     42.9941    120.3941   8.3132361776e+01   4.6013565739e+01    0.9317244    0.3758012 -81.77  0.003059545    4.374    0.771
       117 -11.5165     28.2216    121.5679   8.7326007781e+01   4.7187069196e+01    0.6973414    0.3032703  83.37  0.002460507    4.386    0.772
       118 -10.4177    158.8034    121.2353   5.2686764873e+01   2.5599988618e+01    0.2666725    0.1742211 -85.96 0.0009478655    2.769    0.639
       119 -10.9469    142.0784    118.9977   5.6112701512e+01   2.9825934420e+01    0.4848549    0.2451288 -61.19  0.001638688    2.841    0.648
       120 -10.7150     70.8441    118.9949   7.5121707308e+01   4.2907321404e+01    0.3352436    0.1766339 -82.15  0.001243192    3.104    0.678
       121 -10.5684    130.7977    118.2775   5.8750100998e+01   3.2412718387e+01    0.3801503    0.2079908 -62.72  0.001401368    2.400    0.583
       122 -11.4123      2.5968    115.3730   9.3353315165e+01   5.0539036166e+01    0.6043054    0.2071739 -85.87  0.002414854    3.444    0.710
       123 -11.1964    108.9620    112.6562   6.3114932277e+01   3.8067737687e+01    0.7044555    0.3273883 -62.90  0.002385775    2.998    0.666
       124 -11.1695     78.7916    111.4487   7.1288708767e+01   4.3516104778e+01    0.6023465    0.3108075 -74.58  0.002222634    2.992    0.666
       125 -11.4145     92.2829    110.2477   6.7167363807e+01   4.1624788641e+01    0.8338396    0.2596378 -55.66  0.002664092    3.262    0.693
       126 -10.0500    122.1581    112.1721   5.9464641480e+01   3.5570603444e+01    0.2172542    0.1818763 -84.31 0.0006683978    1.346    0.257
       127 -10.8278     66.2671    109.4219   7.4479059299e+01   4.5787155220e+01    0.4647771    0.2041117 -68.89  0.001745965    2.808    0.644
       128 -11.4858     14.1171    108.9522   8.9449195453e+01   5.1217960763e+01    0.4800569    0.2131325 -72.79  0.002451226    1.830    0.454
       129 -11.7455     44.7221     99.9136   7.8970312634e+01   5.0594643705e+01    0.9658018    0.4556077 -79.33  0.003721106    3.253    0.693
       130 -12.3151     22.0992     99.7936   8.5785388199e+01   5.2701816745e+01     0.965537    0.4175901 -83.94   0.00392867    3.221    0.690
       131 -10.0572    139.8118    104.2237   5.2862570476e+01   3.3517459294e+01    0.2685096    0.1746062 -85.32 0.0009539922    2.816    0.645
       132 -10.3588    150.3996    102.6386   4.9847183424e+01   3.1435316997e+01    0.3187847    0.1316336 -54.15 0.0009577082    3.291    0.696
       133 -11.5965      6.7716    100.7625   9.0420872372e+01   5.3553013256e+01    0.5095817    0.1069333 -68.66  0.001940802    3.339    0.701
       134 -11.3689    108.4528     97.0573   5.9254740353e+01   4.1661504219e+01    0.7297342    0.3678043 -60.84  0.002652728    2.629    0.620
       135 -10.5441     81.7759     98.4518   6.7377255145e+01   4.6049678391e+01    0.5087815    0.1820932 -57.31  0.001758938    2.922    0.658
       136 -10.8539     94.8872     95.8838   6.2835948033e+01   4.4435463389e+01    0.4227161    0.1971027 -55.72  0.001637732    2.232    0.552
       137 -11.4862     63.3519     94.1198   7.1957317964e+01   4.9704220055e+01    0.7538006    0.3081424 -64.26  0.002810847    2.880    0.653
       138 -10.1916     57.9918     92.0003   7.3141335012e+01   5.0872151287e+01    0.1943673    0.1734637 -64.45  0.001198119    1.072    0.067
       139 -12.2577      5.1619     88.5498   8.9155627927e+01   5.6360948544e+01    0.6321021    0.1789064 -59.25  0.002920735    2.342    0.573
       140 -11.2564     34.6455     87.0728   7.9534640602e+01   5.4509527284e+01    0.7541199    0.2039782 -60.80  0.002869791    2.945    0.660
       141 -11.0961     86.2268     84.4732   6.2337267327e+01   4.8425756046e+01    0.6900778    0.2446681 -53.05   0.00239607    2.901    0.655
       142 -11.2861     48.1133     81.9068   7.3946915577e+01   5.4290470521e+01    0.6661342    0.2659848 -59.74  0.002829188    2.292    0.564
       143 -10.5158    124.3815     89.8400   5.2866556502e+01   3.9947309133e+01    0.4599204    0.1335293 -49.52  0.001264489    4.015    0.751
       144 -10.3385     74.3774     79.3804   6.4645135292e+01   5.1404706319e+01    0.3560041    0.1274693 -55.43  0.001248732    3.008    0.668
       145  -9.7826    119.0000     79.0071   5.1132536516e+01   4.3312915691e+01    0.2536884   0.08426255 -42.27  0.000803971    2.953    0.661
       146 -10.1610    128.0055     75.0101   4.7491555565e+01   4.2129825698e+01    0.2767824     0.155754 -59.80  0.001014613    2.579    0.612
       147 -11.3773     62.5261     70.3884   6.6010687487e+01   5.4996523758e+01    0.7909849   0.07829115 -49.10  0.001859264    6.938    0.856
       148 -10.6856      9.9887     74.6535   8.5257247502e+01   5.9112145655e+01    0.1564137    0.1312278 -54.01   0.00102052    1.099    0.090
       149 -11.0664     81.9013     71.5995   5.9935201022e+01   5.1846898355e+01    0.4595193    0.2323278 -60.55  0.001762889    2.829    0.646
       150 -11.0356    104.2439     81.6391   5.6103937170e+01   4.5775390894e+01    0.5185587    0.2448896 -55.07  0.001917616    2.540    0.606
       151 -11.9624     25.2437     76.1596   8.0360388375e+01   5.7724501380e+01    0.9656997    0.2230996 -51.62  0.003789515    2.985    0.665
       152 -10.5173     94.7489     69.4683   5.5224719982e+01   5.0034886180e+01    0.5132351    0.1783413 -52.48  0.001570824    3.918    0.745
       153 -11.1572     51.0000     67.3565   6.9148448871e+01   5.7082555085e+01    0.7115442    0.2084657 -58.41  0.002291167    4.216    0.763
       154 -10.8440      5.6327     70.0395   8.5884309982e+01   6.0349826187e+01    0.2808034   0.08700509 -66.25  0.001258292    2.510    0.602
       155 -11.3750     16.5738     68.5905   8.1753860940e+01   5.9990829467e+01    0.3612128    0.1675829 -66.53  0.001863123    1.903    0.474
       156 -10.6093     37.0014     63.1882   7.3036506723e+01   5.9450161268e+01    0.3126823    0.1475295 -65.04  0.001407415    2.472    0.596
       157 -10.0602    110.0000     62.9829   4.8588891492e+01   4.8283757564e+01    0.2408908   0.08120009 -39.82 0.0007984014    2.915    0.657
       158 -10.8696     73.3052     56.6058   5.7987660919e+01   5.6172601702e+01    0.7761078    0.1826305 -43.77  0.002456101    3.887    0.743
       159 -10.2672     24.8754     57.2789   7.5986228086e+01   6.1737960088e+01    0.3383449   0.09223415 -46.94  0.001402723    2.757    0.637
       160 -11.4676      7.3863     56.6011   8.2481319406e+01   6.3063332262e+01    0.2756859    0.1755932 -81.60  0.001666261    1.869    0.465
       161 -11.5082      7.7607     51.4971   8.1145195274e+01   6.4078832038e+01    0.3866614   0.07902254 -53.68  0.001641738    2.833    0.647
       162 -11.7066     45.0003     50.1231   6.6130087702e+01   6.1218077736e+01    0.5626156    0.1885837 -42.65  0.001539022    2.576    0.612
       163 -10.6570     53.7868     51.5780   6.3284590313e+01   5.9887141922e+01    0.5848171    0.1666519 -53.61  0.001858755    4.544    0.780
       164 -10.7667     30.7683     49.9358   7.1621957738e+01   6.2702901156e+01     0.362754    0.1592558 -63.04  0.001591556    2.852    0.649
       165 -10.1726     20.0017     50.3763   7.6017016128e+01   6.3502649928e+01    0.2760139   0.07720502 -49.89  0.001209925    2.500    0.600
       166 -10.5359     91.9309     48.2313   4.8921258688e+01   5.4465113341e+01    0.5130042    0.1499279 -44.34  0.001657451    3.741    0.733
       167 -10.1364     81.8521     45.2090   5.1078905830e+01   5.6802248878e+01     0.350468   0.08935452 -37.91  0.001110722    3.884    0.743
       168 -10.4283     62.7562     50.0048   5.9451446578e+01   5.8976236866e+01    0.4976804    0.1309899 -39.61  0.001638256    3.842    0.740
       169 -10.6400     16.7206     42.6058   7.5135983587e+01   6.5258513914e+01    0.4420654   0.06114309 -51.77  0.001605884    3.830    0.739
       170  -9.6220     85.3233    233.6612   8.7532587812e+01   1.5866752463e+01    0.1283113   0.07162371  67.68 0.0007050941    1.720    0.419
       171 -10.2520     69.3858     41.1757   5.3872961458e+01   5.9545178445e+01    0.1848209    0.1148445 -47.43 0.0006848247    1.739    0.425
       172 -10.1752     36.5889     39.3116   6.5821229560e+01   6.4142773682e+01    0.2414094    0.1051693 -52.00  0.001154863    2.206    0.547
       173  -9.9398    106.0000     38.9890   4.1333803875e+01   5.3132400516e+01    0.2320092     0.077787 -33.65 0.0001809411    3.003    0.667
       174  -9.6723    113.9807     41.4841   4.0043267092e+01   5.1042070879e+01    0.1931633    0.1103643  29.14 0.0003689872    2.176    0.540
       175 -10.9642     27.2788     30.3513   6.6551167613e+01   6.6646965537e+01    0.4592526   0.09426113 -40.04  0.001560423    4.521    0.779
       176  -9.6645     60.3224     31.6701   5.3513507273e+01   6.2471779592e+01    0.1145108    0.1021675 -71.22 0.0003924831    1.696    0.410
       177 -10.8933     13.0000     29.0805   7.2473624381e+01   6.8030656084e+01    0.3169906   0.05175922 -54.54   0.00105863    5.001    0.800
       178 -10.1402     72.5107    228.5009   8.9389999202e+01   1.8645769019e+01    0.1214974   0.08966292  67.59 0.0008102169    1.043    0.041
