#   1 NUMBER                 Running object number                                     
#   2 MAG_AUTO               Kron-like elliptical aperture magnitude                    [mag]
#   3 X_IMAGE                Object position along x                                    [pixel]
#   4 Y_IMAGE                Object position along y                                    [pixel]
#   5 X_WORLD                Barycenter position along world x axis                     [deg]
#   6 Y_WORLD                Barycenter position along world y axis                     [deg]
#   7 A_WORLD                Profile RMS along major axis (world units)                 [deg]
#   8 B_WORLD                Profile RMS along minor axis (world units)                 [deg]
#   9 THETA_WORLD            Position angle (CCW/world-x)                               [deg]
#  10 FWHM_WORLD             FWHM assuming a gaussian core                              [deg]
#  11 ELONGATION             A_IMAGE/B_IMAGE                                           
#  12 ELLIPTICITY            1 - B_IMAGE/A_IMAGE                                       
         1 -14.8892    158.1816     43.3433   8.4739314418e+01   4.0294082757e+01     1.558069     1.079235 -22.01  0.004046345    1.406    0.289
         2 -14.6590    170.5798     10.6046   7.1193789114e+01   4.0923347882e+01     1.306575     1.107278  39.81  0.004645024    1.191    0.160
         3 -12.7480    189.2188     13.5902   6.9973099541e+01   3.5889344723e+01    0.7027143    0.2899472 -44.53    0.0026425    2.501    0.600
         4 -11.8314    167.8170    245.4053   1.2666023294e+02   6.8582481049e+00    0.1954166    0.1385593 -16.90  0.000766918    1.694    0.410
         5 -13.3509    189.4464    249.2553   1.2347631260e+02   3.7529709613e+00    0.4742573    0.2079891  27.45   0.00286452    1.815    0.449
         6 -12.4349    176.3295    248.7944   1.2560578667e+02   5.4240757162e+00      0.24739    0.1583374  20.82 0.0005431066    1.262    0.208
         7 -19.8419     93.2613    232.9546   1.3869763621e+02   1.7684776119e+01     6.934689     4.848486  48.01   0.04693964    1.165    0.142
         8 -12.7134    161.7437    197.6448   1.2157694511e+02   1.3769411306e+01    0.3578812    0.3085497  50.49  0.001841174    1.410    0.291
         9 -11.0389     30.7340    206.2164   1.4868979746e+02   2.8600175768e+01    0.1722808    0.1535258 -34.48 0.0008578442    1.636    0.389
        10 -13.0171    138.1118    198.4303   1.2635976580e+02   1.7094221858e+01     0.578128    0.3730372  50.95  0.003415396    1.669    0.401
        11 -10.7787     28.3893    240.4779   1.5056731378e+02   2.3251183655e+01    0.1297689   0.06016671  45.41 0.0007235592    1.501    0.334
        12 -12.8396    147.3403    189.3035   1.2320304620e+02   1.7164301683e+01     0.456448    0.2402809  19.58  0.002123094    2.482    0.597
        13 -14.1597    207.6318    178.2217   1.0972722055e+02   9.4477517879e+00    0.7967446    0.5447437 -26.01  0.004239514    1.476    0.322
        14 -13.8673    195.6763    171.1562   1.1062388978e+02   1.2278319781e+01    0.7168329    0.4104505 -43.70  0.002584059    2.212    0.548
        15 -12.1411    203.0834    172.3253   1.0946903201e+02   1.0934386113e+01    0.3256552     0.244264 -14.48  0.001742633    1.255    0.203
        16  99.0000     12.7601    243.0750   1.5322563238e+02   2.4203103455e+01    0.1836912    0.0957495 -57.80  0.001302851    2.843    0.648
        17 -14.6058    177.4429    172.2976   1.1434517634e+02   1.5064433293e+01    0.8294998    0.5618935 -44.59  0.004692807    1.790    0.441
        18 -11.0119     21.8805    238.9533   1.5160227628e+02   2.4051875066e+01     0.124853    0.1007442  64.23 0.0007195905    1.174    0.149
        19 -12.4759    196.1364    235.6295   1.2065330773e+02   4.3203869702e+00    0.1937165    0.1384979  -6.00   0.00108402    1.404    0.288
        20 -12.6633    185.7043    167.8668   1.1191464367e+02   1.4371298043e+01    0.4568912    0.2017924 -39.78   0.00209716    2.461    0.594
        21 -11.7228    167.7085    174.6983   1.1671394431e+02   1.6272179494e+01    0.2286379    0.1762258 -46.18 0.0008394481    1.585    0.369
        22 -10.0578      7.7340    236.4760   1.5387238667e+02   2.5605860573e+01   0.08688457   0.06223849  66.80 7.870455e-05    1.134    0.118
        23 -11.7476    230.0735    166.6795   1.0367085227e+02   7.4330554737e+00    0.2928311     0.142471 -42.72  0.001346656    3.060    0.673
        24 -11.9271    201.3800    165.3615   1.0846562602e+02   1.2156789817e+01    0.2765591    0.2367557 -54.11 0.0009539983    1.815    0.449
        25 -11.0554    150.9905    241.4367   1.2913145794e+02   9.4451392048e+00    0.1659087    0.1617448 -17.33  0.001343918    1.400    0.286
        26 -11.3011    222.6560    162.0622   1.0402582411e+02   9.1624382548e+00    0.2789105    0.1912107 -45.77  0.001003327    2.196    0.545
        27 -13.3747    198.6842    223.3200   1.1854584133e+02   5.3175567341e+00    0.3678165    0.2347297   7.83  0.001160097    1.483    0.326
        28 -11.4501     29.2500    156.5919   1.4603512580e+02   3.8338398169e+01    0.2404672     0.181503  83.19 0.0004816816    1.152    0.132
        29 -10.2796      3.8850    158.0789   1.5202568641e+02   3.9976624763e+01    0.1527598    0.1135864 -57.05 0.0005696354    1.586    0.369
        30 -14.4938    133.9733    146.0600   1.1883384032e+02   2.6831062577e+01     1.359228    0.5172154 -56.57  0.004578835    4.031    0.752
        31 -12.4592    140.3061    149.2707   1.1797872432e+02   2.5148048830e+01    0.4738418    0.2474578  52.07     0.001296    2.373    0.579
        32 -14.3289    143.3757    143.8367   1.1621129485e+02   2.5624327073e+01    0.9687051    0.4978539 -59.78  0.003752779    3.181    0.686
        33 -10.1695     22.9756    156.2548   1.4750375312e+02   3.8938021287e+01      0.15331    0.1288469  63.16  0.000425992    1.084    0.078
        34 -11.5575     17.4401    153.6492   1.4865157519e+02   3.9928860478e+01    0.3220953    0.2131141 -33.49  0.001759204    2.231    0.552
        35 -11.3528     18.3137    148.7277   1.4813109717e+02   4.0915842128e+01    0.2824875    0.2387649  57.15  0.001912941    1.145    0.127
        36 -12.8672    174.1058    148.5964   1.1046646032e+02   1.9340525702e+01    0.3825672    0.3043889 -41.73  0.001368365    1.430    0.301
        37 -10.4390    182.4595    149.2679   1.0890378676e+02   1.7752019017e+01    0.1732156    0.1268044 -43.25  0.000834267    1.597    0.374
        38 -11.0156    192.3558    153.4413   1.0781295498e+02   1.5383646011e+01    0.2211232    0.1188756 -33.87 0.0007419625    1.874    0.466
        39 -14.1280    152.7805    145.0944   1.1433341344e+02   2.3734831772e+01    0.6103653    0.4921556  87.56   0.00319387    1.956    0.489
        40 -12.0540    176.1251    142.8389   1.0884553786e+02   1.9918373787e+01    0.1981674    0.1932469  30.76  0.000849934    1.269    0.212
        41 -10.7594     25.9701    139.1715   1.4550135448e+02   4.2409687458e+01    0.1995014    0.1523491 -81.17 0.0006240926    1.161    0.139
        42 -12.2807     27.2179    145.5905   1.4569859129e+02   4.0885191810e+01    0.3231853    0.3002925  35.46 0.0008066527    1.263    0.208
        43 -13.2321    134.5405    109.1187   1.1055472378e+02   3.4006603768e+01     1.427562    0.1801113 -44.50  0.002911095    8.006    0.875
        44 -14.0002    135.9383    128.4187   1.1474335554e+02   2.9904714946e+01     1.389801    0.2998614 -49.27  0.003561316    5.789    0.827
        45  -9.9198     11.8786    136.1370   1.4892667371e+02   4.4144821982e+01    0.1478501     0.122116 -62.59 0.0004651693    1.307    0.235
        46 -11.8264    156.1828    132.8603   1.1097968544e+02   2.5319124846e+01    0.2012571     0.196242  40.18 0.0003586776    1.187    0.157
        47 -13.4977    160.8429    128.1684   1.0888204173e+02   2.5283292878e+01     0.501125     0.438971  23.66  0.002318903    1.082    0.075
        48 -19.1375     76.5595     95.1105   1.2385644390e+02   4.7184958928e+01      18.2381    0.8893813 -56.17   0.02505839   18.443    0.946
        49 -12.8563     38.8593    123.7688   1.4045244632e+02   4.4810013109e+01    0.3108561    0.2603159 -37.57  0.001113131    1.409    0.290
        50 -12.2513    141.3385    120.9501   1.1173831768e+02   3.0358699537e+01    0.3300553    0.2042248  55.94  0.001164143    2.050    0.512
        51 -13.1623     11.6438    206.0316   1.5228672855e+02   3.0261294088e+01    0.4430659    0.2213348  25.42  0.002856705    2.163    0.538
        52 -11.9010    168.8525    202.4996   1.2092838269e+02   1.2047874294e+01    0.2355771    0.1965724  81.49 0.0006648845    2.096    0.523
        53 -12.7387    155.6478    190.8890   1.2176664607e+02   1.5672995969e+01    0.4365519    0.2520064  52.90  0.001424408    2.258    0.557
        54 -10.8256    205.3477    110.2412   9.5593156921e+01   1.9458729200e+01    0.2911476    0.1872578  37.75  0.001008002    1.565    0.361
        55 -12.0192     16.3416    250.1183   1.5284434036e+02   2.2874934355e+01    0.1206547   0.08944117  69.04  0.001115859    1.204    0.169
        56 -12.0546     26.1541    106.2712   1.4219516805e+02   5.0048275924e+01    0.3841042    0.2503932  -2.42  0.001716257    2.147    0.534
        57 -13.3671    154.3541    186.0542   1.2128541423e+02   1.6609201768e+01    0.5133429    0.2869454  44.87  0.002389841    1.760    0.432
        58 -12.2680     41.0613     94.1063   1.3554836146e+02   5.1715773322e+01    0.4691916     0.352234 -43.96  0.002146434    1.362    0.266
        59 -13.3635    157.5202    202.3136   1.2307100225e+02   1.3717393622e+01    0.4720038    0.3892709  56.70  0.002250283    1.549    0.354
        60 -12.5756    154.1640    195.8557   1.2279910374e+02   1.5149178721e+01    0.4303175    0.3154117 -88.75  0.002329557    2.797    0.642
        61 -12.1106     50.7221     91.7515   1.3179683123e+02   5.1294763469e+01    0.3116307    0.2445398  11.71  0.000996549    1.529    0.346
        62 -11.6823      6.1916     88.9963   1.4683832742e+02   5.5494053339e+01    0.5185786    0.2178382 -16.22  0.002131542    4.177    0.761
        63 -10.4704    105.5002     82.1110   1.1123805727e+02   4.5264884681e+01    0.2145721    0.1982796  29.53 0.0003976981    1.121    0.108
        64 -10.8911    142.5046     80.1094   1.0044846379e+02   3.7983016879e+01    0.2274298    0.2086612  25.96   0.00082634    1.092    0.084
        65 -11.4238     57.7339     75.9996   1.2575037140e+02   5.4278703672e+01    0.1985791    0.1707992 -52.58 0.0005240822    1.036    0.034
        66 -14.4692    147.8192     57.9697   9.1995313972e+01   4.0625099605e+01     1.202591      1.01123 -11.64 0.0009618126    1.167    0.143
        67 -13.6570    198.0008    245.1814   1.2156772828e+02   3.1059087290e+00    0.4045126    0.3742639  75.19  0.003296479    2.161    0.537
        68 -13.2606    161.9918     34.7723   8.1018274080e+01   4.0475895843e+01    0.4855171    0.4285448  -5.70 0.0008379972    1.103    0.094
        69 -10.8403     13.3984     59.8620   1.4012837269e+02   6.2227627311e+01    0.1839463     0.168334  64.57 0.0004387452    1.267    0.211
        70 -12.3106    163.9345    202.9691   1.2193227233e+02   1.2696405675e+01    0.2657592    0.2453788 -34.33 0.0004193264    1.375    0.273
