#   1 NUMBER                 Running object number                                     
#   2 MAG_AUTO               Kron-like elliptical aperture magnitude                    [mag]
#   3 X_IMAGE                Object position along x                                    [pixel]
#   4 Y_IMAGE                Object position along y                                    [pixel]
#   5 X_WORLD                Barycenter position along world x axis                     [deg]
#   6 Y_WORLD                Barycenter position along world y axis                     [deg]
#   7 A_WORLD                Profile RMS along major axis (world units)                 [deg]
#   8 B_WORLD                Profile RMS along minor axis (world units)                 [deg]
#   9 THETA_WORLD            Position angle (CCW/world-x)                               [deg]
#  10 FWHM_WORLD             FWHM assuming a gaussian core                              [deg]
#  11 ELONGATION             A_IMAGE/B_IMAGE                                           
#  12 ELLIPTICITY            1 - B_IMAGE/A_IMAGE                                       
         1 -14.0037    163.4282     81.0931   2.9049978634e+02   5.8308784287e+00    0.1629885   0.06463625 -70.87   0.01124857    3.743    0.733
         2 -15.7462    133.4150     21.7952   2.9047765568e+02   6.6910434585e+00    0.5486103    0.3156893 -88.53   0.04518355    2.884    0.653
         3 -13.4561    215.9306     22.4707   2.8951625257e+02   6.1682481747e+00   0.04656543   0.02453888 -28.54  0.003724415    2.881    0.653
         4 -14.8515    206.0915     62.4412   2.8988335073e+02   5.7763650554e+00    0.1492641   0.06706558  60.67  0.008632254    5.686    0.824
         5 -18.1038    238.9378     36.0463   2.8933305661e+02   5.8704225388e+00    0.4447843    0.1314244 -57.68   0.03189085    3.171    0.685
         6 -10.2283     92.1451     20.6828   2.9095429839e+02   6.9605701458e+00   0.02138773  0.009501331 -64.77   0.00134594    2.472    0.595
         7  -9.7864     79.0271     18.0494   2.9109153044e+02   7.0719961651e+00   0.01809947  0.008646746 -53.75 0.0005791657    2.038    0.509
         8  -9.4975     79.3374     11.9515   2.9104949217e+02   7.1392648384e+00   0.01519511  0.007978748 -60.80 0.0005990786    1.938    0.484
         9 -10.9799     92.1859     12.4003   2.9090165186e+02   7.0542995718e+00   0.02099676   0.01262052 -57.20  0.002076702    1.659    0.397
        10 -10.9961    204.0714      8.6773   2.8956786421e+02   6.3987707188e+00   0.01107139  0.007830044 -43.11 0.0005168752    1.462    0.316
        11 -10.3737    164.8992      7.0002   2.9001564883e+02   6.6624963007e+00   0.01042786   0.00893486 -56.20  0.000412051    1.181    0.154
        12 -11.5323    242.9684      4.0416   2.8908393704e+02   6.2079354465e+00   0.01171663  0.008910698  -2.30   0.00125354    1.521    0.342
        13 -10.9285    200.3591    178.0416   2.9067760233e+02   4.4993657068e+00   0.02385055   0.01500834 -76.63  0.001804531    1.955    0.489
        14 -13.1528    246.9057    248.8283   2.9057864787e+02   3.4052799268e+00    0.1475996   0.05284765  32.97   0.01155268    2.568    0.611
        15 -10.6008    237.2796    249.5698   2.9069554191e+02   3.4568110467e+00    0.0335511   0.01248065  32.37  0.002514595    2.491    0.598
        16 -11.6529    190.3000    170.8695   2.9075006180e+02   4.6435372411e+00    0.0432386    0.0135751  44.88  0.002600548    3.863    0.741
        17 -10.8133    180.5792    165.5038   2.9082994200e+02   4.7650698493e+00     0.032922   0.01341854  48.96  0.002404597    3.206    0.688
        18 -10.7839    188.0474    179.0944   2.9082801843e+02   4.5641136219e+00    0.0224505  0.009703495  37.83  0.001891491    2.212    0.548
        19 -10.9650    220.7147    175.8707   2.9042627957e+02   4.3971406040e+00   0.02257151   0.01563994 -75.45  0.001829106    1.671    0.401
        20 -11.2771    216.5155    169.4995   2.9043527786e+02   4.4956960660e+00   0.04824437   0.01295453  40.26  0.003197893    3.639    0.725
        21  -8.4584    101.0216    175.9816   2.9182585450e+02   5.1408525439e+00  0.007595328   0.00733861  18.80            0    1.015    0.014
        22 -10.2266    180.3863    174.5518   2.9088900439e+02   4.6634542733e+00   0.01571215  0.009688219  56.78  0.001473805    2.009    0.502
        23  -9.5976    236.8574    172.4793   2.9021654389e+02   4.3349830559e+00   0.01307225   0.01159094 -20.56  0.001067309    1.180    0.153
        24 -10.4348    229.2760    173.0019   2.9030831423e+02   4.3763364753e+00    0.0297222   0.00977015  31.17  0.002217753    2.810    0.644
        25  -9.0112    195.9696    167.9477   2.9066548075e+02   4.6414050864e+00   0.01050828  0.007682818  58.95 0.0006512085    1.580    0.367
        26 -10.1690    202.4730    166.4547   2.9058013770e+02   4.6178326790e+00   0.01594719  0.009687395  56.51 0.0009859438    2.050    0.512
        27  -9.5284    203.4930    160.9741   2.9053378974e+02   4.6737378966e+00   0.01236043  0.009998378  62.68 0.0006034609    1.390    0.281
        28  -8.8408    229.7003    166.3274   2.9026141411e+02   4.4494970891e+00  0.006910734  0.005067314  64.01 0.0003174449    1.638    0.389
        29 -12.8750     68.4652    144.7547   2.9201119828e+02   5.6980230161e+00   0.04758876   0.03474569  69.02  0.003212508    1.702    0.412
        30 -12.0577     54.6246    161.5108   2.9227816948e+02   5.5932925285e+00   0.02129455   0.01591557   2.86  0.000971211    1.525    0.344
        31 -14.1924     64.1956    154.8018   2.9212412320e+02   5.6102536535e+00    0.1096963   0.06822275 -13.54  0.009888641    2.321    0.569
        32  -8.5245     42.2945    247.2937   2.9295835245e+02   4.6938943356e+00  0.006782489  0.005017926 -24.33 0.0002161144    1.558    0.358
        33  -9.5543     71.9951    243.0205   2.9258454292e+02   4.5585212875e+00  0.009837432  0.009547079 -14.26  0.001219853    1.030    0.029
        34 -11.8750    200.1528    144.2935   2.9046797614e+02   4.8840560043e+00   0.03045277    0.0237299  57.52  0.001253015    1.425    0.298
        35 -10.0951    195.9830    141.9752   2.9050212214e+02   4.9363917601e+00   0.01528782   0.01000586  46.39  0.000555918    1.603    0.376
        36 -10.7792    176.4133    146.3341   2.9075821932e+02   5.0088481551e+00   0.01668419   0.01083826  52.38  0.001654325    1.742    0.426
        37  -8.9136    155.9577    138.4630   2.9094792443e+02   5.2257078270e+00  0.009800772  0.004860517  49.38 0.0008073778    2.395    0.582
        38 -11.1399    214.7000    241.6599   2.9090933628e+02   3.6872518449e+00   0.01536114    0.0106141 -23.95  0.001545506    1.755    0.430
        39  -9.6130    139.6317    105.2267   2.9093004432e+02   5.7050200304e+00    0.0142037   0.01281633  63.35    0.0017014    1.185    0.156
        40 -10.1317    144.7544    102.0851   2.9085034808e+02   5.7088113775e+00   0.01786599   0.01229558 -10.55 0.0006346124    1.862    0.463
        41  -9.5364    136.0386    135.5599   2.9116267168e+02   5.3826968886e+00   0.01347972  0.009789099 -67.63 0.0007579317    1.466    0.318
        42 -11.1344    134.8091    108.7506   2.9100863192e+02   5.6950055763e+00   0.07434423   0.01217304 -62.44  0.003490513    7.542    0.867
        43  -9.6558    132.1521     98.0129   2.9097223119e+02   5.8335421142e+00   0.01383992   0.01135391 -44.96 0.0003976674    1.235    0.190
        44  -9.8737    135.8275    128.6274   2.9112160282e+02   5.4627976993e+00   0.02208631   0.01048372 -54.92  0.001897866    2.050    0.512
        45 -10.3625    133.9488    121.0251   2.9109582855e+02   5.5608831686e+00   0.02812298   0.01971285  78.57  0.002417942    1.908    0.476
        46  -8.7315     99.2502    132.0052   2.9157086172e+02   5.6518550371e+00  0.008965163  0.008563991 -36.75 0.0004307266    1.054    0.051
        47  -9.5872    198.8316    152.8594   2.9053725044e+02   4.7949852459e+00    0.0104469  0.008795257 -27.12  0.000568813    1.262    0.207
        48 -10.2502    150.8273    119.1179   2.9088637381e+02   5.4774760940e+00   0.03392413   0.01670542 -77.51  0.002585811    3.190    0.686
        49  -9.5655    124.1352    123.1275   2.9122387189e+02   5.5980521913e+00   0.01897573   0.01087742 -89.05  0.001537877    2.930    0.659
        50  -9.6597    141.5376    122.0452   2.9101344716e+02   5.5020562215e+00   0.01318102  0.008836704 -81.44  0.001294965    1.872    0.466
        51  -9.3518    120.5542    116.3438   2.9122317396e+02   5.6974225704e+00   0.01740837  0.009985479 -59.85  0.001369712    1.760    0.432
        52  -9.7985    144.9731    110.7750   2.9090242287e+02   5.6087233397e+00   0.01970811   0.01167021  79.07  0.001611445    2.921    0.658
        53  -9.9130    126.9826    111.4655   2.9111728803e+02   5.7128647489e+00   0.01721482   0.01017282 -78.82  0.001364972    2.253    0.556
        54 -10.5135    118.0721    109.4705   2.9120904994e+02   5.7909694629e+00   0.01239916  0.009599777 -89.78 0.0007113199    1.548    0.354
        55 -10.6319    116.7287     93.7229   2.9112581802e+02   5.9782601273e+00   0.02648072   0.01557064  13.30  0.002135902    2.031    0.508
        56 -10.0635    121.5949     97.7016   2.9109385452e+02   5.9027811183e+00   0.01504426   0.01329611  87.71  0.001779152    1.250    0.200
        57 -11.1792    123.5796    103.0844   2.9110445286e+02   5.8292732678e+00   0.03205056   0.01759487  51.54  0.002862486    2.178    0.541
        58 -11.2479    118.1183    100.9834   2.9115518076e+02   5.8871221798e+00    0.0238461    0.0162398  74.61  0.002051332    2.008    0.502
        59  -8.6295     94.3358    105.0260   2.9145904640e+02   5.9890451299e+00   0.01072524  0.005622284  89.34 0.0007043644    4.288    0.767
        60 -10.6288    191.2901    150.7292   2.9061197561e+02   4.8661987278e+00   0.02465765   0.01344649  84.61  0.001746989    3.939    0.746
        61 -11.0179    153.1820     97.1267   2.9072055519e+02   5.7126412326e+00   0.02236669   0.01994859 -86.90   0.00267042    1.223    0.183
        62 -11.0899    138.7902     93.0117   2.9086308822e+02   5.8490274221e+00   0.02690662   0.01478549  55.89   0.00208955    2.409    0.585
        63 -11.6149    150.3097     87.2988   2.9069233816e+02   5.8421654091e+00   0.01917627   0.01310144 -49.95 0.0006659927    1.466    0.318
        64 -10.5123    129.1739     84.0530   2.9091930988e+02   6.0106657537e+00   0.02245144   0.01351179  82.54  0.001887787    2.766    0.638
        65 -10.6543    172.3382     84.1883   2.9041503592e+02   5.7401745681e+00    0.0113229   0.01074928  19.83 0.0003100765    1.034    0.033
        66  -8.3987     49.6027    222.1969   2.9271631539e+02   4.9341257731e+00  0.009169363  0.005969717 -48.36 0.0003442242    1.547    0.354
        67 -10.0752      3.5770     81.7534   2.9237665454e+02   6.8161724367e+00  0.009557374  0.006594102 -77.41 0.0009623719    1.711    0.416
        68  -9.5789    202.6461     80.0591   2.9003463181e+02   5.5979301607e+00   0.01422528  0.009727838  64.88   0.00129605    1.863    0.463
        69 -11.9474    194.6924     70.9451   2.9007020627e+02   5.7510382489e+00   0.04118615   0.03440979 -83.23  0.004300869    1.338    0.253
        70 -11.1732    191.9725    191.5700   2.9086047710e+02   4.3979015004e+00   0.05187581   0.02312999 -78.01    0.0033729    4.437    0.775
        71  -9.1347    222.8661     74.1857   2.8976132192e+02   5.5382944424e+00  0.009088903  0.008125971  32.80            0    1.098    0.089
        72  -8.9841    195.9654     61.3119   2.8999462433e+02   5.8524214291e+00  0.008515062    0.0078554  38.04 0.0002814826    1.077    0.071
        73 -10.1526    144.2780    146.8124   2.9113694997e+02   5.2035313337e+00   0.02575344   0.01449667  88.44  0.001999927    3.245    0.692
        74  -9.9678    133.6345    147.5613   2.9126614044e+02   5.2612470404e+00   0.02960356   0.01117879 -63.78  0.002247152    2.897    0.655
        75  -8.7689     71.4434     53.0535   2.9140069640e+02   6.7217109557e+00  0.009695046  0.006584749 -61.86 0.0003515013    1.511    0.338
        76  -9.7573    132.8153    141.2163   2.9123589349e+02   5.3384634647e+00   0.02634245  0.008765079 -67.65  0.001678549    4.219    0.763
        77  -9.1157     70.9773     42.1789   2.9133777221e+02   6.8480943617e+00   0.01169603  0.009208358 -59.60 0.0007378674    1.291    0.225
        78 -10.1244     54.8238     40.6400   2.9151751699e+02   6.9658303784e+00   0.01803539    0.0107814 -61.74  0.001315367    1.716    0.417
        79  -9.7324     58.0000     37.0946   2.9145797189e+02   6.9863795614e+00   0.02286073    0.0096893 -63.46  0.001855859    2.523    0.604
        80 -10.9724    181.8873     36.8425   2.9000504577e+02   6.2179705874e+00   0.01159244  0.009266336 -69.86 0.0005355699    1.334    0.250
        81 -10.6348    198.6291     35.8538   2.8980298008e+02   6.1246227408e+00  0.009162509  0.007779859 -55.79 0.0004561441    1.191    0.160
        82  -9.1751    190.1572     35.6209   2.8990059881e+02   6.1801862658e+00  0.008251227  0.007672593   4.82 0.0004326459    1.082    0.076
        83  -8.9355     54.1492     34.1968   2.9148491163e+02   7.0431735911e+00  0.009139518   0.00777048  81.16 0.0007257333    1.339    0.253
        84  -9.6271     57.3795     30.4742   2.9142360872e+02   7.0653930499e+00   0.01520578   0.00677144 -66.86  0.001221653    2.603    0.616
        85 -10.6966    207.0057     23.4794   2.8962696384e+02   6.2126113767e+00   0.02288405  0.007063904 -59.35  0.001639595    3.153    0.683
        86  -8.0754    177.5093     25.6915   2.8998595467e+02   6.3717984269e+00  0.006594813  0.005990694  20.14 0.0002915384    1.086    0.079
        87  -8.7800    171.1687     22.5192   2.9004015255e+02   6.4473641018e+00   0.01453835  0.008709867 -63.62  0.001071669    1.747    0.428
        88 -13.8373     14.7723    180.8750   2.9286575088e+02   5.6197730567e+00    0.1140162   0.08413147  83.53   0.01195867    1.714    0.417
        89 -13.8305     29.2836    177.1638   2.9267270850e+02   5.5722099872e+00   0.05060677    0.0482262  32.52  0.003614516    1.038    0.037
        90 -10.2513    209.1488    186.1923   2.9062614058e+02   4.3519861989e+00   0.01186593    0.0101616  89.85 0.0007859483    1.311    0.237
        91 -10.1906    203.7899     17.9973   2.8962997645e+02   6.2948720142e+00   0.00928267  0.007424571 -41.60 0.0004677721    1.283    0.220
        92 -10.4448    213.9684    185.9991   2.9056865698e+02   4.3241416866e+00   0.01026645  0.009835755   9.94 0.0004932847    1.030    0.029
        93  -8.7227    196.4030    186.2323   2.9077523099e+02   4.4309524597e+00  0.008666997  0.006512648 -79.29 0.0003234338    1.535    0.348
        94 -11.4768    211.4830    179.1097   2.9055440904e+02   4.4179008041e+00    0.0272336   0.01224499  43.04   0.00185428    2.311    0.567
        95  -9.9525    192.1121    144.0426   2.9056034750e+02   4.9370392866e+00    0.0132261   0.01086609  38.24 0.0004333725    1.202    0.168
        96 -10.9113    219.7133     11.5135   2.8940287448e+02   6.2688023899e+00   0.00753308  0.006493722  20.44 0.0002506181    1.153    0.133
