#   1 NUMBER                 Running object number                                     
#   2 MAG_AUTO               Kron-like elliptical aperture magnitude                    [mag]
#   3 X_IMAGE                Object position along x                                    [pixel]
#   4 Y_IMAGE                Object position along y                                    [pixel]
#   5 X_WORLD                Barycenter position along world x axis                     [deg]
#   6 Y_WORLD                Barycenter position along world y axis                     [deg]
#   7 A_WORLD                Profile RMS along major axis (world units)                 [deg]
#   8 B_WORLD                Profile RMS along minor axis (world units)                 [deg]
#   9 THETA_WORLD            Position angle (CCW/world-x)                               [deg]
#  10 FWHM_WORLD             FWHM assuming a gaussian core                              [deg]
#  11 ELONGATION             A_IMAGE/B_IMAGE                                           
#  12 ELLIPTICITY            1 - B_IMAGE/A_IMAGE                                       
         1 -13.6492     68.5694    144.6519   9.2340253722e+01   3.7304974965e+01     4.337548     2.244798  88.76  0.002932509    4.594    0.782
         2 -13.4281    209.5261     43.2114   3.4269995386e+01   2.8181062650e+01     1.712216     1.296277  33.94  0.008859391    1.947    0.486
         3 -13.3069    223.8283     31.1577   3.0303740240e+01   2.6747687034e+01     1.039307    0.7935888  41.09  0.006615563    1.915    0.478
         4 -11.4655    248.2335     10.1269   2.4484058322e+01   2.4458742251e+01    0.3996585    0.2542153 -61.91  0.002482384    1.200    0.167
         5 -11.6012    247.8804      4.1996   2.3410633475e+01   2.5141074761e+01    0.4125669    0.3903273 -38.94  0.003451736    1.501    0.334
         6 -10.0200    190.8197    190.8213   6.9926387091e+01   6.4752632746e+00    0.4478055    0.2417693 -59.77  0.001680596    3.738    0.732
         7 -10.0153    102.2973    249.8480   9.8337781959e+01   8.5230705344e+00    0.2320403    0.1915049  57.97  0.001063293    1.289    0.224
         8 -10.5201    101.4336    243.2499   9.7796546563e+01   9.8599961594e+00    0.4739515    0.1309306 -60.13   0.00172798    4.359    0.771
         9 -15.9664     30.7987    179.5420   1.0828616204e+02   3.2841970869e+01     12.63203     5.392416  65.14   0.03340919    3.122    0.680
        10 -12.6749     15.9179    248.7604   1.1652717610e+02   1.8837164655e+01    0.3111174     0.216228  65.77 0.0006943422    1.189    0.159
        11  -9.1276    116.4528    186.4687   8.6222811450e+01   1.9513244250e+01    0.2494107    0.1467052 -68.37  0.001026452    2.278    0.561
        12  -8.4623    145.4734    183.5414   7.8516125161e+01   1.5307738744e+01    0.1450482      0.13561   6.53 0.0004432645    1.019    0.018
        13  -8.9387     99.4606    180.9649   8.9735168463e+01   2.3519184505e+01    0.2177049    0.1949722  33.06 0.0004801306    1.081    0.075
        14 -10.8826    238.3043    174.5477   5.8222616428e+01   2.2821247657e+00     0.325314    0.1289943 -39.85  0.001407708    2.147    0.534
        15 -11.3175     59.7198    171.9857   9.9363092890e+01   3.1462484875e+01    0.4793651    0.3187187 -27.89  0.002197616    2.018    0.505
        16 -11.1937     64.9338    167.2013   9.7178615998e+01   3.1996572969e+01    0.3490384    0.2794016 -26.27 0.0007291169    1.480    0.324
        17 -10.1569    103.1322    171.8089   8.7165778198e+01   2.5120123980e+01    0.4717972    0.2812947  58.27  0.001905156    2.212    0.548
        18 -10.6626    231.9076    170.8106   5.8549127475e+01   3.7800591884e+00    0.2598034    0.2093582 -89.90  0.001446982    2.420    0.587
        19 -10.6452    240.0029    169.0369   5.6906234739e+01   2.9251950346e+00    0.1985023    0.1576612 -24.33 0.0005425321    1.012    0.012
        20 -12.8176     62.0505    153.9628   9.5970511340e+01   3.5786021131e+01    0.5426424    0.3918726 -38.27  0.001395572    1.527    0.345
        21 -11.8449     74.9914    158.2364   9.2788789003e+01   3.2881248191e+01    0.5699024    0.5624431  38.94 0.0004924654    1.040    0.038
        22 -15.5302      7.4554    245.6181   1.1806136304e+02   2.0251597041e+01     2.790294      1.28425  17.19  0.008113839    3.070    0.674
        23  -8.1798    224.2036    206.9502   6.6559082620e+01  -9.3199193753e-01    0.1558637   0.08513431 -36.16            0    1.644    0.392
        24  -9.0264     87.1397    206.5553   9.6709787142e+01   1.9422703311e+01    0.2144282    0.1832359 -88.62 0.0003603216    1.272    0.214
        25  -8.1267    125.0000    150.9612   7.7116277925e+01   2.6252750093e+01    0.2502607   0.08727261 -50.19 0.0006539611    2.862    0.651
        26  -8.6284    174.5499    149.4833   6.4900870277e+01   1.7186302574e+01    0.1468448    0.1352623 -22.12 -3.890888e-05    1.005    0.005
        27  -9.9248    133.7765    145.2418   7.3552394837e+01   2.5910884799e+01    0.9243034    0.2245836 -53.18  0.002121768    5.850    0.829
        28 -10.3789     54.7614    147.6630   9.7203500533e+01   3.8366371288e+01    0.4857053    0.1992576 -64.40  0.001820953    2.321    0.569
        29 -15.0076      8.8843    207.5466   1.1586691681e+02   2.8195129131e+01     2.795707     1.351527 -81.63    0.0144674    1.910    0.476
        30  -9.8954     28.4095    143.3176   1.0491127798e+02   4.2368596305e+01    0.2668118    0.2257145  85.24 0.0007659725    1.150    0.131
        31 -10.1252     98.4553    138.3666   8.1857999955e+01   3.4124377224e+01    0.6174501    0.3858362 -15.09  0.002248137    2.731    0.634
        32 -11.6732     85.0760    137.7216   8.5800261476e+01   3.6559317541e+01    0.3399069    0.2847701 -41.67 0.0004216495    1.195    0.163
        33  -9.7097    123.9670    202.4253   8.6996840244e+01   1.4806486842e+01    0.2584323    0.2025617 -77.49 0.0009093488    1.661    0.398
        34 -10.2562    107.1450    130.1826   7.7412737698e+01   3.4539345355e+01    0.4971941    0.3518125  18.26  0.001957586    1.699    0.411
        35  -8.3104    110.7759    167.5613   8.4309389498e+01   2.4861614906e+01     0.206738    0.1375521  45.97 0.0005724151    1.548    0.354
        36  -9.3653     44.0343    129.5115   9.7666312417e+01   4.4398540586e+01    0.2139276    0.1425761  28.16  0.001028544    1.591    0.372
        37  -8.5091     96.7470    124.4291   7.9172011183e+01   3.7853001463e+01      0.19753    0.1513584  20.05 0.0002508247    1.448    0.310
        38  -8.9118    162.7680    120.0808   6.0624832440e+01   2.5489816487e+01    0.2348315    0.2014213 -68.85   0.00120501    1.317    0.241
        39 -13.5025     55.7147    234.2929   1.0714366281e+02   1.7481955910e+01     1.422579    0.6182853 -81.39  0.002755615    2.970    0.663
        40  -9.0608    105.9910    118.1677   7.4809003921e+01   3.7617688391e+01    0.2237507    0.2157475  -4.74 0.0004127845    1.036    0.035
        41  -9.9090    231.2232    113.8752   4.7130126698e+01   1.3334814207e+01    0.2495287    0.2226447 -35.04 0.0008335009    1.078    0.072
        42  -8.9581    158.7937    114.7351   6.0173986577e+01   2.7408252594e+01    0.2645497    0.1854586 -66.63 0.0006025136    1.851    0.460
        43 -10.5370    244.0116    112.2790   4.5092837725e+01   1.1434224820e+01    0.1750881    0.1514054 -40.96  0.001171994    1.065    0.061
        44  -9.6905     34.8261    111.1759   9.7614091766e+01   5.0139963455e+01     0.433896    0.2119762  47.36  0.001555816    2.538    0.606
        45  -8.7969     75.0800    110.6580   8.2878248187e+01   4.4964294423e+01    0.2131737    0.1899737  29.66  0.000758289    1.151    0.131
        46  -9.2223    205.3465    110.2410   5.0226041990e+01   1.8699973190e+01    0.2598325    0.1964647  44.39  0.001043244    1.497    0.332
        47  -9.5033    240.4928    102.4600   4.3532105081e+01   1.3565141558e+01    0.1265789    0.1043677 -42.55 0.0002557783    1.017    0.017
        48  -9.9998    249.5190     99.9921   4.1944817234e+01   1.2429698778e+01    0.1972354   0.09944032 -39.14  0.001033184    1.593    0.372
        49 -11.9166     82.7096    151.9105   8.9348428333e+01   3.3332123466e+01     1.473734    0.6467147 -55.85  0.005536883    2.191    0.544
        50  -9.6338     53.0312     90.7067   8.5873409979e+01   5.3089499610e+01    0.2057285    0.1878132  -9.91 0.0006288188    1.073    0.068
        51  -8.2723    234.2848     86.3233   4.0929652985e+01   1.7153580905e+01    0.1169478   0.09547668  -9.67 0.0002388604    1.598    0.374
        52  -8.6270    161.4920     84.4815   5.1723686273e+01   3.2576493459e+01    0.1437625    0.1405615 -59.22  0.000810117    1.034    0.033
        53  -8.4295     45.8124     69.1435   8.2586250950e+01   5.8954360743e+01    0.1931504    0.1476384 -21.51 0.0003314198    1.281    0.219
        54  -9.4584      8.6693     67.3212   9.9436209678e+01   6.2974027184e+01    0.1231285   0.09702171  62.11 0.0004115275    1.695    0.410
        55  -8.8449     35.6418     63.2443   8.5313574435e+01   6.1492372324e+01     0.231956    0.1516548  35.93 0.0007516188    1.687    0.407
        56 -10.4803     13.4549     59.9885   9.5197019666e+01   6.4306240489e+01    0.2697083    0.2237297 -63.85 0.0006748509    1.304    0.233
        57 -11.7776    200.8336     49.2551   3.6625000054e+01   2.9232142051e+01    0.6340324       0.4252  51.07  0.001866896    1.737    0.424
        58 -10.6272    119.8982    245.1310   9.3946077082e+01   7.0072201468e+00    0.2602041     0.175243 -46.16  0.001095632    1.711    0.416
        59 -10.9582    144.8424    227.3844   8.6020077020e+01   6.7131342404e+00    0.4292111     0.116163  32.20  0.001471627    3.361    0.702
        60  -9.7448     37.8504     57.1356   8.2230013420e+01   6.2500025472e+01    0.2557895    0.1966551  40.50 0.0007024184    1.532    0.347
        61  -8.5406     21.7669     56.5713   8.9967836101e+01   6.4362979369e+01    0.2235297    0.1077382  33.78   0.00103585    2.301    0.565
        62  -8.6747     17.9750     55.0184   9.1428944140e+01   6.5028084942e+01     0.182829    0.1723026  -4.88 0.0005086745    1.200    0.166
        63 -10.6702      3.8563     49.8156   9.7418348993e+01   6.7140486293e+01    0.4353661    0.2144264  18.21   0.00224657    2.137    0.532
        64  -9.0557    197.9355     23.8933   3.0980243181e+01   3.3011567183e+01    0.1741892    0.1626852  62.13 0.0005897233    1.310    0.237
        65  -8.6308    189.4884     15.0093   2.9670345275e+01   3.5836085380e+01     0.172907    0.1132307 -36.78  0.000609231    1.550    0.355
        66 -10.2564    195.3441    199.6716   7.0660794797e+01   4.2330066014e+00    0.1811263    0.1343541 -49.26  0.001005765    1.632    0.387
