#   1 NUMBER                 Running object number                                     
#   2 MAG_AUTO               Kron-like elliptical aperture magnitude                    [mag]
#   3 X_IMAGE                Object position along x                                    [pixel]
#   4 Y_IMAGE                Object position along y                                    [pixel]
#   5 X_WORLD                Barycenter position along world x axis                     [deg]
#   6 Y_WORLD                Barycenter position along world y axis                     [deg]
#   7 A_WORLD                Profile RMS along major axis (world units)                 [deg]
#   8 B_WORLD                Profile RMS along minor axis (world units)                 [deg]
#   9 THETA_WORLD            Position angle (CCW/world-x)                               [deg]
#  10 FWHM_WORLD             FWHM assuming a gaussian core                              [deg]
#  11 ELONGATION             A_IMAGE/B_IMAGE                                           
#  12 ELLIPTICITY            1 - B_IMAGE/A_IMAGE                                       
         1 -13.4218    194.4882     30.0307   6.8505030350e+01   3.3137484441e+01     1.245359     1.151446  79.44  0.006582143    1.095    0.087
         2 -13.8117    209.5162     11.6967   6.2213270839e+01   3.1631854410e+01     1.312827    0.9854758  40.30  0.007640777    1.728    0.421
         3 -11.5078      1.9052     11.3023   1.1669363579e+02   7.0894542166e+01    0.4434756    0.1170137 -47.11  0.002128734    3.210    0.688
         4 -10.4594    230.3352    249.3482   1.1099237043e+02  -1.1410964436e+01    0.1975729    0.1246046  10.64  0.001132985    1.703    0.413
         5 -12.1637    140.2071    248.9376   1.2778682962e+02   3.6451566849e+00    0.5244087     0.324749  51.20  0.002962592    1.362    0.266
         6 -11.2039    125.4905    250.1861   1.3070954856e+02   5.9089196501e+00    0.4026506    0.1471238  43.45  0.001778982    2.247    0.555
         7 -10.6252    111.0247    249.6993   1.3334241351e+02   8.3662685092e+00    0.1830262    0.1353749  53.58 0.0007366477    1.099    0.090
         8  -9.9753     66.9011    250.0500   1.4129309220e+02   1.4976029471e+01      0.17676    0.1311934  69.30 0.0003311507    1.006    0.006
         9 -10.7888     46.1690    248.4936   1.4469631271e+02   1.8035053610e+01    0.3882497    0.1717559  85.41  0.001426852    2.512    0.602
        10 -12.9025     33.4907    246.7449   1.4666721662e+02   1.9927919337e+01    0.9309347    0.6693382  31.14  0.006333663    2.112    0.527
        11 -13.5796      8.0405    244.9803   1.5060074545e+02   2.3102294176e+01      1.34913     1.022164  60.30   0.01091652    1.337    0.252
        12 -13.9372      8.6298    208.6764   1.4833851747e+02   3.0138523312e+01     1.665204     0.693783 -70.10  0.008218572    1.991    0.498
        13 -15.5133      7.4283    154.8476   1.4419231267e+02   4.1868182927e+01     9.387366     4.286631  70.55   0.04573694    2.660    0.624
        14 -11.3174    100.9872    245.4912   1.3473788419e+02   1.0730747520e+01    0.2622516    0.1763888  71.63 0.0009380688    1.411    0.291
        15 -11.0775    120.6048    239.2048   1.3029981955e+02   8.6784121606e+00    0.3468336    0.1927007 -88.49  0.001506211    3.067    0.674
        16 -10.8800    248.5920    235.3094   1.0536522206e+02  -1.2348942106e+01    0.2171104    0.1080745 -38.13   0.00114544    2.192    0.544
        17 -11.4756     50.6405    234.7518   1.4286001094e+02   2.0088599737e+01    0.3143487    0.2021937 -66.12  0.002005077    1.654    0.395
        18 -12.7599     35.9041    230.8058   1.4513491892e+02   2.2705530152e+01    0.2936848    0.2427157 -81.56 0.0007757567    1.346    0.257
        19  -9.6968    229.5884    229.8027   1.0782025034e+02  -8.6608727259e+00    0.1622692    0.1168348 -44.38 0.0009503092    1.723    0.420
        20 -10.0685     60.6101    227.9483   1.4045948653e+02   2.0114246068e+01    0.4094109     0.177866  70.67   0.00177489    2.918    0.657
        21 -14.4447     42.0510    222.4889   1.4338434717e+02   2.3630191931e+01       1.6071     1.383563 -20.42  0.007524143    2.180    0.541
        22  -9.7749    127.1634    225.7561   1.2724626113e+02   1.0076012664e+01    0.2324904     0.129404  73.29 0.0009550492    2.833    0.647
        23 -11.0148    162.8748    249.0632   1.2350503916e+02  -2.5762907181e-01    0.3262966    0.1620834  45.15  0.001394202    1.669    0.401
        24 -11.8007     98.9902    248.6182   1.3543830136e+02   1.0475497485e+01    0.4730538    0.1881412  44.15  0.002256759    2.093    0.522
        25  -9.6634     26.5836    215.3750   1.4561657779e+02   2.6898147461e+01    0.2154819   0.09189923 -81.02 0.0006564604    2.070    0.517
        26  -8.9814    152.6827    212.9848   1.2008752822e+02   7.9012118290e+00    0.1784061    0.1686022  86.36 0.0002765974    1.121    0.108
        27  -9.6817     25.4423    203.3179   1.4487258336e+02   2.9544553661e+01    0.2795043    0.1287602  54.34  0.001531808    1.972    0.493
        28 -11.6684     62.4262    197.1587   1.3691693684e+02   2.6385369310e+01    0.3151131    0.2438179 -52.34 0.0006239069    1.579    0.367
        29 -10.0750    192.2646    193.4095   1.0834914196e+02   3.9789079232e+00    0.5405383    0.2999916 -68.17  0.001719718    4.659    0.785
        30 -11.8902     68.3090    189.2116   1.3470632422e+02   2.7347804410e+01    0.2862855    0.2312781 -61.42 0.0005191828    1.325    0.245
        31 -11.0119     78.2390    176.7032   1.3078067161e+02   2.8772770351e+01    0.2521521    0.2231708 -76.67 0.0003985583    1.111    0.100
        32 -13.2277     65.1378    174.5809   1.3348393577e+02   3.1145908239e+01    0.5136794    0.2802408 -46.29  0.001627483    2.269    0.559
        33 -12.0476     85.7953    167.3462   1.2755866402e+02   2.9801598383e+01    0.6627272    0.5968004  66.71  0.003926286    1.108    0.097
        34 -10.7983     81.2712    248.8058   1.3865733608e+02   1.3140148521e+01    0.2677807    0.1689575  67.47   0.00163864    1.362    0.266
        35 -10.0939     98.3525    151.6498   1.2168207689e+02   3.1456314197e+01    0.2668601    0.2487518 -51.08 0.0007067341    1.154    0.134
        36 -12.1680     86.8814    150.8550   1.2443600700e+02   3.3541757332e+01    0.2928421    0.2523553 -48.14 0.0004922518    1.235    0.190
        37 -12.6274     67.4657    143.8666   1.2816021785e+02   3.8082865801e+01    0.8218805    0.5400096  74.79  0.002757307    1.876    0.467
        38 -11.6847     57.4873    131.4084   1.2858934742e+02   4.2335674504e+01     1.864066    0.6125705 -72.28  0.004027863    9.019    0.889
        39  -9.2403    101.3004    147.5509   1.2013121387e+02   3.1918209329e+01    0.2368594    0.1682102 -37.91 0.0006801694    1.647    0.393
        40 -10.8633    125.9548    244.6853   1.2995442928e+02   6.7918412958e+00    0.1917947    0.1418839  52.64  0.001169409    1.108    0.098
        41  -8.7292    192.3418    144.1758   9.7854650484e+01   1.3668166490e+01    0.2116884    0.1389983 -51.09 0.0004747866    1.588    0.370
        42  -9.9582    109.8212    136.9252   1.1570630869e+02   3.2889037049e+01    0.3873589    0.2597308 -24.21  0.001589949    2.258    0.557
        43 -10.5867     97.1072    134.0797   1.1843791398e+02   3.5836005037e+01    0.2653588    0.2185473 -38.12 0.0004781456    1.310    0.237
        44  -9.3095    106.9287    123.6806   1.1346059650e+02   3.6510501777e+01    0.1957417    0.1849415  56.98 0.0003360934    1.096    0.087
        45 -10.2591    168.0751    113.0787   9.5508410968e+01   2.5698095618e+01    0.3635434    0.2891102 -80.60 0.0009445292    1.514    0.340
        46  -9.4234    203.4039    111.7476   8.7869722222e+01   1.7602202439e+01    0.2128262    0.1457304 -29.02 0.0006364239    1.627    0.385
        47 -10.0934    242.6712     90.6668   7.6322708189e+01   1.2480817431e+01    0.1369738    0.1125807   9.60  0.000705187    1.720    0.419
        48  -9.7076    157.4020     76.8302   8.8033875138e+01   3.5295285471e+01      0.21371    0.1482205 -24.32 0.0007896794    1.700    0.412
        49 -10.5671    250.2712    247.8507   1.0721653510e+02  -1.4162974045e+01     0.235667    0.1285836 -30.31  0.001380416    1.893    0.472
        50 -11.5672    239.1707    247.5218   1.0911323303e+02  -1.2508808447e+01    0.3075152    0.1984975 -17.74  0.001890364    1.614    0.380
        51 -10.8935      2.2850     38.2759   1.2571696784e+02   6.6581594641e+01    0.3639976   0.08819929 -57.96  0.001449693    4.077    0.755
