#   1 NUMBER                 Running object number                                     
#   2 MAG_AUTO               Kron-like elliptical aperture magnitude                    [mag]
#   3 X_IMAGE                Object position along x                                    [pixel]
#   4 Y_IMAGE                Object position along y                                    [pixel]
#   5 X_WORLD                Barycenter position along world x axis                     [deg]
#   6 Y_WORLD                Barycenter position along world y axis                     [deg]
#   7 A_WORLD                Profile RMS along major axis (world units)                 [deg]
#   8 B_WORLD                Profile RMS along minor axis (world units)                 [deg]
#   9 THETA_WORLD            Position angle (CCW/world-x)                               [deg]
#  10 FWHM_WORLD             FWHM assuming a gaussian core                              [deg]
#  11 ELONGATION             A_IMAGE/B_IMAGE                                           
#  12 ELLIPTICITY            1 - B_IMAGE/A_IMAGE                                       
         1 -15.5502    172.1706      7.1562   4.5535135939e+01   4.0971519417e+01     2.675691      1.02824  74.80   0.01005312    2.683    0.627
         2 -11.0457     85.5326      7.5380   6.2996880811e+01   6.1613531450e+01    0.1302503    0.1114689  19.33 2.562703e-05    1.016    0.016
         3 -10.0974    200.2713    246.6651   9.7699395117e+01  -3.8880163907e+00    0.1031482   0.08672692  57.90 0.0002706409    1.596    0.373
         4 -10.5209    102.7384    250.2670   1.1559170387e+02   1.0703247318e+01    0.1159269   0.09449601 -80.36 0.0003768968    1.395    0.283
         5 -12.2498     94.5508    242.5901   1.1632998000e+02   1.3147443565e+01    0.3679408    0.3254175 -74.05  0.002778053    1.386    0.279
         6 -12.0782     99.8799    243.8091   1.1549075433e+02   1.2171024520e+01     0.251674    0.2109292 -44.89  0.001777722    1.722    0.419
         7 -11.7825     85.4054    247.2239   1.1835532127e+02   1.3666783974e+01    0.1647097    0.1196217  81.46  0.001157932    1.323    0.244
         8 -12.5411     89.5411    247.3856   1.1764689280e+02   1.3061481194e+01     0.407328    0.2155326  68.72  0.002304628    2.035    0.509
         9 -11.5572     87.8309    242.4859   1.1751850387e+02   1.4123064487e+01    0.2777838    0.2157534   8.39  0.001724053    2.405    0.584
        10 -12.4734    101.6687    239.6803   1.1476758525e+02   1.2598280136e+01    0.4870591     0.260579  23.81  0.002114481    3.789    0.736
        11 -11.6806    100.4580    236.5163   1.1467430052e+02   1.3315334617e+01    0.2059667    0.1844215   9.47  0.001445246    1.649    0.394
        12  99.0000     26.1127    221.6457   1.2684682987e+02   2.5624371230e+01    0.8618566    0.5468298 -52.64  0.005579657    2.380    0.580
        13 -16.6154     43.2417    186.8431   1.2104042876e+02   3.0731839559e+01     3.636291      2.06749 -69.33   0.02119471    1.609    0.379
        14 -17.1308     95.1591    199.9274   1.1164417765e+02   2.0955315044e+01     3.655324     2.165543 -46.77   0.01877093    2.184    0.542
        15 -18.6556     66.3664    225.5233   1.1992809094e+02   2.0084113287e+01     5.995317     5.226049  57.71   0.04136418    1.271    0.213
        16 -10.8014      6.0563    225.8720   1.3043418604e+02   2.6862611601e+01    0.1151372   0.07758442  67.96 0.0003644071    1.071    0.066
        17 -12.4450    200.6606    225.4339   9.4410241504e+01  -1.1853465795e+00    0.3819094    0.1028907  40.70   0.00144668    3.131    0.681
        18 -10.5828    139.8660    223.6379   1.0570198422e+02   9.2928553160e+00    0.2942591    0.1022951  41.36  0.001229367    2.412    0.585
        19 -10.3424     14.4947    223.6642   1.2893602719e+02   2.6446736621e+01    0.1039341   0.07360023  68.97 0.0001350109    1.061    0.057
        20 -10.8166     18.8134    221.5358   1.2809483985e+02   2.6407769353e+01    0.1320943   0.08480108  52.23 0.0004106863    1.346    0.257
        21 -10.5416    136.0553    231.8199   1.0748878868e+02   8.5622727920e+00    0.1781772    0.1514184 -88.02 0.0005287808    1.364    0.267
        22 -12.4846    126.2777    217.4111   1.0754514965e+02   1.2626024161e+01    0.5059825    0.2742631  40.02  0.001932941    1.634    0.388
        23 -12.6575    123.3111    210.9422   1.0728456301e+02   1.4293765342e+01    0.5772371    0.3900377 -77.11   0.00317452    1.823    0.451
        24 -11.3827    141.2562    217.1951   1.0455096080e+02   1.0158080070e+01    0.3669373    0.2096573 -65.14  0.001308094    2.383    0.580
        25 -11.0419      9.1260    217.3931   1.2952595454e+02   2.8146646755e+01    0.1461279    0.1068916  87.37 0.0004108417    1.181    0.153
        26 -12.5049     13.5435    216.2794   1.2871572076e+02   2.7929760036e+01    0.2192967    0.1586829 -76.06   0.00136611    1.442    0.307
        27 -10.4296     25.6896    244.7813   1.2817687161e+02   2.1493228123e+01   0.08190456   0.07168185  60.13 0.0002306951    1.475    0.322
        28 -11.6722    131.6630    211.8589   1.0572424572e+02   1.2726641772e+01    0.2889956    0.2199354 -73.48  0.001456191    1.539    0.350
        29 -10.7555     19.8957    211.5445   1.2734191411e+02   2.8206749292e+01    0.1437927    0.0885695  49.02 0.0004646252    1.459    0.314
        30 -10.5794      8.5476    211.3699   1.2932218112e+02   2.9350555524e+01    0.1059144   0.07544468  73.75 0.0001774788    1.033    0.032
        31 -10.5259     13.6634    202.6724   1.2794106222e+02   3.0567459706e+01    0.1833264   0.08066101  59.56  0.000714649    1.885    0.469
        32 -13.3456    197.5023    200.5314   9.0793489418e+01   3.0089982637e+00    0.4020724    0.2135885  38.09  0.001955284    1.684    0.406
        33 -10.7223      3.3910    201.1486   1.2970299933e+02   3.1816990788e+01    0.1414801    0.1128774  76.32 0.0002961015    1.185    0.156
        34 -11.3572     15.3007    195.5410   1.2720866630e+02   3.1846560032e+01     0.236472    0.1662077 -49.77  0.001219464    2.064    0.515
        35 -14.3450    190.0416    190.2568   9.0377945068e+01   6.0269091822e+00     0.475789    0.4427989 -19.77  0.002947373    1.152    0.132
        36 -10.2390      4.3528    191.1400   1.2899122543e+02   3.3740408967e+01    0.2035099   0.08054052  68.46  0.001064768    2.300    0.565
        37 -13.9986    174.7243    181.1773   9.1782737740e+01   1.0511327266e+01    0.4696307    0.3841191 -69.90  0.002539642    1.576    0.366
        38 -14.7609    108.9828    211.5369   1.1025097829e+02   1.6513764420e+01     1.764574    0.6416599 -62.47  0.007296778    3.273    0.694
        39 -12.3202    144.8137    170.3558   9.6190323950e+01   1.8399517483e+01    0.2711521    0.2481362 -75.46 0.0007843268    1.163    0.140
        40 -12.2957     15.9992    169.6271   1.2526522381e+02   3.7251216237e+01    0.2370471    0.1363247 -65.22  0.000866947    1.613    0.380
        41 -11.1555     27.4825    241.4653   1.2771951911e+02   2.1874575206e+01      0.13413    0.1029673 -87.33 0.0001620763    1.342    0.255
        42 -11.3472      7.5935    187.5889   1.2817562050e+02   3.4184838855e+01    0.1815449    0.1313382  65.19 0.0008414339    1.184    0.156
        43 -10.4624     24.5109    240.0103   1.2812347312e+02   2.2451234569e+01    0.1756804    0.1068732  60.70 0.0005527041    1.195    0.163
        44 -11.0560    181.4324    244.9896   1.0082419113e+02  -7.2709002475e-01    0.1502102    0.1179378 -37.50 0.0006736628    1.583    0.368
        45 -10.2958     18.4770    242.2370   1.2919526649e+02   2.2699931385e+01    0.1156171    0.0435973  59.49 0.0002851798    1.993    0.498
        46 -12.0416    142.3154    160.7356   9.4902846099e+01   2.0886438531e+01    0.3559261    0.1836561  55.12  0.001288128    2.237    0.553
        47 -10.4261    145.0342    239.5410   1.0676802148e+02   5.8902586687e+00    0.1745966   0.09764178  42.45 6.439546e-05    1.433    0.302
        48 -10.8030     17.6058    238.0332   1.2913432547e+02   2.3526888097e+01    0.1929706   0.08038834 -80.58 0.0009634133    2.141    0.533
        49 -10.1277      2.1446    157.8269   1.2732907292e+02   4.0970689270e+01    0.1497051    0.1109901 -66.18 0.0005993555    1.368    0.269
        50 -10.8188      7.7120    155.4022   1.2593866515e+02   4.1077310389e+01    0.1502202    0.1444368 -79.64 0.0005071764    1.382    0.276
        51 -10.1058    144.6504    153.2924   9.2852769428e+01   2.2000765414e+01    0.1531406    0.1161537  77.38 0.0005629048    1.672    0.402
        52 -11.5771    100.5967    150.7297   1.0300224669e+02   3.0809142889e+01    0.3214469     0.233416  58.73 0.0009277181    1.410    0.291
        53 -13.4485    129.5964    150.6281   9.5867501026e+01   2.5555057995e+01     0.920717    0.4641502  59.03  0.003351583    2.720    0.632
        54 -12.5162     60.2102    142.9064   1.1193388636e+02   3.8648760116e+01     0.416984    0.2175962  34.70  0.001926696    2.114    0.527
        55 -10.4812    130.0567    235.8691   1.0911038453e+02   8.8658148615e+00    0.2913579    0.1694565 -44.15  0.001467953    2.297    0.565
        56 -12.3378    196.0371    236.9553   9.7033118474e+01  -1.9871910038e+00    0.1916414    0.1519645  25.85  0.000660901    1.038    0.036
        57 -11.3149     31.8923    243.3952   1.2710997560e+02   2.1051632198e+01     0.226533    0.1910709 -18.16  0.001641821    2.603    0.616
        58  -9.8095    129.2990    135.2801   9.2662158488e+01   2.9037065208e+01    0.1458772    0.1215214  -4.42  0.000266278    1.542    0.351
        59 -12.5930     65.7882    134.5370   1.0913779841e+02   3.9915561368e+01    0.5254272    0.1662482  39.67  0.001969286    3.162    0.684
        60 -11.0042     25.2417    232.6298   1.2761528415e+02   2.3688932205e+01    0.2004421    0.1286032 -60.68  0.001390965    2.043    0.511
        61 -11.5484    103.9761    128.7221   9.7754801787e+01   3.5350172948e+01    0.3507887    0.2420251 -77.01  0.001595916    1.754    0.430
        62 -16.2849     55.3277    207.0737   1.2042694724e+02   2.5078430095e+01     2.125079     1.384705  -6.77  0.007733457    7.072    0.859
        63 -12.1454    148.2168    232.1208   1.0522484203e+02   6.5284474006e+00    0.3145225    0.2197045 -39.18  0.001420855    1.831    0.454
        64 -11.9584     75.9730    127.5702   1.0512197568e+02   4.0164083145e+01    0.3974657    0.2623905  79.31  0.001853336    1.965    0.491
        65 -12.3753    159.9395    231.3463   1.0290548793e+02   4.7136771579e+00    0.3949904    0.2969146   3.76  0.001722522    1.791    0.442
        66 -12.3117    200.8510    229.2717   9.4982520801e+01  -1.7382893785e+00    0.2335459    0.1483195  -1.84  0.001251019    2.120    0.528
        67 -12.0787     49.1253    122.6380   1.1169832204e+02   4.4807858019e+01    0.2947122    0.2682756  37.25  0.001020352    1.295    0.228
        68 -10.4339      1.4373    105.0910   1.2269257053e+02   5.2901506872e+01    0.1818781   0.08805606 -71.58 0.0006390112    1.538    0.350
        69 -11.7117    126.3686     39.9527   6.5166198773e+01   4.8634201433e+01    0.4629322    0.2158696  47.64  0.001861789    2.037    0.509
        70 -12.9482    118.0614    226.8493   1.1031644566e+02   1.2288170321e+01    0.4562794     0.352155  11.23  0.002199724    1.974    0.493
        71 -11.2366     34.0339     14.5092   8.6205648836e+01   6.9087215275e+01    0.1607479    0.1077415  23.28 0.0004873432    1.530    0.347
