#   1 NUMBER                 Running object number                                     
#   2 MAG_AUTO               Kron-like elliptical aperture magnitude                    [mag]
#   3 X_IMAGE                Object position along x                                    [pixel]
#   4 Y_IMAGE                Object position along y                                    [pixel]
#   5 X_WORLD                Barycenter position along world x axis                     [deg]
#   6 Y_WORLD                Barycenter position along world y axis                     [deg]
#   7 A_WORLD                Profile RMS along major axis (world units)                 [deg]
#   8 B_WORLD                Profile RMS along minor axis (world units)                 [deg]
#   9 THETA_WORLD            Position angle (CCW/world-x)                               [deg]
#  10 FWHM_WORLD             FWHM assuming a gaussian core                              [deg]
#  11 ELONGATION             A_IMAGE/B_IMAGE                                           
#  12 ELLIPTICITY            1 - B_IMAGE/A_IMAGE                                       
         1 -14.2978    160.9305     48.0968   8.2164949884e+01   3.9214988494e+01     1.693872      1.26758   8.72  0.005986445    1.711    0.415
         2 -14.3288    173.5656     32.0760   7.4760374309e+01   3.8099356793e+01     1.065641    0.9900132  -1.75  0.003722055    1.194    0.162
         3 -13.3701    177.2260     25.1848   7.2034873065e+01   3.7973914672e+01    0.5537851    0.4979483   8.84  0.001266647    1.273    0.214
         4 -12.1856    189.5938     14.8041   6.7218049235e+01   3.5876328088e+01    0.2816875    0.2173658 -82.79 0.0008115504    1.277    0.217
         5 -12.8895    190.8521      2.2710   6.3444063834e+01   3.6801871518e+01    0.7253915    0.2837138  72.81   0.00272692    2.315    0.568
         6 -10.5738     21.8613    216.3899   1.4799263682e+02   2.8361489164e+01     0.334716     0.138487  71.56   0.00186652    2.161    0.537
         7 -19.7923     55.0149    169.1761   1.3766787980e+02   3.4181325417e+01     18.20706     5.121284 -70.95   0.06739551    3.611    0.723
         8 -12.0007    188.4297    186.8487   1.1158455955e+02   7.7272037262e+00    0.4975542    0.4044124 -65.14  0.002575903    1.630    0.386
         9 -11.5721    117.7746    201.6222   1.2826685944e+02   1.8086006518e+01    0.3429376    0.1747423  45.88  0.001692774    1.679    0.404
        10 -10.7483    143.9205    200.3731   1.2277375400e+02   1.3746122305e+01    0.2798079    0.1028967  48.95  0.001098957    2.499    0.600
        11 -11.1209      1.3937    250.8006   1.5274174565e+02   2.4417674285e+01    0.1000864   0.04123356  57.89 0.0004602646    1.606    0.377
        12 -10.8529    136.2393    197.3211   1.2388083971e+02   1.5678899429e+01     0.298074    0.1999893  89.71  0.001235548    2.107    0.525
        13 -11.6570    159.0588    195.0667   1.1887407569e+02   1.1907641642e+01    0.3599916    0.1991952 -59.63   0.00165178    2.433    0.589
        14 -12.0931    112.6930    195.8349   1.2853453556e+02   2.0047375622e+01    0.5442243    0.3799366   8.03   0.00251594    2.982    0.665
        15 -12.0004    179.8668    193.2384   1.1440968661e+02   8.3068682564e+00    0.5617273    0.3317741 -65.63  0.002368824    3.154    0.683
        16 -12.7653    105.0915    193.6549   1.2982773766e+02   2.1733265561e+01    0.6067121    0.4316958 -10.62  0.002758684    3.316    0.698
        17 -12.3727    207.6646    185.4052   1.0762740401e+02   4.3000118781e+00    0.3834559    0.3030776  -2.18  0.001257186    1.349    0.259
        18 -12.3036    212.1450    181.5404   1.0605102196e+02   4.0481012806e+00     0.354791    0.2772817  -6.90  0.001148593    1.355    0.262
        19 -10.3087     13.7942    214.7875   1.4929434133e+02   2.9478547337e+01    0.1235376   0.08135571   9.13 0.0006826281    3.917    0.745
        20 -10.2822    224.0045    184.0268   1.0436285424e+02   1.4798714657e+00    0.1596996    0.1362403  19.95 0.0009779813    1.023    0.022
        21 -11.7662    118.8927    182.0458   1.2523250562e+02   2.1716826244e+01     0.568394    0.2936398  71.80  0.002016511    3.720    0.731
        22 -11.6615    198.5543    177.8510   1.0791368104e+02   7.2393142816e+00     0.332468    0.2761516 -49.91 0.0009895758    1.425    0.298
        23 -11.7190    162.6936    217.5765   1.2163864662e+02   7.5166826487e+00    0.3812799    0.1044006  42.60  0.001406224    3.023    0.669
        24 -10.0652    145.5029    178.4663   1.1889506321e+02   1.7526776376e+01    0.1401857    0.1262464  51.16 0.0001274307    1.023    0.022
        25 -11.4989    179.0306    174.0028   1.1104540842e+02   1.1757956268e+01    0.2746969    0.2038399 -41.22  0.001402981    1.471    0.320
        26 -11.4037    125.8268    172.1136   1.2210934123e+02   2.2494704104e+01    0.2505659    0.2207333  72.81  0.001458886    1.072    0.067
        27 -11.5313    228.0336    171.0300   1.0107019467e+02   2.6444305369e+00    0.2003345    0.1734346 -77.92  0.001142831    1.739    0.425
        28 -11.4456    145.4793    168.4815   1.1711151443e+02   1.9488486672e+01    0.2939064    0.2435444  75.19 0.0006902329    1.301    0.231
        29 -12.5282    137.0933    171.1906   1.1944926804e+02   2.0569598069e+01    0.5729855    0.3280435  44.38  0.002526172    1.609    0.379
        30 -10.6170    165.3155    208.1179   1.1971301963e+02   8.5593737355e+00    0.2455006    0.1644348  46.79 0.0006182886    1.283    0.221
        31 -10.2891    200.3826    164.1117   1.0480196457e+02   9.1576601748e+00     0.197137    0.1310159 -49.26 0.0009461414    1.762    0.432
        32 -11.8081    101.2527    162.7379   1.2617212103e+02   2.8830887875e+01    0.3169774    0.2427819 -82.34 0.0004380403    1.318    0.241
        33 -11.7552     22.7420    156.9503   1.4365081709e+02   4.0377716609e+01    0.6382251    0.4054235   4.92  0.003510546    3.031    0.670
        34 -10.8821     26.9821    157.0000   1.4270453725e+02   3.9964352687e+01    0.2162181    0.1699334  31.46  0.000993176    1.616    0.381
        35 -11.2666    164.5805    158.1619   1.1092702477e+02   1.7649694532e+01     0.250866    0.1725355  40.29 0.0007352012    1.397    0.284
        36 -12.8753    105.6659    154.9014   1.2381398599e+02   2.9800262323e+01     0.646596    0.4728648 -41.33  0.003331359    1.655    0.396
        37 -10.1709     98.9708    151.2118   1.2478926869e+02   3.1770138487e+01    0.2042664    0.1541973  68.23  0.000588672    1.334    0.250
        38 -11.3759     94.9103    150.0775   1.2558610604e+02   3.2702415115e+01    0.3641233    0.2266507  59.37 0.0003861432    1.686    0.407
        39 -10.7600     91.7092    148.3217   1.2607362605e+02   3.3622549090e+01    0.2130468    0.1347303 -65.47  0.000391615    1.545    0.353
        40 -12.3681    133.0408    145.3145   1.1542909935e+02   2.6764639211e+01    0.9380639    0.4566008 -56.39  0.003696078    2.276    0.561
        41 -11.7357    112.5773    150.4707   1.2135311585e+02   2.9551184954e+01     0.436142    0.2608552 -83.58  0.001758874    2.559    0.609
        42 -10.9448    174.6447    148.9186   1.0681008758e+02   1.7298370327e+01    0.2697582     0.235555  88.18  0.000725597    1.349    0.259
        43 -11.6843    144.4866    145.7368   1.1283162801e+02   2.4341786301e+01     0.387974    0.2618044  87.57  0.001600303    2.330    0.571
        44 -10.9490     10.9434    142.8780   1.4510639066e+02   4.4484664250e+01    0.2779811    0.1655101  23.56  0.001046117    2.242    0.554
        45 -12.2413    113.7029    140.0671   1.1906521721e+02   3.1659213345e+01    0.5152758    0.3134453 -34.94  0.002184805    2.266    0.559
        46 -12.5469    103.2436    140.5492   1.2178177952e+02   3.3441670541e+01    0.2871693    0.2572919  64.54 0.0004076725    1.078    0.072
        47 -13.2453     12.0654    205.4476   1.4911233883e+02   3.1409076505e+01     0.395851    0.3288886  37.90  0.003173465    1.645    0.392
        48 -12.0930     24.4664    135.3729   1.4110914224e+02   4.5031662710e+01    0.2159604    0.1929186  86.50 0.0002799397    1.167    0.143
        49 -10.7164    130.1913    206.0873   1.2636378024e+02   1.5142899848e+01    0.1884025    0.1734523  38.28  0.001230354    1.217    0.178
        50 -11.4571    105.8421    130.8363   1.1917076822e+02   3.5185976070e+01    0.3585274    0.3042539 -78.29  0.001319371    1.170    0.145
        51 -11.4627    107.1134    126.9346   1.1801023543e+02   3.5841883725e+01    0.3000737    0.2654268 -18.27 0.0006481064    1.401    0.286
        52 -11.4683    119.0115    130.4085   1.1569988428e+02   3.2809318622e+01    0.3488625    0.3222679  28.24  0.001075218    1.212    0.175
        53 -12.2879    135.6178    122.8519   1.0979614995e+02   3.1088968402e+01    0.6505898    0.2571775 -50.13  0.002245934    2.628    0.620
        54 -11.3543    160.4555    128.1279   1.0517433769e+02   2.4535167367e+01    0.3444131    0.2651885 -61.83  0.001633869    1.462    0.316
        55 -12.4808    124.6563    126.8186   1.1346699856e+02   3.2489908859e+01    0.7001503     0.388836  68.44  0.002435181    3.100    0.677
        56 -10.8700    113.0903    119.3777   1.1473962202e+02   3.6428683477e+01    0.2659352    0.2098118 -61.29  0.000376985    1.259    0.206
        57 -11.3165    120.3962    205.0416   1.2819017371e+02   1.7006029675e+01    0.2678221     0.177603  28.43 0.0009034984    1.893    0.472
        58 -11.2704    168.1341    113.9454   9.9922921845e+01   2.5620154546e+01    0.4154502    0.2972557 -57.68  0.001231202    1.581    0.368
        59 -10.6037      3.9203    112.2513   1.4393384928e+02   5.1792950898e+01    0.1830813    0.1661332  21.62  0.001044464    1.474    0.321
        60 -10.7192    205.4509    110.1463   9.1362529016e+01   1.7507638815e+01    0.3321232     0.214429  42.55 0.0009017261    1.609    0.379
        61 -10.6786     23.1628    205.0595   1.4710504335e+02   3.0376680382e+01    0.1640856    0.1328172  51.27 0.0008360516    1.394    0.283
        62 -11.1909    134.6270    103.7660   1.0519682714e+02   3.5392825685e+01    0.4779328    0.1403402 -48.12  0.001371759    3.608    0.723
        63  -9.9555    147.5395     78.4590   9.4716330759e+01   3.7469770579e+01    0.1530571    0.1522566  49.88 0.0001039294    1.004    0.004
        64 -10.6690     89.9644     78.3552   1.1057861469e+02   4.9743217609e+01    0.1970047    0.1831121  36.38 0.0005467417    1.144    0.126
        65 -10.0481     13.5188     59.9113   1.3265823604e+02   6.2758521319e+01    0.1751319   0.09343469 -62.73 0.0003966803    1.492    0.330
        66 -12.0214    182.1707    234.4501   1.2045248510e+02   1.7218023172e+00    0.3164349    0.2014042  16.78   0.00139089    2.034    0.508
        67 -11.8433    187.0240    221.0221   1.1759338326e+02   2.7567170864e+00    0.1996062    0.1629979  35.66 0.0007010119    1.009    0.009
        68 -13.7120    196.3743    195.9574   1.1169670245e+02   4.7870742597e+00    0.7539147    0.5613413  47.60  0.001717579    1.299    0.230
        69 -10.5622    128.1300     27.7503   8.2046294682e+01   5.0303626110e+01     0.292326    0.1911191  71.61 0.0009324215    1.769    0.435
        70  -9.9807      1.9861     19.4891   1.2641889829e+02   7.1399761419e+01    0.1305856   0.09905136  -2.36 0.0002868271    1.433    0.302
        71 -11.8631    157.3512    218.1545   1.2274074879e+02   8.3599260802e+00    0.2834357     0.211082  78.67  0.001641032    1.775    0.437
