#   1 NUMBER                 Running object number                                     
#   2 MAG_AUTO               Kron-like elliptical aperture magnitude                    [mag]
#   3 X_IMAGE                Object position along x                                    [pixel]
#   4 Y_IMAGE                Object position along y                                    [pixel]
#   5 X_WORLD                Barycenter position along world x axis                     [deg]
#   6 Y_WORLD                Barycenter position along world y axis                     [deg]
#   7 A_WORLD                Profile RMS along major axis (world units)                 [deg]
#   8 B_WORLD                Profile RMS along minor axis (world units)                 [deg]
#   9 THETA_WORLD            Position angle (CCW/world-x)                               [deg]
#  10 FWHM_WORLD             FWHM assuming a gaussian core                              [deg]
#  11 ELONGATION             A_IMAGE/B_IMAGE                                           
#  12 ELLIPTICITY            1 - B_IMAGE/A_IMAGE                                       
         1 -12.7568    208.4757     46.8888   7.9220682131e+01  -8.4136102198e+01   0.01695712   0.01317346  88.69  0.001383309    1.254    0.203
         2 -12.9145    231.8921     28.4244   8.0346144681e+01  -8.3963785709e+01   0.02430599   0.01539414 -76.64  0.004671588    1.531    0.347
         3 -12.4412    234.4312     21.4133   8.0787162093e+01  -8.3942138474e+01   0.02366659   0.01285737 -70.97   0.00422619    1.772    0.436
         4 -10.0392     60.6944     21.3207   8.1839423640e+01  -8.5154721329e+01  0.006583678  0.005918766  59.33  0.000644693    1.096    0.088
         5  -9.0341    164.4980    249.9810   6.5154746135e+01  -8.4356619333e+01  0.005135224  0.003498752 -10.32 0.0004038313    1.505    0.336
         6  -9.1782    101.4731    250.5265   6.4153740761e+01  -8.4787713010e+01  0.005838507  0.004611521  71.09 0.0006897455    1.221    0.181
         7 -10.4064    100.8426    246.2793   6.4456237041e+01  -8.4797805050e+01   0.01429087  0.005261009 -30.49  0.001999103    2.543    0.607
         8 -18.7925     16.8775    213.7345   6.5637375643e+01  -8.5415389759e+01    0.2391611    0.1230746  -9.67   0.03432085    1.997    0.499
         9 -11.3786    127.1900    228.6076   6.6135501142e+01  -8.4638857061e+01   0.01067602  0.005773397  78.84  0.001885467    1.797    0.444
        10 -12.0673     86.9645    222.0245   6.6059548206e+01  -8.4923417884e+01   0.03133328   0.01395381  87.75  0.004919685    2.356    0.576
        11 -11.3749     96.9593    228.0516   6.5750404963e+01  -8.4847562567e+01   0.02366812   0.01392254  26.99  0.004300372    1.829    0.453
        12 -11.3718    109.9933    229.2323   6.5850990065e+01  -8.4756501187e+01   0.01641261   0.01204849  -4.36  0.003382983    1.409    0.290
        13 -12.1129    114.6773    228.6084   6.5962907914e+01  -8.4725001084e+01   0.01912648   0.01214951 -65.64  0.002194957    1.686    0.407
        14  -8.7538     71.4340    232.4787   6.5021908201e+01  -8.5017438182e+01  0.003574585  0.003299261  44.84 0.0002552548    1.070    0.065
        15 -11.8258    147.8034    227.9355   6.6455160523e+01  -8.4497588380e+01   0.01162111  0.007935595  61.43   0.00231966    1.394    0.283
        16 -10.8414     71.6323    224.6667   6.5628898772e+01  -8.5025780158e+01   0.01035022  0.006971142  -8.79 0.0009386577    1.527    0.345
        17 -11.0559    173.8685    223.8094   6.7059802528e+01  -8.4322174355e+01   0.01228891  0.004291617  55.07  0.001797262    2.590    0.614
        18  -8.9161    118.7031    222.0595   6.6496100970e+01  -8.4704707777e+01  0.004823789  0.004517154  -0.73 0.0003600521    1.095    0.086
        19 -11.0422    159.9839    224.9391   6.6816402631e+01  -8.4416836737e+01   0.01196493  0.005861551 -48.96  0.001980944    2.157    0.536
        20 -10.8474    101.7193    228.9836   6.5750327823e+01  -8.4813713337e+01   0.01198324  0.006634109  81.12  0.001883844    1.780    0.438
        21  -9.8138    198.1918    216.3720   6.7829427394e+01  -8.4161400150e+01  0.005503192  0.004674385  15.72  0.000388673    1.208    0.172
        22  -8.3242    112.3189    215.2736   6.6910436540e+01  -8.4756084778e+01  0.003776617   0.00238454  44.74 0.0002897338    1.568    0.362
        23 -10.2005    105.6428    216.3964   6.6740359844e+01  -8.4800961213e+01  0.007981672  0.003950688  41.24  0.001330773    2.055    0.513
        24  -9.7213    165.7313    214.6194   6.7597193397e+01  -8.4387663246e+01  0.006654157  0.004124564  11.37  0.001235525    1.717    0.418
        25 -10.0901    124.5958    206.5960   6.7696876664e+01  -8.4680002615e+01  0.008579678  0.002941372 -17.43  0.001231827    2.782    0.641
        26 -11.3299    120.2146    201.4353   6.8023933346e+01  -8.4715204347e+01   0.01297695  0.006020408  81.85  0.002121301    2.107    0.525
        27  -9.9853    211.2502    198.6648   6.9125618867e+01  -8.4086302557e+01  0.006516336    0.0055763  48.19 0.0005033059    1.148    0.129
        28 -10.1950    192.5519    194.1703   6.9259388672e+01  -8.4219679885e+01   0.02274081          nan -32.50  0.001739304    9.861    0.899
        29 -11.3275     69.1470    194.2616   6.7969497222e+01  -8.5075472385e+01   0.01101981  0.005599516 -34.59  0.001149303    1.957    0.489
        30  -9.5064    207.6929    189.9164   6.9672538177e+01  -8.4117689706e+01  0.004993831  0.004611995  -4.06  0.001125782    1.110    0.099
        31 -10.6900     72.8318    187.4555   6.8548086986e+01  -8.5056057305e+01   0.01103734  0.005659475 -44.42  0.001266363    2.000    0.500
        32 -14.6098     68.5476    147.7563   7.1654523002e+01  -8.5112945250e+01   0.07086142   0.03614953 -22.20   0.01229481    1.961    0.490
        33 -11.4469    179.7330    169.4590   7.0838105505e+01  -8.4325837927e+01    0.0191001   0.01395634  28.94  0.003928305    1.391    0.281
        34 -10.2215    174.5221    180.5166   7.0036776880e+01  -8.4355031845e+01  0.007584307  0.006822893  -1.81 0.0009039319    1.140    0.123
        35 -10.9949    172.8002    176.8161   7.0278810891e+01  -8.4369507546e+01   0.01032404  0.007089986 -31.19  0.001945214    1.473    0.321
        36 -10.8424    115.6796    182.0924   6.9404918996e+01  -8.4763002066e+01  0.007234201  0.004988162  70.86  0.001234615    1.388    0.280
        37 -10.6101     96.6203    175.4782   6.9721929961e+01  -8.4900397432e+01   0.01244992  0.008547788  89.78  0.001469001    1.442    0.307
        38  -8.9153     96.1527    161.4102   7.0794051817e+01  -8.4912977888e+01  0.007464708  0.004866292 -13.20 0.0006787668    1.559    0.359
        39 -11.4152    104.6867    172.8286   6.9997158380e+01  -8.4846178812e+01   0.01567163  0.007180509 -58.69  0.001804535    2.348    0.574
        40 -10.2050    101.7689    166.8840   7.0422289689e+01  -8.4870459575e+01   0.01922146  0.006481878  57.13  0.001635493    2.698    0.629
        41 -10.0187     86.4182    168.3332   7.0178095709e+01  -8.4976359152e+01   0.01364675  0.006065242 -41.83   0.00078008    2.285    0.562
        42 -11.1880     82.3062    164.1864   7.0464761078e+01  -8.5007700926e+01    0.0234314  0.008793931  54.78  0.003528202    2.481    0.597
        43 -11.5358     89.2844    164.2915   7.0515918304e+01  -8.4959043193e+01   0.02272528   0.01364055 -55.55  0.002970688    1.722    0.419
        44 -10.5816     75.4369    174.6123   6.9584733207e+01  -8.5048292214e+01  0.009136588  0.006152649  -2.69  0.001796727    1.530    0.346
        45 -10.6914     69.0071    243.9119   6.4100346302e+01  -8.5018840516e+01  0.009129484  0.005791753  45.66   0.00151215    1.559    0.358
        46 -10.5611    110.8061    167.3571   7.0461837969e+01  -8.4807232696e+01  0.009118531  0.005059755 -24.95  0.001032657    1.801    0.445
        47 -11.6112    238.8511    161.4810   7.1741251624e+01  -8.3917948182e+01  0.007974837  0.006083034   2.86  0.001618169    1.347    0.257
        48  -8.8790    117.5238    159.1241   7.1129924116e+01  -8.4765361710e+01  0.005121734  0.003445623 -11.62 0.0009959016    1.515    0.340
        49  -9.8156     52.1050    155.7218   7.0884566786e+01  -8.5223264200e+01    0.0117314  0.006328891 -62.19   0.00203998    1.938    0.484
        50 -10.9020     82.8565    150.2145   7.1561249153e+01  -8.5011882758e+01  0.006192896  0.005904519  58.72 0.0003407991    1.027    0.026
        51 -11.4870     89.5004    152.0308   7.1466888301e+01  -8.4964604267e+01  0.009635473  0.005990706 -40.68 0.0005722395    1.633    0.388
        52 -12.5007     87.0038    148.1233   7.1753121764e+01  -8.4983987809e+01   0.02362586  0.009788988  33.02  0.001036125    2.508    0.601
        53 -10.2287    119.8999    146.3126   7.2100444187e+01  -8.4755219218e+01  0.009312691   0.00498422  15.75 0.0006648166    1.950    0.487
        54 -11.5318    133.5492    145.2397   7.2259382875e+01  -8.4660381723e+01    0.0262711  0.005873198 -12.95  0.003103886    4.228    0.763
        55  -9.7047     43.0341    149.0517   7.1359964956e+01  -8.5290237113e+01  0.005009385  0.004812271  55.99            0    1.024    0.023
        56 -11.0084    108.9146    145.3304   7.2107821612e+01  -8.4832351192e+01  0.007410156  0.007251635  29.22 0.0007294922    1.037    0.035
        57 -10.5016     46.8275    144.0633   7.1800511981e+01  -8.5266304186e+01   0.01170336  0.005772203 -35.71  0.001665063    2.039    0.510
        58  -9.3178    147.1519    243.8946   6.5329331019e+01  -8.4483321225e+01  0.005558214  0.004574724 -49.61 0.0006110783    1.246    0.198
        59 -10.9305     36.7277    142.6012   7.1850297728e+01  -8.5337482180e+01  0.008879839  0.006208437   4.99  0.001073816    1.473    0.321
        60 -10.0592    146.9234    143.1620   7.2483600744e+01  -8.4567832100e+01  0.005642151   0.00455885 -55.66 0.0005247859    1.253    0.202
        61  -8.9545    125.0000    243.4758   6.5036169628e+01  -8.4635906695e+01  0.007895088  0.002021085 -10.76 0.0009439682    4.010    0.751
        62  -9.7790    127.9922    137.9860   7.2762591145e+01  -8.4702074122e+01   0.00543642  0.004977582 -54.39 0.0004409395    1.105    0.095
        63 -10.1348     26.0138    137.4651   7.2210066814e+01  -8.5414597340e+01  0.009385815    0.0052526 -75.35  0.001667316    1.818    0.450
        64  -9.5180    242.1114    135.8591   7.3402035471e+01  -8.3905124481e+01  0.005469538  0.004503039 -45.67 0.0004628726    1.234    0.189
        65 -10.7705    112.1042    126.1153   7.3575733169e+01  -8.4816923715e+01  0.009364372  0.005598087  53.26 0.0009197152    1.626    0.385
        66 -11.8722    105.4118    131.1125   7.3167626398e+01  -8.4862246636e+01   0.01598737   0.00859079  35.31  0.001774688    1.875    0.467
        67 -10.1371    107.8618    126.8159   7.3505111789e+01  -8.4846399696e+01  0.007154441  0.005640864 -52.52 0.0004227252    1.284    0.221
        68 -10.7752    102.9982    237.7075   6.5122991511e+01  -8.4794207459e+01   0.01342138  0.005411621  -0.50  0.001085675    2.826    0.646
        69 -11.3130     90.7789    131.9657   7.3031558282e+01  -8.4964254048e+01  0.006903103  0.006080301  33.77 0.0003589673    1.138    0.121
        70 -11.3605     43.8195    130.5323   7.2901516681e+01  -8.5292935999e+01   0.01441584  0.008979975 -56.46  0.001969024    1.636    0.389
        71 -10.9906     48.1104    124.2511   7.3443526340e+01  -8.5264941702e+01  0.009059673  0.007284743  45.26 0.0008117897    1.228    0.186
        72  -9.3276    150.8194    130.0630   7.3442916226e+01  -8.4545089543e+01  0.005548471  0.004356355 -43.16 0.0002636623    1.295    0.228
        73 -11.5296    135.1387    123.9750   7.3823761838e+01  -8.4656360626e+01   0.02599587  0.004202936  -8.56  0.002596855    5.933    0.831
        74  -9.4117     82.8127    129.1995   7.3208835253e+01  -8.5020836302e+01  0.005054447   0.00456112 -53.62 0.0003036035    1.121    0.108
        75  -9.7141     27.4388    128.9160   7.2946801482e+01  -8.5407967939e+01  0.007397556  0.004844625  50.78 0.0008101258    1.492    0.330
        76  -9.2597     77.0047    127.9818   7.3277348089e+01  -8.5061817402e+01  0.005145258  0.004839337  57.20 0.0003112527    1.042    0.040
        77 -10.4854     99.2074    121.6671   7.3863846470e+01  -8.4908255708e+01   0.00919031  0.005707197  22.34  0.001246046    1.643    0.391
        78  -9.9379    162.0293    127.5338   7.3666584152e+01  -8.4467385435e+01   0.01056123  0.005167861 -47.42  0.001763102    2.087    0.521
        79 -10.8069    117.4795    121.7817   7.3922373534e+01  -8.4780407834e+01  0.006819828  0.004870321  85.20 0.0008190865    1.362    0.266
        80  -9.5504    160.6110    239.8068   6.5798114512e+01  -8.4395771201e+01  0.005208353  0.003047307 -26.87 0.0009490366    1.695    0.410
        81 -10.5582    134.4597    105.6438   7.5165779430e+01  -8.4664067704e+01   0.01223724  0.003835117 -15.88   0.00164823    3.239    0.691
        82  -8.8850     76.4740    120.4904   7.3868837380e+01  -8.5067556794e+01  0.003510851  0.003396091 -69.56 -5.224194e-05    1.037    0.036
        83 -10.4709     58.8204    120.0910   7.3831089299e+01  -8.5191136635e+01  0.008838284  0.004886464 -88.72   0.00157071    1.775    0.437
        84 -10.2449    123.5177    116.9875   7.4300534968e+01  -8.4739150874e+01  0.005256678  0.003496672   1.06 0.0004289357    1.543    0.352
        85 -10.1392    107.9934    116.3792   7.4298156804e+01  -8.4847896744e+01  0.006510605  0.005262441  -2.10 0.0002922322    1.270    0.212
        86  -8.8838    221.3905    115.1766   7.4685343427e+01  -8.4054506666e+01  0.005253638  0.003032903 -22.08 0.0009437784    1.768    0.434
        87 -11.0912     53.5187    111.2095   7.4537941391e+01  -8.5229992338e+01   0.01122347  0.005764335 -69.59  0.001918367    1.961    0.490
        88 -11.0297    115.3266    108.5477   7.4910133242e+01  -8.4797731551e+01  0.006758701  0.005684501  62.84  0.001017802    1.157    0.136
        89 -11.0460    112.0353    104.9432   7.5175069756e+01  -8.4821120373e+01  0.008825455  0.005876235 -14.34  0.001019082    1.541    0.351
        90  -8.5908     92.6354    105.2464   7.5112981668e+01  -8.4956913241e+01  0.003785962  0.002371176 -54.62 0.0003400455    1.612    0.380
        91  -8.9757     70.4173    239.4906   6.4464748549e+01  -8.5015220976e+01   0.00482256  0.003312049   7.12 9.065749e-05    1.554    0.357
        92 -10.4924    114.4594     94.9653   7.5931669265e+01  -8.4804502144e+01   0.00736019  0.004508452 -63.78  0.001373161    1.630    0.386
        93  -9.5749     59.9711     94.4941   7.5916357421e+01  -8.5186062926e+01  0.005348253  0.003409123 -88.41 0.0004014312    1.531    0.347
        94 -11.3937     49.2247     89.8502   7.6288974742e+01  -8.5261179330e+01   0.01113088  0.007568606 -59.28  0.002202969    1.471    0.320
        95 -12.6332     33.6188     87.0184   7.6520821057e+01  -8.5370277123e+01   0.01690993   0.01461332 -83.54  0.003786911    1.133    0.117
        96  -9.7745     43.2314     86.7594   7.6543676174e+01  -8.5302943162e+01  0.005112634  0.003792497  46.42 0.0005183068    1.331    0.249
        97  -9.8944     57.7121     85.0029   7.6688364339e+01  -8.5201378593e+01  0.006214649  0.004563348 -72.61 0.0005392458    1.343    0.255
        98  -9.6332    184.8791    232.8414   6.6580200961e+01  -8.4236564114e+01  0.007925783  0.004656465 -15.29  0.001067453    1.715    0.417
        99 -11.6606     31.4328     72.5633   7.7746084887e+01  -8.5383391892e+01   0.01472717  0.006290437 -63.73  0.002009591    2.300    0.565
       100 -12.2980    132.4890    230.1593   6.6095993471e+01  -8.4600585029e+01   0.02004923  0.009003609  58.28  0.003303135    2.046    0.511
       101 -12.0665    185.8810     63.4538   7.8156691095e+01  -8.4299794809e+01   0.01179167   0.01078848  69.60 0.0007885988    1.066    0.061
       102  -8.4489     74.6462     66.3061   7.8173992678e+01  -8.5079294237e+01  0.003952537  0.002327849 -47.78  0.000704176    1.715    0.417
       103  -9.0840     83.1491     64.1528   7.8324469621e+01  -8.5019159458e+01  0.004960115  0.003862155 -43.98            0    1.303    0.233
       104 -13.8017    202.5594     51.6863   7.8916941566e+01  -8.4179321584e+01   0.03846049   0.02255689  55.91  0.004471102    1.687    0.407
       105 -10.1775    241.9923    246.2216   6.6387310904e+01  -8.3828100367e+01  0.007878454  0.005072854 -10.58  0.000930011    1.587    0.370
       106  -8.6882    157.5269     57.9436   7.8604110911e+01  -8.4496617956e+01  0.004944293  0.003493797   4.25 0.0003185102    1.451    0.311
       107 -10.5452     22.2738     51.6467   7.9556872444e+01  -8.5440553452e+01  0.006688533  0.004149316 -16.31  0.001150178    1.690    0.408
       108  -8.6664     46.2681     50.6207   7.9537288961e+01  -8.5272303198e+01  0.003870156   0.00235525 -39.32  0.000699098    1.687    0.407
       109 -10.0192     31.6684     50.0655   7.9648627170e+01  -8.5374155376e+01  0.004908626  0.004624178   3.71 0.0005469915    1.091    0.083
       110 -11.1700     17.2958     40.8839   8.0507475366e+01  -8.5470018200e+01   0.00677029  0.004974911  82.99 0.0003779245    1.333    0.250
       111  -9.0873     77.0497     60.6985   7.8612795030e+01  -8.5060781679e+01  0.005084139  0.004407052 -88.21 0.0006703407    1.124    0.110
       112 -11.3483     76.2684    244.8583   6.4153305749e+01  -8.4967883103e+01  0.007863804  0.006498687  15.40 0.0004911478    1.257    0.204
       113  -9.5275     82.9847    245.8669   6.4191290520e+01  -8.4920564096e+01  0.004998278  0.004763324  39.11 0.0003894142    1.046    0.044
       114 -11.2731     35.2959     15.2820   8.2540663778e+01  -8.5327213436e+01   0.01086005  0.006207437 -78.81  0.001977077    1.688    0.407
       115  -8.5424    189.3414     15.2954   8.1431276858e+01  -8.4253106373e+01  0.003907559   0.00234754  51.58 0.0006406608    1.660    0.398
