#   1 NUMBER                 Running object number                                     
#   2 MAG_AUTO               Kron-like elliptical aperture magnitude                    [mag]
#   3 X_IMAGE                Object position along x                                    [pixel]
#   4 Y_IMAGE                Object position along y                                    [pixel]
#   5 X_WORLD                Barycenter position along world x axis                     [deg]
#   6 Y_WORLD                Barycenter position along world y axis                     [deg]
#   7 A_WORLD                Profile RMS along major axis (world units)                 [deg]
#   8 B_WORLD                Profile RMS along minor axis (world units)                 [deg]
#   9 THETA_WORLD            Position angle (CCW/world-x)                               [deg]
#  10 FWHM_WORLD             FWHM assuming a gaussian core                              [deg]
#  11 ELONGATION             A_IMAGE/B_IMAGE                                           
#  12 ELLIPTICITY            1 - B_IMAGE/A_IMAGE                                       
         1 -14.7743     68.5277    144.2296   1.0775043858e+02   3.7279056788e+01     5.391945     2.795425  73.05  0.003585272    3.394    0.705
         2 -14.5388    198.5001     36.6469   4.7941883743e+01   3.0944840551e+01      2.15906     1.517503  28.02  0.007768278    1.917    0.478
         3 -14.5679    209.9474     24.5301   4.3293973462e+01   2.9625800077e+01     1.532038     1.155663  10.83  0.005276952    1.877    0.467
         4 -14.1311      3.7322     11.0029   9.7367061757e+01   7.2553551316e+01     3.114766    0.7298551 -48.10   0.01377727    3.056    0.673
         5  -9.3016    120.8557      8.6334   5.1768681429e+01   5.3532944209e+01    0.1894438    0.1222268  75.32 0.0006699658    1.753    0.429
         6  -9.8151     60.9891      7.7425   6.8216920748e+01   6.6090707603e+01    0.1551495   0.09644935  40.11 0.0003587485    1.523    0.343
         7 -12.2314    234.1738      2.2385   3.5664992282e+01   2.6393058393e+01    0.6905499    0.2479522  75.54  0.002987464    2.643    0.622
         8 -10.5132     62.5269      1.6929   6.4612341657e+01   6.6452801766e+01    0.2147556    0.1012121  48.09 0.0009764692    2.033    0.508
         9 -10.2628    197.6915    223.0864   9.1951545082e+01  -6.5693458001e-01    0.2057123     0.151856  39.92 0.0004340356    1.279    0.218
        10 -11.3255    139.7384    249.3638   1.0668122211e+02   4.7474023967e+00    0.2801816    0.2158142 -57.03   0.00189308    1.625    0.385
        11 -12.9193     71.4753    174.8497   1.1152339399e+02   2.9659507360e+01    0.8976128    0.4687535 -33.83  0.003148154    4.650    0.785
        12 -13.2730     16.0323    192.8984   1.2523753471e+02   3.2060616692e+01    0.6699942    0.3146718 -59.44  0.002590954    2.273    0.560
        13 -13.0977     46.8732    222.8697   1.2149517262e+02   2.2641643898e+01     1.296092     1.130157  24.36  0.002861932    1.669    0.401
        14 -14.0033     85.7205    228.9623   1.1467673332e+02   1.6370637058e+01     2.133834     1.225702  49.65   0.01240013    1.438    0.304
        15 -14.3804     54.7137    193.6390   1.1740660583e+02   2.7681437230e+01      1.89867     1.374673  85.84    0.0092059    1.212    0.175
        16  -9.2881    130.5475    213.0680   1.0378543641e+02   1.2369690095e+01     0.171015    0.1302075 -60.31 0.0003228674    1.487    0.328
        17  -9.6375    106.7045    209.9891   1.0832549775e+02   1.6853820550e+01    0.1785527    0.1543094  67.90 0.0004623754    1.053    0.050
        18  -9.2323    113.8333    208.3424   1.0661771594e+02   1.6034106533e+01    0.1806965    0.1514351  74.86  0.000637487    1.178    0.151
        19  -9.6321    122.3763    215.1527   1.0575745802e+02   1.3334744074e+01    0.1708822    0.1206129 -76.43 0.0009424092    1.712    0.416
        20 -12.0395    193.2569    195.0792   8.7904657755e+01   4.4832717029e+00     1.038655    0.6546522 -71.78  0.003757556    4.507    0.778
        21  -9.5581    108.0128    203.5084   1.0719941529e+02   1.7935924148e+01    0.1956568    0.1175512  42.59 0.0005116228    1.503    0.335
        22 -11.0897    209.1455    198.0843   8.5362136451e+01   1.1884694467e+00     0.286119    0.2168173 -48.65  0.001193331    1.675    0.403
        23  -9.9304    113.1947    198.7802   1.0543014126e+02   1.8049413886e+01    0.2297581    0.1281886  70.48 0.0006667038    2.742    0.635
        24 -15.9560     64.2524    247.2755   1.2019538390e+02   1.5974684423e+01     9.490568     2.935998  30.20   0.01205422   11.062    0.910
        25  -9.2464     81.8045    194.6135   1.1170262902e+02   2.3815226795e+01    0.1910476    0.1042038  49.09 0.0009301069    1.671    0.402
        26 -11.6023     73.8762    188.4478   1.1269139008e+02   2.6282352933e+01    0.4281215    0.2303742  68.67  0.001603544    2.206    0.547
        27  -9.2041     95.0249    187.7141   1.0787872547e+02   2.3307554932e+01    0.1811309    0.1541825  56.59 0.0003936234    1.087    0.080
        28  -9.3223    154.3188    185.6496   9.4298398085e+01   1.3397601429e+01    0.1439017    0.1106373  77.75 0.0007047929    1.738    0.425
        29 -10.3792    146.9011    184.1776   9.5662118651e+01   1.5072266858e+01    0.2211921    0.1875165  66.13 0.0009331572    1.274    0.215
        30 -10.1233     99.4825    180.7560   1.0585699347e+02   2.4121449942e+01    0.2362088    0.2122555  29.01 0.0006040607    1.283    0.221
        31  -9.5504     41.0417    178.2847   1.1883002731e+02   3.2678732889e+01    0.1673401    0.1352326  67.96 0.0002659831    1.121    0.108
        32 -11.1487    139.9720    173.3307   9.5237961277e+01   1.8598513973e+01    0.5351518     0.323341 -79.89   0.00197461    3.212    0.689
        33 -12.8639     89.2276    155.7115   1.0432412154e+02   3.1490514426e+01     1.876068      0.85289 -69.95  0.001611036    2.737    0.635
        34 -13.2922     55.7553    145.9347   1.1136777031e+02   3.8515683905e+01     1.254785    0.7819356 -42.12  0.006285867    1.937    0.484
        35  -9.8951    160.5286    164.5687   8.8839890634e+01   1.6412814770e+01    0.3836042    0.2282546 -76.98  0.001188605    4.446    0.775
        36 -10.6021     32.4955    164.9344   1.1941869505e+02   3.6621882290e+01    0.2442366    0.1766517 -35.19  0.001431555    2.004    0.501
        37 -12.5467     82.6562    162.6576   1.0709669736e+02   3.0867472170e+01    0.7109205    0.3796612  57.73 0.0005448656    2.140    0.533
        38  -9.2076     37.9376    162.0000   1.1784215942e+02   3.6735666594e+01    0.1815578    0.0705764  30.93 0.0005826172    2.894    0.654
        39 -13.7712     70.7305    157.9787   1.0933936963e+02   3.3687811272e+01     0.609049    0.5566323 -37.54  0.003305904    1.331    0.249
        40 -11.2408    133.6741    144.2062   9.0833682153e+01   2.6184769223e+01     1.178026    0.2895249 -53.97  0.002764343    5.799    0.828
        41 -10.7172    174.2515    148.5959   8.2320331415e+01   1.6836674043e+01    0.3640115    0.2857956 -70.92  0.001725155    1.666    0.400
        42 -16.6953      6.8622    205.7612   1.2774376394e+02   3.0262455655e+01     8.973507     1.214068 -73.68   0.02721582    5.051    0.802
        43 -10.0252    143.5027    145.5002   8.8716493504e+01   2.3910937857e+01    0.1509183    0.1488487  71.94 0.0008106286    1.018    0.017
        44 -10.9256     84.6058    144.0562   1.0346521285e+02   3.4986417093e+01     0.346615    0.2463998  67.07  0.001452349    1.588    0.370
        45 -10.9657    102.9730    140.4967   9.7914894350e+01   3.2815360590e+01    0.5656595    0.3663524 -22.33  0.002273853    2.591    0.614
        46 -12.4636     90.3010    140.6146   1.0130591013e+02   3.4914796555e+01    0.2769308    0.2529945 -46.36 0.0004879376    1.159    0.137
        47 -12.9695     38.6719    124.5127   1.1277100828e+02   4.5587417798e+01    0.4804737    0.3972062 -54.05  0.002855025    1.191    0.160
        48 -11.7848     45.9724    135.6601   1.1244011725e+02   4.2128193738e+01    0.4005868    0.2484653 -77.47  0.001491864    1.494    0.331
        49 -12.4092     44.7511    129.9097   1.1190165826e+02   4.3651831628e+01    0.5019078    0.2988052  43.54  0.002622182    1.828    0.453
        50 -10.4708    106.0357    130.7717   9.5024651803e+01   3.4573653465e+01    0.3386606    0.3006565 -77.18  0.001266793    1.145    0.126
        51 -11.2556    135.8658    128.2785   8.6605261913e+01   2.9316962101e+01    0.6319602    0.1842585 -48.34  0.001833692    3.463    0.711
        52 -10.3358    111.9155    130.6696   9.3418673037e+01   3.3517063879e+01    0.3225593    0.2563169  10.88 0.0009405306    1.619    0.383
        53 -10.4753    160.5874    127.7318   8.0457727735e+01   2.4105633016e+01    0.3104761    0.2677778  72.83  0.001528627    1.333    0.250
        54 -11.1178     99.1639    126.8520   9.6035495956e+01   3.6723228438e+01    0.3075818    0.2524261 -20.68 0.0006377631    1.484    0.326
        55 -11.1849    119.5004    123.0098   8.9588703828e+01   3.3841220364e+01    0.7809632    0.4736011  -9.30   0.00230739    4.556    0.781
        56 -10.0034    108.0937    119.4024   9.1825610587e+01   3.6869891808e+01    0.2266484    0.1980784 -39.51 0.0003280572    1.148    0.129
        57 -11.0427    171.9253    240.2698   9.9465728409e+01   1.0198139185e+00     0.415812     0.269437 -69.58  0.002140611    2.944    0.660
        58 -10.1818    230.0000    166.0019   7.5026362590e+01   2.6061336896e+00    0.2265143   0.07293231 -36.50 0.0005605729    2.947    0.661
        59  -9.8347    168.2025    113.1187   7.4966300394e+01   2.5414257897e+01    0.3580106    0.2370702 -69.96  0.001378881    2.327    0.570
        60 -11.8089    117.4368    107.4835   8.6193978733e+01   3.7793831982e+01    0.6742486     0.453439 -48.88  0.003034938    1.445    0.308
        61 -10.2906    205.3783    110.2388   6.6596371069e+01   1.7408956978e+01    0.3564831    0.2286435  36.26  0.001158039    1.779    0.438
        62 -12.1388     43.5865    109.1430   1.0870511542e+02   4.8793666835e+01    0.3437828    0.3207048 -81.12  0.001176666    1.119    0.106
        63 -14.2816     29.7393    248.8278   1.2612638073e+02   1.9824776278e+01    0.7260605    0.5154715  30.77  0.005270964    1.927    0.481
        64 -12.1883     32.1350    107.9278   1.1200565805e+02   5.0192591087e+01    0.3538033    0.2583045 -51.12  0.001787124    1.244    0.196
        65  -9.6278     45.5481    165.4999   1.1644336390e+02   3.5088261149e+01    0.2653996    0.1102736 -70.37  0.001195572    2.132    0.531
        66 -10.8692    134.7011    105.1956   8.0933366630e+01   3.4665717657e+01    0.6770387    0.1403456 -43.19  0.001645243    4.753    0.790
        67  -9.9771     59.4729    108.4886   1.0366826866e+02   4.7126483673e+01    0.1398835    0.1224727 -59.25 1.086645e-05    1.003    0.003
        68 -10.8928    242.3957    101.1977   5.8218751882e+01   1.0921844280e+01    0.2130912    0.1148035 -43.07 0.0009538445    1.694    0.410
        69 -16.5565      8.4915    243.2188   1.2927019453e+02   2.3027324381e+01     1.677657     1.467209 -83.98   0.01464173    1.535    0.348
        70 -11.0018     51.3208     93.3379   1.0292674772e+02   5.1701208409e+01    0.3227017    0.2222633  18.17  0.001546556    1.764    0.433
        71 -10.7440     52.6779     90.6801   1.0184540018e+02   5.2162318169e+01    0.2668214     0.218274 -29.31   0.00155506    1.260    0.206
        72 -10.3071     41.8919     91.9218   1.0576121312e+02   5.3053937203e+01     0.199116    0.1712382 -52.84 0.0007305294    1.029    0.028
        73  -8.8679     75.6834     85.2545   9.2709726131e+01   5.0283232457e+01    0.1326384    0.1119829  78.65 0.0002290745    1.532    0.347
        74  -9.6648    157.9706     80.9835   6.8239181468e+01   3.4148835039e+01    0.1888193    0.1843861  44.92 0.0004346172    1.033    0.032
        75  -9.1877    184.5790     77.1725   6.1627391605e+01   2.8279951962e+01    0.2115346    0.1477738 -19.73 0.0005363901    1.660    0.398
        76  -9.4656     58.7106     67.3937   9.3325066975e+01   5.6584785382e+01    0.2333839      0.12708  37.21 0.0007334443    2.065    0.516
        77  -9.0943     65.9895     64.9854   8.9902661781e+01   5.6072570336e+01      0.20696    0.1720205 -85.43  0.001122566    1.741    0.426
        78 -11.1157     13.3669     59.6643   1.0876346863e+02   6.2624171139e+01    0.2182177    0.1993232 -55.17 0.0005009986    1.199    0.166
        79 -13.3475    189.2524     43.7493   5.1261618773e+01   3.2316394235e+01     1.042157    0.6454729  46.88  0.001042609    1.724    0.420
        80  -9.0269    185.6848    236.3533   9.6306136961e+01  -6.1928447852e-01    0.1163704   0.09299168  63.99 0.0007046039    1.737    0.424
        81 -11.6042     61.9743    235.2683   1.1967913497e+02   1.8419291330e+01    0.2375261    0.1809507  66.06 0.0003219581    1.006    0.006
        82 -11.7344    147.2791     51.4228   6.1329871186e+01   4.1824631201e+01    0.5488601    0.3574471 -81.43  0.002173899    2.531    0.605
        83  -9.1430     43.4886    236.4912   1.2306816398e+02   2.0469270847e+01    0.1118804   0.08372638  68.45 0.0008104297    1.021    0.021
        84  -9.4842    189.5108     14.9973   4.3088313888e+01   3.5763212357e+01    0.1919486    0.1335438 -29.31 0.0005579018    1.532    0.347
        85  -9.4909    111.6801    217.8898   1.0829959431e+02   1.4543047351e+01    0.1712646    0.1499426  72.08 0.0004845494    1.098    0.089
        86 -13.6914     44.8310    204.4334   1.2042135355e+02   2.6588879841e+01    0.6539369    0.5334783 -68.36  0.001595215    1.381    0.276
        87  -8.6196    115.5230     31.4166   6.1719816442e+01   5.2271806867e+01    0.1411973    0.1284234  28.98 0.0001274557    1.013    0.013
        88  -9.9433     56.8751    224.7584   1.1977756002e+02   2.1047970041e+01    0.1774487    0.1316804  79.39 0.0004694732    1.142    0.124
        89 -11.1035    149.0506     45.0559   5.8849753722e+01   4.2330237271e+01    0.3277702    0.2599388 -72.70 0.0005422863    1.523    0.343
