#   1 NUMBER                 Running object number                                     
#   2 MAG_AUTO               Kron-like elliptical aperture magnitude                    [mag]
#   3 X_IMAGE                Object position along x                                    [pixel]
#   4 Y_IMAGE                Object position along y                                    [pixel]
#   5 X_WORLD                Barycenter position along world x axis                     [deg]
#   6 Y_WORLD                Barycenter position along world y axis                     [deg]
#   7 A_WORLD                Profile RMS along major axis (world units)                 [deg]
#   8 B_WORLD                Profile RMS along minor axis (world units)                 [deg]
#   9 THETA_WORLD            Position angle (CCW/world-x)                               [deg]
#  10 FWHM_WORLD             FWHM assuming a gaussian core                              [deg]
#  11 ELONGATION             A_IMAGE/B_IMAGE                                           
#  12 ELLIPTICITY            1 - B_IMAGE/A_IMAGE                                       
         1 -13.8701     97.3155    168.5695   8.1718027134e+01   2.7693560475e+01     8.654016     3.881173  63.21   0.02287463    6.627    0.849
         2 -13.0635    204.4070     47.2394   3.0477862275e+01   2.8088984870e+01     1.047769    0.8332111 -30.00  0.003723664    1.172    0.147
         3 -13.3246    214.9963     38.3121   2.7119453255e+01   2.6875349294e+01    0.8484647    0.7286502  10.74  0.001603701    1.454    0.312
         4 -11.4268      2.9037     24.4355   9.3098144826e+01   7.5345337504e+01    0.4787992    0.3254697 -62.46  0.001710231    1.287    0.223
         5 -12.6573    242.0869     14.1803   1.9416396141e+01   2.3944763134e+01    0.8095202    0.6197882 -44.01  0.004414745    1.013    0.012
         6 -10.9757     11.3725     11.9250   7.9296252109e+01   7.7591651009e+01    0.4812418    0.1092054 -53.01  0.001707568    3.393    0.705
         7 -10.1937      2.3869      3.1071   8.3741077165e+01   8.0207050484e+01    0.2794925     0.160191 -51.67  0.001535504    1.509    0.337
         8  -9.9307    140.4775    221.4733   7.8983083299e+01   1.1971075315e+01    0.1636035    0.1194059 -66.52  0.000760195    2.128    0.530
         9 -10.5711     75.0097    247.4567   9.4937700351e+01   1.6023191344e+01    0.4348579    0.2724066 -44.08  0.002828981    2.311    0.567
        10 -10.6911     71.6871    243.7017   9.5364945715e+01   1.6983999271e+01    0.2887383    0.2375632 -80.80  0.001295024    1.544    0.353
        11 -14.0291     49.9131    181.4578   9.5767613456e+01   3.1251823808e+01     7.838827          nan  38.77   0.01815662    7.625    0.869
        12 -15.7914     36.0661    189.4009   9.9937591825e+01   3.1035597461e+01     9.439822     3.013516  54.66   0.03198928    2.941    0.660
        13 -10.5660    192.3260    193.7629   6.4969909228e+01   8.8763214911e+00    0.5875555    0.3369133 -58.57  0.002387376    5.133    0.805
        14 -15.2159      6.9868    143.8097   1.0552970827e+02   4.4212768533e+01     9.357165     1.902059 -89.12   0.02654648    5.545    0.820
        15 -10.3090     99.1290    181.0040   8.3004017489e+01   2.4847703649e+01    0.2796781    0.2414534  22.57 0.0007442601    1.153    0.133
        16 -10.2139    120.7276    180.2713   7.7657054862e+01   2.1735746968e+01    0.2208605    0.1862819  54.32 0.0006418541    1.262    0.208
        17  -9.2065     69.1675    173.1228   8.9800371483e+01   3.0718962707e+01    0.2933837    0.1459891  60.03  0.001061836    2.355    0.575
        18 -14.9155      4.8336    247.3931   1.0904281301e+02   2.2933871038e+01     0.436696    0.2727716  30.91  0.002766348    1.354    0.262
        19 -11.6464     65.2263    167.4702   9.0234025731e+01   3.2506256588e+01    0.5507672    0.3777028 -14.86  0.002642416    2.296    0.564
        20 -11.2834     69.7726    163.1303   8.8444225568e+01   3.2892422896e+01    0.3242843    0.2575049   5.80  0.001767728    1.559    0.359
        21 -13.3079     66.8698    150.6924   8.7661278157e+01   3.6209335454e+01     1.886944    0.7463293 -75.74  0.003756219    3.413    0.707
        22  -9.1138    187.4384    170.2706   6.1808545916e+01   1.2936696832e+01     0.163179    0.1157032 -42.74  0.000947273    1.612    0.380
        23 -10.2327     83.7992    169.1201   8.5368338316e+01   2.9581186021e+01    0.3858763    0.2202462  11.09  0.001576474    2.757    0.637
        24 -11.0820    245.0751    167.5732   5.1974947637e+01   5.1487869635e+00    0.3473959    0.1315437  32.11  0.001733542    2.907    0.656
        25 -10.4982    110.7074    167.4124   7.8107672284e+01   2.5844608945e+01    0.2818162    0.2456708  88.40 0.0006230227    1.339    0.253
        26 -15.5469      8.2316    208.4018   1.0748248944e+02   2.9707365103e+01     1.376383     1.282512  42.94  0.004984551    1.300    0.231
        27 -12.5744     77.4820    155.3379   8.5211177133e+01   3.3606957125e+01     1.825662    0.8085226  58.43  0.006429703    3.223    0.690
        28 -11.9059     85.1909    150.2497   8.2231436854e+01   3.3630385942e+01     0.648241     0.502093 -15.05  0.001676164    1.745    0.427
        29 -10.4196     23.0978    155.8763   1.0132524194e+02   3.9956574961e+01    0.4130312    0.2616729  53.30  0.001695932    1.359    0.264
        30 -10.6427     29.7711    155.7932   9.9336103674e+01   3.9347920161e+01    0.3982536    0.2696205  27.99  0.001241995    1.466    0.318
        31 -10.1946     23.3202    146.9236   1.0063349562e+02   4.2129057165e+01     0.535131    0.1820159  54.91  0.002034131    2.838    0.648
        32  -8.9399     60.3125    154.8729   9.0148221717e+01   3.6086498761e+01    0.2522601    0.1600708  44.80 0.0008283124    1.409    0.290
        33 -10.7666    133.8794    145.9389   6.8485087113e+01   2.6261704082e+01      1.09628     0.308645 -54.21  0.002931333    5.618    0.822
        34  -9.1094    174.8477    149.1262   6.0146384522e+01   1.8342334750e+01    0.1885099    0.1865857  74.62 0.0006886798    1.269    0.212
        35 -10.2086     54.5223    145.9786   9.0799487027e+01   3.8988753743e+01    0.2976467    0.1694571  46.96  0.001391479    1.611    0.379
        36 -10.1297     32.8150    143.7053   9.7380406490e+01   4.2025867640e+01    0.4319059    0.2279837  36.24  0.002062829    1.703    0.413
        37  -8.4931    179.6795    141.3364   5.7593314281e+01   1.8787433568e+01    0.1277196    0.1091025 -77.57 0.0007049937    1.707    0.414
        38 -10.3378    101.2999    135.8277   7.5042414122e+01   3.4301103356e+01    0.5625018    0.3605333 -14.18  0.002146192    2.935    0.659
        39  -9.6228    105.7126    130.6766   7.2740097151e+01   3.4687272938e+01    0.3204624    0.2655871 -61.16  0.001527851    1.267    0.211
        40 -11.5938     87.8852    135.4329   7.8896088282e+01   3.6684423233e+01    0.2789931    0.2714842 -53.96 0.0003731147    1.108    0.097
        41  -9.4829     53.5955    137.1665   8.9945675846e+01   4.1305443708e+01    0.2369791    0.1973424  30.02 0.0004770246    1.242    0.195
        42  -9.9760     85.5859    202.7871   8.8868414494e+01   2.2450669835e+01     0.259791    0.1870891  64.23 0.0006400822    1.499    0.333
        43  -9.3029    136.0000    129.4689   6.4470495509e+01   2.9191445747e+01    0.3134436   0.08330561 -46.01 0.0009241093    3.849    0.740
        44  -9.7584     44.5984    128.7089   9.1811877336e+01   4.4569133213e+01    0.3570314    0.2499126 -42.93  0.001771486    1.692    0.409
        45  -8.4688     83.1369    129.4057   7.9218160125e+01   3.8918818317e+01    0.2048068    0.1280001  47.92 0.0003222078    1.564    0.360
        46  -9.4016    110.4286    128.0054   7.0842164120e+01   3.4419200459e+01     0.281597    0.2095054  18.45 0.0009008703    1.618    0.382
        47 -12.5456     70.3173    145.0406   8.5818744045e+01   3.7086351974e+01     0.920571    0.4692883  63.11  0.003552012    2.622    0.619
        48  -9.8310     97.5358    123.6187   7.3626896847e+01   3.7811327617e+01    0.2889116    0.2366549   7.26 0.0008887036    1.508    0.337
        49  -8.7694    116.3152    123.3151   6.8168318849e+01   3.4340495126e+01    0.1512288    0.1197518  -5.37 0.0003502994    1.645    0.392
        50  -8.9578    140.1315    121.8287   6.1706180065e+01   2.9915918006e+01      0.20834    0.1969518  84.63 0.0003247829    1.170    0.145
        51  -9.4705    162.3191    119.8648   5.6263414428e+01   2.5810169359e+01    0.2203505    0.1957923  58.86 0.0003954408    1.255    0.203
        52 -11.8793    231.0007    168.6826   5.4220621621e+01   6.8547562164e+00    0.4537611    0.3326023 -22.22   0.00313585    1.203    0.168
        53  -8.8425    120.4954    119.4972   6.6144981782e+01   3.4354644126e+01     0.149226    0.1458748  52.36 -8.002863e-05    1.010    0.010
        54  -9.2337    107.0010    117.4489   6.9438133849e+01   3.7467410307e+01     0.214054    0.2002477 -55.85  0.000167843    1.091    0.084
        55  -9.2538    125.9788    115.9442   6.3833870547e+01   3.4012547484e+01    0.2252241    0.2201638  64.72 0.0004011792    1.034    0.033
        56  -9.8566    135.0000    112.1247   6.0586256492e+01   3.2941583434e+01    0.4160999   0.08513847 -44.17  0.001047858    4.903    0.796
        57 -10.3195     52.9774    110.3740   8.5948102040e+01   4.8307837721e+01    0.3477134    0.2124465 -66.91  0.001326332    1.587    0.370
        58  -9.8148    115.6038    107.8064   6.4603903372e+01   3.7914663471e+01    0.2213491    0.1455458 -59.23 0.0009515387    1.695    0.410
        59 -10.0881     27.9840    107.2990   9.5101458112e+01   5.1980768826e+01    0.3792162    0.2013931  14.53  0.001644967    2.251    0.556
        60  -8.2358    158.2343    104.6829   5.3355333420e+01   2.9440444818e+01    0.1412997    0.1112863 -63.86 0.0002005635    1.504    0.335
        61  -9.2732     31.2500     95.4615   9.2031739649e+01   5.4841079310e+01    0.3998928    0.1403074  44.67  0.001418897    2.906    0.656
        62  -9.5184    205.3534    110.4239   4.6244722616e+01   1.8987178347e+01    0.2410864    0.2139941  20.65 0.0008450178    1.187    0.158
        63  -8.3652     58.5361     93.5760   8.0305890733e+01   5.1910972816e+01    0.1504603     0.140356  79.29 0.0001031521    1.042    0.041
        64 -10.3262     19.0474     91.2816   9.6721119633e+01   5.7050496639e+01    0.3985702    0.1840618  44.63  0.001695007    2.176    0.540
        65  -9.2659     94.4048     88.5291   6.5757673199e+01   4.6687278073e+01    0.2612775    0.2051234  68.73 0.0005294483    1.441    0.306
        66  -8.8810    160.6704     85.0204   4.7538479206e+01   3.2429248928e+01    0.2128143    0.1878557 -35.31 0.0006688471    1.091    0.083
        67 -11.5275      3.0000     62.9238   1.0093307986e+02   6.5587320427e+01    0.4886803     0.297268  72.97  0.002455277    1.706    0.414
        68 -11.4884     12.9567     59.9213   9.4755426334e+01   6.5847517501e+01      0.38846    0.3410375  24.36 0.0007780256    1.253    0.202
        69 -12.5025    193.4562     54.7317   3.3764742542e+01   2.9559215418e+01    0.7029703    0.5457674  28.65 0.0009834262    1.627    0.386
        70  -9.2174    111.4564    240.6993   8.6976518018e+01   1.2797635759e+01    0.1654644    0.1169332 -67.76 0.0007025442    2.002    0.500
        71 -17.0522      9.1162    239.3653   1.0803692666e+02   2.3926411424e+01     2.579271     1.248034  26.96   0.01316826    1.766    0.434
        72 -11.8190    137.0086    229.5081   8.0647498128e+01   1.1247121727e+01    0.3907481    0.2416689  40.63   0.00244926    1.466    0.318
        73  -8.7254     60.4936     21.0065   5.0978650092e+01   6.7751893315e+01    0.2064116    0.1391243 -33.86 0.0003922853    1.502    0.334
        74 -11.7244    127.6216    230.5823   8.2659531979e+01   1.2286314752e+01     0.470052    0.3346604  46.96  0.003133954    1.460    0.315
        75  -9.1503    189.4790     14.9599   2.2847474785e+01   3.5238450830e+01    0.2031187    0.1214922 -28.00 0.0007925548    1.568    0.362
        76  -8.5589    196.5574     14.5210   2.2194429240e+01   3.3609884414e+01    0.1337732    0.1120037 -53.39 0.0001196936    1.009    0.008
        77 -10.9666    141.0600    226.6341   7.9497999057e+01   1.1141325996e+01    0.2045555    0.1689599  11.31 0.0005410334    1.132    0.117
