#   1 NUMBER                 Running object number                                     
#   2 MAG_AUTO               Kron-like elliptical aperture magnitude                    [mag]
#   3 X_IMAGE                Object position along x                                    [pixel]
#   4 Y_IMAGE                Object position along y                                    [pixel]
#   5 X_WORLD                Barycenter position along world x axis                     [deg]
#   6 Y_WORLD                Barycenter position along world y axis                     [deg]
#   7 A_WORLD                Profile RMS along major axis (world units)                 [deg]
#   8 B_WORLD                Profile RMS along minor axis (world units)                 [deg]
#   9 THETA_WORLD            Position angle (CCW/world-x)                               [deg]
#  10 FWHM_WORLD             FWHM assuming a gaussian core                              [deg]
#  11 ELONGATION             A_IMAGE/B_IMAGE                                           
#  12 ELLIPTICITY            1 - B_IMAGE/A_IMAGE                                       
         1 -10.3336    158.7791     19.1907   6.9519424330e+01   4.2784113900e+01    0.5705835    0.4853758  75.32  0.002066927    1.082    0.076
         2 -10.2398    173.8631     19.4400   6.7346444790e+01   3.8831456659e+01    0.6346587    0.3349313  86.50  0.002030516    2.235    0.553
         3  -8.8476    231.7816     15.2513   5.9855593150e+01   2.4792088652e+01    0.2929541    0.1903639 -45.02 0.0007721423    1.417    0.294
         4  -9.5979    180.2007     10.2140   6.3849880464e+01   3.8141677675e+01    0.4025949    0.2657906  81.36   0.00104111    1.402    0.287
         5  -8.6486    176.1738      8.3876   6.3820829416e+01   3.9359667484e+01    0.3167601    0.2048309  89.42  0.001148841    1.535    0.349
         6  -7.3981    176.1553      2.5934   6.2162158249e+01   3.9901927556e+01    0.1801059      0.10951  62.77 0.0003950957    1.439    0.305
         7  -7.6501     89.4613    242.4892   1.3501089780e+02   1.4750299986e+01     0.119492   0.09100369  57.52 7.568287e-05    1.006    0.006
         8  -7.3711    165.3986    250.7796   1.2178145947e+02   1.5381026976e+00    0.1213804    0.0739121  52.82 0.0006862524    1.640    0.390
         9 -10.2641     44.6029    237.8124   1.4280805366e+02   2.1594890667e+01    0.3401035    0.2645909  56.70 0.0004338499    1.192    0.161
        10 -10.5006     17.9915    248.5432   1.4791963941e+02   2.2733749241e+01    0.5039866    0.3092048  76.08  0.002870014    1.245    0.197
        11  -9.3225     79.6919    232.9823   1.3597301365e+02   1.7830901255e+01    0.2184761    0.2018724 -80.21 0.0005281069    1.375    0.273
        12 -11.5144     54.1183    248.7034   1.4186250444e+02   1.8503410127e+01     1.187316    0.3834696  44.03  0.006131309    2.261    0.558
        13 -10.6824     67.8283    248.7721   1.3946330392e+02   1.6706280813e+01    0.7529803    0.2190261  48.27  0.003539216    2.479    0.597
        14 -12.5243     69.9208    236.4393   1.3810852294e+02   1.8574577107e+01     1.342219    0.7924832  51.19  0.008419975    1.315    0.239
        15  -8.2518    154.9783    240.0253   1.2233058232e+02   4.7823411161e+00    0.1855913    0.1458747  45.82 0.0003320392    1.078    0.072
        16  -9.0999    183.3442    238.1913   1.1673238462e+02   3.4264357106e-01    0.2220173    0.1566108  44.44 0.0003528186    1.265    0.209
        17  -7.7661    149.8041    236.8452   1.2290138939e+02   6.1261942236e+00    0.1734053    0.1204982  53.06 0.0004024084    1.326    0.246
        18  -8.5264    107.7334    237.1974   1.3103673710e+02   1.2897315422e+01    0.1943605    0.1297023  52.64 0.0003363918    1.194    0.162
        19  -8.2495     98.2034    236.2178   1.3275749626e+02   1.4530324555e+01    0.1720332    0.1387196  50.94 0.0005776057    1.112    0.101
        20 -11.7249     26.7692    247.3795   1.4642550258e+02   2.1980856484e+01      1.26661    0.6116514  46.76  0.008341611    1.601    0.375
        21  -7.7610    132.0284    234.4940   1.2603550937e+02   9.4510933883e+00    0.1835117     0.100422  43.97 0.0003694882    1.453    0.312
        22  -7.5583    127.4583    234.0106   1.2686439492e+02   1.0281198199e+01    0.1475051    0.1234367 -69.80  0.000332983    1.437    0.304
        23  -7.4841    109.0053    233.0469   1.3034070371e+02   1.3410831006e+01    0.1480867    0.1182308  55.33 0.0003750353    1.016    0.016
        24  -7.7000      1.4475    233.5092   1.4996698024e+02   2.7032211930e+01    0.1035701    0.0710543  70.97 1.585646e-05    1.017    0.017
        25  -8.3837     86.7865    232.0937   1.3453487367e+02   1.6963717876e+01    0.1905745    0.1277228  63.44 0.0007032437    1.284    0.221
        26  -8.0487    123.9185    230.9085   1.2718049299e+02   1.1381218606e+01    0.1753967     0.148867  36.64  0.000387993    1.218    0.179
        27  -8.1839     11.1066    230.9714   1.4824274502e+02   2.6547629684e+01    0.1557002     0.111261  72.10 0.0004008016    1.044    0.042
        28  -8.9878      5.3301    229.6047   1.4915643295e+02   2.7364166215e+01    0.1765065    0.1289981  70.34 0.0004974077    1.085    0.078
        29 -11.2290     38.0681    247.1475   1.4451897591e+02   2.0729976803e+01    0.8838697    0.5145739  79.18  0.006078961    1.483    0.326
        30  -7.8430     12.7751    226.9494   1.4776252424e+02   2.7116240200e+01      0.14761    0.1020605  74.07 0.0004122535    1.053    0.050
        31  -7.9497    145.9641    225.9681   1.2219096706e+02   8.5076747203e+00    0.1943518    0.1555328  44.63 0.0003859993    1.020    0.019
        32  -7.5345    186.2284    225.4255   1.1427036357e+02   1.6593179668e+00    0.1715045    0.1035798  46.37 0.0004600618    1.521    0.343
        33  -8.9866     57.9994    223.0438   1.3924865794e+02   2.2638154134e+01    0.1633276     0.146124 -32.54  0.001144711    1.812    0.448
        34  -7.2807    170.5607    241.5604   1.1959722030e+02   1.9809838987e+00    0.1239524    0.0972167  36.96 0.0003026756    1.002    0.002
        35  -8.4608     40.0939    222.5215   1.4259159855e+02   2.4961250481e+01    0.2045215    0.1220192  76.21 0.0006085929    1.442    0.307
        36  -7.5633     33.2214    223.2003   1.4390679216e+02   2.5628624123e+01    0.1563603   0.09465095  64.67 0.0004088449    1.287    0.223
        37  -7.2327    187.4396    221.5070   1.1342266311e+02   2.0222604329e+00    0.1296059    0.1058168  27.68 0.0002148627    1.043    0.041
        38  -8.3836    149.7321    220.8043   1.2071594259e+02   8.7101344614e+00      0.21933    0.1813625  39.86 0.0005273486    1.048    0.046
        39  -7.7458    125.9787    219.8313   1.2537503156e+02   1.2961131852e+01    0.1768652    0.1403664  48.82            0    1.040    0.038
        40  -7.7730     90.2937    219.6953   1.3258307898e+02   1.8721534469e+01    0.1283938   0.07928251  66.05 0.0004279017    1.578    0.366
        41  -7.1747    154.4411    218.4230   1.1942538874e+02   8.2809223239e+00    0.1319071    0.1087103  44.72 0.0001050491    1.038    0.037
        42  -7.4274    110.9862    218.7656   1.2828802620e+02   1.5640773824e+01    0.1630769   0.09129142  42.75  0.000253376    1.507    0.336
        43  -8.9558     57.3342    216.1994   1.3880358584e+02   2.4040577532e+01    0.2311565    0.1417031  67.57 0.0006953737    1.422    0.297
        44  -7.1536    166.2903    216.6658   1.1679115874e+02   6.4734310369e+00    0.1259125   0.09733734  68.45  0.000397773    1.633    0.387
        45  -9.0932     68.6168    216.1343   1.3656578263e+02   2.2542184221e+01    0.2048801    0.1313632  54.46  0.000405992    1.274    0.215
        46  -7.7735    234.0000    214.9877   1.0377141571e+02  -4.8320608441e+00    0.1794085   0.06615214 -34.35 0.0006973925    2.886    0.654
        47  -8.2292    146.1333    214.3792   1.2051099664e+02   1.0431045822e+01     0.190311    0.1805013   6.40 0.0005828067    1.230    0.187
        48  -8.4254     19.1194    214.9584   1.4598729133e+02   2.8731678077e+01    0.1850034    0.1213684  55.37 0.0005001472    1.252    0.201
        49  -9.3960     74.9436    208.9690   1.3457530537e+02   2.3061969851e+01     0.315625    0.1912933  63.47  0.001478968    1.516    0.340
        50 -10.4416     80.3973    205.0473   1.3301951775e+02   2.3054222721e+01    0.4618943    0.3151504  71.90  0.002095885    1.396    0.284
        51  -7.6755    133.0336    213.5136   1.2307537588e+02   1.2880385886e+01    0.1964799    0.1119417  42.89 0.0003567601    1.477    0.323
        52  -9.7260     77.0793    213.3721   1.3459138219e+02   2.1887891784e+01    0.2586561    0.2168374  85.38  0.000765839    1.157    0.135
        53  -7.4013     48.5064    213.4578   1.4030555404e+02   2.5696875062e+01     0.119523   0.09077869  68.80 4.001845e-05    1.015    0.015
        54  -8.8856     71.1689    212.1363   1.3566758349e+02   2.2969379074e+01    0.1721191    0.1542881  68.55 0.0004933974    1.195    0.163
        55  -7.3821    178.4752    211.4265   1.1353800192e+02   5.1357257816e+00     0.133063    0.1118041  38.00 0.0001226485    1.054    0.051
        56  -8.0742    127.0543    210.4730   1.2389071909e+02   1.4469059023e+01    0.1850753     0.164059  60.01 0.0004500179    1.072    0.067
        57  -7.6269     44.1255    210.3262   1.4091454227e+02   2.6850144534e+01    0.1716246   0.07879546  48.76 0.0006185033    1.791    0.442
        58  -8.5029     11.7365    209.4386   1.4703256936e+02   3.0540188305e+01    0.2531392    0.1171407 -84.90 0.0009002014    1.857    0.461
        59  -8.7141     12.2328    204.4892   1.4666118344e+02   3.1463841534e+01    0.1941323     0.129115 -82.59 0.0004828846    1.321    0.243
        60 -10.7897     80.7273    213.1501   1.3382539436e+02   2.1401565348e+01    0.5863733    0.3104478 -89.21   0.00283935    2.454    0.593
        61  -7.5178    169.9675    207.9384   1.1466529586e+02   7.2369758935e+00    0.1556064    0.1399234  32.03 0.0003737589    1.060    0.057
        62  -7.7669     60.6199    205.1880   1.3714937780e+02   2.5795693256e+01    0.1547431    0.1032474 -63.77 0.0005227448    1.620    0.383
        63  -7.4433     41.4592    205.5210   1.4106095134e+02   2.8129142685e+01    0.1195721   0.09086039  71.75 0.0008088024    1.021    0.021
        64  -7.5960    141.6227    204.2112   1.1992004089e+02   1.3042140904e+01    0.1604174    0.1289728 -37.70 0.0003375584    1.514    0.339
        65  -7.8084      4.2614    203.2193   1.4808157033e+02   3.2458963896e+01    0.1474643   0.08912739  68.47 0.0003644225    1.268    0.211
        66  -7.3069    123.5375    202.4819   1.2350198194e+02   1.6580046397e+01    0.1348421    0.1168038  51.41 1.039014e-05    1.034    0.033
        67  -7.7218     64.6600    201.6980   1.3596883988e+02   2.5963788247e+01     0.108761   0.09856728 -25.42 0.0007037963    1.672    0.402
        68  -7.4432    195.5335    199.4824   1.0813465949e+02   3.9281020840e+00    0.1341556    0.1166704  28.42 0.0001767618    1.036    0.034
        69  -7.6656     76.5289    198.8812   1.3315192655e+02   2.4874290558e+01    0.1714161    0.1174385 -72.12 0.0004991275    1.478    0.324
        70  -7.1200     94.7084    198.3334   1.2916081741e+02   2.2221540231e+01    0.1369331   0.08877293  70.26 0.0001970533    1.634    0.388
        71  -7.7041      8.0817    198.4809   1.4710436051e+02   3.3050721589e+01    0.1484246   0.09162539  45.55 0.0005667471    1.524    0.344
        72  -7.1409    182.6819    197.2688   1.1028308192e+02   6.6568133639e+00    0.1290628    0.1027441  64.39 0.0002118734    1.558    0.358
        73  -8.0863    126.8372    197.2299   1.2201639228e+02   1.7009894458e+01    0.1974656    0.1581185  56.94 0.0003001187    1.132    0.117
        74  -7.3096    204.0227    196.0000   1.0586286543e+02   2.9231710600e+00    0.2188716   0.06844422  42.80  0.000481466    2.876    0.652
        75  -7.1858     52.2786    192.6901   1.3769720854e+02   2.9455512039e+01    0.1273078   0.07648937  69.47 0.0004617046    1.560    0.359
        76  -7.5230    106.1510    188.6822   1.2531817492e+02   2.2325834246e+01    0.1800094    0.1168905  34.99 0.0002564184    1.593    0.372
        77  -7.1688    176.3004    187.2801   1.0977789274e+02   9.5677908469e+00    0.1374062    0.1035193  13.32 0.0002808013    1.544    0.352
        78  -7.1147     82.3356    184.7367   1.3015971659e+02   2.6985834563e+01    0.1376684   0.08720746  64.93 0.0003944923    1.583    0.368
        79  -7.2270     71.4366    182.4391   1.3234735032e+02   2.9083182261e+01    0.1286981    0.1114481  74.70 0.0001138509    1.037    0.036
        80  -7.4493    136.8276    180.9370   1.1716793169e+02   1.8384471143e+01     0.188425    0.1527832  66.33 0.0003156555    1.278    0.217
        81 -10.2935    100.9926    175.9907   1.2460562719e+02   2.5882963547e+01    0.1975152    0.1741788  67.22            0    1.011    0.011
        82  -7.2999     32.7022    175.3022   1.4032402677e+02   3.5466369608e+01    0.1258069   0.07402571  68.81 0.0002428353    1.581    0.368
        83  -8.2570    176.7753    171.2165   1.0659750773e+02   1.2354174443e+01    0.2228122    0.1145116 -31.45 0.0008807136    2.480    0.597
        84  -7.7230     58.2645    168.5923   1.3371334441e+02   3.3935468201e+01    0.1544481    0.1233872  32.51 0.0005075823    1.460    0.315
        85  -7.0398     93.2977    166.3511   1.2493804814e+02   2.9280776733e+01    0.1335724    0.1098155 -25.34 0.0004905401    1.688    0.408
        86  -7.3172    108.6414    165.7799   1.2112050211e+02   2.6780578180e+01     0.133203    0.1095894  16.13  0.000227924    1.563    0.360
        87  -7.4646     73.5122    158.3924   1.2860055478e+02   3.4149436069e+01    0.1346479    0.1184098  75.80  0.000100428    1.028    0.027
        88  -9.0919    115.9132    152.2470   1.1686197456e+02   2.8435185322e+01    0.3769022    0.2325899  32.86 0.0005107044    1.800    0.445
        89  -7.3300     80.9526    150.2442   1.2541786260e+02   3.4906640451e+01    0.1681137    0.1129659  42.50 0.0003175508    1.479    0.324
        90  -7.3745     50.4900    151.5145   1.3344784702e+02   3.8795874085e+01    0.1306966    0.1109333  86.45 9.563797e-05    1.025    0.024
        91  -7.0317     30.7172    145.3430   1.3771542254e+02   4.2377726669e+01    0.1294489   0.08033352  73.80 0.0004292999    1.636    0.389
        92  -7.4897     81.4707    143.2089   1.2407413982e+02   3.6454893380e+01    0.1863423    0.1278457 -79.67 0.0004626793    1.581    0.368
        93  -7.5280     42.4818    140.4388   1.3404305760e+02   4.2282210977e+01     0.130079    0.1076675  84.76 0.0001270263    1.093    0.085
        94  -9.8597    228.1502    138.5265   8.9600443763e+01   7.4932533122e+00    0.2453168    0.2420087  25.14 0.0003772984    1.128    0.113
        95  -7.4024     76.0193    139.1969   1.2482741576e+02   3.8221124038e+01    0.1765541    0.1076075  37.53 0.0003654005    1.705    0.413
        96  -8.9466    114.2854    137.0550   1.1418712396e+02   3.2141775034e+01     0.249367    0.2027867  52.05 0.0002814226    1.201    0.167
        97  -8.6044     61.9456    129.4907   1.2701001509e+02   4.2483680207e+01    0.1979738    0.1320283  37.45  0.001032961    1.594    0.373
        98  -7.4869    174.9559    122.7100   9.6176999337e+01   2.2016709515e+01    0.1871594    0.1353086  46.70  0.000508681    1.351    0.260
        99  -8.1695    246.4637    120.0097   8.2484454697e+01   6.7645653854e+00    0.2243731    0.1784788  26.15   0.00030637    1.391    0.281
       100  -7.2575     64.4543    112.4806   1.2303958381e+02   4.6125406751e+01    0.1367473    0.1245758 -73.50 0.0001979753    1.034    0.033
       101  -7.7088    134.8455    106.2711   1.0140218579e+02   3.4584523348e+01    0.2558358    0.1700473 -87.27 0.0009370205    2.696    0.629
       102  -8.6800    138.3323     93.2053   9.6914200984e+01   3.6451215439e+01    0.3137032    0.2055874 -21.65  0.001278976    2.029    0.507
       103  -8.1963     98.7638     94.4048   1.0819591395e+02   4.4622454053e+01    0.2484606    0.1827063  32.56 0.0005455816    1.452    0.312
       104  -9.2195    143.4873     83.8627   9.2931954462e+01   3.7039634284e+01    0.3781668    0.2209032  62.53  0.001495314    1.992    0.498
       105  -9.1595    146.7616     78.2785   9.0489831098e+01   3.7278798930e+01    0.3599474    0.2397499   2.61  0.001298502    2.542    0.607
       106  -9.2334    184.6691     76.0048   8.1881419946e+01   2.8161774560e+01     0.381455    0.2647935 -19.92  0.001710508    1.733    0.423
       107  -9.2937    150.5571     70.3456   8.7217280508e+01   3.7743667531e+01    0.3332792    0.2782949 -77.70  0.001613709    1.390    0.280
       108 -10.1016    152.2795     65.2278   8.5267301311e+01   3.8175718069e+01    0.4212431    0.4109613  71.46  0.002068873    1.024    0.024
       109  -8.9308    101.8555     67.1375   9.9028331566e+01   4.9526656265e+01    0.2157856    0.2017654 -85.71 0.0007335602    1.249    0.199
       110  -9.7861    240.4037     64.0373   7.0389299887e+01   1.6538843820e+01    0.2553842    0.2433599  15.02 0.0002284881    1.247    0.198
       111  -8.7764    244.5073     60.0092   6.8964016227e+01   1.6193713099e+01    0.2447995    0.2335118  39.40  0.001286527    1.242    0.195
       112  -8.7890    126.0335     61.4556   9.0339559543e+01   4.5217842357e+01      0.26082    0.2120304 -43.70  0.001325055    1.293    0.227
       113  -8.1567    208.6877     58.3372   7.3170154194e+01   2.4875875749e+01    0.1549287    0.1034223 -65.81 0.0002554247    1.689    0.408
       114  -8.7574    233.5178     57.4904   6.9669477414e+01   1.9036503204e+01     0.138064    0.1239829 -63.58 0.0002462719    1.007    0.007
       115  -9.4092    146.5972     52.2615   8.2432203507e+01   4.1666310355e+01    0.3966235    0.3293704 -79.05  0.001100251    1.394    0.283
       116  -7.9779    182.4861     49.0410   7.4654085147e+01   3.2879641852e+01    0.2155276    0.1473974 -30.78 0.0004290466    1.554    0.356
       117 -10.5922    161.2821     45.6524   7.7368460039e+01   3.8865070056e+01    0.6605991    0.5097235 -89.41  0.002624456    1.453    0.312
       118  -8.6734    154.8244     40.9548   7.7122929406e+01   4.1181958464e+01    0.2266959    0.1895207  30.43 0.0004724984    1.299    0.230
       119 -10.5406    137.0963     38.5060   7.9953733421e+01   4.6021457374e+01    0.2771435    0.2319282 -21.92 -7.404208e-05    1.292    0.226
       120  -8.4205    165.4226     35.3282   7.3442040937e+01   3.9167306847e+01    0.3673266    0.2037676  79.95   0.00149296    2.160    0.537
       121  -9.0260      4.2585    247.5069   1.5006904872e+02   2.4315264910e+01    0.2549914    0.1577714 -89.59  0.001986607    1.400    0.286
       122  -7.9443    124.3411    240.0315   1.2817461780e+02   9.7978743463e+00    0.2586865    0.1467449 -47.17  0.001433615    2.335    0.572
       123  -8.0755    146.7843    247.1503   1.2477788606e+02   5.0647322398e+00    0.1779293    0.1322308  52.47 0.0003503105    1.205    0.170
       124  -8.1325    189.2075     14.8410   6.4060402907e+01   3.5349797678e+01    0.1931273    0.1552704  47.35  0.001083491    1.354    0.261
       125  -7.2470    159.6599    243.2732   1.2187259898e+02   3.5307816470e+00    0.1216061   0.08154536  57.49 0.0005404213    1.611    0.379
       126  -9.5255      8.0159    240.5779   1.4918671511e+02   2.5141763673e+01    0.2803377    0.1841638 -61.65  0.001297254    2.084    0.520
