#   1 NUMBER                 Running object number                                     
#   2 MAG_AUTO               Kron-like elliptical aperture magnitude                    [mag]
#   3 X_IMAGE                Object position along x                                    [pixel]
#   4 Y_IMAGE                Object position along y                                    [pixel]
#   5 X_WORLD                Barycenter position along world x axis                     [deg]
#   6 Y_WORLD                Barycenter position along world y axis                     [deg]
#   7 A_WORLD                Profile RMS along major axis (world units)                 [deg]
#   8 B_WORLD                Profile RMS along minor axis (world units)                 [deg]
#   9 THETA_WORLD            Position angle (CCW/world-x)                               [deg]
#  10 FWHM_WORLD             FWHM assuming a gaussian core                              [deg]
#  11 ELONGATION             A_IMAGE/B_IMAGE                                           
#  12 ELLIPTICITY            1 - B_IMAGE/A_IMAGE                                       
         1 -12.3966     77.2584     30.4182   4.9278390191e+01   6.2411462778e+01     1.149666    0.8564259  83.78  0.003785552    1.737    0.424
         2 -11.6795     69.9129     11.8662   4.1628037867e+01   6.6849573310e+01    0.3464954    0.3163605 -76.32 0.0008998761    1.218    0.179
         3  -9.9500     80.1019     19.4439   4.2512837416e+01   6.3361105793e+01     0.443929    0.3482733  75.86  0.001882019    1.376    0.273
         4 -11.0914     89.8713     27.9949   4.3830394024e+01   5.9700827897e+01    0.6192355    0.3818783 -45.81  0.001872089    1.716    0.417
         5 -11.4232    113.3401     33.9577   4.0261408686e+01   5.2749228315e+01    0.7336441    0.5866393 -21.06  0.003366166    1.369    0.269
         6 -11.7040     62.8433     17.1428   4.7615414976e+01   6.7810299319e+01      1.17434    0.3725721  54.97 0.0007013943    3.079    0.675
         7 -11.0678     18.6422     27.7529   8.1141131727e+01   7.3390097622e+01    0.5586555    0.3093546 -64.49  0.002665618    1.839    0.456
         8 -10.1443     40.0405     21.3409   6.2215618793e+01   7.1759330754e+01    0.6695306    0.4421118  62.31  0.003103556    2.240    0.553
         9 -12.5269    105.1289     20.9541   3.6447582602e+01   5.6681323572e+01    0.4059815     0.353184  13.59  0.000520154    1.304    0.233
        10 -10.5880      2.5388     24.0995   9.3315303890e+01   7.5443179920e+01    0.4426523    0.1916089 -48.94  0.001406797    1.929    0.482
        11 -11.0569      5.9784     16.7649   8.7247904444e+01   7.6963214598e+01    0.5363678    0.2944271  18.46  0.002772515    1.919    0.479
        12 -10.2716      9.6518     14.6976   8.2598874909e+01   7.7148169885e+01     0.474356    0.2416896  -9.26  0.002072173    2.704    0.630
        13 -10.4610    165.8869     18.8579   2.6176788371e+01   4.0689781826e+01     0.620226    0.3519423  25.29  0.002093887    2.897    0.655
        14 -10.7799    132.5070     21.6621   3.1517443582e+01   4.9213252347e+01     0.440651    0.3835168 -86.58  0.001379464    1.098    0.090
        15  -8.9168    152.8342     13.8437   2.5891179954e+01   4.4617277969e+01    0.3685067    0.2142298 -54.40  0.001693686    1.674    0.403
        16 -10.5123    152.0085     18.1317   2.7492130369e+01   4.4385877748e+01    0.2769713    0.2566286  -4.89 0.0002909635    1.238    0.192
        17 -11.0331    195.4945      3.6183   1.9208777727e+01   3.4905874870e+01    0.3679475    0.2427705  70.34  0.000277225    1.605    0.377
        18  -9.2570    190.2244      7.0187   2.0500013505e+01   3.5837659882e+01    0.2311702    0.2117229 -82.68 0.0008327124    1.143    0.125
        19  -9.7787    205.4809     18.0488   2.2528071661e+01   3.1202252005e+01    0.6345882    0.2670442 -49.25  0.002877051    2.044    0.511
        20 -10.7619    194.8396     14.9231   2.2432440103e+01   3.3971309976e+01    0.2379628    0.1878847 -64.81 0.0003205023    1.136    0.120
        21  -9.4897    191.3015     10.8763   2.1535181697e+01   3.5210884963e+01    0.3094361    0.2995949   5.77  0.001601412    1.257    0.205
        22  -9.9413    210.1845     13.2129   2.0929086637e+01   3.0641376963e+01    0.4044925    0.2136069  -8.12  0.001839369    2.612    0.617
        23 -10.3581    211.8993      8.6388   1.9630266425e+01   3.0708426541e+01    0.3274225    0.2110034 -25.31 0.0005283147    1.478    0.323
        24 -11.0011    207.2467      2.9441   1.8383875792e+01   3.2273529510e+01    0.5924333    0.2228328 -53.76  0.001413935    2.289    0.563
        25 -11.0884    182.2740     18.4834   2.4482807537e+01   3.6617666636e+01    0.2837712    0.2699336  33.74 0.0006521739    1.262    0.207
        26 -10.5600    238.1987     17.5940   2.0407945260e+01   2.4362243371e+01    0.2774737    0.2106477  13.75  0.001120875    1.865    0.464
        27  -9.9832     16.3511     17.1336   7.7661719140e+01   7.5980058890e+01    0.4326601    0.2489155  -1.35  0.002005525    2.326    0.570
        28 -10.6244    126.4057     13.4473   2.9181889020e+01   5.1772145559e+01    0.6698375    0.4362919 -56.31  0.001486583    1.577    0.366
        29 -10.7635    174.5335     12.9920   2.3479240062e+01   3.9103139632e+01     0.639118    0.4306798  -1.49    0.0031809    1.930    0.482
        30 -10.1282    117.7022     15.2444   3.1366785138e+01   5.3950960703e+01    0.3622537    0.2685561  77.76  0.001818512    1.301    0.231
        31 -11.3303    132.9883     12.6164   2.7892683970e+01   5.0067435762e+01    0.2883041    0.2549279 -45.36  0.000296543    1.126    0.112
        32  -9.6542     30.9845     12.2894   6.2386374880e+01   7.4937123780e+01    0.4032293     0.315793  73.70  0.001579465    1.986    0.497
        33  -9.6039    200.4245     12.2066   2.1284757008e+01   3.2944869372e+01    0.3110206    0.1324815 -27.04  0.001398183    2.094    0.523
        34 -10.2636    145.3022     12.7923   2.6380909230e+01   4.6727970231e+01    0.4317549    0.2207634  78.89  0.001472196    1.932    0.482
        35  -9.3936     98.6840      5.8352   3.0532851066e+01   6.0054825922e+01    0.3782736    0.2149002  39.16   0.00142407    1.951    0.487
        36  -8.6646    103.4933      7.5101   3.0427412486e+01   5.8598543234e+01    0.2023985    0.1307425 -36.91 0.0006183701    1.575    0.365
        37  -9.6063     97.1163     12.0877   3.4006471909e+01   5.9846681869e+01    0.4114307    0.2493339 -10.77  0.001014418    1.980    0.495
        38 -10.5036    101.4369     11.0182   3.2540253368e+01   5.8803073596e+01    0.3652456    0.2735398  65.29 0.0006044712    1.249    0.199
        39 -10.8196    107.3979      7.5594   2.9731758768e+01   5.7535214925e+01    0.6336883    0.2573335  51.68  0.002422309    2.356    0.576
        40  -9.7932    106.4965      3.0455   2.7749582153e+01   5.8188420696e+01    0.4606234    0.2368275  41.32  0.001924542    2.170    0.539
        41 -10.4626     54.7799      9.1436   4.5986508820e+01   7.0736529991e+01     0.398918    0.2883669 -61.93  0.001267166    1.869    0.465
        42  -9.9258     91.6377      8.9142   3.3639063933e+01   6.1635882848e+01    0.4739908    0.2151902  50.69  0.001914663    2.075    0.518
        43  -8.9069     87.9446      6.6643   3.3309742539e+01   6.2837235443e+01     0.251638    0.2116023  -2.05 0.0007697802    1.307    0.235
        44 -10.6383     79.3606      4.4018   3.4203711179e+01   6.5296402596e+01    0.3297935    0.2254289 -22.28  0.001071474    1.544    0.352
        45 -11.3983     74.9887      2.6396   3.4343617656e+01   6.6586684782e+01    0.7460281    0.6601771 -41.85  0.003852309    1.210    0.174
        46  -8.4859     44.4677     10.0264   5.1907211538e+01   7.2817337052e+01    0.2684627    0.1282733 -19.02  0.000984508    3.200    0.688
        47  -9.0634     48.4374      7.5277   4.7924870944e+01   7.2341026321e+01    0.2214764    0.1301059  53.16 0.0004870613    1.676    0.403
        48  -9.7529     45.7669      4.7711   4.7249827421e+01   7.3274555276e+01    0.3308563    0.2506612  -9.61  0.001395665    1.390    0.281
        49  -9.4616     42.2120      1.3562   4.6460228486e+01   7.4458199138e+01      0.24956    0.1555354  67.64 0.0002637702    2.056    0.514
        50 -10.3223      7.7387      9.2557   8.1440055038e+01   7.8486439139e+01    0.2837711    0.1826422  12.90  0.001581776    1.628    0.386
        51 -12.1704    160.0825      1.9675   2.1118068349e+01   4.3830094807e+01    0.5403097    0.3686192 -44.01  0.001315554    1.339    0.253
        52 -11.6330    156.0227      3.5310   2.1989547169e+01   4.4754589461e+01    0.5289321    0.2458207  74.17 0.0001968911    2.023    0.506
        53  -9.2286     15.2381      8.4932   7.3161177702e+01   7.7882470697e+01    0.2836041    0.2164076  43.50  0.001664916    1.559    0.359
        54 -10.1121    138.9512      6.7148   2.4851424093e+01   4.9020650946e+01    0.2762792    0.1947691  74.49 0.0007815384    1.337    0.252
        55 -10.7815    136.3368      3.1034   2.3755132946e+01   5.0047471830e+01    0.4512157    0.2688453 -63.37   0.00154273    1.699    0.411
        56  -9.6823     13.8020      3.1426   7.0496689059e+01   7.9081003515e+01    0.3740779    0.2864145  47.67  0.002217252    1.650    0.394
        57  -9.7264     24.6194      6.8417   6.3285654359e+01   7.6906778547e+01    0.2137374    0.1691181 -55.14  0.000448304    1.523    0.343
        58 -10.8494     20.9637      5.6441   6.5522996415e+01   7.7664817323e+01    0.3324365    0.2724731  63.48  0.001720181    1.740    0.425
        59  -9.3595      2.4852      6.4702   8.5708590253e+01   7.9481688445e+01    0.2283367    0.1428328 -57.57 0.0006092009    1.439    0.305
        60  -9.5687      4.7032      2.1994   8.0219421316e+01   8.0214837078e+01    0.3583494    0.1864198 -14.12  0.001665132    2.490    0.598
        61  -9.0581    170.4352      6.1823   2.1672444704e+01   4.0793259430e+01    0.2486698    0.1485663  61.83 0.0006839808    1.736    0.424
        62 -10.6583    237.5481      3.8733   1.7231328780e+01   2.5805263101e+01    0.3774696    0.2191795  69.22  0.001666416    2.012    0.503
        63  -9.7694    232.2132      2.4326   1.7110331653e+01   2.7001321311e+01    0.2586643    0.1317735 -51.15  0.000931594    1.552    0.356
        64 -11.0121    218.4713      2.9873   1.7846483152e+01   2.9809567426e+01    0.2795138    0.2497651 -79.40 0.0007330218    1.204    0.169
        65 -10.5766     30.4817      2.7931   5.5241952060e+01   7.6572536264e+01    0.3280509    0.2560239 -64.08  0.001273515    1.875    0.467
        66  -9.7031    180.8707      2.1356   1.9674218885e+01   3.8551136507e+01     0.440352    0.1969664 -77.09  0.001870888    2.375    0.579
        67  -9.4723     91.8376      2.5558   3.0220560894e+01   6.2186520831e+01    0.3271101    0.1963302 -66.88 0.0008508991    2.022    0.505
        68 -10.5280    249.9349      1.5973   1.6247495400e+01   2.3638127500e+01    0.1747004    0.1287529 -64.56  0.001229219    1.239    0.193
        69 -10.0255    115.7194      1.9792   2.5847810268e+01   5.5761804288e+01    0.2407737    0.1879754  67.69 0.0003031964    1.196    0.164
        70 -10.1177     38.4309      4.4016   5.1185193624e+01   7.4833692721e+01    0.4091527    0.2362266  18.57  0.001376403    2.517    0.603
        71  -8.8971    126.6973      1.4127   2.4179783316e+01   5.2809544819e+01    0.2591918    0.1308181  83.77 0.0006343462    1.945    0.486
        72  -9.5600     22.9196      1.3454   6.0067460611e+01   7.8090173849e+01    0.2191056    0.1159653  43.33  0.001069134    1.964    0.491
        73  -9.2009     81.5493    115.8254   7.6976737457e+01   4.2521565560e+01    0.2729664    0.2018829  38.89 0.0005942361    1.328    0.247
        74 -10.2786    201.3198    249.6920   7.1429534167e+01   1.1336395211e+00    0.2000754    0.1373879  10.87 0.0009427714    1.041    0.039
        75 -10.2525    115.7349    248.3645   8.6843309296e+01   1.1181746555e+01    0.2146094    0.1964713  34.56  0.001652179    1.263    0.208
        76  -8.5496     54.0186    117.0000   8.6733824736e+01   4.6434444643e+01    0.2305608   0.08217107  29.13 0.0005807678    2.836    0.647
        77 -10.2273     35.3216    115.3466   9.3348190033e+01   4.9105940012e+01    0.4382686    0.1812503  40.71  0.001759079    2.237    0.553
        78  -8.8384    104.3028    115.3052   6.9724546638e+01   3.8482401234e+01    0.1506097    0.1220967  -9.17 0.0001687236    1.597    0.374
        79 -10.2216     10.7884    113.6343   1.0240213756e+02   5.1674072120e+01    0.4144763    0.2564604  10.35  0.002094622    1.907    0.476
        80 -11.3425     37.0627    110.0616   9.1942176855e+01   5.0324171579e+01    0.3341801    0.2440912 -78.39 0.0004784274    1.295    0.228
        81  -9.0489      4.7613    110.7462   1.0447692563e+02   5.2810297807e+01    0.1941408     0.158282 -36.27 0.0007798462    1.446    0.309
        82  -8.8700    123.4776    110.1631   6.3052214684e+01   3.5765072017e+01    0.2757234    0.1812341  19.47 0.0008566992    2.214    0.548
        83  -9.6501     90.0443    108.3115   7.2474958196e+01   4.2845146171e+01    0.2713734    0.2216958 -73.33 0.0003486659    1.299    0.230
        84  -8.8503    116.5100    107.5735   6.4290171647e+01   3.7778224296e+01    0.1512288    0.1482296  42.64 0.0001400262    1.027    0.026
        85  -9.9595     50.7972    100.3908   8.4877314742e+01   5.1229063179e+01    0.6392136    0.2622226 -46.94  0.002269235    2.753    0.637
        86 -10.3784     53.0985     90.3942   8.1774271968e+01   5.3536972715e+01     0.678724    0.3134477 -69.20  0.002532007    2.355    0.575
        87 -10.6936     57.2497     87.9947   7.9473293957e+01   5.3549555810e+01    0.5521309    0.3801903 -74.95  0.002548326    1.550    0.355
        88  -9.9088     57.5325     99.9959   8.2150577785e+01   5.0389479900e+01    0.3937073    0.2187055 -61.83  0.001062909    1.734    0.423
        89  -9.8402     51.5046    105.0222   8.5508408272e+01   4.9912964603e+01    0.3363501    0.2645332 -87.87  0.001431584    1.280    0.218
        90  -9.8007     55.3594    104.1340   8.3852184797e+01   4.9618118573e+01    0.3094713    0.2580686 -69.84 0.0009226163    1.159    0.137
        91 -10.4533     32.4975    105.9688   9.3130103946e+01   5.1896425075e+01    0.3077787    0.2045016 -50.70   0.00105438    1.573    0.364
        92  -9.3478     93.3751    104.9051   7.0557067168e+01   4.3034431819e+01    0.3398667    0.2327636  68.88  0.001352607    1.874    0.466
        93  -9.3795    141.7160    103.2898   5.6672666996e+01   3.3282800989e+01    0.2579358    0.2262816 -71.46 0.0007337295    1.272    0.214
        94  -9.4148     64.6201    102.5541   8.0011122976e+01   4.8656387228e+01    0.4866166    0.2349073 -32.51  0.001440406    4.303    0.768
        95  -9.1455    100.7908    103.1698   6.7769306260e+01   4.1988443095e+01    0.2394727    0.2121964 -16.41 0.0003408741    1.314    0.239
        96  -9.9774    104.6908    100.0226   6.5737514253e+01   4.1920439264e+01    0.3854866    0.2824651  14.00  0.001670899    1.906    0.475
        97  -9.6185     71.2529    102.1009   7.7461552940e+01   4.7703916563e+01    0.3612927    0.2038964 -55.69  0.001408726    1.736    0.424
        98  -8.5077     16.2615    107.6516   9.9770976646e+01   5.2871899079e+01    0.1466544   0.08912111  64.65 0.0004777404    1.606    0.377
        99  -9.6186     86.4320    100.6956   7.1779779676e+01   4.5365509277e+01     0.368673     0.230435 -84.55  0.001374289    2.561    0.610
       100  -9.4539     37.6531     99.6628   9.0053275442e+01   5.3037045654e+01    0.2354571    0.1619747 -37.25  0.001119322    1.714    0.417
       101 -10.5961    117.6256     98.0576   6.1432251747e+01   3.9620192183e+01    0.2604475    0.2551731  19.96 0.0002728396    1.064    0.060
       102 -10.4766      2.6200     85.7837   1.0352399241e+02   5.9538336594e+01    0.3602619    0.2265288 -66.46 0.0008397333    1.428    0.300
       103  -8.9116      9.5198     98.5774   1.0164201053e+02   5.5752512938e+01    0.2503673    0.1320937  55.59 6.695524e-05    1.876    0.467
       104  -9.0524      6.1136     96.8900   1.0292356138e+02   5.6401690243e+01     0.442257    0.2231331  76.64  0.001996159    1.941    0.485
       105  -9.2613      1.6925     91.7123   1.0440820457e+02   5.8004184687e+01    0.3991567      0.16328  68.64  0.001603614    2.539    0.606
       106  -9.6772    126.0487     97.5328   5.9006864266e+01   3.7891344612e+01    0.2954749    0.2205154 -63.38  0.001360314    1.532    0.347
       107  -8.6223     94.4723     96.9594   6.8120333764e+01   4.4704632548e+01    0.2159773    0.2010884 -57.42 0.0004429159    1.076    0.071
       108  -8.7342    153.5585     96.5150   5.2184850100e+01   3.1969215483e+01    0.1478949    0.1418955 -48.34   4.3816e-05    1.036    0.035
       109  -8.9500    141.8066     95.8528   5.4632742685e+01   3.4720778779e+01    0.2244979    0.2057809  -6.08 0.0004863263    1.181    0.153
       110  -9.4743     81.9549     95.6411   7.2009005421e+01   4.7433158871e+01    0.3194105    0.1829397  51.97  0.001204154    1.894    0.472
       111  -9.4183     62.7192     96.0756   7.9249084773e+01   5.0622411115e+01    0.2921269    0.1864354  48.66 0.0006379025    1.607    0.378
       112  -8.7469     42.3596     95.2440   8.7295517397e+01   5.3671067200e+01    0.2027084    0.1324354 -81.41 0.0005731664    1.577    0.366
       113  -8.9185    165.8013     94.4484   4.9127198335e+01   2.9630884029e+01    0.1993126    0.1360463  38.66 0.0006655841    1.612    0.380
       114  -9.8052     39.1748     90.3129   8.7684565972e+01   5.5363069492e+01    0.4124008    0.1896281 -43.34     0.001553    2.572    0.611
       115  -9.4950     47.9609     93.1163   8.4522116270e+01   5.3527320944e+01    0.4373951    0.2507622 -88.49  0.001749154    2.248    0.555
       116  -9.7479     43.6724     89.2692   8.5518688994e+01   5.5097012278e+01    0.2940896    0.2574523 -29.76 0.0008905529    1.285    0.222
       117 -10.1411     31.3313     93.3302   9.1643773841e+01   5.5405498419e+01    0.3127657    0.2377835  59.97  0.001135527    1.329    0.248
       118  -9.6556     33.6975     90.4648   9.0109049192e+01   5.5930382723e+01    0.2764735    0.1879032  30.56   0.00136286    1.525    0.344
       119  -8.5851    131.0234     93.0372   5.6457976782e+01   3.7706611306e+01    0.1876923    0.1760401 -45.81 0.0006441274    1.058    0.055
       120 -10.9856     17.5617     91.0233   9.7346470311e+01   5.7232944386e+01    0.4059604    0.2628665 -18.66 0.0004464649    1.982    0.496
       121  -8.7600     13.5644     88.5467   9.8828720909e+01   5.8181571954e+01     0.182837    0.1234476  34.78 0.0001122421    1.528    0.346
       122 -10.3120    108.5460     90.5580   6.1911526258e+01   4.3229203576e+01     0.473412    0.3162159  26.22  0.001127666    1.956    0.489
       123 -10.0344    110.6417     86.5871   6.0109334737e+01   4.3635835705e+01    0.3816027    0.2739224  73.00  0.001652515    1.773    0.436
       124  -9.1101     70.9753     91.4825   7.4927806500e+01   5.0432614666e+01    0.2528134    0.1972259 -60.38 0.0004952686    1.261    0.207
       125  -9.8496     86.8503     89.4228   6.8578961267e+01   4.7999725474e+01    0.4637356    0.3898423 -74.06  0.002300212    1.262    0.207
       126  -9.3382     59.2181     72.9962   7.4465051816e+01   5.7041112556e+01    0.2346414    0.2098701   9.84 0.0004165917    1.256    0.204
       127  -9.3542     65.9981     90.1160   7.6491736830e+01   5.1618921105e+01    0.2935836    0.2141629 -43.83  0.000844594    1.451    0.311
       128 -10.7047     65.4090     86.1646   7.5676403536e+01   5.2716576847e+01    0.4193135    0.3097085  18.04  0.001882344    1.644    0.392
       129  -9.6358     70.0408     85.8515   7.3760503743e+01   5.2002630667e+01    0.3063523    0.2225826 -50.57  0.001048546    1.365    0.267
       130  -9.7209     77.0927     84.3326   7.0626139699e+01   5.1098246732e+01    0.3835094    0.2605235 -47.33  0.001188655    1.481    0.325
       131 -10.1078     81.1274     82.6319   6.8622421094e+01   5.0737248568e+01    0.4018561    0.3274561 -15.41 0.0008833045    1.561    0.359
       132 -11.1842     72.5046     79.7095   7.1008117517e+01   5.3072105471e+01    0.5518217    0.4482566 -74.49   0.00168248    1.320    0.242
       133 -10.7200     66.5202     74.7357   7.1889722603e+01   5.5363167289e+01    0.6166824    0.2942948  34.97  0.001210789    2.219    0.549
       134  -9.0820     97.9857     89.4053   6.4846565584e+01   4.5741978176e+01    0.2770223    0.2134282 -62.86 0.0007636976    1.377    0.274
       135 -10.6762     25.6618     87.6879   9.3217350812e+01   5.7463517745e+01    0.4445943    0.3568445 -41.61  0.001436666    1.337    0.252
       136  -8.6136      6.4787     88.5802   1.0202793294e+02   5.8599640864e+01    0.1355313    0.1186629  82.04 6.303502e-05    1.043    0.041
       137 -10.5140    142.6275     83.4244   5.0876973521e+01   3.6907536042e+01    0.5670069    0.4602017  53.27  0.002232113    1.257    0.204
       138  -9.7968    150.4866     79.6756   4.8054898733e+01   3.5742539210e+01    0.3645736    0.2787788  46.20    0.0014003    1.367    0.269
       139 -10.2353    155.1308     85.0236   4.8650599518e+01   3.3703337963e+01    0.3005506    0.2515016   9.50 0.0002726619    1.432    0.302
       140  -9.9974    155.3174     80.1950   4.7216613209e+01   3.4513613088e+01      0.46645    0.3478623  22.84  0.002187053    1.726    0.421
       141 -10.2079    128.3825     85.7696   5.5000893683e+01   3.9774162919e+01    0.3292395    0.2142726  40.57  0.001426925    1.644    0.392
       142 -10.7314    118.5655     84.0873   5.7092961078e+01   4.2377190402e+01    0.6734428    0.4161628  76.35  0.002223034    2.717    0.632
       143 -10.2238     46.1996     84.4623   8.3333961783e+01   5.6039435897e+01    0.2658908    0.2360231 -87.08 0.0002093637    1.103    0.093
       144  -9.9806     52.1261     82.0312   8.0131094296e+01   5.5850448464e+01     0.400647    0.2965661 -19.83  0.001550421    1.765    0.433
       145 -10.6049     40.1689     81.1489   8.5279203511e+01   5.7676787717e+01    0.5935435    0.3757547  -3.91  0.001613379    2.319    0.569
       146  -8.9261     60.5905     82.2743   7.6581291208e+01   5.4491046756e+01    0.2086965    0.1960114  75.13  0.001125307    1.063    0.059
       147  -8.8468     19.1786     80.6054   9.5102693121e+01   5.9910556343e+01    0.2404059    0.1350154  -4.98  0.001038821    2.403    0.584
       148  -8.0178    104.3019     90.2984   6.3120569443e+01   4.4202473621e+01    0.1531979    0.1260442  -2.13 0.0002832017    1.582    0.368
       149 -10.3792    166.5777     78.2948   4.4512614150e+01   3.2212190515e+01    0.3762815    0.2861891  10.27  0.001387416    1.740    0.425
       150 -11.1102    168.2117     73.3817   4.2810452649e+01   3.2636916245e+01    0.5744479    0.4130977 -80.32  0.001304541    1.794    0.443
       151  -9.5233    166.5162     68.4849   4.1675117717e+01   3.3822481207e+01    0.2744144    0.2368074 -80.04 0.0006096705    1.240    0.194
       152  -9.1573      3.8553     79.4971   1.0236612455e+02   6.1156010223e+01    0.2419872     0.166743 -80.05 0.0005423141    1.271    0.213
       153  -8.6976    106.5398     79.5354   5.9140270424e+01   4.6071717863e+01    0.2286115    0.1512243  36.66 8.529398e-05    1.674    0.403
       154 -10.1910    109.7180     74.6305   5.6595611016e+01   4.6378323938e+01    0.5689932    0.3508239 -59.85  0.001949399    1.959    0.490
       155  -8.3307    192.3067     78.7036   4.0400379062e+01   2.6387938495e+01    0.1405954    0.1005668 -60.58 0.0002469606    1.587    0.370
       156  -9.6296    120.3851     77.6953   5.4595624383e+01   4.3260429392e+01    0.3143716     0.234127 -80.80  0.001064412    1.756    0.430
       157  -9.0668    135.9888     76.6658   5.0349178244e+01   3.9747366748e+01    0.2070884    0.2001047  75.84  0.001108109    1.040    0.039
       158  -8.5085     12.0334     78.4912   9.8266161116e+01   6.0978478460e+01    0.1901525    0.0996853 -28.47 0.0008082225    2.411    0.585
       159 -10.2200     52.5882     76.3513   7.8395660470e+01   5.7240249566e+01    0.3436485    0.2994928 -66.01  0.001216595    1.105    0.095
       160  -9.8780     29.0311     75.5141   8.9345463243e+01   6.0400436348e+01     0.437875    0.1978924 -63.44  0.001810118    1.954    0.488
       161  -9.5083    145.1247     75.5323   4.7944051025e+01   3.7761247637e+01    0.2740936    0.2126682 -18.48 0.0007078564    1.488    0.328
       162 -11.1787     88.9392     73.8403   6.3010913155e+01   5.1182741290e+01     1.048103    0.5815155 -29.38  0.003343187    2.695    0.629
       163 -10.5011     94.6695     71.9706   6.0416299094e+01   5.0354268442e+01    0.3748288     0.296343  58.33 0.0002831875    1.308    0.236
       164  -8.3056     21.5228     76.5159   9.3264861582e+01   6.0817660495e+01    0.1408038    0.1276272 -87.36 5.498633e-05    1.040    0.038
       165  -9.3425     19.3234     72.4414   9.3639683032e+01   6.2081694785e+01    0.3620082    0.2114419 -67.89  0.001731636    1.522    0.343
       166 -10.7556     29.6309     68.2267   8.7393236226e+01   6.2260973169e+01    0.4779986    0.3520438  23.60 0.0008819736    1.465    0.317
       167 -10.4770     21.9136     67.1706   9.1238595400e+01   6.3266445573e+01    0.6628999    0.3465347 -78.02  0.002899067    1.917    0.478
       168  -8.9894    180.0236     74.4636   4.1142706926e+01   2.9746461111e+01    0.2091048    0.1408327  56.41 0.0005621808    1.588    0.370
       169  -8.9564    152.0919     73.1399   4.5762815975e+01   3.6506390684e+01    0.2163543    0.1983678  18.76 0.0002816134    1.220    0.180
       170 -11.1144    144.8178     70.2479   4.6368103161e+01   3.8771915893e+01    0.5939158    0.5420325 -49.44  0.003174397    1.060    0.057
       171  -9.2525    140.6642     68.2850   4.6635522792e+01   4.0134427810e+01    0.2913563    0.2227016 -72.62 0.0007485657    1.530    0.346
       172  -8.7547     47.6188     63.8080   7.6962689005e+01   6.1135281874e+01    0.2404159    0.1666591  87.03 0.0004809392    1.947    0.486
       173  -9.7279     53.2639     70.6473   7.6418825954e+01   5.8578083172e+01    0.2523257    0.2187951 -42.39 0.0002463489    1.171    0.146
       174 -10.8038     50.8467     67.4137   7.6547413100e+01   5.9755796175e+01    0.4632328    0.3337053  37.67  0.001018534    1.428    0.300
       175  -9.7171    218.8142     69.9678   3.4721727177e+01   2.2127264712e+01    0.1909795    0.1774927 -53.44 0.0003358913    1.128    0.114
       176  -9.2659    102.2380     69.5399   5.7133635213e+01   4.9163385224e+01    0.2986757    0.2186888 -43.88  0.001111449    1.365    0.267
       177  -9.4282     45.1422     69.4768   7.9906676366e+01   6.0063289270e+01     0.240886     0.197395  87.83 0.0007305295    1.335    0.251
       178  -9.7328    173.4086     68.7203   4.0586634064e+01   3.2159550647e+01    0.2396368    0.2163278 -75.58 0.0003292792    1.148    0.129
       179  -9.0942    157.1688     68.4140   4.3337512532e+01   3.6077941034e+01    0.2586662    0.1996917 -23.02 0.0008283821    1.389    0.280
       180  -8.9293     64.3257     69.1910   7.1028960749e+01   5.7094850212e+01    0.2424824    0.1890948 -37.90  0.001176624    1.361    0.265
       181 -10.6808      2.9855     42.8368   9.7714525467e+01   7.0792187120e+01    0.7185408    0.4609933  -1.94  0.002472256    1.754    0.430
       182 -10.9719      2.3222     66.3827   1.0173377927e+02   6.4703397440e+01    0.4156105    0.2221396 -66.44  0.001573175    1.599    0.375
       183 -11.2414      5.6727     61.2375   9.9182828632e+01   6.5911855499e+01    0.5315185    0.4036883  30.89  0.001450946    1.440    0.306
       184 -10.2313      6.6900     55.9183   9.7731276540e+01   6.7254883698e+01    0.5038821    0.2567716  31.00  0.001095441    2.082    0.520
       185 -11.5567      7.4281     51.3349   9.6433788424e+01   6.8406646583e+01    0.6371776    0.4328215 -16.28  0.003411931    1.656    0.396
       186 -11.9739     13.6595     36.4136   8.8320886362e+01   7.1774613780e+01    0.5304814    0.3057176 -60.44 0.0002614142    1.526    0.344
       187 -10.3399      4.4362     32.1550   9.4116569081e+01   7.3398189280e+01    0.5391926    0.2126946 -64.03  0.001698694    2.067    0.516
       188 -11.1714      7.6682     35.8552   9.2637069376e+01   7.2313281133e+01    0.4962003     0.282052 -61.25  0.002527016    1.507    0.336
       189 -10.9030      9.7007     31.7420   8.9800128904e+01   7.3194132991e+01    0.3197987    0.2855387  10.09 0.0002866609    1.211    0.174
       190  -8.9254    119.9651     67.9621   5.1495619938e+01   4.5271138853e+01    0.2641758    0.1929842 -76.82  0.001147505    1.765    0.433
       191 -10.6293     76.1284     65.5967   6.4916334600e+01   5.5693791907e+01    0.4896235    0.3602488  41.00  0.001562528    1.384    0.277
       192  -9.6498     77.6417     61.7040   6.2895661972e+01   5.6252986398e+01    0.2761614    0.2582669  34.68 0.0007942309    1.104    0.094
       193  -9.0713     11.3788     66.3189   9.6789265682e+01   6.4261620525e+01    0.2503619    0.1029846 -62.19 0.0007163112    2.028    0.507
       194  -9.9057     16.2986     64.3795   9.3731333098e+01   6.4445880516e+01    0.4169871    0.2298484 -14.39  0.001043002    2.405    0.584
       195  -8.7236    197.5748     66.3057   3.6379937092e+01   2.7047145144e+01    0.1802635    0.1249105 -22.52 0.0009230211    1.450    0.311
       196  -9.2075    147.5886     65.9047   4.4421637135e+01   3.8838995490e+01    0.2672346    0.1752753 -41.76 0.0006336609    1.463    0.316
       197 -11.3472    134.4787     63.0337   4.6280440971e+01   4.2590278497e+01     0.772088    0.3896038 -51.82  0.001953599    2.261    0.558
       198  -8.2050    125.3009     66.3239   4.9569698165e+01   4.4274785480e+01    0.1553759    0.1241163  13.13  0.000702814    1.633    0.388
       199  -8.8381    106.3184     66.0144   5.4650488871e+01   4.8930150798e+01    0.2161337    0.2095355 -85.68 0.0005866778    1.013    0.013
       200  -9.6104     82.7070     61.5286   6.0896288953e+01   5.5221690773e+01     0.306229    0.2537775 -13.42 0.0006303116    1.472    0.321
       201  -9.7447    165.8488     63.9779   4.0446993694e+01   3.4692282066e+01    0.2232185    0.2086171  69.47  0.000307684    1.118    0.105
       202  -9.6510     94.4768     59.4985   5.5984584120e+01   5.3014360239e+01    0.3228198    0.2828525   1.43  0.001612914    1.356    0.263
       203  -9.1744    193.4638     62.4105   3.5870938097e+01   2.8500396157e+01    0.2216048    0.1795902  -9.85  0.001220901    1.383    0.277
       204  -9.5428     65.3713     61.9016   6.8038722102e+01   5.8624529460e+01    0.3247193    0.2537159  30.53  0.001594082    1.372    0.271
       205  -9.4458     70.8190     60.8394   6.5324767712e+01   5.7824132259e+01    0.3509665    0.3352212 -52.68   0.00109822    1.032    0.031
       206 -10.3771     54.5613     62.7933   7.3268877143e+01   6.0304184643e+01    0.4577669    0.3133483 -86.81  0.001404519    2.062    0.515
       207 -11.8963     56.2082     56.7797   7.0321514565e+01   6.1455477062e+01    0.4663092    0.3513058  29.01 0.0002759027    1.424    0.298
       208  -8.9630     26.9713     62.9479   8.7512886163e+01   6.3906043157e+01    0.2138416    0.1978544 -73.92 0.0006439979    1.034    0.033
       209  -9.9884    155.1835     61.5071   4.1566668300e+01   3.7686263221e+01    0.2679323    0.2431324 -46.21 0.0002765263    1.052    0.049
       210  -8.7785     43.7858     61.5543   7.8161919044e+01   6.2246727664e+01    0.2309436    0.1660462 -64.05 0.0006424279    1.367    0.269
       211  -8.9077    176.0638     61.0107   3.7933171878e+01   3.2703417848e+01    0.2441532    0.1553391 -57.40  0.001122567    1.705    0.414
       212  -9.5994     30.6562     58.6017   8.4292965636e+01   6.4638676875e+01      0.35837    0.3043108 -65.93  0.001441196    1.111    0.100
       213  -9.9549     35.6565     54.3832   8.0170696908e+01   6.5108341147e+01    0.5360093    0.2738893 -50.39  0.002321407    1.815    0.449
       214  -9.7104     29.8533     52.3667   8.2855120307e+01   6.6299781128e+01    0.4366539    0.1925261  26.96  0.001784958    2.375    0.579
       215 -10.7687     24.8875     54.7788   8.6517817246e+01   6.6211821360e+01    0.4860931     0.262193 -73.88  0.001757914    1.927    0.481
       216 -11.2610     20.2729     53.6153   8.8965545263e+01   6.6931991028e+01    0.4091623    0.3945847 -86.00  0.001432987    1.078    0.073
       217  -8.8949    213.2074     59.9925   3.2856391399e+01   2.4573409264e+01     0.183025    0.1449362 -36.49 0.0003217149    1.080    0.074
       218  -9.9966     97.7658     63.7991   5.6510011683e+01   5.1379791312e+01    0.4003001    0.2718857 -66.71 0.0003780729    1.883    0.469
       219  -9.5259    226.0195     55.6102   3.0449652498e+01   2.2530888860e+01    0.2704147    0.1353803 -41.41  0.001011071    1.645    0.392
       220  -8.4604    190.2974     57.2671   3.4868434125e+01   2.9930687390e+01    0.1300218    0.1063769  21.61 0.0001840892    1.516    0.341
       221 -10.3057    123.5432     53.1672   4.5360151518e+01   4.7057380253e+01    0.7153435    0.3069706 -48.86  0.001777273    2.626    0.619
       222 -10.3147    123.3420     45.0105   4.2361171727e+01   4.8448314225e+01    0.4904447    0.2708234  47.32  0.001998774    1.905    0.475
       223 -10.6504    128.3870     48.4265   4.2508358601e+01   4.6594902637e+01    0.3966666    0.3618724 -77.09 0.0006409643    1.088    0.081
       224  -9.8691    136.9559     49.4458   4.1063899743e+01   4.4216206083e+01    0.3252537    0.2588008  75.12  0.000420609    1.289    0.224
       225  -9.0036    133.6558     49.2763   4.1683868535e+01   4.5096003191e+01    0.2380691     0.193029 -53.60 0.0006360057    1.225    0.184
       226 -10.1425     83.0532     55.4183   5.8400113222e+01   5.6432636419e+01    0.4315993    0.3585822 -26.69  0.001333197    1.321    0.243
       227  -9.2924    136.4992     56.1176   4.3484899967e+01   4.3258311684e+01    0.2297774    0.1494511 -33.90 0.0008817227    1.537    0.349
       228  -9.0359    116.4122     55.8304   4.8123676343e+01   4.8397448864e+01    0.3179106    0.2079714  79.37  0.001295862    2.008    0.502
       229  -8.8647    106.1704     54.8056   5.0556629114e+01   5.1128296389e+01    0.2057887    0.1836003   8.47 0.0003100183    1.304    0.233
       230  -8.9704     92.3223     54.6921   5.4837614359e+01   5.4471870020e+01     0.236141    0.1993204 -42.10  0.001062388    1.190    0.160
       231  -9.4550     95.4886     52.4300   5.2891873816e+01   5.4162257876e+01    0.3228161     0.258425  61.07 0.0007201523    1.273    0.214
       232 -10.3153     96.9131     48.6136   5.0887303369e+01   5.4530631212e+01    0.2916051    0.2452761 -27.80 0.0003137461    1.267    0.211
       233  -8.5350     49.1657     46.6551   6.9827377266e+01   6.4967479640e+01     3.456329    0.4454777  39.02  0.007806267    7.001    0.857
       234 -12.7870     61.7566     44.4578   6.2597838637e+01   6.3160305125e+01    0.4157753     0.344059  51.37 0.0003470093    1.259    0.206
       235 -10.8762     57.5920     45.4941   6.5044813556e+01   6.3736944511e+01    0.2806712    0.2162521 -46.13 7.364667e-05    1.273    0.215
       236 -10.2073     43.2704     52.9793   7.5479018017e+01   6.4415701993e+01    0.4293627    0.2709505 -74.32  0.001881116    2.000    0.500
       237  -9.2338    192.0853     52.9652   3.3443838439e+01   3.0108959197e+01    0.2125452     0.187341 -46.88 0.0005850561    1.009    0.009
       238 -10.2947    140.9998     47.8606   3.9709687671e+01   4.3415584741e+01    0.4851088    0.3051271 -20.99  0.001996973    1.852    0.460
       239  -9.0585    183.5594     52.0296   3.4264562115e+01   3.2213287678e+01    0.2083455    0.1288237 -31.55 0.0004215226    1.498    0.332
       240  -9.7794    145.8724     52.1493   4.0252919361e+01   4.1503275553e+01     0.240977    0.1949066 -65.09  0.000644689    1.273    0.214
       241 -11.0858    110.9907     51.7801   4.8039161579e+01   5.0478268642e+01    0.2897296    0.2552336  48.57  0.001480989    1.152    0.132
       242  -8.7978    198.3073     49.8737   3.1855213424e+01   2.9108248166e+01    0.3321361    0.1606241 -89.58  0.001247126    3.401    0.706
       243 -10.0013     87.2745     48.8659   5.4188920594e+01   5.6777039921e+01    0.4223982    0.2954042  52.49  0.001317982    1.426    0.299
       244  -9.4499    176.1951     47.9309   3.4042768210e+01   3.4533955766e+01    0.4849252     0.278884   1.39  0.001780479    3.316    0.698
       245  -9.2560    155.0025     48.5142   3.7420927272e+01   3.9723436952e+01     0.332734    0.1984767 -62.77  0.001391259    2.004    0.501
       246  -9.8443    150.8068     45.3881   3.7089297830e+01   4.1250942269e+01    0.7427477    0.2086428 -45.18  0.002189775    3.707    0.730
       247 -11.3966     79.9064     43.4789   5.4524784479e+01   5.9495059175e+01     1.189152    0.7291411  52.85  0.005222477    1.645    0.392
       248  -8.5306     57.0161    249.0030   9.8683749540e+01   1.7728027846e+01    0.1261135   0.09199304  41.83            0    1.023    0.023
       249  -9.5133    158.4768    244.0515   7.8218996666e+01   6.6448432754e+00    0.1325297    0.1032667 -26.94  0.000432316    1.511    0.338
       250  -9.2626      1.4970    244.0178   1.0963965080e+02   2.3772274364e+01    0.1366806   0.08704216  76.59 0.0003948783    1.524    0.344
       251  -9.5669     64.9473     27.9817   5.2955426371e+01   6.5628442684e+01    0.2936466    0.2396724  57.01 0.0008064917    1.270    0.212
       252 -10.6819     62.2796     23.0786   5.1388530653e+01   6.7028247920e+01    0.4322536    0.3219038  -4.14  0.001592178    1.648    0.393
       253 -10.9546     87.4788     38.0326   4.9351077552e+01   5.8692575286e+01     0.804287    0.4770064 -67.51  0.002947878    2.832    0.647
       254  -8.5439     44.0078    244.0000   1.0108057680e+02   1.9880880656e+01    0.1831014   0.04792877  28.67 0.0007972315    2.906    0.656
       255 -10.5467     85.9538     22.0699   4.2056250324e+01   6.1535006829e+01    0.3730409    0.2469723  73.14 0.0007177208    1.667    0.400
       256  -9.8947     90.1766     20.8351   4.0184561508e+01   6.0622685446e+01    0.2843345    0.2215568 -16.98 0.0002698412    1.407    0.289
       257  -9.4774     32.0589     47.4285   7.9854316448e+01   6.7257177184e+01    0.2370606    0.1791557 -53.93 0.0008129783    1.229    0.186
       258  -8.6454     22.5676     48.3248   8.6034104089e+01   6.8064625094e+01    0.2233464    0.1286217  21.42 0.0009438673    1.873    0.466
       259  -9.2173    234.9963     47.0924   2.7603047346e+01   2.1796325996e+01    0.1874611    0.1491539 -42.82 0.0004613062    1.038    0.036
       260 -11.3830     62.6439     53.1878   6.5910895215e+01   6.1110691644e+01     1.566425    0.5362456  38.92  0.005152196    3.075    0.675
       261 -10.0426     17.1023     46.6297   8.9051662173e+01   6.8969620320e+01    0.2917556    0.2174701 -55.16 0.0008277132    1.202    0.168
       262  -9.3798    184.9350     45.0412   3.2065854042e+01   3.2824226290e+01    0.3178872    0.1954902   2.51  0.001324819    2.657    0.624
       263 -10.6807    115.1992     45.0493   4.4317148397e+01   5.0551792047e+01    0.3479318    0.2853447  61.92  0.000619586    1.201    0.167
       264  -9.8964    245.3836     44.4851   2.6188282092e+01   2.0139933158e+01     0.224642    0.1640609  71.91  0.001117523    1.659    0.397
       265  -9.8555    108.2716     43.4369   4.5461158654e+01   5.2594737533e+01    0.4835183    0.3121237  46.14  0.001712483    1.598    0.374
       266 -10.3041    103.6973     41.5399   4.5925819408e+01   5.4073049784e+01    0.7213618    0.2657109  48.94  0.002425276    2.705    0.630
       267  -9.3693    200.9513     43.0119   2.9697652029e+01   2.9384636569e+01    0.2811333    0.1838665  59.46  0.001040042    1.693    0.409
       268 -10.3300    203.3707     39.0540   2.8381831520e+01   2.9325762322e+01    0.2508067    0.2018308 -44.27 0.0003725116    1.065    0.061
       269 -10.1251     27.9727     42.8334   8.0710775178e+01   6.8848637299e+01    0.2552142     0.213814 -14.16 0.0006602919    1.271    0.213
       270  -8.5218     34.8613     41.3511   7.5774008712e+01   6.8339812363e+01    0.2730722    0.1943161  16.17  0.001238123    1.582    0.368
       271  -8.4660     31.3031     40.1960   7.7533908940e+01   6.9073514741e+01     0.215125    0.1584325 -61.41            0    1.347    0.258
       272 -10.2956    228.6767     39.6889   2.6330321119e+01   2.3888711858e+01    0.4302309    0.3108438  34.77  0.002522259    1.884    0.469
       273  -8.9220    222.8647     39.7889   2.6825862910e+01   2.5056487470e+01    0.2036018    0.1424831 -53.20 0.0006609728    1.282    0.220
       274  -9.0230    215.9657     41.6101   2.7881610313e+01   2.6281761337e+01    0.3127817    0.1352015 -58.56  0.001287743    2.764    0.638
       275 -10.1972    143.7231     40.9629   3.6789477797e+01   4.3722321435e+01    0.3447543    0.2165356  65.89 0.0007963721    1.588    0.370
       276  -9.1294     24.5122     39.1640   8.1605226300e+01   7.0111202601e+01    0.4581266    0.2097278 -29.66  0.001200766    3.314    0.698
       277 -11.2580    238.4585     37.5535   2.5083372527e+01   2.2210988426e+01    0.3131599    0.1829062 -42.56 0.0004091783    1.353    0.261
       278  -9.5629    166.3107     36.9609   3.1978150803e+01   3.8440444321e+01    0.3389587    0.2554133  19.34  0.001267175    1.766    0.434
       279  -9.1483    158.7679     38.7131   3.3602976445e+01   4.0131566168e+01    0.2913059    0.1596832 -43.66 0.0008539417    1.706    0.414
       280  -9.3772    148.7949     38.3756   3.5028684554e+01   4.2757622564e+01    0.2444036      0.18639 -45.85 0.0005551099    1.250    0.200
       281  -9.0963    129.5037     39.4942   3.8940019488e+01   4.7672448131e+01     0.335398     0.229559  56.67  0.001558974    1.443    0.307
       282  -9.6724    130.9898     36.3337   3.7447082051e+01   4.7732723678e+01     0.461293    0.2544169  80.16  0.001814569    2.191    0.544
       283  -9.3358     93.9543     38.1645   4.7324587939e+01   5.7081065438e+01    0.2555088    0.2154665 -31.58 0.0005378395    1.226    0.184
       284  -9.7898     98.1079     35.1013   4.4714054074e+01   5.6530254417e+01    0.3329544    0.2353345  63.28  0.000731358    1.413    0.292
       285  -8.9503    245.6824     38.3123   2.4754925425e+01   2.0766688953e+01     0.128455   0.06930313 -51.42 0.0004453706    1.644    0.392
       286  -9.1152    187.4810     37.4584   2.9570566059e+01   3.3182818511e+01    0.3445233    0.1591005 -58.41  0.001371635    2.504    0.601
       287  -9.3643    177.7034     37.1566   3.0599912473e+01   3.5579156230e+01    0.3031126    0.1916325 -69.23  0.001246489    1.737    0.424
       288 -11.7726    107.4791     29.8810   3.9913049201e+01   5.4876807744e+01    0.5333621     0.393104  -0.20  0.002481183    1.747    0.427
       289  -9.1977    244.7315    242.3775   6.3754970596e+01  -2.5938578183e+00    0.1330969   0.06609002  18.61 0.0009386754    1.583    0.368
       290  -9.8559    119.2011     31.1297   3.7782026263e+01   5.1593859569e+01    0.2828099     0.240558  31.36 0.0007964215    1.325    0.245
       291  -8.5157    174.9715     41.9272   3.2389680365e+01   3.5636523889e+01    0.1656715    0.1519671 -61.01 0.0009499494    1.022    0.021
       292  -9.5729    153.7840     37.0434   3.3788735459e+01   4.1639091053e+01     0.239033    0.2021433 -88.64 0.0004434729    1.172    0.147
       293 -10.1259    139.9252     35.3170   3.5430533946e+01   4.5504678414e+01    0.4845625    0.2188763 -27.48  0.001604156    2.285    0.562
       294  -9.2605    142.4918     30.4919   3.3247206915e+01   4.5458756421e+01    0.2476668    0.2021999  41.31 0.0005294822    1.375    0.273
       295 -10.2384    146.3205     28.9053   3.2083005235e+01   4.4643046785e+01    0.3257819    0.2474951  73.02 0.0003599788    1.292    0.226
       296  -9.3307     56.6063     36.2249   6.1179852002e+01   6.5838669713e+01    0.2540596    0.2091557 -25.90  0.000325655    1.268    0.212
       297  -9.4338     51.0240     32.8260   6.2330623378e+01   6.7573243492e+01    0.2930475    0.2082371  54.82  0.001209121    1.611    0.379
       298  -9.7939     55.3688     32.2408   5.9761071999e+01   6.6855705508e+01    0.2724736    0.2378233 -23.74 0.0007090198    1.160    0.138
       299  -9.5584    224.5663     34.3271   2.5330258206e+01   2.5327967694e+01    0.2743833    0.2328594   9.96  0.001752415    1.496    0.332
       300  -9.6427     60.8739     34.6989   5.8343580489e+01   6.5282898514e+01    0.2527542    0.1997327 -46.62   0.00020783    1.288    0.224
       301  -8.7347    242.4670     34.4975   2.4093686143e+01   2.1781944410e+01    0.1225128   0.09614937 -40.90 3.317657e-05    1.010    0.010
       302  -9.2772    145.6057    242.1796   8.0418353134e+01   8.4317796463e+00    0.1357436   0.09572743 -22.45 0.0005280615    1.676    0.403
       303  -8.8929     46.9301     34.4859   6.5431114267e+01   6.7976429119e+01    0.2464522    0.1377347  42.50 0.0004312947    1.841    0.457
       304  -9.9275    158.4847     32.4614   3.1567388363e+01   4.1014000195e+01     0.309653    0.2251433 -63.95 0.0007286873    1.377    0.274
       305 -10.1330    133.3531     31.5068   3.5171164425e+01   4.7761921408e+01     0.272647    0.2334124 -71.99 0.0004959287    1.154    0.133
       306  -8.6560     64.8095     31.7790   5.5038169657e+01   6.4994921034e+01    0.1908944    0.1700612 -77.60 0.0004077051    1.306    0.235
       307 -10.1381     23.9550     31.4993   7.8809012641e+01   7.1964821282e+01     0.483078    0.2159792  23.29  0.002032655    2.466    0.594
       308  -9.7528    189.6375    240.4206   7.2214517245e+01   3.4266455042e+00    0.2019428   0.07949422  34.35   0.00112774    2.101    0.524
       309  -9.2186     47.4862     26.6039   6.0887784753e+01   6.9431804424e+01    0.5235739    0.2028851  43.87  0.001265051    2.612    0.617
       310  -9.5038    247.8753    239.3105   6.2883300212e+01  -2.6198815840e+00    0.1418619   0.09885066  20.70  0.001173377    1.425    0.298
       311 -10.1069     44.4475     15.3336   5.5641177849e+01   7.1995368914e+01    0.7815739     0.213024  41.06  0.002432245    4.059    0.754
       312 -11.1449     37.5831     26.6455   6.6906847896e+01   7.1141467273e+01    0.4884647    0.3174154  48.92  0.002326594    1.775    0.436
       313  -9.4010     32.2405     27.1086   7.0735076053e+01   7.1860927214e+01      0.48342    0.3636351 -30.42  0.002538024    1.334    0.250
       314 -10.3185    248.3698     30.3611   2.2772343281e+01   2.1120684247e+01    0.2304743    0.1902275 -27.19 0.0008301956    1.195    0.163
       315 -10.1361    233.7889     30.7647   2.3797408584e+01   2.3861610753e+01     0.285181    0.1902071  60.34 0.0005706716    1.807    0.447
       316  -8.4427    203.4418     31.5077   2.6330698874e+01   3.0195448620e+01    0.1355259    0.1122668 -49.48  0.000227004    1.030    0.029
       317  -9.1872    178.8035     30.7972   2.8545177243e+01   3.6086833862e+01    0.1950802     0.192454  45.08 0.0005680334    1.175    0.149
       318  -9.0581     32.6570     19.0287   6.5722547961e+01   7.3424585774e+01    0.3079769    0.2217899 -30.84  0.001354788    1.381    0.276
       319  -9.0522    189.9143     28.8983   2.6843734543e+01   3.3624097934e+01    0.2473669    0.1811796 -86.15  0.001353171    1.401    0.286
       320  -9.9949    221.5804     26.1538   2.3505820221e+01   2.6843855933e+01     0.362912    0.1940134 -59.03  0.001600215    1.804    0.446
       321  -9.6167    221.5040     21.2188   2.2269910327e+01   2.7381521687e+01    0.2758956    0.1995303  61.00 0.0005843953    1.640    0.390
       322  -9.0738    211.6799     26.7799   2.4391648437e+01   2.8896094532e+01    0.1903702    0.1455963 -19.05  0.001119572    1.377    0.274
       323  -9.1386    101.5048     26.3825   3.9825461124e+01   5.6932697408e+01    0.2485217    0.2044024  55.35 8.927819e-05    1.178    0.151
       324  -9.3153    221.4484    237.4895   6.6597341380e+01   2.2508795046e-01    0.1038824   0.07198677   7.07 0.0002064973    1.008    0.008
       325  -8.7052    109.4713     23.4641   3.6611494998e+01   5.5206887744e+01    0.2334975    0.2112932  77.31  0.000150411    1.062    0.058
       326  -8.4646     82.9518     25.9931   4.5026215950e+01   6.1725480644e+01    0.1689844    0.1615453  53.76 0.0009362724    1.016    0.015
       327 -10.0293    188.0217    235.5119   7.1856227223e+01   4.1735543691e+00    0.1651951   0.08341745  29.24 0.0006690956    1.566    0.362
       328  -8.7416    228.5478    234.2001   6.5043799913e+01  -1.9514503001e-01    0.1334584   0.07505085 -12.58  0.000582436    1.596    0.373
       329  -9.3576     31.8691    232.0881   1.0309096011e+02   2.3122958387e+01    0.1755879    0.1091434  50.44 0.0003860008    1.217    0.178
       330 -10.1260    173.3593     22.2950   2.6500516142e+01   3.8417123652e+01    0.4076957    0.2831807  12.57  0.001974289    2.028    0.507
       331  -8.5766    169.5297     23.4089   2.7256389618e+01   3.9259523938e+01    0.2659553    0.1585384 -45.42  0.000528948    1.522    0.343
       332  -9.5920    189.0936     23.0292   2.5220644502e+01   3.4478174956e+01    0.3370965    0.2421819 -72.74  0.001849497    1.360    0.264
       333  -8.5967    178.5228    231.4771   7.3005081951e+01   5.7858621754e+00     0.112607   0.08332873  14.51 1.186967e-05    1.021    0.021
       334  -8.5605    163.2762    226.9940   7.5228264273e+01   8.2474858574e+00    0.1218323   0.09637468 -27.17  0.000678922    1.437    0.304
       335  -9.5176    246.6766     23.6691   2.1351133505e+01   2.2127100688e+01    0.1300763   0.09294737 -45.91 0.0004514843    1.094    0.086
       336  -9.0816    230.2627     23.0039   2.2155412349e+01   2.5389098628e+01    0.1762142    0.1354406 -39.39  0.000512077    1.071    0.066
       337  -8.6864    207.4668    226.4988   6.7323949414e+01   2.9356187073e+00     0.109483   0.07873824   8.09 0.0001187226    1.025    0.025
       338  -9.5630    153.6133     22.3258   2.8758463492e+01   4.3498277099e+01     0.284029    0.2274404 -15.42 0.0009246363    1.396    0.284
       339  -8.9138    224.2525    225.0335   6.4412020428e+01   1.2009498594e+00    0.1441603    0.1057306  -1.65 0.0006098122    1.104    0.094
       340  -9.0269    122.2764     22.3022   3.3530443537e+01   5.1903644609e+01    0.4318042     0.189447 -55.90  0.001476764    2.985    0.665
       341  -9.1819    116.9320     22.5643   3.4659345746e+01   5.3315101487e+01     0.217931     0.200634   6.43  0.001186796    1.220    0.180
       342 -10.6823     50.5938     21.9801   5.6455809776e+01   6.9668182913e+01    0.2983944    0.2398448 -22.61 0.0006372499    1.277    0.217
       343  -8.1549    132.2765    225.3102   8.1111645696e+01   1.2472618530e+01    0.1124703   0.08036277   2.30 0.0003011187    1.557    0.358
       344  -8.3507    125.4719    225.5088   8.2530594517e+01   1.3324566113e+01    0.1195343     0.093435  29.95 0.0004146085    1.029    0.028
       345  -8.7584    109.7170    221.9567   8.5454755454e+01   1.5924809854e+01    0.1576359    0.1328363  35.91 0.0002995124    1.087    0.080
       346  -9.3422     89.3499    221.0069   8.9791199765e+01   1.8672715125e+01     0.221625    0.1483877  17.36 0.0008438795    1.567    0.362
       347  -9.1843    174.9489    217.8984   7.1813691602e+01   7.9592363589e+00    0.1736243    0.1385356  11.56 0.0005461398    1.046    0.044
       348  -7.7987     56.2166    216.7183   9.6889284969e+01   2.3379820605e+01    0.1130666   0.07092497  56.36            0    1.424    0.298
       349  -8.5473    117.9369    211.7790   8.2529809120e+01   1.6516822942e+01    0.1637008   0.08441029  31.37 0.0003771042    1.594    0.373
       350  -8.2579    242.4888    209.5681   5.9336247617e+01   8.1032535200e-01      0.10462   0.07546673   0.85 0.0001227062    1.038    0.037
       351  -9.3707     26.6106     21.5802   7.1738864741e+01   7.3801569984e+01    0.2571132     0.148918 -49.96  0.001086266    1.646    0.392
       352  -8.8462     12.3003     22.4017   8.3967603878e+01   7.5199738346e+01    0.2142788    0.1312221 -29.86  0.001091849    1.684    0.406
       353  -8.7029    144.4200     20.8879   2.9457499129e+01   4.6099437393e+01    0.2055493    0.1661184 -74.14  0.000468164    1.198    0.165
       354  -9.6986    139.8823     20.2776   2.9868611865e+01   4.7384318704e+01    0.2558833    0.2137642 -19.87 0.0003190731    1.302    0.232
       355  -9.4122    193.3581     20.1369   2.4025997331e+01   3.3778202733e+01    0.2013274    0.1721184 -58.40 0.0002892846    1.026    0.026
       356  -8.3407    124.0023    205.9955   8.0491242804e+01   1.6652699498e+01    0.1417009    0.1191566  27.97            0    1.022    0.022
       357  -8.4135     12.6958    203.3102   1.0630195669e+02   3.0343798796e+01    0.1282983   0.06090922  53.19 0.0002734709    1.610    0.379
       358  -9.3901    220.5110     13.9485   2.0501453878e+01   2.8330140982e+01    0.1904497    0.1703569  42.15  0.000563517    1.442    0.307
       359  -8.6789    109.4503    196.5343   8.2556673993e+01   2.0366060468e+01     0.128514    0.1094396  27.15 8.126137e-05    1.067    0.063
       360  -8.7295    218.4485    195.4973   6.0802638631e+01   5.2087565549e+00    0.1123399   0.08784006   1.29 7.909976e-05    1.053    0.050
       361  -8.8247      6.6273    194.6884   1.0748204789e+02   3.2618232724e+01    0.1076949   0.08700793 -34.27 0.0007033028    1.779    0.438
       362  -9.3944    179.0351     13.4581   2.3240380166e+01   3.7933947429e+01    0.2739128    0.1787806 -88.37 0.0007122678    1.524    0.344
       363  -8.7619    144.0884     16.4674   2.7880439948e+01   4.6672669138e+01    0.2092149    0.1362913  77.54 0.0003986181    1.488    0.328
       364  -8.7017    248.0000    190.9831   5.5578921707e+01   2.1596872805e+00    0.1622913   0.04982182 -31.38 0.0005649012    2.847    0.649
       365  -9.6323    227.7133     13.9946   2.0110358825e+01   2.6822091902e+01    0.1800368    0.1371087 -41.71 0.0008089541    1.066    0.062
       366  -8.6814     84.5052     14.9982   3.8751343665e+01   6.2816990432e+01    0.3022431    0.1333549  35.44  0.001010732    3.266    0.694
       367  -9.9992    217.2908     17.5403   2.1606811226e+01   2.8656081151e+01    0.2210316    0.2026574 -14.94 0.0005031002    1.277    0.217
       368  -8.9398     28.8691    178.4819   1.0113539051e+02   3.4147510915e+01    0.1759147    0.1106156  31.64 0.0002903614    1.441    0.306
       369  -9.5418    232.2095     15.3992   2.0207635601e+01   2.5768866297e+01    0.2363308    0.1040018 -86.87  0.001122324    2.706    0.631
       370  -9.4868      5.2425    175.0207   1.0724033588e+02   3.6979228737e+01     0.154693   0.09196872  89.47 0.0008769356    1.581    0.367
       371 -10.2403     17.5694    173.9189   1.0391272783e+02   3.6219439945e+01    0.2363743    0.1432859  71.77  0.001323965    1.477    0.323
       372  -9.1875    184.2226     13.0102   2.2685383838e+01   3.6704509231e+01    0.1866963    0.1825564  -2.94 0.0005922144    1.221    0.181
       373 -10.4246     13.5797    165.8297   1.0462205062e+02   3.8416985997e+01     0.291644    0.1696215  -4.42  0.001359224    2.667    0.625
       374 -12.1295     21.1530    150.4104   1.0154531068e+02   4.1461423112e+01     1.077499    0.4091955  31.38   0.00469976    2.261    0.558
       375  -9.9242     24.0145    163.4836   1.0154933878e+02   3.8056279118e+01    0.2243054    0.1766015  88.26 0.0004111992    1.216    0.178
       376  -9.8843     20.7547    158.6129   1.0218838160e+02   3.9508313574e+01    0.3134421    0.1624289 -77.23 0.0008686271    1.873    0.466
       377 -10.0272      9.9260    157.4936   1.0527808712e+02   4.0672610898e+01    0.2585143    0.1453221  69.27  0.001337961    1.563    0.360
       378 -10.0171      2.1708    156.0484   1.0746203265e+02   4.1583353646e+01    0.3680674    0.1514176 -79.10  0.001229053    2.275    0.560
       379  -9.1252    248.5635    153.5088   4.8928847645e+01   6.3569485347e+00    0.1147704   0.08683641 -12.07 7.613705e-05    1.010    0.010
       380  -8.7252     91.7927     13.6318   3.6063785225e+01   6.1084861182e+01    0.2021967    0.1342176  80.22 0.0006503194    1.629    0.386
       381 -11.6350     39.3524    160.0567   9.6860967127e+01   3.7337211530e+01    0.6835356    0.3162389  59.00  0.002766061    2.172    0.540
       382 -12.4580     34.2992    157.9018   9.8161326731e+01   3.8385215154e+01     1.078867    0.3659593  53.56  0.004078952    2.886    0.654
       383  -9.3237     58.3110    150.8964   9.0254572510e+01   3.7302568949e+01    0.2219374    0.1656594  48.19  0.000354843    1.209    0.173
       384  -9.9731     10.9501    147.0348   1.0446568988e+02   4.3127208582e+01    0.2609656    0.1606786 -22.51 0.0009673859    2.436    0.589
       385  -9.9040      4.0994    145.1002   1.0647829504e+02   4.4094965199e+01    0.3328034    0.2182271 -49.73  0.001829588    1.844    0.458
       386  -8.7525    236.5121    145.5709   4.9078627584e+01   8.9944288078e+00    0.1182954   0.09429827 -11.52  0.000126213    1.010    0.010
       387 -10.2125     28.9578    144.1180   9.8640943396e+01   4.2303221168e+01    0.2109125    0.1973254  80.95   0.00131862    1.119    0.106
       388  -9.3289    239.5113    140.9953   4.7768198935e+01   9.1428391570e+00     0.178824   0.09653504 -28.60 0.0004335692    1.539    0.350
       389  -9.8663      1.6807    139.6669   1.0701063502e+02   4.5594141870e+01    0.2868204    0.1354771  82.30   0.00135993    1.902    0.474
       390 -10.1982     40.9730    137.5467   9.4112581704e+01   4.2716046562e+01    0.3283359    0.2278215  46.34  0.001239164    1.321    0.243
       391  -9.7008     34.5418    136.8244   9.6149851171e+01   4.3590340209e+01    0.3196938     0.176214  46.44 0.0009083867    1.651    0.394
       392 -10.3733     15.9467    132.8653   1.0199684283e+02   4.6297339335e+01    0.5081469    0.1590523 -74.86  0.001221615    2.837    0.648
       393  -9.4817     18.8591    126.4458   1.0050690265e+02   4.7718484218e+01    0.2450116    0.1731258 -75.43 1.308903e-05    1.332    0.249
       394 -10.1185     60.6120    133.4932   8.7133163900e+01   4.1305489482e+01    0.4716947    0.3008655 -43.91  0.001725936    1.861    0.463
       395 -10.6608      7.7706    133.1354   1.0473737863e+02   4.6831018680e+01    0.4898174    0.2664901  -2.93   0.00226276    2.609    0.617
       396  -8.5550    225.5346    133.5175   4.8243202208e+01   1.2229454713e+01    0.1232886    0.1025993 -18.08 6.468211e-05    1.048    0.046
       397  -8.7784     23.3003    131.9343   9.9445393657e+01   4.5921864478e+01    0.2362357    0.0804567  75.59 0.0007033742    4.322    0.769
       398 -10.3644     41.5159    129.4689   9.2966221946e+01   4.4727510584e+01    0.2866502    0.2418107  38.95 0.0002527559    1.178    0.151
       399  -8.5082     50.6540    127.3069   8.9540657169e+01   4.4195014572e+01    0.1581098   0.09724724  60.50 0.0007043052    1.698    0.411
       400  -9.5684     33.7669    126.7689   9.5324275682e+01   4.6263616170e+01    0.2035608     0.145032  61.33 0.0008986905    1.325    0.245
       401  -8.9642     12.8075    126.1895   1.0259630813e+02   4.8253335337e+01    0.2005696    0.1554232  66.58 0.0003862891    1.137    0.120
       402  -9.7407     38.8441    124.1275   9.3219343115e+01   4.6414509512e+01    0.3112859    0.2052549 -78.60  0.001540532    1.461    0.315
       403  -9.9187    241.4538    124.3728   4.4175927259e+01   1.0968941445e+01     0.192616    0.1554584  45.10 0.0007721745    1.535    0.349
       404  -8.9277     46.9919    134.4716   9.1755783566e+01   4.2804794248e+01    0.2083716    0.1340883  30.90 0.0004449754    1.532    0.347
       405 -10.8108     28.8359    118.4505   9.6140538843e+01   4.8934279536e+01    0.5916139    0.2704916  77.41  0.002261808    2.656    0.623
       406 -11.3143     21.3615    118.7257   9.8917018276e+01   4.9531361002e+01    0.5809903    0.4074547  82.31  0.001762204    1.322    0.243
       407 -10.7439     21.1533    109.0404   9.7996048335e+01   5.2117357880e+01    0.4258015    0.2528162 -64.52  0.001173301    1.577    0.366
       408 -10.1130      7.7331    121.1609   1.0404737223e+02   4.9907535327e+01    0.2300634    0.1598479  45.26  0.000605528    1.349    0.259
       409  -9.8150     45.9952    119.9424   9.0088904591e+01   4.6685726714e+01    0.3319386    0.1759372  45.57  0.001445773    1.812    0.448
       410  -9.2129     93.9344    119.0672   7.3728599500e+01   3.9544835974e+01    0.2276411    0.2190318   5.62 0.0008923013    1.136    0.120
       411  -9.8550    221.2522    119.5471   4.5913647076e+01   1.4851298042e+01    0.2302696    0.1996302 -16.84 0.0006492151    1.040    0.038
