#   1 NUMBER                 Running object number                                     
#   2 MAG_AUTO               Kron-like elliptical aperture magnitude                    [mag]
#   3 X_IMAGE                Object position along x                                    [pixel]
#   4 Y_IMAGE                Object position along y                                    [pixel]
#   5 X_WORLD                Barycenter position along world x axis                     [deg]
#   6 Y_WORLD                Barycenter position along world y axis                     [deg]
#   7 A_WORLD                Profile RMS along major axis (world units)                 [deg]
#   8 B_WORLD                Profile RMS along minor axis (world units)                 [deg]
#   9 THETA_WORLD            Position angle (CCW/world-x)                               [deg]
#  10 FWHM_WORLD             FWHM assuming a gaussian core                              [deg]
#  11 ELONGATION             A_IMAGE/B_IMAGE                                           
#  12 ELLIPTICITY            1 - B_IMAGE/A_IMAGE                                       
         1 -13.2299    185.0711     32.8072   6.3684418785e+01   3.4744041311e+01     1.041021    0.9846871  36.39  0.003284392    1.047    0.045
         2 -13.6147    191.7383     23.5046   5.9833577992e+01   3.4071518013e+01     1.003729    0.8257117   3.18  0.001313482    1.337    0.252
         3 -10.2750     58.9915      2.4848   8.3471696660e+01   6.8308750204e+01    0.1968049    0.1197227  40.33    0.0010456    1.629    0.386
         4  -9.7715     39.6716      2.3457   9.2916167400e+01   7.1338728782e+01    0.1107828    0.1006061 -54.87 0.0007050289    1.752    0.429
         5 -10.8338    222.4844    205.7961   9.9015940284e+01   1.7271116232e+00    0.3793783    0.2021959  13.85  0.001935984    2.105    0.525
         6 -10.7291    211.0742    250.3236   1.0770505817e+02  -1.4421724738e+00     0.358014    0.1087562  36.31  0.001410407    2.404    0.584
         7 -17.2086    122.0221    237.4258   1.2203952589e+02   1.2760074275e+01     5.349364     1.530906  38.15   0.02412225    2.646    0.622
         8  -9.1069     82.4933    194.5103   1.2547927757e+02   2.5264067886e+01     0.120153   0.09919664  57.20 0.0008105038    1.018    0.017
         9 -10.3251    207.6112    183.7705   9.7859537505e+01   6.9314592949e+00    0.2713092    0.2199768 -34.76  0.001065269    1.509    0.337
        10 -10.8491    210.7924    181.2276   9.6788833791e+01   6.7357148664e+00    0.3743644    0.2448443  -5.35  0.002033194    1.647    0.393
        11 -10.2377     77.4861    184.3974   1.2550187060e+02   2.7845273934e+01    0.2182485    0.1865148  67.76 0.0008419616    1.048    0.046
        12  -9.6027     99.2712    180.5880   1.2021619723e+02   2.5588157974e+01     0.205826    0.1729356 -74.54 0.0007103976    1.287    0.223
        13 -10.9277     82.1578    179.6065   1.2393680339e+02   2.8172074035e+01    0.2736908    0.2356836  -9.12 0.0007453492    1.594    0.373
        14 -11.8960     85.9642    174.0025   1.2240613085e+02   2.8773660027e+01    0.4101137     0.341167  -8.48  0.002521015    1.671    0.401
        15  -9.1468     53.3301    181.5381   1.3049776026e+02   3.1312693880e+01    0.1441665    0.1090474  25.40 0.0007459407    1.562    0.360
        16 -11.9397    103.7633    171.3564   1.1794198650e+02   2.6727053664e+01    0.8102002    0.2772287  45.10  0.003194444    2.699    0.630
        17 -11.8876    119.9477    173.1619   1.1448256470e+02   2.3833729602e+01    0.3649473    0.2821417  55.54  0.001744459    1.278    0.218
        18 -11.9640    114.9064    173.6363   1.1570637404e+02   2.4550759732e+01    0.4749947    0.3166996 -65.65  0.002560619    1.761    0.432
        19 -10.9853    197.6930    174.9628   9.8122474540e+01   9.9059296819e+00    0.4323003    0.2986918 -39.88  0.001879585    1.704    0.413
        20 -11.8155    135.7838    171.4757   1.1061663527e+02   2.1509590498e+01    0.5445734    0.2182498  33.34  0.002120332    2.588    0.614
        21  -9.7100    203.1565    167.4705   9.5600974076e+01   1.0027583348e+01    0.2425129    0.1810803 -50.34  0.001304568    1.899    0.473
        22 -10.0675     72.7457    166.9637   1.2463101370e+02   3.1967631756e+01    0.2671157    0.1700368  26.77  0.001467684    1.770    0.435
        23 -12.0980     98.1654    156.7389   1.1711592581e+02   3.0558849009e+01    0.6558887    0.4356759 -25.76  0.003140423    2.346    0.574
        24  -9.5964    119.8609    155.8469   1.1167331167e+02   2.7253326953e+01    0.1933646    0.1596326  67.69  0.001079403    1.333    0.250
        25 -11.1131    129.0619    140.4516   1.0651798747e+02   2.8764708112e+01    0.3169488     0.220966  17.04  0.001209873    1.792    0.442
        26 -11.5534    134.0000    146.4734   1.0650446097e+02   2.6641943865e+01    0.8497362    0.2222683 -51.13  0.002525726    4.494    0.777
        27  -9.5546    174.8051    148.6504   9.7558315618e+01   1.8411725365e+01    0.2052667    0.1257628  49.06 0.0006280309    1.705    0.413
        28 -11.0044    143.7979    144.8900   1.0382950567e+02   2.5124523468e+01    0.3026787    0.2306895  37.97 0.0008144163    1.221    0.181
        29 -11.7440    108.7756    140.9300   1.1176247698e+02   3.2222509078e+01    0.5411722    0.3360881 -32.69  0.002453739    2.136    0.532
        30 -11.4815     97.0769    141.7042   1.1493656586e+02   3.3939862445e+01    0.2555978    0.2457007  15.07 0.0004104383    1.132    0.117
        31 -10.2610    107.0274    202.3555   1.2119867367e+02   2.0459682078e+01    0.4191673    0.1671807  36.25  0.001487261    2.178    0.541
        32  -9.8247     80.0146    139.8484   1.1911896586e+02   3.6856529713e+01    0.2318042    0.1351275  58.85  0.001087326    1.986    0.497
        33 -12.7265    117.5982    129.2867   1.0715241410e+02   3.3187711796e+01    0.7919703    0.5408319 -20.69  0.003570018    2.060    0.515
        34 -11.7606    135.1567    125.0041   1.0164890911e+02   3.0776940245e+01    0.7690046    0.2082579 -48.01  0.002261397    3.987    0.749
        35 -10.5595    126.0704    127.6940   1.0459127760e+02   3.1966243840e+01    0.3346946    0.2169794  74.12  0.001310539    2.751    0.637
        36 -10.0399    110.9168    119.8596   1.0691670016e+02   3.6424401500e+01    0.2358375      0.20893 -46.36  0.000463013    1.139    0.122
        37 -11.1025    104.6132    129.0122   1.1056757995e+02   3.5504073048e+01    0.5594813    0.3851016  82.91  0.001994868    2.154    0.536
        38 -10.4404     67.8442    116.0309   1.1854064720e+02   4.3917078646e+01    0.3046341    0.1608047 -54.24 0.0009738553    1.763    0.433
        39  -9.7577    167.7848    112.5489   9.0685876131e+01   2.6369943119e+01    0.3487578    0.2633899 -81.28  0.001475066    2.192    0.544
        40 -11.5012    120.3376    111.0001   1.0225499672e+02   3.6601306494e+01    0.3652493     0.268624  75.17  0.001644376    1.959    0.490
        41  -9.3825    205.3920    110.1597   8.2238164072e+01   1.8487426057e+01    0.2536581    0.1896664  31.91 0.0007385567    1.311    0.237
        42 -11.8748    136.8149    199.2703   1.1462094314e+02   1.6465238950e+01    0.4103101     0.319965  43.67  0.001043238    1.108    0.097
        43 -11.8208    194.5972    194.0945   1.0217896750e+02   7.7077477907e+00    0.6540456    0.5663359  59.17  0.004145233    1.638    0.390
        44 -10.1527    134.4989    103.4602   9.6500164594e+01   3.5336537550e+01    0.4629949     0.149372 -41.00  0.001440135    3.200    0.687
        45 -10.9067     66.5192    104.1970   1.1671163174e+02   4.6850033008e+01    0.3143806    0.2069053 -48.31  0.001446272    1.458    0.314
        46 -11.4750    173.0372     72.0116   7.8130004944e+01   3.2253630169e+01    0.5584179    0.3837857 -83.88  0.001337779    2.497    0.600
        47  -8.5934    106.9826     61.9973   9.1915406352e+01   4.9436534807e+01    0.1777109    0.1644218  16.25 0.0003408701    1.058    0.055
        48 -13.1093    174.0314     43.1414   6.8838006250e+01   3.6309015526e+01    0.8500344     0.789579   8.43  0.001191354    1.075    0.070
        49  -9.3500    101.9533    194.2621   1.2131826730e+02   2.2633509291e+01    0.2490044    0.1443304  79.61  0.001180823    2.740    0.635
        50 -19.4797     19.9121    142.9319   1.3499850304e+02   4.2599395901e+01       17.422     2.341312 -76.62    0.0470763    7.510    0.867
        51  -9.6509    216.5228     18.4936   5.5440409096e+01   2.8326022371e+01     0.134389    0.1282693 -60.41 4.056487e-05    1.002    0.002
        52  -8.9437     91.3996    194.2051   1.2355873368e+02   2.4125897418e+01    0.1561541    0.1080518 -89.51 0.0004291931    1.674    0.403
