#   1 NUMBER                 Running object number                                     
#   2 MAG_AUTO               Kron-like elliptical aperture magnitude                    [mag]
#   3 X_IMAGE                Object position along x                                    [pixel]
#   4 Y_IMAGE                Object position along y                                    [pixel]
#   5 X_WORLD                Barycenter position along world x axis                     [deg]
#   6 Y_WORLD                Barycenter position along world y axis                     [deg]
#   7 A_WORLD                Profile RMS along major axis (world units)                 [deg]
#   8 B_WORLD                Profile RMS along minor axis (world units)                 [deg]
#   9 THETA_WORLD            Position angle (CCW/world-x)                               [deg]
#  10 FWHM_WORLD             FWHM assuming a gaussian core                              [deg]
#  11 ELONGATION             A_IMAGE/B_IMAGE                                           
#  12 ELLIPTICITY            1 - B_IMAGE/A_IMAGE                                       
         1 -14.6504    193.1518    156.5651   5.0112110519e+01   1.1007115906e+01     8.295308     4.774765  47.80   0.01986722    1.781    0.438
         2 -11.9982    203.5626     15.8411   1.2295051581e+01   3.1829120929e+01     1.992565    0.8972494 -29.69  0.008906186    2.351    0.575
         3 -15.5302    180.8239     79.5288   3.3187372534e+01   2.8536579336e+01     3.663533      1.58802 -41.29  0.006142242    2.289    0.563
         4 -16.6774    220.3689     77.2675   2.5657261019e+01   1.9293547748e+01     9.306434     3.658671 -52.30   0.03039274    3.407    0.706
         5 -13.3155    236.6609     19.9088   9.9214972728e+00   2.3514552206e+01    0.8418075    0.4837191 -33.36  0.002442943    1.761    0.432
         6 -14.9098    231.1123     32.0212   1.3235887725e+01   2.3308104702e+01     2.269246     1.512311 -39.38  0.006702145    1.440    0.305
         7 -13.6084    212.8427     24.3540   1.3386476593e+01   2.8588009121e+01     2.347879     0.220031 -37.72  0.006672247    5.260    0.810
         8 -14.2436    249.4016     26.8383   1.0293035485e+01   1.9848018174e+01     1.666694    0.4618185 -30.21  0.005974784    3.897    0.743
         9 -13.1669    134.4560     21.9729   2.4744566019e+01   4.8562567388e+01    0.8730728    0.2816399 -21.62  0.002905502    3.897    0.743
        10 -10.6726    239.9075      7.1251   6.8441767170e+00   2.4228195029e+01    0.2231884    0.1765809 -22.84  0.001055331    1.580    0.367
        11 -11.3221    248.9837      5.0831   5.7298133905e+00   2.2458867126e+01    0.3892171    0.2190197 -65.30  0.001404393    1.611    0.379
        12 -16.5238    240.9904     61.9740   1.9102364544e+01   1.6944814191e+01     6.444947     2.120437  64.76   0.01974097    3.425    0.708
        13 -11.5029    119.0597      5.6311   2.2121380356e+01   5.3847790980e+01    0.2456301    0.1913854   8.74 0.0007656203    1.373    0.272
        14 -11.3954    181.3932      3.6700   1.1637994251e+01   3.8576612829e+01    0.4768071    0.3174449 -83.17  0.002372608    1.530    0.347
        15 -11.4371    159.1292      2.1158   1.4048464132e+01   4.4312986026e+01    0.2955636    0.2224378  21.53  0.001664466    1.588    0.370
        16 -10.4360    236.6581      3.0768   6.2266930739e+00   2.5385981083e+01    0.1946628    0.1424488 -78.42 0.0004530101    1.165    0.142
        17 -14.2035     30.4664    150.3236   8.9139227590e+01   4.0242015102e+01    0.6801748    0.5940555 -64.97  0.001876506    1.190    0.160
        18 -14.2943     41.2141    146.6162   8.5970408060e+01   4.0037548617e+01    0.8653365    0.7674483 -56.30  0.002600899    1.214    0.176
        19 -10.0779    209.1392    163.8796   4.8435613746e+01   6.4107925745e+00    0.2073063    0.1975871 -77.59 0.0006480094    1.330    0.248
        20 -12.5508    249.0133    158.0771   3.9799892073e+01  -1.0896515179e-01    0.4299356    0.2875498 -27.75  0.002300724    1.347    0.257
        21 -14.2168    201.4991     84.7390   3.0708665196e+01   2.2545405873e+01     2.271499    0.6095002  43.00  0.005282582    6.286    0.841
        22 -11.2760    133.5211    145.1408   6.1422008513e+01   2.5935452085e+01     1.157861    0.2614275 -53.74  0.002456862    7.014    0.857
        23 -12.6305     67.3808    144.2066   7.8726613840e+01   3.7477733282e+01    0.8390971    0.4293341  57.43  0.002743559    2.483    0.597
        24 -12.1693     58.4372    144.1945   8.1113129068e+01   3.8639057656e+01     0.513281    0.3645678  42.14  0.002831465    1.490    0.329
        25 -11.2694    249.1024    192.0117   4.6745398237e+01  -5.2493267794e+00     0.199521    0.1630962  -0.48 0.0004030553    1.008    0.008
        26 -10.9132    209.3368    142.0314   4.3493887096e+01   1.0334656655e+01    0.2473477    0.1819578 -16.85  0.001181533    1.477    0.323
        27 -11.6848    209.6150    187.3202   5.3213678742e+01   2.2734158181e+00    0.3838694    0.2466935 -65.86  0.001512009    3.513    0.715
        28 -12.8321    223.1480    128.1114   3.7624378167e+01   9.9372317883e+00    0.4634086    0.3855941  73.00   0.00242102    1.520    0.342
        29 -12.2883    215.2332    126.6161   3.8725995576e+01   1.1893229021e+01    0.3717322    0.3010993  -8.54 0.0005734857    1.335    0.251
        30 -10.5852    136.0000    129.9326   5.7273214229e+01   2.8844728042e+01    0.4206788   0.08926244 -46.69  0.001029237    4.736    0.789
        31 -12.1138    160.8065    128.4479   5.0748658206e+01   2.3743335455e+01    0.4642805    0.3724175 -52.16  0.001809393    1.315    0.240
        32 -11.1259    135.0535    120.9993   5.5309536674e+01   3.1038533931e+01    0.5428319    0.2092591 -46.78  0.001797903    2.610    0.617
        33 -11.3576    223.3657    190.4022   5.1147917715e+01  -6.9735772569e-01     0.306786    0.2388659  52.78  0.001700134    1.652    0.395
        34 -12.7143    218.2536    186.2908   5.1312400851e+01   8.6837277868e-01    0.4850706    0.4116171 -77.66  0.002651599    1.920    0.479
        35 -11.7538    130.2615     87.8752   4.7471343123e+01   3.9158744480e+01    0.3258049    0.2656293 -22.68 0.0008159892    1.299    0.230
        36 -12.7232    132.0650     94.7418   4.8996749795e+01   3.7354027843e+01    0.8341259    0.3336777 -42.37  0.002846085    2.496    0.599
        37 -11.6733    136.0229     99.7992   4.9384566014e+01   3.5415594672e+01    0.3914096    0.3309114 -48.60 0.0008888398    1.212    0.175
        38 -11.3050    134.6750    111.5015   5.2944129739e+01   3.3210526877e+01    0.6426641    0.1870957 -42.30  0.001829769    3.514    0.715
        39 -11.6548    134.3592    104.8557   5.1231234127e+01   3.4715050821e+01     0.608537     0.214959 -44.45  0.001930911    2.831    0.647
        40 -10.5448    177.1846    113.1515   4.3085120857e+01   2.3108054477e+01    0.2376724    0.2187469   3.10 0.0005179821    1.138    0.121
        41 -12.5060    204.3944    110.3704   3.6787452056e+01   1.7283243941e+01    0.5576332    0.3311227  34.64  0.001905803    2.019    0.505
        42 -12.5336    123.5564     96.8533   5.1928302602e+01   3.8769998194e+01    0.5090172    0.3632314 -53.04  0.001784237    1.502    0.334
        43 -12.9875    126.6523    104.9597   5.3336842760e+01   3.6366894769e+01    0.8193056    0.5625156 -72.15  0.003321935    2.163    0.538
        44 -12.4180    117.5449    102.1757   5.5110235237e+01   3.8881462954e+01    0.7845952    0.5372685  35.14   0.00353455    1.528    0.345
        45  -9.7381    138.9539    109.0000   5.1152132469e+01   3.2808443697e+01    0.2662121   0.09003376  45.51  0.000804367    2.956    0.662
        46 -11.8046    150.5614    104.2001   4.6896646603e+01   3.1176086080e+01    0.3918743    0.3151476  28.75 0.0006705532    1.334    0.250
        47 -14.6702    236.0090     71.9679   2.2104645433e+01   1.6549391897e+01    0.9541938    0.6156296  69.57  0.001925005    1.714    0.416
        48 -13.0304    162.1094     99.6792   4.2876104975e+01   2.9364906107e+01    0.7751434    0.4227946  38.20  0.002951508    2.031    0.508
        49 -12.3577    144.4122     94.6008   4.5738433993e+01   3.4566439977e+01    0.4574277    0.3767469  59.29  0.001034555    1.294    0.227
        50 -11.2409    113.4595     95.3608   5.4372818412e+01   4.1193238186e+01    0.2716849     0.241793  26.42 0.0002206529    1.145    0.127
        51 -12.5143    142.5669     89.2312   4.4648834380e+01   3.6069049883e+01    0.7194301    0.2080356  43.11   0.00200495    3.697    0.730
        52 -11.0303    141.0261     85.4864   4.3934012930e+01   3.7163538782e+01    0.2454193    0.1528905  47.38 0.0007148531    1.584    0.369
        53 -10.3557    127.4065     77.0376   4.4941065123e+01   4.1923250547e+01    0.5364823    0.1233932 -45.23  0.001307943    5.183    0.807
        54 -12.1190    212.9537    176.3575   5.0323600332e+01   3.4981835706e+00     0.390383    0.2938803  -0.60 0.0006528376    1.406    0.289
        55 -11.4670    191.5998     46.2463   2.1962923048e+01   3.1054004789e+01    0.3485411    0.2408938 -46.82  0.000859176    1.465    0.317
        56 -11.2423    124.4939     37.5303   3.2470811437e+01   4.9063293526e+01    0.2540177    0.1409476 -13.33  0.001038077    2.370    0.578
        57 -10.6142    189.9736     35.7238   1.9308855122e+01   3.2875100482e+01    0.2275058    0.1969721 -41.03 0.0007057415    1.205    0.170
        58 -10.6096    159.8393     27.4630   2.1710804586e+01   4.1583004244e+01    0.4038633    0.1462723 -36.71  0.001396721    2.809    0.644
        59 -11.7623    249.3554    247.4525   5.6689307716e+01  -1.2326167443e+01    0.2791466    0.2105393 -17.74  0.001997426    1.390    0.281
        60 -11.0817    143.9836     20.4285   2.2334864377e+01   4.6373432086e+01    0.2070932    0.1874574 -14.38 0.0005510514    1.222    0.181
        61 -10.0766    119.1750     16.8315   2.6241585090e+01   5.2769486570e+01    0.1907368    0.1414079  30.95 0.0003524266    1.288    0.223
        62 -10.1021    189.9488     14.9943   1.3669377570e+01   3.5307758860e+01    0.2125299    0.1840391 -88.90 0.0007941252    1.051    0.049
        63 -10.1194    154.2966     15.3245   1.8860577010e+01   4.4310095963e+01    0.2359124    0.1412342  37.23  0.001110148    1.823    0.451
        64  -9.9760    214.5148     14.0326   1.0684474237e+01   2.9362296245e+01    0.1793553    0.1282885 -30.97 0.0008754385    1.531    0.347
        65  -9.6049    246.2789     13.2986   7.6565602078e+00   2.2135284997e+01    0.1085596   0.09442952  43.03            0    1.539    0.350
        66 -12.2858    192.1227    194.0835   5.8078657214e+01   4.3695006778e+00     1.001941    0.5354561 -63.50  0.002998605    5.890    0.830
        67 -10.5245    205.3290    200.3230   5.6585268493e+01   9.2081516939e-01    0.1434341   0.09712433   7.20 0.0005358769    1.695    0.410
        68 -11.5789    249.3780    197.7669   4.7817029618e+01  -6.1062290060e+00    0.2828392    0.1993901  48.21  0.001038143    1.880    0.468
        69 -11.7932    249.2237    174.4743   4.3199563800e+01  -2.6849304125e+00    0.2568976    0.1698601 -28.79  0.001330257    1.377    0.274
        70 -14.5362    160.9991     90.9029   4.0668816958e+01   3.1343440823e+01     1.486858    0.9644644 -46.38 0.0007350958    1.601    0.375
        71 -13.9487     14.0010    155.4892   9.3617845680e+01   4.0499609967e+01     1.426018    0.8548957 -80.66  0.008580372    1.352    0.260
