#   1 NUMBER                 Running object number                                     
#   2 MAG_AUTO               Kron-like elliptical aperture magnitude                    [mag]
#   3 X_IMAGE                Object position along x                                    [pixel]
#   4 Y_IMAGE                Object position along y                                    [pixel]
#   5 X_WORLD                Barycenter position along world x axis                     [deg]
#   6 Y_WORLD                Barycenter position along world y axis                     [deg]
#   7 A_WORLD                Profile RMS along major axis (world units)                 [deg]
#   8 B_WORLD                Profile RMS along minor axis (world units)                 [deg]
#   9 THETA_WORLD            Position angle (CCW/world-x)                               [deg]
#  10 FWHM_WORLD             FWHM assuming a gaussian core                              [deg]
#  11 ELONGATION             A_IMAGE/B_IMAGE                                           
#  12 ELLIPTICITY            1 - B_IMAGE/A_IMAGE                                       
         1 -13.2900    195.8899     41.3526   4.5110863839e+01   3.1625326555e+01     1.141534     1.019072 -55.73  0.003536975    1.080    0.074
         2 -13.9396    204.4176     32.3807   4.1703636432e+01   3.0750539654e+01     1.906053     1.235647  -3.87  0.001333015    2.397    0.583
         3 -12.4603    231.3500      6.0158   3.2956632635e+01   2.7659637371e+01    0.6624231    0.4787089 -23.67  0.004186747    1.655    0.396
         4 -12.5296    225.5540      5.6361   3.3314488162e+01   2.8946760661e+01    0.6574622    0.4563735 -32.53  0.004103249    1.519    0.342
         5 -12.1039     42.7233      7.0722   7.0611144667e+01   6.8979689651e+01    0.5707709    0.2813342  -9.40  0.002720088    2.524    0.604
         6 -11.1777     59.3255      2.4612   6.1436258961e+01   6.6764668606e+01    0.3105875    0.1908868  36.60   0.00183239    1.383    0.277
         7 -11.7469    188.8747    209.3587   8.6256669937e+01   3.3291766318e+00    0.7187467    0.3359274  37.81  0.003252007    1.982    0.495
         8 -11.5915    139.8381    247.2099   1.0205481718e+02   4.7484675320e+00    0.6642925    0.3466998 -56.68  0.003478109    2.452    0.592
         9 -18.2194     18.6656    207.8264   1.2272449805e+02   2.8092977024e+01     13.01224      4.92214 -80.65   0.06373517    2.414    0.586
        10  -8.5839    149.0262    176.2656   8.8800709850e+01   1.6606491969e+01     0.198108     0.185212  30.77 0.0003189036    1.044    0.042
        11  -9.6352    146.5731    172.2106   8.8581831206e+01   1.7919605479e+01    0.3389617     0.245224 -76.09  0.001127448    2.002    0.501
        12 -11.1197    193.8177    196.2898   8.2841060388e+01   4.7448424603e+00      1.03865    0.5350961 -60.15  0.003336432    5.160    0.806
        13 -11.1845     48.6683    171.2088   1.1279197937e+02   3.3254186317e+01    0.5449157    0.3054709 -41.84  0.002196035    2.301    0.565
        14 -10.4667     45.2250    169.2347   1.1340897710e+02   3.4104735816e+01    0.2845971     0.215028 -71.39 0.0006641244    1.185    0.156
        15 -11.6114     72.6433    172.2151   1.0694736459e+02   3.0049265092e+01    0.4386318    0.2691658 -46.00  0.001822375    1.808    0.447
        16 -11.4126     76.8416    167.6271   1.0520534546e+02   3.0568452322e+01    0.3810229     0.293201 -39.32  0.001719894    1.491    0.329
        17  -8.6918    194.4850    172.0379   7.7861141906e+01   9.0065812098e+00     0.216946     0.135921 -37.77 0.0007465424    1.555    0.357
        18 -14.9997     72.1335    149.0435   1.0346931492e+02   3.5738216688e+01     5.981493     2.964296  72.54   0.01635071    5.551    0.820
        19  -9.3865    240.4630    169.4967   6.8563621626e+01   1.4496786316e+00     0.135153    0.1128906 -14.85 -1.715451e-05    1.023    0.022
        20  -9.4932    137.5316    168.3016   8.9979082101e+01   2.0437424620e+01    0.3192233     0.246939  60.66  0.001562491    1.506    0.336
        21 -10.8419     53.3396    157.7144   1.0987618726e+02   3.5972847420e+01    0.2667001    0.2203654 -81.48 0.0008860583    1.095    0.087
        22 -11.5296     91.4089    152.2431   9.8762932797e+01   3.2136442613e+01    0.7078346     0.465223 -31.39  0.002147292    1.948    0.487
        23 -10.4826     63.5732    155.1321   1.0678225306e+02   3.5365179297e+01    0.2496894    0.2118972  19.01 0.0007205258    1.388    0.279
        24 -10.7530    133.7279    145.1825   8.6050524545e+01   2.6351458034e+01     1.140859    0.3293424 -54.60  0.002882541    4.924    0.797
        25  -8.8859    112.8129    151.0670   9.2784464901e+01   2.8857261842e+01     0.227807    0.1991599  79.79 0.0005427571    1.282    0.220
        26  -9.3042    174.8713    149.1412   7.7069029384e+01   1.7274517948e+01    0.2292178    0.2136189 -78.42  0.000852332    1.288    0.224
        27  -9.1983    143.5516    145.2786   8.3587440634e+01   2.4403659283e+01    0.3056338    0.1505537 -51.01  0.001147253    2.124    0.529
        28 -10.2966    104.4856    138.1653   9.2327513229e+01   3.3390226478e+01    0.5637857    0.3252015 -26.73   0.00207996    2.703    0.630
        29 -10.9887    112.2184    205.5930   1.0230043724e+02   1.6710931236e+01    0.3103836    0.2452828  48.99   0.00101938    1.177    0.151
        30 -11.6201     91.9898    138.0017   9.5810240850e+01   3.5513190457e+01    0.2910798    0.2585725 -37.18 0.0003357078    1.146    0.127
        31 -10.2178    105.8761    130.8176   9.0297488951e+01   3.4906642247e+01    0.3650647    0.3279391 -65.05  0.001130198    1.140    0.123
        32 -10.4746    135.5115    128.2949   8.1608815788e+01   2.9828323258e+01    0.7109504    0.1544037 -48.58  0.001722732    4.899    0.796
        33 -10.3421    112.9302    129.2007   8.7936427198e+01   3.4013177216e+01    0.4703607    0.3298565   5.61  0.001875847    2.038    0.509
        34 -11.1412    119.0219    123.4793   8.4853746789e+01   3.4198609070e+01    0.6365691    0.4464039  -4.60  0.002353278    2.099    0.524
        35  -9.1374    160.8531    128.2851   7.5307599003e+01   2.4533589826e+01    0.3167121    0.1829469 -55.37  0.001226622    2.093    0.522
        36 -12.9253    107.8923    203.8086   1.0302453184e+02   1.7757784737e+01      1.18885     0.662558 -31.80  0.001290323    3.053    0.672
        37 -10.3354    100.1589    125.1668   9.0629301656e+01   3.7258926069e+01    0.3106854    0.2540491 -19.32 0.0008949567    1.382    0.276
        38 -10.1603    135.0582    118.3732   7.9213890143e+01   3.2136964542e+01    0.6257206    0.1723101 -42.79   0.00174838    3.621    0.724
        39  -9.2155    108.8678    118.4580   8.6475482374e+01   3.7285915780e+01    0.2213256     0.200402 -40.39 0.0004682206    1.057    0.054
        40  -9.9870    231.2852    113.7918   5.7845710346e+01   1.2477373589e+01    0.2704623    0.2480924 -15.44  0.000738649    1.089    0.082
        41  -8.6713    167.7708    112.7481   6.9726803345e+01   2.6237623085e+01    0.2600827     0.185045 -78.95  0.001047329    2.265    0.558
        42 -11.5346    117.8864    108.7888   8.1369593739e+01   3.7768930029e+01    0.7550225    0.6233139 -45.89   0.00375346    1.184    0.155
        43  -9.3669    205.4954    110.1217   6.1371701409e+01   1.8434719405e+01    0.3015092    0.2171019  38.20  0.001359422    1.525    0.344
        44  -7.9937    142.6817    109.2999   7.4825496893e+01   3.2485953502e+01    0.1554261    0.1273666 -86.54 0.0005089442    1.619    0.382
        45  -9.6736    134.3277    106.0027   7.6092995736e+01   3.4987314257e+01    0.4821354    0.1481308 -50.71  0.001259153    4.317    0.768
        46  -9.1956     91.9648    183.9362   1.0388164170e+02   2.4555726145e+01    0.2104624    0.1932533  70.04 0.0005741854    1.029    0.028
        47  -9.9077    149.4508    187.5650   9.0838763007e+01   1.4185254121e+01    0.2918981    0.2441068  82.27 0.0008840174    1.567    0.362
        48  -9.8450     59.2089     96.9894   9.6815673078e+01   5.0162778503e+01    0.2889592    0.2021681  44.67  0.001065411    1.687    0.407
        49  -8.7325     93.1039    205.4924   1.0658989784e+02   1.9630510467e+01     0.192496    0.1208946  38.45 0.0004907046    1.491    0.329
        50 -10.4609     51.8571     89.6464   9.7571533582e+01   5.2764172545e+01     0.338417    0.1914934  43.18 0.0006002244    2.166    0.538
        51  -9.0923    157.2094     82.3363   6.3676649459e+01   3.4534893714e+01    0.2094329    0.1895902 -12.37 0.0004857659    1.142    0.125
        52  -8.4617    184.6589     76.7130   5.6488104375e+01   2.9026663704e+01    0.1498447    0.1146681  21.29 0.0002936391    1.641    0.391
        53  -9.5181     61.0823     68.5399   8.8143804846e+01   5.6251528756e+01    0.2495878    0.2205711  59.45  0.001444315    1.524    0.344
        54 -11.1863    171.7194     60.1874   5.4218373225e+01   3.4780697188e+01    0.4683022    0.2374043 -42.36  0.001943936    1.978    0.494
        55 -12.8696    184.3837     50.4229   4.9266566859e+01   3.3151128572e+01    0.9019327     0.813118 -16.51 0.0008370188    1.220    0.180
        56  -9.0581     81.8576    195.0615   1.0781456707e+02   2.3513072341e+01    0.2433287    0.1786401 -45.01  0.001336555    1.589    0.371
        57 -10.1848    120.1951    194.3154   9.8770062333e+01   1.7800066824e+01    0.2535677    0.2147302  88.56 0.0005528718    1.341    0.254
        58 -10.2524     99.3746    180.8859   1.0161014305e+02   2.4118716616e+01    0.2706785     0.252319  36.33 0.0007201055    1.109    0.098
        59 -10.0274    188.8487    177.1181   8.0092589422e+01   9.0885564393e+00    0.4362848    0.3668439 -66.78  0.002320715    1.627    0.385
        60  -9.1299    189.6744     15.0927   3.8965184969e+01   3.6172221926e+01    0.2055372    0.1435612 -51.84 0.0007262823    1.421    0.296
        61 -10.9228     59.8039    220.4562   1.1539549190e+02   2.0978477796e+01    0.3697752     0.282193  36.63  0.002167388    1.361    0.265
        62 -12.2207    160.6870    215.0121   9.3106186746e+01   6.9934393922e+00     1.004632    0.3296455  29.92  0.003188205    4.054    0.753
        63  -9.5136     90.1337    212.9961   1.0817870155e+02   1.8484858603e+01    0.3297059    0.1902262  60.74  0.001272089    1.909    0.476
