#   1 NUMBER                 Running object number                                     
#   2 MAG_AUTO               Kron-like elliptical aperture magnitude                    [mag]
#   3 X_IMAGE                Object position along x                                    [pixel]
#   4 Y_IMAGE                Object position along y                                    [pixel]
#   5 X_WORLD                Barycenter position along world x axis                     [deg]
#   6 Y_WORLD                Barycenter position along world y axis                     [deg]
#   7 A_WORLD                Profile RMS along major axis (world units)                 [deg]
#   8 B_WORLD                Profile RMS along minor axis (world units)                 [deg]
#   9 THETA_WORLD            Position angle (CCW/world-x)                               [deg]
#  10 FWHM_WORLD             FWHM assuming a gaussian core                              [deg]
#  11 ELONGATION             A_IMAGE/B_IMAGE                                           
#  12 ELLIPTICITY            1 - B_IMAGE/A_IMAGE                                       
         1 -12.9657      2.7246     13.0686   1.2509452541e+02   7.2467249540e+01     1.956992    0.3521845 -51.89  0.008323279    3.318    0.699
         2 -13.5651    205.2610      8.8662   6.4905131171e+01   3.2569516515e+01     1.594059     1.111831  42.52  0.008238386    1.663    0.399
         3  -9.3421     33.0000     10.9730   1.0849376801e+02   7.0234611790e+01    0.1920667   0.05590371 -41.35 0.0008072602    2.976    0.664
         4 -13.3068    190.7594     27.5165   7.2027378898e+01   3.4284875451e+01     1.418845     1.231607  54.26  0.006351148    1.167    0.143
         5  -9.6890    173.5294    248.5170   1.2496091011e+02   1.6722517900e+00     0.117723   0.08907252  41.51 4.888796e-05    1.011    0.011
         6 -11.3349    140.9875    249.9011   1.3075968845e+02   6.6803395911e+00    0.6868562    0.1693886  38.06  0.002361787    4.566    0.781
         7 -11.5636    126.3146    249.5836   1.3326251629e+02   9.0145987485e+00    0.4450756    0.2766136 -71.12  0.002841246    2.108    0.526
         8 -10.5844     98.7657    249.4022   1.3796297300e+02   1.3168950891e+01    0.2739441    0.1802061  50.69  0.001350768    1.156    0.135
         9 -10.3509    102.5027    248.0420   1.3720783859e+02   1.2835672044e+01    0.2718444    0.1653563  76.96  0.001142464    1.798    0.444
        10  -8.5842     67.4781    250.5765   1.4326125389e+02   1.7289903122e+01    0.1087132   0.07563687  61.93 7.610163e-05    1.011    0.011
        11 -13.9981      2.9884    244.3152   1.5300012735e+02   2.5625760560e+01      7.11462    0.5346832 -79.85   0.01918016   13.632    0.927
        12 -12.0733     21.5980    200.9243   1.4794825444e+02   3.1545353749e+01    0.6826268    0.1394054  48.83  0.003085506    3.329    0.700
        13 -12.1194     14.2091     65.5320   1.3479728335e+02   6.1465949468e+01     2.077031    0.4233572 -43.70  0.001455026    5.201    0.808
        14 -12.1188      6.5394     62.9560   1.3709711494e+02   6.2461802770e+01    0.5037295      0.40071 -39.27   0.00123184    1.263    0.208
        15 -10.5479    173.2399    222.1748   1.2146777172e+02   5.3271360162e+00    0.3537858    0.2855596  71.18  0.002254112    1.520    0.342
        16 -11.9240     12.4933    241.5966   1.5147131316e+02   2.5140331481e+01    0.4293552    0.1714778  76.91  0.002094284    2.097    0.523
        17  -9.9526     82.2041    243.0458   1.4025171451e+02   1.6531294091e+01    0.2027553    0.1255466  51.77 0.0007466631    1.226    0.184
        18  -8.7361    152.5217    213.0384   1.2405875851e+02   1.0363611079e+01    0.1567183     0.128398 -56.77 0.0003404334    1.463    0.316
        19 -14.2328      2.2930    152.3704   1.4864062895e+02   4.3162273845e+01     2.414048     1.042092 -75.71   0.01387858    1.783    0.439
        20 -11.2372     65.6545    199.7632   1.3952485310e+02   2.6614706417e+01    0.2904611    0.2231302 -52.21  0.001332394    1.778    0.438
        21  -9.7021    192.8370    194.5961   1.1336940207e+02   5.9491292704e+00    0.5481031    0.2912621 -64.38  0.001734869    6.046    0.835
        22  -8.8357     51.3593    197.1713   1.4208389846e+02   2.8957079626e+01    0.1595596    0.1143447  80.26 0.0006459547    1.126    0.112
        23  -9.8105     43.8784    192.3510   1.4314139941e+02   3.0816324517e+01    0.2226823     0.211963 -16.59 0.0008372068    1.711    0.415
        24 -11.5203     71.3034    191.6997   1.3759435993e+02   2.7460015540e+01    0.2521827    0.2121326 -74.78 0.0004833569    1.293    0.227
        25  -8.5990    104.1428    180.2117   1.2926212966e+02   2.4834358193e+01    0.1734229     0.131055  71.55 0.0002588043    1.250    0.200
        26 -10.6196     80.6798    178.7689   1.3415317084e+02   2.8796826070e+01    0.2249755    0.1969291  87.16 0.0004102069    1.117    0.105
        27 -13.0097     67.9264    176.7165   1.3666456122e+02   3.1030681626e+01    0.4676304    0.2767399 -46.81  0.001677049    2.350    0.575
        28 -11.3798     87.7451    169.2473   1.3134414768e+02   2.9762964666e+01    0.5746153    0.5046935  72.99  0.003639637    1.062    0.058
        29  -8.6335    250.6834    171.6939   9.8639425650e+01  -1.3480819472e+00    0.1337277   0.08851409  10.32 0.0003049065    1.628    0.386
        30 -10.1299    191.7490    155.2163   1.0594775314e+02   1.2709159878e+01    0.5556651    0.3648393 -84.19  0.002047442    3.504    0.715
        31 -11.3049     32.7344    141.3552   1.4070215286e+02   4.2962079133e+01    0.2523111     0.214636 -47.59  0.001730287    1.474    0.322
        32 -11.0029     32.6788    155.9136   1.4223578359e+02   3.9734555416e+01    0.4240714    0.1243758 -71.41  0.001797033    2.846    0.649
        33  -9.6554     73.9648    242.9678   1.4164301509e+02   1.7669056454e+01    0.1872921   0.09473424  65.45 0.0006779702    1.753    0.429
        34  -9.7050     99.6348    153.0653   1.2609533545e+02   3.1391626721e+01    0.2812456    0.2365353 -73.51 0.0007770036    1.146    0.127
        35 -11.7645     88.4746    152.3900   1.2866198289e+02   3.3352644350e+01    0.2718709    0.2468998 -51.75 0.0005598315    1.293    0.226
        36 -12.2183     67.1999    143.9633   1.3256500392e+02   3.8364227946e+01     0.710036    0.4637584  74.73  0.003764619    1.634    0.388
        37 -10.3401     26.8533    151.3268   1.4311386075e+02   4.1313493374e+01      0.19107    0.1242254  62.53  0.001201073    1.423    0.297
        38  -8.8336    102.4934    148.5434   1.2462492121e+02   3.1910767132e+01    0.2266221    0.1238194 -47.51 0.0005683706    2.019    0.505
        39  -8.8904    181.2665    144.1432   1.0567798514e+02   1.6973468040e+01    0.2699003    0.1939889  77.80 0.0009782471    1.994    0.498
        40  -9.4290    110.5755    137.7469   1.2060480395e+02   3.2891357900e+01    0.3286881    0.2395661 -22.72  0.001091073    2.112    0.527
        41 -11.4066     25.1181    137.4011   1.4212130962e+02   4.4564779489e+01    0.2882959    0.2000718  71.61  0.001852634    1.335    0.251
        42  -9.0086     87.1302    136.8928   1.2637540070e+02   3.7073380099e+01    0.2110953    0.1651866  77.60 0.0004826842    1.295    0.228
        43 -11.0466     58.3174    134.1794   1.3334876172e+02   4.1759417951e+01    0.5972078    0.2482647 -79.72  0.002182427    3.424    0.708
        44 -10.3148     98.1585    135.1061   1.2322325208e+02   3.5675745307e+01    0.2539769    0.2179793 -48.42 0.0004596756    1.262    0.208
        45 -11.6920     34.0228    133.3822   1.3945508520e+02   4.4636473419e+01    0.3767325    0.2406107  64.13  0.002122518    1.578    0.366
        46 -12.5725     40.6505    234.6256   1.4665510367e+02   2.3271338876e+01    0.5322079    0.2871355 -55.24  0.000792224    2.869    0.651
        47  -9.1140    107.6481    124.2128   1.1853426774e+02   3.6470493883e+01    0.1881078    0.1691521 -55.80 0.0003361894    1.117    0.104
        48 -10.0510     53.5705    119.3239   1.3225993270e+02   4.5770473569e+01     0.260056    0.1154936 -69.54  0.001142059    2.130    0.531
        49 -14.5105     46.7437    227.3251   1.4517646926e+02   2.3832676118e+01     2.877485     1.686669  38.35  0.008366976    1.838    0.456
        50  -9.6178    163.7753    128.0289   1.0573845297e+02   2.3985647596e+01    0.7038045    0.4172209  89.64  0.001878323    5.602    0.821
        51 -10.1651    168.0336    113.2177   1.0111883077e+02   2.5952641555e+01    0.3528355    0.2927256 -79.33 0.0007625176    1.429    0.300
        52  -9.2871    203.2272    111.7580   9.3539789982e+01   1.7901023328e+01    0.2136109    0.1774286  13.07  0.001058818    1.370    0.270
        53  -9.6005     34.9832     93.2271   1.3315499108e+02   5.3727682807e+01    0.2668547    0.1858657  45.48 0.0009828765    1.658    0.397
        54  -8.1128    184.6918     77.3429   8.7802926813e+01   2.8511629099e+01    0.1638222     0.118926 -68.45 0.0003822719    1.693    0.409
        55  -9.1967    155.8817     75.8286   9.3371362817e+01   3.6062430602e+01    0.2198461    0.1876789 -80.07 0.0005945954    1.335    0.251
        56  -9.9659     31.7121     61.9066   1.2745359118e+02   6.0926411260e+01    0.2634925    0.2073868  40.97 0.0008683121    1.561    0.359
        57 -14.6951      7.7808    207.4746   1.5073453420e+02   3.1643986399e+01     8.319653     4.687302  89.00    0.0255356    1.378    0.274
        58 -10.6247      1.9459     51.9324   1.3663857098e+02   6.5007366471e+01    0.2555244    0.1562733 -79.08   0.00159668    1.639    0.390
        59  -9.8754    249.6467    248.4904   1.1224937431e+02  -9.9862174031e+00    0.1679386   0.09487074 -24.66  0.001101939    1.971    0.493
        60 -10.1881     81.5266    248.6555   1.4080454767e+02   1.5718773522e+01    0.2253971    0.1405613  69.70  0.001547087    1.374    0.272
        61  -9.7156     46.4567    248.9503   1.4654109647e+02   2.0177450388e+01    0.2398878    0.1008864  60.24  0.001288712    1.811    0.448
