#   1 NUMBER                 Running object number                                     
#   2 MAG_AUTO               Kron-like elliptical aperture magnitude                    [mag]
#   3 X_IMAGE                Object position along x                                    [pixel]
#   4 Y_IMAGE                Object position along y                                    [pixel]
#   5 X_WORLD                Barycenter position along world x axis                     [deg]
#   6 Y_WORLD                Barycenter position along world y axis                     [deg]
#   7 A_WORLD                Profile RMS along major axis (world units)                 [deg]
#   8 B_WORLD                Profile RMS along minor axis (world units)                 [deg]
#   9 THETA_WORLD            Position angle (CCW/world-x)                               [deg]
#  10 FWHM_WORLD             FWHM assuming a gaussian core                              [deg]
#  11 ELONGATION             A_IMAGE/B_IMAGE                                           
#  12 ELLIPTICITY            1 - B_IMAGE/A_IMAGE                                       
         1  99.0000     40.4317     38.0206   8.5358315826e+01   6.4451480621e+01     1.213085    0.6419792 -43.92  0.006288793    1.763    0.433
         2 -11.3766    129.4778     19.2504   4.9898669496e+01   5.0103246044e+01    0.2854439    0.2391584 -15.18 0.0006196251    1.258    0.205
         3 -11.3845     92.3619     21.8591   5.9630487963e+01   5.8071627142e+01    0.6343691    0.4479499  76.11  0.003215747    2.200    0.545
         4 -10.4347    185.7605     21.6395   4.1927809932e+01   3.6364603884e+01    0.3243589     0.163591 -50.54  0.001477859    2.111    0.526
         5 -11.6201     13.2788      3.1830   8.2231112930e+01   7.2788073821e+01    0.4941962    0.3489975  39.98  0.003237974    2.260    0.557
         6 -10.5218     16.3503     18.8207   8.8448602025e+01   7.0195598363e+01    0.3950855     0.149407 -47.47  0.001726123    2.654    0.623
         7 -12.2722     20.3155     18.0998   8.6079006006e+01   6.9927776140e+01    0.4193029    0.3949338 -37.06  0.003098555    1.654    0.395
         8 -12.1831     24.0961      8.5145   7.9374811691e+01   7.0901139023e+01    0.3503526    0.1812644 -24.16 0.0003249554    1.663    0.399
         9 -11.2860     20.8025      3.9876   7.8631039309e+01   7.1870884537e+01    0.3413257    0.1974815 -32.03  0.001423822    1.573    0.364
        10 -11.6569     27.5964      3.5883   7.4976567725e+01   7.1099334731e+01     0.311589    0.2105006  42.49 0.0005867906    2.049    0.512
        11 -11.5069     32.2366      1.8063   7.1769427283e+01   7.0693317926e+01    0.2219335    0.1619916  20.74 0.0005433474    1.241    0.194
        12 -10.0810     50.3384     13.9307   7.0244404761e+01   6.6641136984e+01    0.3959372    0.2298052 -29.30  0.002241806    1.643    0.392
        13 -10.3301     45.1841     14.4047   7.2613799105e+01   6.7362101979e+01    0.2569922    0.2197577  58.45  0.001496112    2.005    0.501
        14 -11.4670     39.8704     12.1556   7.3787968942e+01   6.8407856945e+01    0.4818309     0.330543 -38.36  0.002811782    1.768    0.434
        15 -10.9691     31.1602     12.8289   7.8136385690e+01   6.9473112927e+01    0.3756007    0.1445781 -34.31  0.001429382    2.298    0.565
        16 -11.4581      9.9556     15.5252   9.0309290310e+01   7.1280087071e+01    0.2724972    0.1546765 -23.73 0.0005071763    1.442    0.307
        17 -11.9314      4.4728     18.0144   9.4405555027e+01   7.1293276957e+01    0.3563218    0.3440151 -27.10  0.001884387    1.589    0.371
        18 -10.5145      5.2759     13.6618   9.2013231124e+01   7.1948975518e+01    0.1860142    0.1551679 -29.08 0.0004936282    1.323    0.244
        19 -10.5658     64.0617     14.2648   6.5200483082e+01   6.4329804191e+01    0.3609071    0.2166926   8.70  0.001904161    1.779    0.438
        20 -11.4603     78.9113     10.6261   5.8662242529e+01   6.1947307629e+01     0.501543    0.1957319  42.25 0.0004926256    2.239    0.553
        21 -11.8255     73.5971      5.0482   5.7701773168e+01   6.3496179630e+01    0.6927698    0.2870132 -18.57  0.002307562    2.485    0.598
        22 -11.5377    105.3831     19.5255   5.5264544382e+01   5.5554392113e+01    0.6089165    0.3088314  37.42  0.001082298    1.925    0.481
        23 -10.7573     26.4707     14.1504   8.1076217936e+01   6.9851719773e+01     0.198044    0.1365287  -5.29 0.0002476622    1.213    0.176
        24 -10.9852    157.3091     12.9647   4.3165623827e+01   4.4066716963e+01    0.3262199    0.3015824  67.51  0.002075799    1.004    0.004
        25 -10.1102    119.0300     12.5458   4.9541464277e+01   5.3166780367e+01    0.2326843    0.1926174 -33.03 0.0009469982    1.343    0.255
        26 -10.3364    117.5052      9.4836   4.8707264364e+01   5.3785927255e+01    0.2233291       0.1917 -44.97 0.0007106306    1.365    0.267
        27 -10.3650    100.0136     12.9756   5.3950321828e+01   5.7370031616e+01    0.3672928    0.1879086  20.01   0.00158791    2.502    0.600
        28  -9.2854     55.2860      9.7058   6.6209856704e+01   6.6330481102e+01    0.1806504    0.1328526  -7.10 0.0004536502    1.184    0.156
        29 -10.4020    131.9877     10.6184   4.6404726073e+01   5.0323272059e+01    0.2709737    0.2515417  -2.16 0.0008628516    1.148    0.129
        30 -11.1389    127.0035      8.0243   4.6376824912e+01   5.1713541006e+01    0.4728774    0.2247192 -22.80            0    2.240    0.554
        31 -10.2706    130.4989      6.4832   4.5222490717e+01   5.1022566293e+01    0.2860264    0.1826794 -12.47  0.001249978    1.750    0.429
        32 -12.2496    240.0101      9.5846   3.3838350945e+01   2.5470422941e+01    0.4275045    0.2032415  81.01  0.001598676    2.137    0.532
        33 -10.2489    176.0467     11.1045   4.0171598718e+01   3.9744644122e+01     0.196503    0.1785625  75.40 0.0005054518    1.031    0.030
        34  -9.5564     59.4323      9.9721   6.4798462497e+01   6.5601588899e+01    0.1759533    0.1083973 -21.16   0.00100301    1.536    0.349
        35 -10.2154     43.2827      8.6543   7.0509006850e+01   6.8338553234e+01     0.247914    0.1682614 -33.17  0.001529564    1.644    0.392
        36 -10.7339      7.6730      8.6889   8.8267796641e+01   7.2528233442e+01    0.3554247    0.1758017  37.08  0.001939623    3.014    0.668
        37  -9.9883    191.8837      7.1566   3.7367775550e+01   3.6376750505e+01    0.3203429    0.1383923 -25.46  0.001005548    2.460    0.594
        38 -10.9625    146.4509      6.3859   4.2664845402e+01   4.7250635501e+01    0.4282912    0.2705335  53.88  0.002314766    1.412    0.292
        39 -10.5652     66.9978      7.9155   6.1162976219e+01   6.4468632042e+01    0.2126162    0.1477661  18.85 0.0002961804    1.262    0.208
        40 -10.3562     67.5416      4.0356   5.9118334624e+01   6.4731777250e+01    0.3311734    0.1716411  49.90  0.001333568    1.832    0.454
        41 -11.5091    244.3121      5.0867   3.2584841219e+01   2.5051091390e+01    0.4164965    0.1092147 -42.36  0.001821358    2.797    0.642
        42 -10.5444     91.5171      6.5228   5.3378043661e+01   5.9756708527e+01    0.4390191    0.1831968  37.22  0.001479017    2.287    0.563
        43 -10.7227    223.5053      4.8532   3.4025733814e+01   2.9460297201e+01    0.2546524    0.1742831 -35.58  0.001567545    1.438    0.305
        44 -12.1914    179.0124      4.2356   3.7925923311e+01   3.9664590022e+01    0.2471392    0.2246358 -65.33 0.0003185632    1.097    0.089
        45 -10.7535    172.9055      4.2572   3.8606991866e+01   4.1110306870e+01     0.400758    0.2220277  83.88  0.001986384    1.860    0.462
        46 -10.7238    164.9100      5.3513   3.9866115890e+01   4.2922495916e+01    0.2069241    0.1667629 -50.06 0.0006006079    1.301    0.232
        47  -9.6652     81.4753      5.9889   5.5828022891e+01   6.1865344553e+01    0.1788969    0.1160781 -11.10 0.0004038582    1.540    0.351
        48 -11.6990    237.5207      3.1365   3.2631109160e+01   2.6648525337e+01     0.320461    0.2679828   3.27  0.002168485    1.698    0.411
        49 -11.6900     35.0177     15.2455   7.7538522826e+01   6.8656127430e+01     0.577036    0.2347671  21.91  0.000719953    3.305    0.697
        50 -11.1940    216.0152      7.4504   3.5227168375e+01   3.0848461577e+01    0.2757986    0.2108776 -16.17  0.001327744    1.592    0.372
        51  -9.8982    113.4585      3.1585   4.7123077605e+01   5.5219342830e+01    0.2961262    0.1748255  88.15  0.001108517    2.525    0.604
        52  -9.4702    194.9708      2.4805   3.5866933164e+01   3.6089300177e+01    0.1757756   0.08933815 -74.33 0.0005255368    2.307    0.566
        53  -9.1872    161.2952      6.7027   4.0721740193e+01   4.3671342984e+01    0.1294993   0.09165997 -65.52 0.0002934993    1.567    0.362
        54 -10.4912     97.5770      4.5124   5.1056284102e+01   5.8631742761e+01    0.2874445    0.1764424  26.17   0.00117915    1.600    0.375
        55 -10.5707     88.7617      1.4575   5.1890705177e+01   6.0742937696e+01    0.2153302    0.1080896  54.97  0.000205047    1.767    0.434
        56  -9.3296     69.7265    177.7095   1.0908969360e+02   2.9006061517e+01    0.1253756   0.09941478 -38.77 0.0002918294    1.515    0.340
        57 -10.5457    250.0210    246.7897   8.3016693686e+01  -1.0588452748e+01     0.219001    0.1388734 -14.03  0.001455051    1.360    0.265
        58 -10.2556     88.0063    249.7672   1.1340764211e+02   1.1767732949e+01     0.162657    0.1270457  50.07 0.0004238271    1.072    0.067
        59 -10.1126     72.6435    249.9381   1.1623551593e+02   1.3728744805e+01    0.1842608    0.1606709 -41.32  0.001348087    1.611    0.379
        60 -12.1308     29.0755    248.1422   1.2374275017e+02   1.9099237044e+01    0.7436679    0.2834857  65.77  0.003799426    2.686    0.628
        61 -11.4595      4.5465    236.4109   1.2723425771e+02   2.3664744498e+01    0.3460665    0.2595626 -64.44  0.002684247    1.647    0.393
        62 -12.6021     19.8628    237.9965   1.2473205036e+02   2.1909935127e+01    0.5756841    0.2833707  48.12  0.003671445    1.670    0.401
        63 -13.3169      6.0915    244.8662   1.2736987854e+02   2.1966366141e+01    0.8840316    0.6150746  44.07  0.005466734    1.454    0.312
        64 -12.1669     21.9621    248.7909   1.2496668044e+02   1.9716037906e+01    0.4144617    0.2194179  49.06  0.001616478    1.518    0.341
        65 -10.9574     17.4761    247.4819   1.2563877818e+02   2.0401140813e+01    0.1713034    0.1372221 -89.43 3.822115e-06    1.261    0.207
        66  -9.5663    200.5265    176.4956   7.9069608126e+01   7.1677976747e+00    0.1442886    0.1249389  -5.49 5.720887e-05    1.037    0.036
        67 -11.0224     18.0184    173.1176   1.2054138072e+02   3.5704522857e+01    0.3626844     0.203008  68.42  0.001998852    1.783    0.439
        68  -9.1058     74.5233    171.4598   1.0704792943e+02   2.9830716157e+01    0.1352677    0.1239334 -79.54 7.622794e-05    1.033    0.032
        69 -12.0336     36.3818    164.8229   1.1544828339e+02   3.5929422740e+01    0.6913496    0.4659802  89.80  0.003947015    1.383    0.277
        70 -10.8229     36.9411    157.9298   1.1449556671e+02   3.7521639397e+01    0.2144982    0.1804347  83.45 0.0003674669    1.109    0.098
        71 -11.8569     50.6945    162.4032   1.1164843647e+02   3.4974814807e+01    0.6177616    0.4248858  87.36  0.002508304    1.478    0.324
        72 -11.2542     44.2401    162.6458   1.1327538612e+02   3.5631056513e+01    0.4068615    0.3870457  86.90  0.002265214    1.158    0.137
        73  -9.6576     67.5074    165.4684   1.0789364336e+02   3.2189022938e+01    0.1377412    0.1206985 -89.81 0.0008090095    1.063    0.059
        74  -9.2611     99.2937    164.7087   9.9807746270e+01   2.7772753706e+01    0.1425139    0.1086303  76.11 0.0002457428    1.552    0.356
        75  -9.0747    200.3209    162.6508   7.6144616525e+01   9.7339274869e+00    0.1401846    0.1175478 -73.81 0.0007048711    1.741    0.426
        76  -9.9160      9.3865    162.3923   1.2155262785e+02   3.8888024560e+01    0.2685645   0.08870619  33.93  0.001248093    3.057    0.673
        77 -12.2593     21.9922    156.9996   1.1806115584e+02   3.9132811216e+01    0.5722865    0.4503791 -44.42   0.00366328    1.480    0.324
        78 -10.1139    177.8789    151.2487   7.8246664503e+01   1.6265577612e+01    0.2608133    0.2523365  12.24  0.001250255    1.095    0.087
        79 -10.1978     11.3580    153.4471   1.2027130715e+02   4.0832935386e+01    0.2873265    0.1771176  10.47  0.001627998    2.366    0.577
        80 -10.5345     18.6063    146.7894   1.1779247925e+02   4.1854596681e+01    0.2418789    0.1720928 -46.30 0.0009794356    1.528    0.345
        81 -10.1308    207.1383    146.2077   7.1096266896e+01   1.1487104215e+01    0.2227753    0.1887118  -2.43 0.0008106193    1.168    0.144
        82 -10.1936     41.1543    146.1999   1.1187690077e+02   3.9943364160e+01    0.1850706     0.159577 -62.50 0.0002583545    1.110    0.099
        83 -11.2449     11.3559    145.3430   1.1946276942e+02   4.2756108981e+01    0.3718027    0.2376249  85.90  0.002174163    1.444    0.308
        84 -10.6315     22.7743    144.1938   1.1642679134e+02   4.2139017134e+01     0.210738    0.1703481 -82.96 0.0004031959    1.057    0.054
        85  -9.6224    220.3810    143.7859   6.8067295756e+01   9.3989948713e+00    0.2024682    0.1233182 -27.36 0.0006315726    1.563    0.360
        86  -9.5313      2.5027    144.0128   1.2153174922e+02   4.3682174780e+01    0.1825333   0.06102578 -55.93 0.0008101394    2.526    0.604
        87  -9.2954     49.3886    141.8337   1.0901807357e+02   4.0137879297e+01     0.194689    0.1043075 -54.82 0.0003425735    1.636    0.389
        88  -9.5131    239.6976    140.6812   6.4028690458e+01   6.3958380510e+00    0.1411351   0.09909591  -4.67 0.0006516697    1.625    0.385
        89 -10.3858      9.3023    137.0824   1.1910958275e+02   4.4875990600e+01    0.2275254    0.1160458 -69.60 0.0009620081    1.508    0.337
        90 -10.4808      2.6781    136.4267   1.2075186966e+02   4.5466798271e+01    0.2767561    0.1073821 -68.27  0.001340691    1.894    0.472
        91 -10.0453     20.9120    135.3633   1.1583145357e+02   4.4431343428e+01      0.22519    0.1447231 -80.29 0.0007462255    1.353    0.261
        92 -10.4646     13.8874    136.0666   1.1779264171e+02   4.4795792542e+01    0.1836732    0.1401946  84.67  0.000264378    1.238    0.192
        93  -9.5720    122.8132    135.5696   8.7719222908e+01   3.0545212501e+01    0.2103959    0.1467724  51.26 0.0004075261    1.602    0.376
        94  -9.9779    249.7901    134.1896   6.0972739318e+01   5.6922784442e+00    0.1856572    0.1442743  -8.75 0.0006153018    1.299    0.230
        95 -10.4110     55.7201    133.3286   1.0583709848e+02   4.1514914332e+01    0.2935805    0.2111115  75.35  0.001120582    1.667    0.400
        96 -10.2554    107.8288    133.3879   9.1206325029e+01   3.3790761076e+01    0.2040574     0.147197  23.51 0.0006100084    1.623    0.384
        97 -10.3877     79.5269    133.0545   9.9011274188e+01   3.8442584519e+01    0.2045855    0.1974021  35.95 0.0003655563    1.142    0.124
        98 -11.4530     73.4960    129.2534   9.9955542332e+01   4.0235923623e+01    0.4509644    0.3019976  58.56  0.002131125    1.867    0.464
        99 -11.2718     37.5904    130.0124   1.1044465750e+02   4.4276723754e+01    0.3899108    0.2289711 -54.74    0.0012803    1.458    0.314
       100  -9.6157      9.7424    129.2339   1.1810214791e+02   4.6730311257e+01    0.1646876    0.1183111 -54.04 0.0003734401    1.298    0.229
       101 -12.0946     13.3882    125.0373   1.1657909182e+02   4.7494339005e+01    0.5824014      0.33406  47.87 0.0009887498    2.045    0.511
       102 -11.4271     21.7407    121.1304   1.1365507811e+02   4.7830883509e+01    0.3411428    0.2174025 -47.06  0.001917775    1.486    0.327
       103 -10.7919     26.1821    120.1066   1.1219891970e+02   4.7726609203e+01    0.5899371    0.1960606 -73.26   0.00212717    3.168    0.684
       104 -11.2606      2.1876    123.8360   1.1953961413e+02   4.8494614127e+01    0.5502461    0.1479958 -67.64  0.001873979    2.531    0.605
       105  -9.6210    220.3496    124.2531   6.3496598989e+01   1.2880324797e+01    0.2088627    0.1207096 -41.96 0.0008275579    1.594    0.373
       106  -9.4883     32.2460    121.7968   1.1067916659e+02   4.6793074900e+01    0.1723691    0.1293197 -46.03 0.0002678719    1.287    0.223
       107 -10.5549     72.0375    117.8698   9.7946215639e+01   4.3224436725e+01    0.4255904    0.1689783 -59.17  0.001083713    2.427    0.588
       108 -10.4114     85.9293    116.6151   9.3488532592e+01   4.1465313294e+01    0.2499344    0.1848415 -43.76 0.0005139095    1.249    0.199
       109  -9.1859    179.4691    116.5122   6.9382005982e+01   2.2906133154e+01    0.1553602    0.1446293 -28.20 0.0004132111    1.014    0.013
       110 -11.2623     17.6012    114.9107   1.1395432450e+02   4.9649163790e+01    0.3176163    0.2300429 -51.02 0.0008080503    1.242    0.195
       111  -9.9965    213.9802    115.5411   6.2496417654e+01   1.5722660829e+01    0.2033423    0.1460227  45.02  0.000670683    1.533    0.348
       112 -12.6775     14.7087    109.0850   1.1394786641e+02   5.1255619532e+01    0.6113259    0.3479843 -37.23  0.003274803    1.881    0.468
       113  -9.8058      6.6125    115.0209   1.1721517921e+02   5.0342706906e+01    0.1821869    0.1266805 -69.68 0.0003872488    1.109    0.099
       114 -10.5875     35.0766    114.5188   1.0858760862e+02   4.8318626635e+01     0.172611    0.1349012  25.03 0.0005731132    1.537    0.349
       115 -11.1737    249.0995    112.3233   5.6152584258e+01   9.3793760876e+00     0.248658    0.2385403 -47.88  0.000682951    1.186    0.157
       116 -11.7627      2.9416    106.6437   1.1718729441e+02   5.2549827506e+01    0.4976701    0.2924442 -67.91  0.001331191    1.286    0.222
       117  -9.7455     94.5471    112.4782   8.9908149305e+01   4.1039618509e+01    0.1512392    0.1395022 -47.79 0.0002916436    1.042    0.040
       118 -12.1796     54.9604    110.2493   1.0153833208e+02   4.7277069830e+01    0.2968675    0.2421622 -46.80 0.0004538984    1.092    0.084
       119 -11.1736     40.7834     97.8193   1.0342754323e+02   5.1809423369e+01     0.258393    0.1906142 -48.79 0.0002639203    1.134    0.118
       120 -11.4760     36.3947    109.2979   1.0721410212e+02   4.9468843893e+01    0.4834994    0.3069554  82.16  0.001816206    2.189    0.543
       121 -11.0081     35.2094    102.9044   1.0634476624e+02   5.1125015659e+01     0.570469    0.3202102   4.87  0.002688572    2.559    0.609
       122 -11.0106     24.0254    108.8321   1.1101927525e+02   5.0641165709e+01    0.4064472    0.2016871 -47.82  0.001259524    1.760    0.432
       123 -10.0462     70.6358    108.4580   9.6193719531e+01   4.5692210954e+01    0.2795632    0.1619108 -58.24 0.0007453543    1.621    0.383
       124  -9.6351     82.4608    108.5148   9.2539154316e+01   4.3935622418e+01    0.1499505    0.1336699 -40.85 5.005289e-05    1.020    0.020
       125 -10.4955    243.9338    104.6721   5.5134940927e+01   1.1592463021e+01    0.1843518    0.1719566 -30.89 0.0006319472    1.100    0.091
       126 -10.1783     51.1207    105.1093   1.0163764832e+02   4.8963712755e+01    0.2178047    0.1639063 -44.27  0.000509319    1.185    0.156
       127  -9.1906    223.3100    103.7074   5.8026406344e+01   1.5862018221e+01    0.1419035     0.106693 -62.79  0.000366617    1.586    0.370
       128 -10.6509    247.1502    102.1683   5.4103391995e+01   1.1382115675e+01    0.1862875    0.1490141 -56.40 0.0006516577    1.326    0.246
       129 -10.0977    119.8187    101.4667   7.9666160582e+01   3.8840683762e+01    0.3023838    0.1987545 -10.75  0.001181545    2.293    0.564
       130 -11.0412     57.5790     96.5120   9.7488040698e+01   5.0245433140e+01    0.5082043    0.2926323  50.61  0.002266702    2.403    0.584
       131 -11.2717     61.9983     98.9310   9.6628560539e+01   4.9117194625e+01    0.4237044    0.3245974 -33.65  0.001544916    1.259    0.206
       132 -10.5716     66.3840     98.1007   9.4978340883e+01   4.8729792584e+01    0.2458294    0.2154834 -47.86 0.0007548035    1.046    0.044
       133 -11.8519      5.9665     83.9921   1.1261439669e+02   5.7705797981e+01    0.8371064    0.2106255 -47.46  0.003387374    2.877    0.652
       134 -10.5636     17.0255     57.3954   1.0221508795e+02   6.2932190983e+01    0.4294893    0.2404525 -64.96   0.00145121    1.882    0.469
       135 -11.2290      3.2048     78.3223   1.1254525986e+02   5.9146756159e+01    0.4548226    0.2276646 -70.45  0.002392058    1.726    0.420
       136 -12.0695     13.2768     75.5843   1.0826834914e+02   5.9204786540e+01     0.661007    0.2052584 -54.51  0.001438833    2.181    0.541
       137 -11.7878      8.3429     73.9103   1.0976050125e+02   5.9875058022e+01    0.6249351    0.2770894  24.73  0.003180667    2.713    0.631
       138 -13.2470     16.3694     67.7515   1.0524290208e+02   6.0749776682e+01    0.4405939      0.24969 -46.89 0.0004743059    1.351    0.260
       139 -11.6474     21.8662     66.8324   1.0283017510e+02   6.0554551927e+01    0.3723773    0.3204724  77.58  0.001139162    1.606    0.377
       140 -11.7222      3.1264     99.8652   1.1616954563e+02   5.4145562786e+01    0.2982942    0.2078861 -77.99 0.0002808789    1.257    0.205
       141 -11.2891      1.4729     96.0296   1.1612682709e+02   5.5132930966e+01    0.2127776    0.1216572 -64.61 0.0003011079    1.299    0.230
       142 -11.4068    161.9311     98.7509   6.8377220208e+01   3.0295727154e+01    0.3579836    0.3230576 -29.29    0.0016141    1.055    0.052
       143 -11.2334    144.2483     98.3683   7.2408105311e+01   3.4324988521e+01     0.501932    0.4205758  75.56  0.001914356    1.492    0.330
       144  -9.4321     51.0047     99.4480   1.0038693043e+02   5.0331869341e+01    0.1768622    0.1380005  27.75 0.0004026577    1.480    0.324
       145 -11.3169     20.7553     93.8127   1.0935923827e+02   5.4481993760e+01     0.612941    0.0908749 -59.75  0.001994193    3.708    0.730
       146 -11.0032     22.2758     86.8316   1.0742076152e+02   5.6007644467e+01    0.3739474    0.2080846 -28.92  0.001868641    2.002    0.501
       147 -11.2670     15.0813     98.1341   1.1204171209e+02   5.3850372448e+01     0.263824     0.161295 -72.97 0.0007284994    1.449    0.310
       148 -11.0230     93.4208     95.4166   8.5624649532e+01   4.5143343040e+01    0.4351161     0.197347 -37.85  0.001615345    2.273    0.560
       149  -9.6590    249.8659     95.8135   5.2276279917e+01   1.1874351425e+01    0.1862024    0.1417792 -53.41  0.000527507    1.312    0.238
       150 -11.1606     28.0197     95.9860   1.0733399805e+02   5.3404824260e+01    0.1939396    0.1551646 -54.09            0    1.011    0.011
       151 -11.7789    157.2049     82.4442   6.4712003914e+01   3.4455856956e+01    0.9687123    0.5721587  19.71  0.003427649    2.973    0.664
       152 -10.9511    162.3241     92.5483   6.6530212745e+01   3.1398596185e+01    0.4225824    0.2984041 -10.54  0.001083984    1.806    0.446
       153 -12.2806    158.7887     90.0972   6.6606746832e+01   3.2671994030e+01    0.6470647    0.3946373 -26.45  0.002433452    1.794    0.443
       154 -11.8411    165.3690     83.3556   6.3221145177e+01   3.2393027420e+01    0.8251626    0.5317978  68.87  0.003484296    2.028    0.507
       155 -10.0087     31.3782     92.9318   1.0555314975e+02   5.3843999141e+01    0.1948924    0.1352255 -57.02 0.0004525089    1.173    0.148
       156 -11.5105     11.1212     90.9220   1.1208980006e+02   5.5801993337e+01    0.3594057    0.2628568  31.80    0.0011972    1.715    0.417
       157  -9.6962     47.0285     92.5177   1.0007571132e+02   5.2409806752e+01    0.1816317    0.1363574  27.10 0.0006433059    1.542    0.352
       158  -9.9113     35.8680     91.2998   1.0364207865e+02   5.3823829156e+01    0.2290888    0.1673977 -70.54 0.0008504719    1.389    0.280
       159 -10.5001     25.7691     90.8999   1.0705565876e+02   5.4787914904e+01    0.2768207    0.2115384 -60.00  0.001013648    1.099    0.090
       160 -11.5149    165.2015     87.6768   6.4507862307e+01   3.1646220160e+01    0.5336365    0.3458574  59.46  0.001729727    1.746    0.427
       161 -10.7570     97.1306     88.9758   8.2589631187e+01   4.5892414608e+01    0.5169778    0.2799632 -28.55  0.002004252    2.256    0.557
       162 -10.0029     83.1285     88.8204   8.6948429982e+01   4.8339353000e+01    0.2027775    0.1600653 -19.96 0.0004805579    1.305    0.234
       163  -9.6982     58.4916     89.5386   9.5376132268e+01   5.1749248385e+01    0.2732037    0.1404655  29.03  0.001220929    2.213    0.548
       164 -10.1850     46.3424     87.6802   9.9110454249e+01   5.3608089338e+01    0.2881123    0.2223849  74.41  0.001543115    1.859    0.462
       165 -10.6890     44.0660     83.2967   9.8788522171e+01   5.4857033192e+01    0.4723873    0.2468967  49.28  0.002028617    2.949    0.661
       166  -9.4363    139.0214     87.7521   7.0571373185e+01   3.7593267904e+01    0.1921153    0.1331308  47.29  0.000597641    1.501    0.334
       167  -8.7622    120.6944     87.3075   7.5229764798e+01   4.1633248529e+01    0.1493183    0.1238489 -78.00 0.0004558355    1.608    0.378
       168 -10.1528     64.9436     87.3151   9.2558135108e+01   5.1404052876e+01    0.2311762    0.2126215   9.28  0.001055242    1.183    0.155
       169  -9.7752     67.4947     84.4988   9.0881206980e+01   5.1677966503e+01    0.2252171    0.1163087 -40.75 -0.0001416338    1.759    0.432
       170 -11.0747     78.7020     88.0805   8.8171195059e+01   4.9210448341e+01    0.3081867    0.2298782 -50.13  0.001245448    1.277    0.217
       171  -9.7684     56.2157     83.7597   9.4588435348e+01   5.3346887163e+01     0.181348     0.139098 -27.74 0.0002773132    1.251    0.201
       172  -9.5344    173.4861     83.4853   6.1593636998e+01   3.0477644125e+01    0.1514722    0.1446489 -26.36  0.000183296    1.010    0.010
       173 -10.3057    133.0384     83.1844   7.0685165922e+01   3.9800636860e+01    0.2246045    0.2167353 -20.58 0.0006115234    1.042    0.040
       174  -9.6252    117.1769     83.6219   7.5061033491e+01   4.3103912798e+01    0.2179662    0.1404592  32.15 0.0005078809    1.711    0.416
       175  -9.1265     88.2980     83.6568   8.3729982775e+01   4.8591088104e+01    0.1430329     0.118493 -79.59 0.0007034665    1.670    0.401
       176 -11.1575     30.7641     81.7858   1.0322786468e+02   5.6487793456e+01    0.3220964    0.2185107 -26.57 0.0002448387    1.521    0.343
       177  -8.9846    196.2802     82.3014   5.7029046353e+01   2.5405360851e+01    0.1434097    0.1144813   7.85 0.0002875029    1.546    0.353
       178  -9.8906    145.8769     81.5653   6.7033136174e+01   3.7225197311e+01    0.2780515    0.1997673 -28.53  0.001285375    1.397    0.284
       179 -11.6807     20.1891     79.1168   1.0648518659e+02   5.7937577702e+01    0.5084221    0.3515925 -55.92 0.0009392904    1.151    0.131
       180  -9.6280     86.5132     80.4872   8.3316261585e+01   4.9566346466e+01    0.1473981    0.1337688 -28.42 0.0008100742    1.040    0.039
       181  -9.6560     71.1010     79.3569   8.8107672942e+01   5.2275886199e+01    0.1854183    0.1713603  -5.82 0.0004211098    1.110    0.099
       182 -10.7422     53.9992     73.8543   9.2507077039e+01   5.5803002771e+01    0.3085186    0.2529023 -61.97 0.0006486994    1.389    0.280
       183 -10.7954     58.0207     74.2327   9.1154099351e+01   5.5207584549e+01    0.3143852      0.26651 -67.13 0.0009944371    1.441    0.306
       184 -11.9715     62.2315     71.7360   8.8848930984e+01   5.5168763336e+01    0.7252604    0.2388747 -42.23 0.0004355727    2.715    0.632
       185 -12.6476     44.7256     75.2620   9.6352578773e+01   5.6583437769e+01    0.2898153    0.2527765 -46.15 0.0004876161    1.120    0.107
       186 -11.5690     38.2931     68.8888   9.6953975168e+01   5.8649357790e+01    0.5344177    0.4467675 -77.10  0.002039184    1.553    0.356
       187 -12.0570     50.2634     68.5363   9.2262217874e+01   5.7393859822e+01    0.3432025    0.2505862  -6.93 0.0002950831    1.483    0.326
       188 -11.6664     51.7270     62.8196   8.9859518271e+01   5.8395254510e+01    0.6512938    0.4567088 -79.25  0.002993068    2.797    0.642
       189  -9.6835    122.1750     76.1755   7.1322775595e+01   4.3497045167e+01    0.2034268    0.1856989  83.09  0.001065247    1.341    0.254
       190 -10.8769     90.6185     75.0692   8.0255379092e+01   4.9959936852e+01    0.2630726    0.2144235 -29.62 0.0006215239    1.123    0.110
       191 -10.2409     74.6053     75.7937   8.5791719716e+01   5.2496675947e+01    0.2588299    0.1944497 -25.97  0.000909192    1.268    0.211
       192 -10.1376    145.6310     73.5455   6.4618869013e+01   3.8730150871e+01    0.2779777    0.2320199 -26.26 0.0007628393    1.179    0.152
       193  -9.7276    137.4786     74.0332   6.6709181150e+01   4.0510238607e+01    0.2303502      0.14652 -33.23 0.0005555113    1.542    0.352
       194  -9.8548     98.5761     74.5153   7.7579969174e+01   4.8601942309e+01    0.2050841    0.1400048  26.31 0.0001010645    1.616    0.381
       195 -10.4398    102.7884     73.2769   7.5891244591e+01   4.8031760737e+01    0.2554496    0.2021753  50.50  0.001037717    1.440    0.306
       196 -10.3841    151.2791     71.4530   6.2691611078e+01   3.7779657798e+01    0.4216913    0.2361373  31.06  0.001311887    2.397    0.583
       197 -11.2594     76.5410     69.5160   8.3076531019e+01   5.3473889454e+01    0.5327966    0.3771499  66.61  0.002410773    2.508    0.601
       198 -10.7581     77.6264     64.2098   8.0889955248e+01   5.4336556031e+01    0.3771195    0.3185957 -35.67  0.002136721    1.146    0.127
       199 -11.7302    167.7131     69.9945   5.8817704686e+01   3.4144277309e+01    0.2680256    0.2365193  46.98 0.0003750641    1.159    0.137
       200  -9.9059     68.2054     69.2391   8.5897029215e+01   5.4825110815e+01    0.3143336    0.1596821 -37.62  0.001382199    1.808    0.447
       201  -9.6686    160.8235     69.4124   6.0030261099e+01   3.5875033116e+01    0.2008232    0.1369108  41.62 0.0002674438    1.539    0.350
       202 -11.2692     10.6150     62.9024   1.0633479982e+02   6.2176943429e+01    0.2981583    0.2133351 -39.17 0.0008956696    1.149    0.130
       203 -12.0524      4.0340     64.8001   1.0943056135e+02   6.2128001103e+01    0.4454742    0.3624663 -82.12  0.001700683    1.436    0.304
       204 -11.2687      5.1507     58.9553   1.0759411467e+02   6.3337053527e+01    0.2584629    0.2479177  35.80 0.0003344831    1.406    0.289
       205  -9.1504    189.2948     68.6880   5.4503946020e+01   2.9247560464e+01    0.1492451     0.108411 -63.95 0.0002441043    1.595    0.373
       206 -10.9509     31.5660     68.0950   9.9347122521e+01   5.9468451831e+01    0.2414798    0.1734218  -8.96 0.0003604592    1.514    0.339
       207  -9.2765    149.3972     67.4771   6.1870450804e+01   3.8893336149e+01    0.1482992    0.1415466 -17.52 0.0001189687    1.021    0.020
       208  -8.9757    216.2783     65.6998   4.9578252474e+01   2.3517631440e+01    0.1413074   0.09813172 -60.54 -0.0001541599    1.541    0.351
       209  -9.4987     99.4809     65.5040   7.4256282880e+01   5.0140451394e+01    0.1480999    0.1334646  -9.39 0.0001480425    1.011    0.011
       210 -10.6964     95.7195     64.7057   7.5136907614e+01   5.1012447821e+01    0.3935851    0.2826258   3.89 0.0007576562    1.650    0.394
       211  -9.9163     98.1521     60.1688   7.2787660509e+01   5.1358458649e+01     0.217198    0.1786421  -6.93 0.0003329448    1.191    0.160
       212  -9.6084    109.3987     63.2224   7.0539088093e+01   4.8552993422e+01    0.2030237    0.1331209 -44.42 0.0002995039    1.603    0.376
       213 -10.8097     84.2842     61.7390   7.7769544875e+01   5.3661721557e+01    0.3933555    0.2770518  18.93    0.0019743    1.551    0.355
       214 -10.3306    121.4454     61.4101   6.6616732202e+01   4.6289115037e+01    0.3113137    0.1986575  41.63  0.001184945    1.571    0.363
       215  -8.9906    202.0723     62.0000   5.0656321008e+01   2.7296333470e+01    0.2219089   0.08072141  60.64 0.0007950529    2.892    0.654
       216  -9.3584    166.9781     60.9653   5.6267450817e+01   3.5761236279e+01    0.1726074    0.1666099 -30.19 0.0003409866    1.021    0.021
       217 -10.5083    155.6280     60.2774   5.8293731536e+01   3.8582156566e+01    0.2453828    0.2130547 -37.21 0.0003843397    1.145    0.127
       218 -12.5231    226.5692    245.3987   8.6842184213e+01  -7.4043874537e+00    0.9846445    0.4101961  22.39  0.004534007    2.702    0.630
       219 -11.1697     29.3410     60.1938   9.7925603555e+01   6.1351964787e+01    0.7626491    0.4010465  23.78  0.003972251    2.172    0.540
       220 -10.5285     32.8368     43.8651   9.0942002385e+01   6.4252790888e+01     0.486815    0.2692928  -7.27  0.001812079    2.317    0.568
       221 -11.3661     26.6370     49.7293   9.5722619978e+01   6.3725133445e+01    0.5574492    0.4019616 -71.34  0.002965185    2.029    0.507
       222 -12.6769     38.7459     50.3732   9.0780099640e+01   6.2386903386e+01    0.6587629    0.4546296 -35.98  0.003095069    1.186    0.157
       223 -11.9354     34.1382     49.5169   9.2423048718e+01   6.3043342907e+01    0.4442216    0.2821882 -25.23  0.001417149    1.441    0.306
       224  -9.9824    215.0383     60.3395   4.8385707888e+01   2.4587065690e+01    0.1832261    0.1702158 -72.57 0.0004987819    1.070    0.065
       225 -10.8651     63.7323     59.6136   8.4227731985e+01   5.7393137091e+01    0.2389612    0.2238532 -47.67 0.0008940148    1.307    0.235
       226 -11.1965     59.2678     58.9291   8.5653307865e+01   5.8165308395e+01    0.4764691    0.3866774  81.32  0.002514197    2.190    0.543
       227 -12.2301    147.1805     56.8092   5.8966335344e+01   4.1126206974e+01    0.2863618    0.2635908 -18.96 0.0002994832    1.079    0.073
       228 -11.8616     75.3134     56.0698   7.8776515228e+01   5.6239078595e+01    0.2486037    0.2108563 -24.77 0.0002992141    1.079    0.073
       229 -10.4136     73.1467     51.3063   7.7759165288e+01   5.7445393474e+01    0.3441615    0.2309172  20.55 0.0008623148    1.587    0.370
       230 -10.7126     78.5810     47.5432   7.4419112205e+01   5.7154558846e+01    0.3353385    0.1962682 -21.96  0.001568212    1.797    0.443
       231 -10.4249     98.6670     55.9001   7.1095303749e+01   5.1992678484e+01    0.2549724    0.1849249  27.33 0.0007156972    1.410    0.291
       232 -12.1100    130.4715     50.0255   6.0466185184e+01   4.6053935431e+01    0.6818956    0.4149128 -39.86  0.002068922    1.697    0.411
       233  -9.8068    119.9341     52.8737   6.4054310497e+01   4.8003276946e+01    0.2212517    0.1792341  16.67            0    1.274    0.215
       234 -11.0680    104.6042     52.4426   6.8082112699e+01   5.1358766323e+01    0.3263859    0.2360473 -56.52  0.001572769    1.868    0.465
       235  -9.6571     62.1401     53.1245   8.2469214983e+01   5.8847332325e+01    0.1688249    0.1573212 -34.54 0.0004400377    1.272    0.214
       236 -10.7418     11.1906     44.7600   1.0097340309e+02   6.5918508953e+01    0.4644892    0.2257082 -48.80  0.001652514    1.541    0.351
       237 -12.0999      8.0073     51.6111   1.0444134151e+02   6.4726184969e+01    0.3972815    0.3287698  15.08  0.001094027    1.484    0.326
       238 -10.7558     12.3257     50.7147   1.0229233319e+02   6.4641260708e+01    0.2938695    0.2083267 -79.37  0.001273539    2.015    0.504
       239 -11.0538     87.3262     51.4411   7.2996704284e+01   5.4923359473e+01    0.3454933     0.305764   8.77  0.001388113    1.061    0.058
       240  -9.8032     17.1551     51.8498   1.0052469049e+02   6.4072507421e+01    0.1684097     0.147489 -48.55 0.0004302953    1.238    0.192
       241  -9.5180     53.0183     50.0065   8.4826481289e+01   6.0707894657e+01    0.1626301    0.1367894 -11.03  0.000841118    1.062    0.059
       242  -9.2749    181.4053     49.7271   5.0452405964e+01   3.3945509278e+01    0.1497283    0.1045403 -72.85 0.0005138318    1.762    0.432
       243  -9.8388    166.8517     48.8785   5.2647527336e+01   3.7569399379e+01    0.2083701     0.185505  27.07 0.0003814377    1.196    0.164
       244 -10.8979    155.3237     48.5676   5.4680960211e+01   4.0393147861e+01    0.2421247     0.237693  29.61 0.0009955709    1.002    0.002
       245 -10.7234    112.4094     47.5364   6.4122364447e+01   5.0465753128e+01    0.4837311     0.335761  82.35  0.001689327    2.522    0.603
       246 -10.8882    143.2409     45.8432   5.6224086695e+01   4.3663717611e+01    0.3146772    0.2713819 -61.36 0.0006794897    1.319    0.242
       247  -9.8346     62.6776     47.0838   7.9968051393e+01   5.9845036336e+01    0.1884792    0.1513064 -18.14 0.0004297789    1.065    0.061
       248 -11.0572     91.8574     43.4002   6.8480012890e+01   5.5336193096e+01    0.5229004    0.2286053 -41.11  0.001793348    2.454    0.593
       249  -9.0952     57.9541     46.4692   8.1538135307e+01   6.0653614028e+01    0.1644475    0.1176841  58.93 0.0008086782    2.462    0.594
       250 -10.7112     51.0840     44.9588   8.3669349702e+01   6.1879084800e+01     0.213246    0.1723118 -21.51 0.0003352451    1.034    0.032
       251 -11.6555     51.6620     40.3380   8.1595805752e+01   6.2600179230e+01    0.5395331    0.3195153  31.80 0.0008893338    1.774    0.436
       252 -10.4039    124.2070     42.9356   5.9478353207e+01   4.8503029600e+01    0.4735475    0.2807788 -23.48  0.002177796    1.769    0.435
       253 -10.5773     83.3386     40.5071   7.0048103644e+01   5.7401172978e+01    0.3837729    0.2130163  17.60  0.001586169    2.508    0.601
       254  -9.2335     73.5727     44.0465   7.4786042751e+01   5.8594397787e+01    0.2800851    0.2414005  82.69 0.0004659742    1.923    0.480
       255 -10.6018     65.3811     41.8193   7.6862076978e+01   6.0309094826e+01    0.2804062    0.1847778 -14.76 0.0008757996    1.529    0.346
       256 -11.8736     69.0252     38.0054   7.3960786834e+01   6.0316985950e+01     0.788874    0.4960296   3.95  0.003879284    1.903    0.475
       257 -11.9664     81.7136     34.7236   6.8228132135e+01   5.8545873731e+01    0.6131086    0.3517144 -38.33  0.003009009    1.840    0.456
       258 -11.1403     73.4934     37.5324   7.2172741422e+01   5.9624977993e+01    0.3181302    0.2267561 -10.20 0.0008559303    1.357    0.263
       259 -10.9340     77.1805     35.1460   6.9912020165e+01   5.9320731461e+01    0.2807355    0.2530575 -15.24 0.0007516675    1.178    0.151
       260  -9.4777    174.4932     43.5523   4.9768834196e+01   3.6447793220e+01    0.1374536    0.1341931  86.11 0.0004745564    1.008    0.008
       261 -10.8034      7.0020     41.3240   1.0181344028e+02   6.6864756712e+01    0.2661351    0.1174577 -47.13 0.0007088119    1.631    0.387
       262  -9.7981    163.1312     42.1515   5.1250464887e+01   3.9380568208e+01    0.2021465    0.1833862  22.98 0.0004107929    1.166    0.143
       263  -9.8992     96.7697     42.0073   6.6452931100e+01   5.4564470261e+01    0.3304902    0.2133607 -40.04  0.001635845    1.662    0.398
       264 -11.4513    100.6733     37.5739   6.3604956101e+01   5.4389917234e+01    0.4597833    0.2924045  23.03 0.0006842751    1.745    0.427
       265 -10.7788     23.7320     41.9920   9.4315309049e+01   6.5482751782e+01    0.4867885     0.314304  53.65  0.002445794    3.153    0.683
       266 -12.7106     27.6988     38.0905   9.1050518339e+01   6.5834206561e+01    0.6054007     0.366051 -25.56  0.002301145    1.454    0.312
       267 -12.4672     24.5073     35.0438   9.1336002626e+01   6.6690843154e+01    0.4459427    0.2320791   0.87 0.0003340715    2.467    0.595
       268 -10.0053    137.9191     41.0120   5.5725512985e+01   4.5579400681e+01    0.2121568     0.199425  39.11 0.0006489832    1.027    0.026
       269 -10.0026    188.0732     39.4603   4.6552982436e+01   3.3718493149e+01    0.1953249    0.1316951  67.16 0.0002942808    1.478    0.323
       270  -9.8511    179.1091     36.8358   4.7103814979e+01   3.6197054929e+01    0.2049029    0.1772368 -70.43 0.0003957165    1.179    0.152
       271 -10.2622      2.2509     36.8704   1.0263798182e+02   6.8009769614e+01    0.2232317    0.1316043 -16.75  0.001156733    1.669    0.401
       272 -12.1417     57.4094     34.0933   7.6693895115e+01   6.2775905112e+01    0.4280425    0.3298186 -49.10  0.001946857    1.745    0.427
       273 -10.6602     22.4775     25.7956   8.8481337806e+01   6.8480611577e+01    0.2895683    0.2307667   6.67  0.001180627    1.283    0.220
       274 -11.4216      8.8406     33.4048   9.8238360531e+01   6.8264031090e+01    0.5220612    0.4029016  31.66   0.00294932    1.764    0.433
       275 -11.2025     17.9653     31.2240   9.2943803975e+01   6.7961048053e+01    0.3470517     0.225294  13.45  0.001974863    1.623    0.384
       276 -10.2344     94.9820     34.5138   6.4037637037e+01   5.5977748524e+01    0.2526426    0.1924448 -18.47 0.0008895008    1.271    0.213
       277 -10.2563     97.8261     31.3104   6.1943996954e+01   5.5810116303e+01    0.3029877    0.1895096  43.44  0.001538099    1.499    0.333
       278 -11.2615    101.2607     28.6211   5.9929048725e+01   5.5421318613e+01    0.3294097    0.2798389 -37.31 0.0006563643    1.342    0.255
       279 -10.5178    225.8742     33.3162   4.0438681936e+01   2.5798278351e+01     0.282449     0.145231 -48.52  0.001191561    1.780    0.438
       280 -11.4323    192.8160     33.0431   4.4152455618e+01   3.3387735407e+01    0.2743466     0.225461 -69.37 0.0002951003    1.211    0.175
       281  -9.8853    247.0296     33.2779   3.8431334479e+01   2.1320512892e+01    0.1679534    0.1410302 -75.12 0.0003932867    1.119    0.107
       282 -10.7942    165.6433     31.8023   4.7674457009e+01   4.0061798764e+01    0.2685262    0.2143917  87.06 0.0009585082    1.335    0.251
       283  -9.6939    121.8552     33.0000   5.6460678420e+01   5.0338056711e+01     0.551155   0.07561922  57.28  0.001261225    7.029    0.858
       284 -11.0563     48.2606     31.7135   7.9370812842e+01   6.4475099118e+01    0.2984149    0.2121196  22.03  0.001790423    1.383    0.277
       285  -9.8766     50.4641     27.5528   7.6617177245e+01   6.4794026630e+01    0.2109101    0.1524032  22.44 0.0008151787    1.328    0.247
       286  -9.4717     88.9650     31.5117   6.4618619160e+01   5.7584226396e+01    0.1980027    0.1235521  42.69 0.0007157073    1.528    0.345
       287 -10.7771    235.9287     29.9836   3.8691821683e+01   2.4033529400e+01    0.2849768    0.1642672  63.14 0.0009879277    1.817    0.450
       288 -10.8671    111.9360     26.2949   5.6302077341e+01   5.3369980881e+01    0.4713543    0.1892595 -26.74  0.001426503    2.537    0.606
       289  -9.7455    108.5605     24.3575   5.6378022525e+01   5.4335973528e+01    0.1969032    0.1419264  24.38 0.0007989972    1.376    0.273
       290 -10.7396     69.7290     26.5204   6.8795593651e+01   6.1839537357e+01    0.2717661    0.2216147   1.79  0.001013313    1.038    0.036
       291 -11.4284    196.1713     26.2017   4.1905139505e+01   3.3398583931e+01    0.4264712     0.248237  72.16  0.001784865    1.697    0.411
       292 -10.2729    124.0392     21.9834   5.1975417051e+01   5.1090121544e+01    0.2198009    0.1722015  53.20 -0.003769674    1.189    0.159
       293 -10.7193    131.8426     26.0672   5.1830652307e+01   4.8829306665e+01    0.3442331    0.1951097  47.19 0.0008070248    1.631    0.387
       294 -10.1982    128.4824     23.9299   5.1757047391e+01   4.9849975842e+01    0.3051753    0.2082514 -36.65 0.0009234118    1.576    0.365
       295 -12.5345     74.3763    238.2151   1.1488306923e+02   1.5636537276e+01     0.743427    0.3772308 -67.24  0.004152731    2.079    0.519
       296 -10.4911    118.8771     25.8339   5.4509679370e+01   5.1858612039e+01     0.226469    0.1847096   1.08 0.0002743595    1.252    0.202
       297 -10.2363    120.1692     21.3190   5.2553953455e+01   5.2051193780e+01    0.3785629    0.2210921  23.76  0.001347187    2.039    0.509
       298  -9.5372    218.4611     25.8060   3.9383852753e+01   2.8332797385e+01    0.1555496    0.1228632 -16.36 0.0003391504    1.505    0.335
       299 -10.0991    214.1868     25.8482   3.9827388486e+01   2.9287583983e+01    0.1718042    0.1518975  41.97   0.00107975    1.344    0.256
       300 -10.7600    201.7719     34.2427   4.3350335563e+01   3.1139702224e+01    0.2142019    0.2119663  82.61 0.0002821643    1.118    0.105
       301 -10.0221      1.7588     25.7123   9.8975508728e+01   7.0128212769e+01    0.1963409      0.10978 -39.65 0.0005825987    1.296    0.229
       302  -9.1411     50.3253    240.3015   1.1951229184e+02   1.8193027698e+01   0.09602665   0.08760796 -34.00 0.0005546828    1.637    0.389
       303 -10.7378      9.6705     24.9502   9.4568213142e+01   6.9729629318e+01    0.3515503    0.1512697  15.38  0.001745006    2.610    0.617
       304 -10.4277     62.0048     24.0200   7.0480992711e+01   6.3489473195e+01    0.1712896    0.1508029 -30.58  0.001096498    1.393    0.282
       305  -9.7593     59.4947     21.4656   7.0255907786e+01   6.4237332591e+01    0.1293624    0.1048849   2.61 1.269246e-05    1.005    0.005
       306 -10.2090     54.5780     23.8706   7.3277158079e+01   6.4700583634e+01    0.2301504    0.1749802  33.65 0.0007932757    1.397    0.284
       307 -10.1183    195.4492    238.7207   9.1455240493e+01  -2.1277473423e+00     0.251335    0.1700799  17.04   0.00150789    1.354    0.262
       308 -10.6052    170.7609     18.6591   4.3010830531e+01   4.0270013724e+01    0.2632058    0.1970313 -71.02 0.0009109608    1.446    0.308
       309  -9.7248    155.8006     21.8628   4.6161443237e+01   4.3550725420e+01    0.1807126    0.1506815 -70.45 0.0002557213    1.311    0.237
       310 -10.5858     67.3902     21.6531   6.7445177579e+01   6.2873817938e+01    0.3486608     0.145229  49.33  0.001499657    2.668    0.625
       311  -9.7665     36.3416     22.9999   8.0654385429e+01   6.7378553457e+01    0.1689141     0.124606 -22.96 0.0003867345    1.141    0.123
       312  -9.8835    134.8685    238.7824   1.0319460113e+02   7.0005005266e+00    0.2501958    0.1378713 -30.34   0.00116665    2.931    0.659
       313 -11.6838    234.5099    248.5076   8.5952050727e+01  -8.8303714734e+00    0.4429449    0.2338718  13.36  0.002460589    1.934    0.483
       314 -11.9363     29.7664    233.5399   1.2273539339e+02   2.1745091616e+01    0.4137106    0.1855267  79.73  0.002183467    2.372    0.578
       315 -10.0913     24.2148    232.3312   1.2364479633e+02   2.2548824124e+01    0.1825978    0.1534126 -69.10 0.0007889235    1.442    0.307
       316 -10.1562    159.8762    235.9096   9.7876894938e+01   3.6719943318e+00     0.193168    0.1542185  11.31 0.0005480299    1.268    0.211
       317  -9.8505    177.4897    234.9631   9.4297158572e+01   1.1238492190e+00    0.1717669    0.1206312 -36.13 0.0009043183    1.565    0.361
       318 -10.8153    153.8440    233.7024   9.8746620640e+01   4.9607261448e+00    0.2048381    0.1646053 -25.88 0.0007630328    1.406    0.289
       319  -9.4538    139.7237     19.9626   4.8236666759e+01   4.7608251431e+01    0.1801546    0.1691881  20.15 0.0006325924    1.081    0.075
       320 -10.1453    168.3629     21.7119   4.4240654988e+01   4.0531083184e+01    0.2215142    0.1855689 -75.07 0.0002515682    1.241    0.194
       321 -10.7189     86.4613    233.0139   1.1204841373e+02   1.5015414212e+01    0.2464347    0.1368589  52.01 0.0009597378    1.632    0.387
       322  -9.7317     38.3570    232.8519   1.2114345731e+02   2.0957795309e+01    0.1507958    0.1158522  86.57 0.0006647753    1.141    0.123
       323 -10.7590     42.1356     19.4738   7.6401597129e+01   6.7125907415e+01    0.4600689    0.2444414  32.37  0.002105326    1.872    0.466
       324 -10.0624    109.5697    243.0316   1.0864050910e+02   9.9750325394e+00    0.2558109    0.1526207  59.21  0.001002529    1.802    0.445
       325 -11.7716     37.6347    243.8172   1.2201107894e+02   1.8971180591e+01    0.4997041    0.2862446 -88.93  0.002717496    1.638    0.390
       326  -9.7752    190.5513    226.6444   9.0435203332e+01   4.0073561929e-01    0.2148622    0.1171324 -33.71 0.0007272396    1.957    0.489
       327  -9.9816     65.9991    226.1995   1.1538083220e+02   1.9008786483e+01    0.1925465    0.1579138 -83.95 0.0007203529    1.187    0.157
       328 -10.6938      4.5689    226.1669   1.2673427963e+02   2.5613407464e+01    0.2720328    0.1123304  51.70   0.00143605    1.963    0.490
       329  -9.9871    160.2191     18.1937   4.4352131004e+01   4.2859461973e+01    0.2759781     0.158468 -62.81  0.001232057    2.275    0.560
       330  -9.3157     54.6312     19.2444   7.1097437280e+01   6.5306255729e+01    0.1055027    0.1009684  54.01  0.000341576    1.617    0.382
       331  -9.8801     60.2762     17.4393   6.8079543249e+01   6.4610428164e+01    0.1694582    0.1554883 -48.06  0.001105849    1.629    0.386
       332 -10.8560    120.1977    226.3126   1.0450255784e+02   1.1424526267e+01    0.1935475    0.1481235  27.23 0.0006625992    1.340    0.254
       333 -11.4035     21.0810    222.2264   1.2358209999e+02   2.4839704239e+01     0.271399    0.1530465  88.60  0.001435634    1.537    0.350
       334  -9.8185    123.5857    222.1981   1.0325564957e+02   1.1675126558e+01    0.1712967    0.1176278 -41.18  0.000945106    1.705    0.413
       335 -11.0261     74.2169     15.9669   6.2544870277e+01   6.2297698097e+01    0.4279861    0.2320129  52.23  0.001576211    1.971    0.493
       336 -10.1911     77.6384     15.2030   6.1112302985e+01   6.1730004001e+01    0.2021987    0.1590072  19.71  0.000234605    1.087    0.080
       337 -10.6047    242.8281     14.9093   3.4775899584e+01   2.4316500397e+01    0.1693262    0.1631447  53.70  0.001230022    1.331    0.249
       338  -9.3625    126.5377    221.5280   1.0255253799e+02   1.1345302735e+01    0.2006266    0.1074443  47.14 1.585937e-05    1.780    0.438
       339 -10.0526    142.3830    220.8959   9.9184529981e+01   8.9752497418e+00    0.2723064    0.1592008  23.45  0.001311605    1.988    0.497
       340  -9.2654     41.6799    220.7106   1.1962061280e+02   2.2988308214e+01    0.1014464   0.08798971 -44.39 0.0004715604    1.601    0.375
       341  -9.0690    250.3257    219.3281   7.8217353107e+01  -7.2426380661e+00    0.1287539   0.07625247  -0.22 0.0007050128    1.700    0.412
       342 -10.4495     88.8829    241.2488   1.1241799665e+02   1.3164444063e+01    0.2068019    0.1457662 -35.68  0.001228414    2.128    0.530
       343 -11.5875      9.5973    217.1494   1.2536385195e+02   2.6941627805e+01    0.2975797    0.1777684  58.55  0.001408037    1.400    0.286
       344  -9.6415     54.6983     12.7265   6.7927910215e+01   6.6088932855e+01    0.1852358    0.1363767  -4.35 0.0004056642    1.160    0.138
       345  -9.5901     37.7950    217.4247   1.2011036208e+02   2.4082588979e+01    0.1387113    0.1103161  26.46 0.0006121093    1.620    0.383
       346 -11.4207     30.1453    215.8683   1.2146039510e+02   2.5210836978e+01    0.3351497    0.2436839  18.21  0.002172879    1.996    0.499
       347 -11.2217    235.8061    215.1048   7.9974556948e+01  -4.6646280801e+00    0.4060277    0.1997537 -15.92  0.001541763    2.513    0.602
       348 -11.2173    241.1612    211.5587   7.8376848944e+01  -4.9302857258e+00    0.3266368    0.2412565  13.13   0.00207594    1.181    0.153
       349  -9.3499    130.6712    227.3138   1.0250272636e+02   9.6445154155e+00    0.1288174   0.09195779  64.30 0.0007043919    1.673    0.402
       350  -9.5565    137.1570    215.6286   9.9482543251e+01   1.0778679783e+01    0.1916289    0.1157744  27.69 0.0009445105    1.738    0.425
       351 -10.1742    156.5036    241.5221   9.9336274653e+01   3.2887582739e+00    0.1233648     0.104377  28.64 3.010404e-05    1.004    0.004
       352 -10.6225     21.6179    212.6394   1.2285593404e+02   2.6730396636e+01    0.2763721     0.145742  56.98  0.001651108    1.661    0.398
       353 -10.1353    208.9542    212.0406   8.4356138045e+01  -1.9910292445e-01    0.2012793    0.1623633   3.01  0.000524432    1.067    0.063
       354  -9.4180     76.3289    212.3066   1.1187542729e+02   2.0485994729e+01    0.1160578   0.09787565 -25.02  0.000451689    1.657    0.396
       355 -12.3031      4.0576    208.2582   1.2587218803e+02   2.9237945830e+01    0.5583807    0.3152708 -80.39  0.003620112    1.457    0.313
       356 -10.2974    175.4263    202.7049   8.9318097675e+01   6.8224413463e+00    0.2320065    0.1957619  33.98 0.0005160918    1.159    0.137
       357  -9.4879    243.3059    202.3123   7.6261192428e+01  -3.9267656180e+00    0.1316041   0.08285138  -1.67 0.0002569826    1.618    0.382
       358 -10.1374     10.7665    208.6025   1.2464293507e+02   2.8579636155e+01    0.2128831    0.1438259 -58.18  0.000655585    1.721    0.419
       359  -9.0686    223.4821    201.5062   7.9661891501e+01  -8.3303111729e-01    0.1287429     0.112111  -3.42  0.000183831    1.126    0.112
       360  -9.2956     34.4514    201.4421   1.1948080788e+02   2.7798477109e+01    0.1175192   0.09829918  86.78 0.0005515182    1.069    0.065
       361 -10.9036     19.5905    200.7188   1.2241448028e+02   2.9428804941e+01    0.2998184    0.1217044 -66.30  0.001428375    2.155    0.536
       362  -9.4860    215.4926    194.5354   7.9807055038e+01   1.5357028512e+00    0.1371969    0.1130664  -1.78 -1.737156e-05    1.044    0.042
       363 -10.7781     16.0151    193.2659   1.2258824676e+02   3.1367284708e+01    0.2096328     0.203428 -15.66 0.0008938468    1.474    0.322
       364  -9.3928    211.5737    188.2015   7.9300604627e+01   3.2255388675e+00    0.1960826    0.1169944 -24.31 0.0008232828    1.692    0.409
       365  -9.2978      1.6257    188.1848   1.2513583778e+02   3.3685846552e+01    0.1584945   0.08223312 -71.10 0.0005425097    1.609    0.379
       366 -11.4761     16.0879    182.9913   1.2178801708e+02   3.3631849695e+01    0.4750611    0.2189868  85.09  0.002346512    2.188    0.543
       367  -9.7597    167.4941    183.5079   8.7383692869e+01   1.1795759962e+01    0.1432224    0.1320528   3.22 9.747955e-05    1.014    0.014
       368  -9.5505     58.8044    182.1839   1.1222114566e+02   2.9352669172e+01    0.1728869    0.1464362 -50.17 0.0008214757    1.333    0.250
       369  -9.3087      1.5433    180.4809   1.2464769869e+02   3.5381828380e+01    0.1170714   0.08813259  87.59 0.0001406616    1.009    0.009
       370  -9.7857    244.3641    178.3954   7.1341554797e+01  -5.0627127706e-01    0.2538981    0.1008747 -24.63  0.000943566    3.049    0.672
       371 -10.4675     46.5050    177.7005   1.1453207901e+02   3.1826452856e+01    0.2531011    0.2200936  82.51  0.001612343    1.052    0.050
