#   1 NUMBER                 Running object number                                     
#   2 MAG_AUTO               Kron-like elliptical aperture magnitude                    [mag]
#   3 X_IMAGE                Object position along x                                    [pixel]
#   4 Y_IMAGE                Object position along y                                    [pixel]
#   5 X_WORLD                Barycenter position along world x axis                     [deg]
#   6 Y_WORLD                Barycenter position along world y axis                     [deg]
#   7 A_WORLD                Profile RMS along major axis (world units)                 [deg]
#   8 B_WORLD                Profile RMS along minor axis (world units)                 [deg]
#   9 THETA_WORLD            Position angle (CCW/world-x)                               [deg]
#  10 FWHM_WORLD             FWHM assuming a gaussian core                              [deg]
#  11 ELONGATION             A_IMAGE/B_IMAGE                                           
#  12 ELLIPTICITY            1 - B_IMAGE/A_IMAGE                                       
         1  -9.6884     27.5552     21.3859   6.0394569568e+01   7.1415081450e+01    0.6838307    0.2819411 -31.29  0.002845315    2.859    0.650
         2  -9.1411     46.0470     20.8296   4.9860463202e+01   6.8672795280e+01    0.5409839    0.2044916 -32.52  0.002196455    2.850    0.649
         3  -9.3605     64.0423     13.7298   3.8274722169e+01   6.6139768213e+01    0.4746309    0.2232138  40.73  0.001316009    1.981    0.495
         4 -10.0400     77.6294     12.9398   3.3242290252e+01   6.3254382815e+01    0.7449968    0.2429349  51.44  0.002579097    2.512    0.602
         5  -8.3706    106.5892     11.3491   2.5204330513e+01   5.6469148991e+01    0.3338687    0.3043004  69.23  0.002046879    1.046    0.044
         6  -8.3193     97.1879     11.4425   2.7304023118e+01   5.8782423320e+01    0.2621606    0.1857649  35.11 0.0009124005    1.442    0.307
         7  -9.6695     31.7950     10.6980   5.1857349317e+01   7.2465454338e+01    0.2501959    0.1941019  18.13 0.0002848008    1.137    0.120
         8 -10.0547     19.7880      8.5853   5.8232005311e+01   7.4473163860e+01    0.5622661    0.2607361  21.47  0.002663522    2.447    0.591
         9  -9.0529      3.1857      7.6029   7.0246482415e+01   7.6388427164e+01    0.6625836    0.2363093 -29.53  0.002678144    3.514    0.715
        10 -10.3476     13.5479      4.1200   5.9923373456e+01   7.5914691523e+01    0.3626138    0.2342104  19.29 0.0002617175    1.435    0.303
        11  -8.8441    142.9325      9.2990   1.8463941177e+01   4.7428242945e+01    0.2074739    0.1967545   5.35  0.000302143    1.259    0.206
        12  -8.6978    125.5576      9.7554   2.1141001559e+01   5.1821930334e+01    0.2464908    0.1650677  68.88 0.0003852061    1.314    0.239
        13 -10.0462     84.9194      5.1134   2.7457287728e+01   6.2318012866e+01    0.2767926     0.236114  23.24 0.0003683727    1.194    0.163
        14  -9.7853     76.6109      6.4440   3.0373729409e+01   6.4134096230e+01    0.3288656    0.2030165  52.28 0.0001477476    1.389    0.280
        15  -9.0042    132.9910      4.4266   1.8157578605e+01   5.0395982090e+01    0.3896216     0.271081  34.89  0.001483882    1.681    0.405
        16 -10.2605     49.0713      4.0365   3.8965054081e+01   7.0244656460e+01      0.28979    0.2076081  30.44 0.0002964683    1.233    0.189
        17  -8.9746     57.5604      3.2844   3.5057570059e+01   6.8607354534e+01    0.4202399    0.2307727  37.25  0.001516917    1.670    0.401
        18  -8.7523     41.3342      5.1398   4.3264833356e+01   7.1576857710e+01    0.2704553    0.1858861   8.11 0.0009147749    1.502    0.334
        19  -8.1926     31.7528      5.9772   4.8975805591e+01   7.3109449713e+01    0.1935844    0.1429731   7.21  0.000485315    1.256    0.204
        20  -7.4037    179.7276      5.0426   1.3302796228e+01   3.8665094841e+01    0.1500947    0.1062981 -36.69 0.0003683933    1.433    0.302
        21  -8.1608     91.9902      5.0203   2.5695871261e+01   6.0632219136e+01    0.2233786    0.1362489  36.75  0.001126534    1.665    0.399
        22  -8.2889    125.2542      3.2829   1.8849487545e+01   5.2462704007e+01    0.2208244    0.1778478  52.36 0.0006135631    1.209    0.173
        23  -8.5422    110.7692      3.1053   2.1106047182e+01   5.6145725193e+01    0.3474401     0.186366 -45.06 0.0008119267    2.109    0.526
        24  -8.2949    153.6917      2.9126   1.5169156556e+01   4.5275210267e+01    0.1754134    0.1557743 -65.78 0.0003579912    1.116    0.104
        25  -7.7846    100.4490      4.4812   2.3622483725e+01   5.8607573592e+01    0.2947762    0.1181401  86.20 0.0008100358    5.702    0.825
        26  -7.7381      2.4837      1.4482   6.7185980411e+01   7.7479184128e+01    0.1169404   0.09096318 -13.90 0.0001502247    1.010    0.009
        27  -7.7949     99.1711    119.1668   6.3741982410e+01   3.8712838211e+01    0.3314719    0.1963882  15.72  0.001164327    2.863    0.651
        28  -7.6421    225.6762    250.3253   5.9693745101e+01  -5.8088998674e+00   0.09242269   0.08061247  26.75 0.0007048359    1.688    0.408
        29  -9.3263    213.1891    249.5992   6.1728632434e+01  -4.2897668331e+00    0.2078299   0.08442499  31.00  0.001126225    2.063    0.515
        30  -7.6718     45.7933    250.2117   9.5079821168e+01   1.7094440059e+01    0.1393433     0.125319  30.97 0.0005487672    1.322    0.244
        31  -7.0328     45.9632    118.0275   8.1283801419e+01   4.7355520601e+01    0.1630821    0.1542778 -79.87 0.0003104859    1.011    0.011
        32  -7.6759     22.5119    115.9819   8.9354218744e+01   5.0265463722e+01    0.2106112   0.07902683 -50.38 0.0005331847    2.563    0.610
        33  -8.7073      1.5077    109.9728   9.6211189572e+01   5.3234756015e+01    0.2652561    0.1273883 -62.46  0.001284199    1.751    0.429
        34  -7.9703    133.8703    106.2105   5.0613426130e+01   3.4422061091e+01    0.3027773    0.2085738 -15.70  0.001124989    2.109    0.526
        35  -7.7331    123.8712    106.7659   5.3402350048e+01   3.6497389378e+01    0.2697355    0.1776816   2.80 0.0009501147    2.940    0.660
        36  -7.8634    108.8728    106.1483   5.7502543021e+01   3.9818153508e+01    0.2182896    0.1877433   1.27  0.001005706    1.368    0.269
        37  -9.0746     14.7837    104.8425   9.0681483630e+01   5.3721876394e+01     0.381627    0.1888597 -32.84  0.001654129    2.511    0.602
        38  -8.4474     67.5253    104.2374   7.0636107505e+01   4.7885973681e+01    0.3590585    0.1832917  29.39  0.001430314    2.122    0.529
        39  -7.8597     93.4561    103.3896   6.1541163458e+01   4.3540015667e+01     0.304464    0.1442937  25.85 0.0009506872    3.348    0.701
        40  -9.1069    246.0025    100.3807   2.9034432097e+01   1.2153268077e+01    0.2672675    0.1056195 -46.85  0.001161642    2.442    0.590
        41  -8.0013     64.3144    100.9844   7.1014152547e+01   4.9187032287e+01    0.2119053    0.1905995 -62.49 0.0006497853    1.092    0.085
        42  -8.1312      7.4200     96.6942   9.2443331830e+01   5.6265543645e+01    0.1906106    0.1024761 -62.60 0.0009441795    1.558    0.358
        43  -7.3144    130.1923     96.6104   4.8924467247e+01   3.7246906851e+01    0.2220493    0.1435359  37.05 0.0009367501    1.679    0.404
        44  -8.2404     11.0046     95.2760   9.0811698347e+01   5.6405666959e+01    0.1747783    0.1625931 -52.80 0.0004079988    1.091    0.083
        45  -9.0766     45.2877     92.0501   7.6207412968e+01   5.4036290252e+01     0.496921    0.2323155  34.68  0.002073497    2.178    0.541
        46  -8.6734     14.9387     92.9313   8.8852226393e+01   5.6735426106e+01    0.2180777    0.1489009  64.15  0.001144327    1.684    0.406
        47  -9.1996     21.2393     90.8133   8.5876981487e+01   5.6796023066e+01     0.387991    0.1762111 -45.68  0.001681948    2.111    0.526
        48  -8.3184     96.7169     89.8131   5.6663326495e+01   4.5984654710e+01    0.4789759     0.295953   6.14  0.001555354    3.632    0.725
        49  -7.8205    109.9311     90.5047   5.2781382201e+01   4.3041203124e+01    0.2413906    0.1515905  43.05  0.000963609    1.585    0.369
        50  -7.9385    198.6971     85.9769   3.2165334169e+01   2.3580446147e+01    0.1920641    0.1647832 -43.49 0.0003315655    1.071    0.066
        51 -10.2676     37.8933     80.6897   7.6547020544e+01   5.7698451991e+01    0.7328966    0.3984281 -15.53  0.002841959    2.984    0.665
        52  -8.1696    126.3442     83.2281   4.6021830049e+01   4.0827231036e+01    0.3670011    0.2228723  26.98    0.0013902    2.417    0.586
        53  -8.7522    242.5988     82.8098   2.5691270162e+01   1.5284102418e+01    0.1903483   0.09355681 -43.48 0.0009525592    1.693    0.409
        54  -7.7049    211.4799     83.0380   2.9594213830e+01   2.1331193224e+01     0.198141    0.1197651 -39.11 0.0003073979    1.468    0.319
        55  -7.9350     67.2635     83.5937   6.5235085533e+01   5.2891159093e+01     0.335122    0.1420092  36.15  0.001249271    2.390    0.582
        56  -9.1744     88.4889     78.4691   5.5906395494e+01   5.0122667483e+01     0.689558    0.3283764  28.58  0.002292603    3.126    0.680
        57  -9.8561      7.6724     77.4881   8.9423669865e+01   6.1036691996e+01    0.5432456    0.2384414 -34.70  0.001642141    2.477    0.596
        58  -8.2438     14.8072     72.8149   8.5223141030e+01   6.1725183955e+01    0.2329117    0.1617771 -32.96 0.0008784017    1.426    0.299
        59  -8.1832    184.2366     77.8589   3.2393577150e+01   2.8117681030e+01    0.2473463    0.1889077 -31.82 0.0008936705    1.323    0.244
        60  -8.6327     48.7241     76.9460   7.0849061375e+01   5.7244747262e+01    0.2620106     0.193843 -12.10  0.001086353    1.594    0.373
        61  -7.3445    120.4783     75.5334   4.5197194655e+01   4.3687443207e+01    0.1519405    0.1485773  50.16 0.0001752817    1.015    0.015
        62  -7.7391     74.6598     74.2766   5.9524738656e+01   5.3691307212e+01    0.2560871    0.1846576 -36.60 0.0006552328    1.421    0.296
        63  -9.1714     29.2339     68.4323   7.7303064352e+01   6.1547378723e+01    0.3716846     0.211827 -27.47  0.001213991    2.049    0.512
        64  -9.5788     24.0711     73.5357   8.1033331953e+01   6.0819112756e+01    0.5337096    0.1731171 -48.84  0.002036898    2.626    0.619
        65  -8.1376     23.4841     69.0261   8.0213051638e+01   6.1948566582e+01    0.3227093    0.1692935 -52.80  0.001006672    1.641    0.390
        66  -7.5705     72.3070     85.6802   6.3933067138e+01   5.1553054252e+01    0.1496128    0.1187528  78.50 0.0001890788    1.637    0.389
        67  -7.6728    128.7586     69.0042   4.0987830868e+01   4.2923014435e+01    0.2770758    0.1545463  24.81 0.0008843711    3.589    0.721
        68  -7.2713    116.3663     68.2912   4.3969663552e+01   4.6011113687e+01    0.1582377    0.1180357  20.51 0.0007026313    1.709    0.415
        69  -8.3987    105.9613     67.2936   4.6599016302e+01   4.8609060938e+01    0.4150047    0.2468623  24.92  0.001558939    2.568    0.611
        70  -8.9492     83.9444     63.7464   5.2520722069e+01   5.4068630157e+01    0.4336343    0.2974142   4.10 0.0008240393    2.202    0.546
        71  -8.4313     16.4543     63.5220   8.2306750578e+01   6.3821594322e+01    0.2714468    0.1708239 -44.79 0.0008713113    1.401    0.286
        72  -8.6059     19.3296     60.7507   8.0134983309e+01   6.4240941871e+01    0.3342295    0.1706475   5.34  0.001343571    2.399    0.583
        73  -8.6942    247.0000     62.9980   2.1004874782e+01   1.7198603747e+01    0.2054671   0.05865277 -33.93 0.0008010239    2.933    0.659
        74 -10.4420     61.9044     61.0525   6.0083234315e+01   5.8756621032e+01    0.6002733    0.2635619  32.17 0.0003956607    2.491    0.599
        75  -7.2730    122.3727     61.2842   4.0060173474e+01   4.5820281221e+01     0.157339    0.1145705  26.05  0.000280193    1.708    0.415
        76  -9.3166     36.2236     58.7524   7.1026426400e+01   6.2988938166e+01    0.5405596    0.3769041   7.35  0.002838544    1.590    0.371
        77  -7.4421     25.2781     61.0995   7.7207818209e+01   6.3634178731e+01    0.2354787   0.05147545 -45.14 0.0007006738    4.215    0.763
        78  -9.4477     99.3143     55.3366   4.4387141628e+01   5.2294402556e+01    0.5084472    0.3423148 -10.38 0.0005464084    2.120    0.528
        79  -8.8945     50.7963     58.5413   6.4044529898e+01   6.1063985716e+01    0.3589397    0.2225199  48.67  0.001317359    1.950    0.487
        80  -7.6686    111.2464     57.8198   4.1811844799e+01   4.9085549702e+01    0.2073361     0.172862  23.20 0.0005243876    1.339    0.253
        81  -7.8555     94.2707     54.2749   4.5570559037e+01   5.3618609199e+01    0.1947175    0.1728974 -77.78 0.0008199999    1.325    0.245
        82  -9.7152     74.8730     50.2595   5.0787504227e+01   5.8450401857e+01    0.5019386    0.3403426  -2.28 0.0004760113    2.121    0.529
        83  -7.4682    118.6964     50.8534   3.7407830556e+01   4.8434579736e+01    0.2112773    0.1685334  47.85 0.0005614519    1.212    0.175
        84  -8.9083     45.4198     48.5207   6.2840521252e+01   6.3923830568e+01    0.3570706    0.2308236 -15.49 0.0007212005    1.937    0.484
        85  -8.9287    106.4622     48.3911   3.9739155489e+01   5.1783867921e+01    0.3479563    0.2465142  22.54 0.0007187657    1.781    0.438
        86  -8.6518     10.0800     47.0953   8.1356047009e+01   6.8023543461e+01    0.2362779    0.1722282 -46.39 0.0007245856    1.162    0.139
        87  -8.8967      4.4138     45.5306   8.4210131061e+01   6.8716713168e+01    0.4150824    0.2447044  37.52  0.002205533    2.055    0.513
        88  -9.3208     14.7974     43.8384   7.7615630086e+01   6.8388633712e+01    0.6257529    0.2421465 -36.62  0.002133821    2.647    0.622
        89  -9.1171     55.0267     43.9547   5.6464168267e+01   6.3281925854e+01    0.3613448    0.2033751 -16.12  0.001401324    2.962    0.662
        90  -8.3995     93.5895     42.1490   4.1108353548e+01   5.5776038967e+01    0.3615296     0.192482  26.37  0.001294585    3.075    0.675
        91  -7.9180     98.7238     41.5929   3.9350951998e+01   5.4669476628e+01    0.2048774    0.1361517  64.05 0.0009500189    1.611    0.379
        92  -9.5193     83.7798     39.3193   4.3121770303e+01   5.8418365502e+01    0.4789503    0.2613342  39.11  0.002098355    1.851    0.460
        93  -8.4318     35.5405     37.5096   6.3400761228e+01   6.7459314879e+01    0.4502191    0.1945116 -57.18  0.001741093    3.247    0.692
        94  -8.9605     38.9694     35.0152   6.0465614958e+01   6.7447890555e+01    0.3392846    0.1989429  21.14 0.0009718675    1.846    0.458
        95  -8.1842      3.6640     40.1489   8.3149589386e+01   6.9940893850e+01    0.2651295   0.07270409 -57.17  0.001088465    2.632    0.620
        96  -8.4955      3.0024     24.5711   7.8322341564e+01   7.3231277076e+01     0.274337    0.1351068 -46.04 0.0006521117    1.647    0.393
        97  -9.7086      5.5710     33.3888   7.9799684670e+01   7.1267970751e+01    0.4166217     0.302604  -0.76  0.001779111    1.380    0.275
        98  -8.1601    124.0202     39.0705   3.1993790032e+01   4.8851894791e+01    0.2144351    0.1973625  65.24 0.0003034537    1.015    0.015
        99  -9.6787     68.4042     36.8456   4.7689892889e+01   6.2035977523e+01    0.4747769    0.2965972  26.76  0.001874394    1.803    0.445
       100  -7.6736     53.4314     38.4715   5.4836000176e+01   6.4543436114e+01    0.1351251    0.1236157   0.73 2.861677e-05    1.027    0.027
       101  -8.5773    105.7948     36.3809   3.5364606752e+01   5.3736521697e+01    0.3533825    0.2208315  41.44  0.001008665    1.618    0.382
       102  -7.9700     92.7300     36.4154   3.9055580397e+01   5.6833420642e+01    0.3025239    0.1125952  47.51  0.001107196    2.475    0.596
       103  -9.2512     96.3707     32.6511   3.6446503744e+01   5.6510116368e+01    0.3553465    0.3064321  40.05  0.001770215    1.096    0.088
       104  -9.9947     21.3087     32.4712   6.9455537082e+01   7.0129393122e+01       0.5448    0.3449354 -25.05  0.000499118    1.558    0.358
       105  -9.2202    242.9874    247.5099   5.6438347751e+01  -7.3837079134e+00    0.1596158   0.08292443  24.37  0.001042611    1.626    0.385
       106  -8.5089     55.9419     35.1011   5.2176003109e+01   6.4682802166e+01    0.2067773    0.1798254   3.79 0.0004457538    1.077    0.071
       107  -8.9223      1.3603     28.7534   8.1009041941e+01   7.2481503709e+01     0.247346    0.1489731 -54.03 0.0009439593    1.425    0.298
       108  -8.6957     71.1232     29.8610   4.3491378564e+01   6.2550062793e+01    0.2556649    0.2108668  33.15 0.0003522255    1.119    0.106
       109  -9.5305     69.5513     25.9959   4.2280681630e+01   6.3425815155e+01    0.5494039    0.2331111  51.38  0.002274893    2.252    0.556
       110  -7.9742    183.0753     27.8707   1.9135159238e+01   3.5446636730e+01    0.2022853    0.1554683 -66.14 0.0002665466    1.197    0.165
       111  -8.6343     61.8192     26.8079   4.5725794885e+01   6.4878664581e+01    0.2243312    0.1935362  10.78 0.0004535692    1.092    0.085
       112  -7.3934     42.9291     27.6781   5.4933812594e+01   6.8122408320e+01    0.2259574   0.09685566  21.89 0.0007002664    4.671    0.786
       113  -9.5678    158.8646    246.8871   7.1489995611e+01   2.9763900169e+00    0.1932343    0.1405252  11.26  0.001250601    1.271    0.213
       114  -7.4344    153.3159     26.3304   2.2467653875e+01   4.3006844805e+01     0.141191    0.1013046  37.26 0.0007046047    1.681    0.405
       115  -8.7222    109.6266     24.9923   2.9980440907e+01   5.4258243561e+01    0.2578064    0.1912908  63.29 0.0003372573    1.243    0.196
       116 -10.7441     80.2332     23.2072   3.7247585520e+01   6.1474426900e+01    0.4196893    0.2577633  36.41  0.000753917    1.626    0.385
       117  -8.7862     84.5493     21.5034   3.5122036418e+01   6.0702057974e+01     0.228032     0.214405 -30.82 0.0005367426    1.177    0.150
       118 -10.3101    128.9202     21.9886   2.4948969999e+01   4.9725496036e+01    0.2792543    0.2286513  56.14  0.001567471    1.154    0.133
       119  -8.4956     63.9686     22.5136   4.2755239714e+01   6.5052262755e+01    0.2248215    0.1772415 -49.34  0.001260326    1.576    0.366
       120  -7.7951    167.1556     20.8885   1.9010147445e+01   4.0138353798e+01    0.2002239    0.1603765 -66.92 0.0002697974    1.167    0.143
       121  -8.5637     92.2625     20.5812   3.2499357887e+01   5.9003968884e+01     0.270281    0.2310558  41.78 0.0007640806    1.080    0.074
       122  -7.6646     16.8263     16.8666   6.5001609875e+01   7.3479543778e+01    0.1692426    0.1387724 -12.03 0.0005038725    1.008    0.008
       123  -9.1657      8.7452     19.6640   7.2108784971e+01   7.3757329182e+01     0.350212    0.2818985  15.26  0.001467698    1.295    0.228
       124  -8.3105     12.9679     17.9713   6.8269870778e+01   7.3684166472e+01     0.244791    0.1561614  -4.41 0.0007246893    1.599    0.375
       125  -7.6140    172.2592     19.0081   1.7885151998e+01   3.9079109289e+01    0.1755255    0.1597437 -58.99 0.0003747986    1.117    0.104
       126  -8.4096     38.3136     17.4782   5.2067442365e+01   7.0459535130e+01    0.2209249    0.1106924 -36.24  0.001078358    2.006    0.502
       127  -8.3299    127.6881     16.2875   2.3136342030e+01   5.0645299389e+01    0.2021027    0.1911138 -25.71 0.0004718307    1.192    0.161
       128 -10.0818    191.7275    249.5994   6.5575830533e+01  -1.6816445504e+00     0.383451    0.1132394  34.84  0.001714602    2.806    0.644
       129  -9.9461    169.3500    243.8895   6.9031728762e+01   1.9958516265e+00    0.2311992    0.1894135  -5.94   0.00115063    1.215    0.177
       130  -7.5635    147.1603     14.2884   1.9519334337e+01   4.5870674484e+01    0.1969479    0.1115553  81.75 0.0008436304    1.723    0.420
       131  -9.9672    177.9866    239.7128   6.6776915906e+01   1.4281307363e+00    0.4727821    0.1834814  45.79  0.001905222    3.751    0.733
       132  -8.3566     88.0745     12.7601   3.0159253125e+01   6.0846921456e+01    0.2628895    0.1572272  44.81  0.000860707    1.523    0.343
       133  -8.9635    119.9593    238.9788   7.8503933411e+01   9.5915524436e+00    0.1814933    0.1495557  30.55 0.0003150676    1.032    0.031
       134  -7.6571     46.1550    236.8271   9.4171639949e+01   1.9536685884e+01    0.1413874    0.1303449  32.70            0    1.294    0.227
       135  -9.7581    187.6478    233.6875   6.4053513602e+01   9.7861969294e-01    0.3180072    0.1910871  28.51  0.001277751    1.396    0.283
       136  -7.2230    105.4946    233.5141   8.0997172206e+01   1.2561930080e+01    0.1273823    0.1041596  37.50 0.0005720413    1.000    0.000
       137  -7.3792     81.9828    226.7775   8.5497885501e+01   1.7035243073e+01    0.1691461   0.08886948  33.82 0.0004266302    1.607    0.378
       138  -7.3017    227.6866    223.3681   5.5241571638e+01  -2.7997274361e+00   0.09474848   0.09335656 -13.16 0.0007037178    1.772    0.436
       139  -7.1548     53.6373    210.7040   9.0538384979e+01   2.3933726883e+01    0.1192373   0.09807659 -17.22  0.000703191    1.712    0.416
       140  -7.5840    139.4697    185.4415   6.6461000012e+01   1.6487182059e+01    0.1406988    0.1274096  25.26 6.572419e-05    1.005    0.005
       141  -7.4751     76.9772    175.2035   8.0690794971e+01   2.8833257975e+01    0.1823031    0.1055485  34.35 0.0003426863    1.624    0.384
       142  -7.3391    122.7633    162.9755   6.6482106150e+01   2.4134565308e+01    0.1894605    0.1250681 -51.00 0.0008722855    1.591    0.372
       143  -8.2243     68.7767    145.5770   7.8541086907e+01   3.7267883766e+01    0.2828621    0.1950832  53.32 0.0007890917    1.479    0.324
       144  -8.4148     65.6628    143.0527   7.9078579482e+01   3.8351683181e+01    0.3704002    0.2642581 -70.90  0.001313668    1.408    0.290
       145  -7.7550    146.5153    142.9748   5.6432291517e+01   2.3951222808e+01    0.2227817    0.1472343 -43.57 0.0005107025    1.531    0.347
       146  -7.6011    247.3201    135.6686   3.6121282389e+01   6.7618305732e+00    0.1198107   0.08879181 -55.96 0.0004975716    1.694    0.410
       147  -7.3753     55.6323    134.7006   8.0872863096e+01   4.1850446322e+01    0.1492346    0.1089863 -27.54 0.0005083631    1.733    0.423
       148  -7.7684     65.2868    129.3435   7.6769154766e+01   4.1889767373e+01     0.151691    0.1106058 -32.34 0.0007020546    1.646    0.392
       149  -7.1191    113.6533    128.6752   6.1737192515e+01   3.3670749578e+01    0.1605919    0.1236648  -6.66 0.0007049921    1.745    0.427
       150  -7.9733    249.6917    126.3544   3.3928655829e+01   7.7534487484e+00    0.1232686   0.08569638 -55.11 0.0005045204    1.722    0.419
       151  -8.1586     12.2468    121.0398   9.3585575296e+01   4.9756879959e+01    0.1822009   0.09993881 -74.45 0.0008855209    1.593    0.372
       152  -7.9245    118.8389    118.8332   5.7912778161e+01   3.4883395433e+01    0.3261968    0.1866798  22.41  0.001142378    2.749    0.636
