#   1 NUMBER                 Running object number                                     
#   2 MAG_AUTO               Kron-like elliptical aperture magnitude                    [mag]
#   3 X_IMAGE                Object position along x                                    [pixel]
#   4 Y_IMAGE                Object position along y                                    [pixel]
#   5 X_WORLD                Barycenter position along world x axis                     [deg]
#   6 Y_WORLD                Barycenter position along world y axis                     [deg]
#   7 A_WORLD                Profile RMS along major axis (world units)                 [deg]
#   8 B_WORLD                Profile RMS along minor axis (world units)                 [deg]
#   9 THETA_WORLD            Position angle (CCW/world-x)                               [deg]
#  10 FWHM_WORLD             FWHM assuming a gaussian core                              [deg]
#  11 ELONGATION             A_IMAGE/B_IMAGE                                           
#  12 ELLIPTICITY            1 - B_IMAGE/A_IMAGE                                       
         1  -7.9242     50.7033      5.3340   9.4532920589e+01   7.0135721808e+01     0.122668    0.1059133 -55.60 0.0007029585    1.646    0.392
         2  -9.1782    141.6891    248.6266   1.2691021417e+02   8.8056880116e+00    0.2321949     0.151788   8.25  0.001541654    1.772    0.436
         3 -10.7681    248.6758    235.4926   1.0688446962e+02  -2.8924189217e+00    0.4956353    0.2366271 -26.05  0.003268592    2.085    0.520
         4 -11.6204    234.4207    247.8510   1.1086938218e+02  -2.4032264017e+00    0.9217683    0.5388892  25.63  0.006806466    1.303    0.232
         5 -10.8932    243.5912    248.1062   1.0947202159e+02  -3.4486179328e+00    0.4182234    0.2507742  26.17  0.002131463    1.357    0.263
         6 -11.1773    248.8749    242.6746   1.0789417852e+02  -3.5551782763e+00    0.4710319    0.2845793 -29.90  0.003457255    2.067    0.516
         7 -11.4137    241.6123    241.1777   1.0880503897e+02  -2.6108238640e+00    0.5163583    0.3569082  19.09  0.004088409    1.220    0.180
         8  -8.3881    166.0091    249.3581   1.2260676194e+02   5.6767495939e+00    0.1969743    0.1070091 -26.14  0.001215042    2.455    0.593
         9  -9.5337     62.3303    249.7165   1.4155491579e+02   1.7900821745e+01    0.2805113    0.1488106  28.01  0.001843688    1.734    0.423
        10  -9.9279     17.5799    249.2453   1.4940885339e+02   2.2236531845e+01    0.2658853    0.1324841  31.03   0.00187794    1.743    0.426
        11  -8.5482     86.3917    248.7983   1.3710700353e+02   1.5416674956e+01    0.1163398   0.09716402 -49.30 0.0009026714    1.620    0.383
        12  -9.0595     48.7838    250.1486   1.4400464217e+02   1.9213785970e+01    0.2271728    0.1164794  30.01  0.001517813    1.708    0.415
        13  -9.5806     31.6819    248.3255   1.4694164242e+02   2.1122809864e+01    0.1828795    0.1402081  22.99   0.00150727    1.531    0.347
        14  -9.5342    192.0597    246.1959   1.1765570804e+02   2.7891227640e+00    0.2470542    0.1914266 -19.76  0.001950845    1.495    0.331
        15  -9.2848    113.1202    244.9611   1.3183191052e+02   1.2820656541e+01    0.2852154    0.1980372 -29.60  0.001977579    2.052    0.513
        16  -8.1618    210.3262    245.3025   1.1443854997e+02   6.5326823309e-01    0.1109609   0.06192281  10.44  0.000210279    1.641    0.391
        17  -9.7039    146.8365    242.0816   1.2526077584e+02   8.9915247720e+00    0.3347133    0.1746187 -46.17  0.002080275    2.482    0.597
        18  -9.4035    119.8826    244.4047   1.3051680351e+02   1.2069957237e+01    0.1919187    0.1357155 -26.81   0.00133492    1.963    0.491
        19  -9.3844     94.3465    245.3932   1.3537512003e+02   1.4995532920e+01    0.2085482    0.1105505  34.13  0.001338466    1.440    0.305
        20  -8.6481    132.2710    244.1756   1.2818517461e+02   1.0560790236e+01    0.2235858    0.1056041  23.90  0.001212269    2.120    0.528
        21  -8.8473    169.2439    242.6001   1.2123038340e+02   6.0643368208e+00    0.1724507    0.1431634 -17.03  0.001309407    1.408    0.290
        22 -10.2480     25.7973    242.0477   1.4774212388e+02   2.2628969309e+01    0.3176234    0.1231809  28.98  0.001880445    2.307    0.567
        23  -8.5380    201.4789    241.0799   1.1537006206e+02   2.1707241722e+00    0.1389119   0.09617218 -19.66 0.0008921361    1.549    0.354
        24  -9.4907    159.6933    238.9861   1.2253329937e+02   7.7323655843e+00    0.3066449    0.2005451 -57.79  0.001977502    2.522    0.604
        25  -8.9540    103.3319    241.3115   1.3334790983e+02   1.4523188029e+01    0.1030144   0.07630605   7.17 0.0007043586    1.675    0.403
        26 -10.0963     50.5638    239.6995   1.4314977009e+02   2.0640303496e+01    0.2495417    0.1834769 -66.34  0.001960853    1.701    0.412
        27  -9.2464    194.8302    231.3702   1.1520510947e+02   4.0830278527e+00    0.3042944    0.2011327 -12.43  0.001869701    1.563    0.360
        28  -9.2728    183.5351    237.7605   1.1806426887e+02   4.8037353333e+00    0.2540314    0.1622322   6.18  0.001686221    1.551    0.355
        29  -8.9313    189.6953    236.6786   1.1683068073e+02   4.1386828453e+00     0.214068    0.1293515 -41.62   0.00139827    2.245    0.555
        30  -9.7151    186.5859    229.8930   1.1647008174e+02   5.3299700630e+00    0.3116462    0.2497959 -57.94  0.002148538    2.280    0.561
        31  -9.3247     90.2212    237.1028   1.3549101658e+02   1.6706167415e+01    0.2023057    0.1581214  -9.54  0.001444724    1.816    0.449
        32  -9.8959    204.0458    235.1269   1.1412009213e+02   2.4889678236e+00    0.2772895    0.2486168  -0.95  0.002042374    1.494    0.331
        33 -10.2575    216.1720    233.2141   1.1179037798e+02   1.1782311405e+00    0.3394109    0.3229217 -39.60   0.00270964    2.029    0.507
        34  -9.4738    195.5079    237.7848   1.1595965577e+02   3.2754746606e+00    0.3114704    0.1215615 -33.33  0.001684491    3.000    0.667
        35  -9.9760    173.6473    231.2615   1.1900345106e+02   6.8696875763e+00    0.4392957    0.1915002 -29.46  0.002241149    3.119    0.679
        36  -8.0856    153.4554    233.5022   1.2303579255e+02   9.2496857017e+00    0.1149489   0.08638153  22.28 0.0003935928    1.072    0.068
        37  -8.7954    133.3633    231.5394   1.2663317549e+02   1.2153088075e+01    0.1876209    0.1445451 -42.13  0.001348298    1.632    0.387
        38  -9.3314    223.2166    227.2716   1.0974802703e+02   9.2341858177e-01    0.2389796    0.2042282 -12.48  0.001469313    1.539    0.350
        39  -8.6606    157.2915    230.9863   1.2200788276e+02   9.0732434061e+00    0.1551249     0.126667  19.77 0.0006075883    1.090    0.082
        40 -10.8627     11.5074    239.2294   1.5016678972e+02   2.4307946739e+01    0.3369341    0.1454257  35.97  0.002267387    1.746    0.427
        41  -9.4328     14.9970    230.5101   1.4928292592e+02   2.5428972029e+01    0.2099686    0.1684866  -8.28  0.001659875    1.992    0.498
        42  -8.6931     44.3617    229.3186   1.4376174057e+02   2.2936176670e+01   0.09342669   0.07875157 -11.97 0.0007042186    1.769    0.435
        43  -9.7495    161.7941    224.9597   1.2039144571e+02   9.2661300522e+00    0.3585421    0.1702445 -51.30  0.001887208    3.101    0.678
        44  -9.4329    149.7739    226.1475   1.2283875693e+02   1.0729472944e+01    0.2762234    0.2048644  48.74   0.00186911    1.521    0.342
        45  -8.8923      2.8032    226.7867   1.5138041980e+02   2.7037935899e+01    0.1433333   0.09283862 -36.77 0.0009224212    2.856    0.650
        46  -9.5315    207.2047    224.1267   1.1200445823e+02   3.2992042246e+00    0.2865699    0.1424716 -37.22  0.001683127    2.418    0.587
        47  -9.2473    200.1360    224.6095   1.1331211765e+02   4.1677949854e+00    0.2467664     0.147325 -21.09  0.001489848    1.779    0.438
        48  -9.0351    128.1675    224.6975   1.2688051726e+02   1.3825242886e+01    0.2671326    0.1536938 -35.75  0.001555551    2.325    0.570
        49 -10.5807    216.3257    222.9861   1.1026746068e+02   2.2487556459e+00    0.3417576    0.1797161 -26.44  0.001889506    1.974    0.493
        50  -9.7118    181.2148    224.6272   1.1672094500e+02   6.6834598179e+00    0.2928912    0.1622931  43.57  0.001695455    1.948    0.487
        51  -9.6660    239.5436    221.9865   1.0628419368e+02  -5.4101162861e-01    0.3424715    0.2328563  16.87  0.002526527    1.126    0.112
        52  -8.2488     50.1514    222.8341   1.4227545563e+02   2.3442296394e+01    0.2301106    0.1308514   1.44  0.001075439    4.193    0.761
        53 -11.8976    216.5285    207.2552   1.0778453795e+02   3.9952887478e+00    0.7926849    0.4286449 -10.04  0.004424096    2.056    0.514
        54 -12.8827    201.5940    204.8303   1.1003621128e+02   6.3480845673e+00     1.581092     0.889503  27.12  0.009308122    1.473    0.321
        55 -11.5930    209.0985    192.0480   1.0655820311e+02   6.8902903304e+00    0.5236911    0.4431917 -12.01  0.003660382    1.281    0.220
        56 -11.2840    227.1473    219.5129   1.0792092567e+02   1.2457235657e+00    0.5994895    0.4575239  43.76  0.004144929    2.053    0.513
        57 -10.7591    232.4676    214.4896   1.0625724270e+02   1.1051952392e+00    0.4882721    0.4066647  35.32  0.003615322    1.777    0.437
        58 -11.2495    246.0726    204.0814   1.0237163408e+02   4.8250865937e-01    0.6641253     0.462402  45.68  0.004259253    2.361    0.577
        59 -11.1371    231.6718    185.9431   1.0157801868e+02   4.4160078149e+00    0.6549836    0.3853534  -4.83  0.003808257    1.651    0.394
        60 -11.3358    229.1738    200.5043   1.0452009771e+02   3.0685077226e+00    0.6825051    0.3124612 -16.37  0.003449087    2.498    0.600
        61 -12.2944    222.6971    193.0209   1.0434086477e+02   4.8296447774e+00     1.161988    0.4941779  36.00  0.005985588    2.120    0.528
        62 -11.5010    247.6595    192.8426   1.0020758838e+02   1.4754299475e+00    0.7494379    0.3752133 -25.43   0.00372442    1.815    0.449
        63 -10.5600    249.8853    180.0548   9.7581477086e+01   2.5897275278e+00    0.6906983     0.217521 -28.09  0.003122101    2.915    0.657
        64  -9.0417    173.7098    220.5648   1.1755024348e+02   8.2194930788e+00    0.2285636     0.159718 -20.65  0.001512765    1.580    0.367
        65  -9.6429    140.9411    220.5715   1.2387060318e+02   1.2715815469e+01    0.3639926    0.1632007 -33.55  0.001712851    3.403    0.706
        66  -9.7045    192.3710    220.3075   1.1407386983e+02   5.7106981499e+00    0.2441229    0.1962426  -1.97  0.001244844    1.199    0.166
        67 -10.0666    250.4995    215.9541   1.0361171641e+02  -1.2612215898e+00    0.4299169    0.1407005 -28.18  0.002207484    2.932    0.659
        68  -9.5530    247.3496    215.7029   1.0406304951e+02  -8.5876334208e-01    0.2253698    0.1274947 -28.11  0.001421804    1.839    0.456
        69 -10.3093    212.1149    216.7218   1.1003971466e+02   3.4943470344e+00    0.2527989    0.1997906 -11.22  0.001145272    1.300    0.231
        70  -9.2718    178.6601    216.3615   1.1602662901e+02   8.0838639382e+00    0.2434098     0.158872   6.66   0.00149537    1.561    0.359
        71  -9.4500    169.1036    214.6113   1.1758891809e+02   9.6508454952e+00    0.3193282    0.1753129 -28.28  0.001784571    2.197    0.545
        72 -10.2117    132.0212    213.4828   1.2478156124e+02   1.5002090517e+01    0.3765301    0.2445096 -57.41  0.002299735    2.015    0.504
        73  -8.5802    120.5169    215.4861   1.2736690476e+02   1.6254471484e+01    0.1884813    0.1034774 -40.23  0.001038757    2.354    0.575
        74  -9.7936    185.7963    212.6176   1.1414394987e+02   7.5750810617e+00    0.3122344    0.2071087 -22.26  0.001228219    1.609    0.378
        75  -8.9758    241.0913    213.8386   1.0475656687e+02   9.3694515090e-02    0.2072931    0.1258629  15.52  0.001397325    1.276    0.216
        76  -8.4634    113.3961    222.2339   1.2955379370e+02   1.6135091093e+01    0.1394414    0.1103811 -85.01 0.0009558136    1.695    0.410
        77 -10.2993    174.8134    207.5842   1.1546733907e+02   9.8011358121e+00    0.3748214     0.174719 -30.40  0.001871344    2.609    0.617
        78  -8.9715    161.8442    209.9676   1.1833811737e+02   1.1325622150e+01     0.220227    0.1458507  28.30  0.001169113    1.226    0.184
        79  -8.9039    147.5336    208.7942   1.2102532629e+02   1.3541186029e+01    0.3714886    0.1150521 -45.88  0.001569317    3.782    0.736
        80 -10.1819    125.1840    206.3840   1.2530733417e+02   1.7076000735e+01    0.3783435    0.2153986  43.11  0.002126626    1.559    0.359
        81  -9.4480    184.5006    202.1499   1.1277864173e+02   9.1427384293e+00    0.3701676    0.2123762 -16.80  0.001796904    2.106    0.525
        82  -9.9193    163.2796    201.3207   1.1678692156e+02   1.2370846141e+01      0.30857     0.267277 -27.52  0.002124033    1.330    0.248
        83  -8.2060     86.3263    205.3317   1.3344800934e+02   2.2405164911e+01    0.1118181   0.08870234  -8.99 0.0003582966    1.710    0.415
        84  -9.2837    140.8271    198.4502   1.2096547864e+02   1.6122371530e+01    0.2782075    0.1944503 -23.74 0.0009459525    1.735    0.424
        85  -9.1822    130.8172    202.1321   1.2357569181e+02   1.6974614109e+01    0.1998291    0.1684652 -31.03  0.001123646    1.372    0.271
        86  -9.9727    177.0139    197.4870   1.1347969220e+02   1.0890899760e+01    0.3301955    0.2269551  20.48  0.001369037    1.249    0.199
        87  -8.9906    147.9809    195.1974   1.1899469054e+02   1.5583574416e+01    0.1956595    0.1618205  43.93  0.001257824    1.274    0.215
        88  -9.1945    185.3363    193.8765   1.1128214569e+02   1.0156990673e+01    0.2635833    0.1918775   4.60  0.001637812    1.278    0.218
        89  -8.5003    124.5099    195.5183   1.2403834552e+02   1.8984906408e+01    0.1252446    0.1061579  31.25 0.0004855423    1.002    0.002
        90  -8.7189    193.9150    194.4825   1.0975584334e+02   8.7974064533e+00    0.1894455    0.1027482  33.39  0.001031309    1.587    0.370
        91  -8.4036    104.4864    192.9849   1.2811300323e+02   2.2252635261e+01    0.1653174   0.09748348 -31.92  0.000751753    2.534    0.605
        92  -8.1916     36.7034    192.6609   1.4321046867e+02   3.0283670060e+01    0.1027888   0.08392692 -39.86 0.0007031881    1.657    0.397
        93  -8.1648     60.5191    194.5217   1.3809610350e+02   2.7455922501e+01    0.1194133   0.09557828  54.91 0.0001933793    1.063    0.059
        94  -8.7018     78.2582    188.7390   1.3355529216e+02   2.6482717182e+01    0.2394574    0.1481755   6.01  0.001178071    2.592    0.614
        95 -12.4466    238.7037    190.2450   1.0118422347e+02   2.9500340132e+00     1.908102    0.6006445 -23.28  0.007537299    3.963    0.748
        96  -8.8728    224.9700    183.8126   1.0232575721e+02   5.6246639505e+00    0.2623289    0.1453119 -17.21  0.001412156    1.757    0.431
        97  -9.1785    147.4392    179.7155   1.1668866076e+02   1.8216487629e+01     0.222176    0.1302294 -51.13 0.0008799444    2.064    0.516
        98  -8.2329    218.6067    177.7984   1.0232847353e+02   7.3142869808e+00    0.1610469    0.1071273 -34.69 0.0007799178    1.678    0.404
        99  -8.9923    200.6092    161.7570   1.0252885201e+02   1.2347005816e+01    0.1716693    0.1171954 -38.02 0.0008339454    1.625    0.385
       100  -8.2703     89.3468    159.3298   1.2724771756e+02   3.0990534544e+01      0.13392    0.1016491 -16.86 0.0007049764    1.758    0.431
       101 -10.1043    242.0084    154.0871   9.3846085788e+01   6.7847111602e+00    0.3461292    0.2612452 -54.70  0.001957889    2.478    0.596
       102  -9.8748    240.6820    149.1302   9.3051463510e+01   7.6079562206e+00    0.2427555    0.2147031  33.99 0.0008400065    1.474    0.322
       103  -8.5346    196.6976    155.3599   1.0198795732e+02   1.3951108867e+01    0.1199977    0.1092816 -70.33 0.0007037708    1.721    0.419
       104  -8.6845    189.5243    155.5157   1.0341274460e+02   1.5158102169e+01    0.1363657    0.1154275   6.57 0.0001183753    1.001    0.001
       105  -9.8432    229.7728    153.2346   9.5648955422e+01   8.7893448877e+00    0.2680786     0.180935  11.58  0.001174486    1.389    0.280
       106  -8.7927    132.3877    149.6076   1.1479901482e+02   2.6219247864e+01    0.2568852    0.1320705 -62.95 0.0009585665    3.227    0.690
       107  -9.9388    247.3333    148.2376   9.1842106726e+01   6.7001556426e+00    0.3329706    0.2127319  52.81   0.00184247    2.373    0.579
       108  -9.6761    248.1022    143.5298   9.0762951434e+01   7.1627392956e+00    0.3851159    0.1954377  22.57  0.001895102    2.282    0.562
       109  -8.2216    188.3568    147.2958   1.0194129627e+02   1.6652303903e+01    0.1451153   0.09631689   8.46 0.0005386989    1.697    0.411
       110  -8.9063    225.3864    145.7884   9.4844078366e+01   1.0490009321e+01    0.1881612    0.1065172 -18.48 0.0009509763    1.696    0.410
       111  -8.3625    241.7788    138.3711   9.0647980009e+01   8.8017104893e+00    0.1663135    0.1045601  27.52 0.0003584207    1.584    0.369
       112  -8.6240     48.7162    138.6449   1.3546058088e+02   4.0683626057e+01    0.1306545   0.09206779 -41.37 0.0005689777    1.666    0.400
       113  -9.3342    214.6119    134.7820   9.4322859604e+01   1.3869844758e+01    0.3242152    0.2496172  78.63  0.001622064    2.594    0.614
       114  -8.5043     96.0095    134.5293   1.2139332804e+02   3.5414592899e+01    0.2141289    0.1333102  36.62  0.001018719    1.559    0.359
       115  -9.4087    236.4342    130.2982   8.9742469552e+01   1.0725368512e+01     0.252961    0.1960057 -54.09  0.001339001    1.977    0.494
       116  -8.9546    231.2012    129.7091   9.0435926079e+01   1.1689687811e+01    0.2307568    0.1635597 -16.79 0.0007225667    1.215    0.177
       117  -8.5513    249.5065    129.5075   8.7612977213e+01   8.6871552753e+00    0.1269365    0.1012955 -10.66 -0.0001324145    1.040    0.039
       118 -10.4322    201.1810    125.4433   9.4623967992e+01   1.7720328555e+01    0.4318295    0.2518682 -30.71  0.001487074    1.611    0.379
       119  -8.9193    232.0059    121.2536   8.8427042465e+01   1.2693327631e+01    0.1805469    0.1524351   2.75 0.0005029342    1.075    0.070
       120 -10.2969    213.7709    120.5368   9.1241770281e+01   1.6093131971e+01    0.3636781    0.1774625 -34.00  0.001648461    1.893    0.472
       121  -8.7221    186.8421    127.9290   9.7953289213e+01   2.0060101814e+01    0.2246692    0.1757644  -1.41 0.0006350906    1.261    0.207
       122  -7.7377    226.3540    116.6673   8.8269502592e+01   1.4329626812e+01    0.1287233    0.1026916 -56.42 0.0007045192    1.786    0.440
       123  -9.4253    242.0723    112.6550   8.4980336757e+01   1.2078225172e+01    0.2287652    0.1578751 -34.36   0.00131188    1.389    0.280
       124  -8.3117    195.3348    120.2889   9.4506571252e+01   1.9647347639e+01    0.1466637    0.1013142   9.95 0.0007019271    1.631    0.387
       125  -8.3623    153.0000    113.0399   1.0167901700e+02   2.9444431369e+01    0.2434157    0.0833042 -40.27 0.0007983663    2.914    0.657
       126  -8.4093     25.6559    111.2939   1.3922040914e+02   4.9377490324e+01    0.1348712   0.08515117  61.64 0.0001106814    1.663    0.399
       127  -8.8041    122.0060    110.2450   1.0886087632e+02   3.6203331106e+01    0.1999966    0.1252331  39.61 0.0007265764    1.587    0.370
       128  -8.5329    237.0361    107.5270   8.4534829873e+01   1.3640317136e+01    0.1817321     0.128199  44.68  0.001030313    1.587    0.370
       129  -7.9833    197.6869    106.6479   9.0737439909e+01   2.1325468210e+01    0.1517214    0.1036842   6.58 0.0007045701    1.728    0.421
       130  -8.6615    227.6892    104.3234   8.5170421495e+01   1.5788483496e+01    0.1298092    0.1000127 -51.78 0.0001837121    1.653    0.395
       131  -9.0856    246.8006    102.6751   8.2053366106e+01   1.2538759253e+01    0.2528184    0.1814998 -20.37 0.0007756416    1.157    0.136
       132  -8.9319    205.7627     98.0248   8.7141507009e+01   2.0994646473e+01    0.2696518    0.1830529 -10.67  0.001326034    1.549    0.354
       133  -8.1142    150.4864     92.4886   9.6777867441e+01   3.3839630810e+01    0.1521742    0.1444392  -4.43 0.0008103577    1.018    0.018
       134  -8.0981    236.4262     86.4948   7.9641871476e+01   1.6520022207e+01    0.1336582    0.1120588 -20.69 0.0001504461    1.027    0.026
       135  -8.5427    218.5488     85.5046   8.1919421187e+01   2.0181180999e+01    0.1393146    0.1211897 -14.10 6.189942e-05    1.016    0.016
       136  -8.8587    192.5343     83.5427   8.5619239775e+01   2.5993780974e+01    0.1461513    0.1324771  -7.25 0.0001874127    1.025    0.024
       137  -9.0933    230.9943     71.2312   7.6588399294e+01   1.9554060444e+01    0.1591052     0.113258  57.14 0.0006558224    1.612    0.380
       138  -8.7283    245.1960     65.8022   7.3556499885e+01   1.7428124961e+01    0.1880019     0.154843 -38.32 0.0004559472    1.153    0.132
       139  -8.6957    214.4000     62.1957   7.6420024540e+01   2.4201984227e+01    0.1977572    0.1137784 -36.67 0.0005984285    1.574    0.365
       140  -8.4444    173.4890     40.4733   7.6068209914e+01   3.6643708674e+01    0.1437044    0.1396551 -25.32 8.793573e-05    1.012    0.012
       141  -8.5287    105.4814     40.4877   9.1175350804e+01   5.3440366974e+01    0.1497305    0.1420168   1.74 6.543971e-05    1.027    0.026
       142  -8.9622    163.4419     30.3579   7.4344267398e+01   4.0433611801e+01    0.4078251    0.1927093 -43.69  0.001609732    2.228    0.551
       143  -8.9779    240.7589     18.4204   6.2371519954e+01   2.3521729280e+01    0.1555124    0.1127238  58.19  0.000450519    1.568    0.362
