#   1 NUMBER                 Running object number                                     
#   2 MAG_AUTO               Kron-like elliptical aperture magnitude                    [mag]
#   3 X_IMAGE                Object position along x                                    [pixel]
#   4 Y_IMAGE                Object position along y                                    [pixel]
#   5 X_WORLD                Barycenter position along world x axis                     [deg]
#   6 Y_WORLD                Barycenter position along world y axis                     [deg]
#   7 A_WORLD                Profile RMS along major axis (world units)                 [deg]
#   8 B_WORLD                Profile RMS along minor axis (world units)                 [deg]
#   9 THETA_WORLD            Position angle (CCW/world-x)                               [deg]
#  10 FWHM_WORLD             FWHM assuming a gaussian core                              [deg]
#  11 ELONGATION             A_IMAGE/B_IMAGE                                           
#  12 ELLIPTICITY            1 - B_IMAGE/A_IMAGE                                       
         1 -12.2077    210.5150      8.2771   2.6456298870e+01   3.2003445924e+01    0.3546464    0.1450301 -48.05  0.001843917    2.041    0.510
         2 -11.3317     92.9903      9.4948   4.2096266820e+01   5.9047379515e+01     0.177347    0.1071672 -89.08 0.0007411315    2.478    0.596
         3 -10.5277    223.4680      6.4509   2.5216350417e+01   2.9553927697e+01    0.1142343   0.08812813 -69.07 0.0001103957    1.005    0.005
         4 -11.3521    144.6651      5.7818   3.1982597832e+01   4.7105977323e+01    0.2954581    0.1523037 -67.49  0.001374834    2.349    0.574
         5 -10.0358    249.6858      1.3118   2.2795617353e+01   2.5108512948e+01    0.1154707   0.05551107 -61.05 0.0003077956    1.635    0.388
         6 -10.7501     67.5043      1.5247   4.5378644034e+01   6.5345464593e+01    0.1261154    0.1031172  40.70 0.0008101571    1.003    0.003
         7 -10.9752    186.9962    244.7208   7.9823463350e+01  -1.9260030736e+00    0.1766609    0.1312044  14.62 0.0004623352    1.106    0.096
         8 -11.5913    177.2892    249.4478   8.2449256806e+01  -1.4002152768e+00    0.2068119    0.1694527   9.79 0.0003022472    1.070    0.065
         9 -10.9704     97.5644    249.5896   9.9340219363e+01   9.1946000225e+00    0.1794761    0.1204342 -85.53 0.0006083818    2.082    0.520
        10 -10.7127     96.4992    244.5440   9.9032815737e+01   1.0275338605e+01    0.2466738    0.1302545 -65.31 0.0009805782    2.333    0.571
        11 -12.1834     92.8014    247.9856   1.0021157980e+02   1.0116283556e+01    0.2812912    0.1755124 -70.09  0.001174627    1.992    0.498
        12 -11.9950     88.0445    250.5853   1.0151105366e+02   1.0248710686e+01    0.3232796    0.1194602  28.87   0.00129604    2.477    0.596
        13  -9.9788     84.9622    246.5757   1.0178565262e+02   1.1399750153e+01    0.3721417     0.263996  18.66  0.001955907    1.483    0.326
        14 -17.5904    105.2984    142.0812   8.0659608111e+01   3.1992967880e+01     6.433545      4.47082  89.41    0.0261232    2.246    0.555
        15 -16.6601     67.7610    208.6314   1.0179134201e+02   2.1575607558e+01     4.220824    0.8832194  46.43   0.01131302    5.570    0.820
        16 -18.1693     67.9035    189.0013   9.9387379590e+01   2.6173299799e+01     4.408938     3.099171  37.10   0.02283539    1.354    0.262
        17 -11.2493    231.9700    227.1879   6.8662076714e+01  -4.8517400222e+00    0.1678895    0.1413213  -8.05 0.0006677015    1.256    0.204
        18 -12.4625    172.6653    226.2076   7.9848076866e+01   2.9379005997e+00     0.292877    0.1788859  51.65   0.00139554    2.532    0.605
        19 -10.5953    138.4847    226.5153   8.7307403286e+01   7.7976801611e+00    0.2517018    0.1330119 -51.24   0.00120156    2.139    0.532
        20 -10.5652    108.5076    235.9283   9.5350500240e+01   1.0286909661e+01    0.3826392       0.1718 -51.28  0.001760778    2.485    0.598
        21 -11.3219    159.6895    222.2003   8.1966816460e+01   5.4926581378e+00    0.2171751    0.1654515 -45.52   0.00110565    1.480    0.324
        22 -11.0487      3.1249    221.8137   1.1788154369e+02   2.5541344488e+01    0.1742788    0.1502201 -33.66  0.001212456    1.611    0.379
        23 -12.9028    173.3376    219.5096   7.8618316920e+01   3.9908010347e+00    0.3415136    0.2702368   0.20  0.001310433    1.145    0.127
        24 -10.1812    223.4906    220.4387   6.9021603994e+01  -2.8750770719e+00    0.1214312   0.09566422  -6.63 5.541437e-05    1.039    0.038
        25 -11.2367    101.8433    229.4339   9.6076903542e+01   1.2488072309e+01    0.2718479    0.1958715  -3.05  0.001439539    1.798    0.444
        26 -12.8941    193.6857    218.5058   7.4300189998e+01   1.2983740041e+00    0.3024362    0.2149248 -52.84  0.001693516    1.951    0.487
        27 -10.7875    138.7496    217.9104   8.5952323168e+01   9.3935859176e+00    0.1824323     0.171056   5.43 0.0005463556    1.085    0.079
        28 -13.9757    157.1846    211.6540   8.0797855408e+01   7.7998214859e+00    0.6098132    0.5298631  65.12  0.001248347    1.579    0.367
        29 -10.9554    130.1116    215.9718   8.7646518788e+01   1.1073264703e+01    0.3296885     0.176337 -41.17  0.001514189    2.068    0.517
        30 -10.4107    213.5802    215.7777   7.0025354954e+01  -9.2289855741e-01    0.1581779    0.1099085 -42.09 0.0007503571    1.624    0.384
        31 -11.7099    149.6716    214.7535   8.2981579359e+01   8.3529289484e+00    0.3016423    0.1912961 -33.07 0.0007514196    1.695    0.410
        32 -12.9037    146.8361    203.1038   8.1694977870e+01   1.1058825089e+01    0.4867484    0.3921325  32.48  0.001415981    1.186    0.157
        33 -12.2919    142.9689    212.2477   8.4096564792e+01   9.8546747133e+00    0.5373526    0.3120312 -50.11  0.001943485    1.886    0.470
        34 -11.7420    123.9946    213.4614   8.8702217022e+01   1.2503031760e+01    0.3769023    0.2296436 -54.79  0.001749269    1.830    0.454
        35 -11.6043    126.6329    209.1979   8.7425322038e+01   1.2975438963e+01    0.2633576    0.2020164 -50.40   0.00101639    1.417    0.294
        36 -13.9027    183.0719    212.5882   7.5428300228e+01   3.7863405820e+00    0.4764661    0.3408175  -7.02  0.002685188    1.389    0.280
        37 -12.2189    174.5894    212.8337   7.7235031070e+01   4.9798117775e+00    0.2486343    0.1617074  44.41 0.0007367386    1.806    0.446
        38 -14.0267    167.8385    206.3150   7.7554490858e+01   7.1728976434e+00    0.6715729    0.4238093 -18.29   0.00326861    1.855    0.461
        39 -10.7602    109.0000    243.9436   9.6200780487e+01   8.7084081849e+00    0.1452839    0.1328994 -56.42 0.0009599947    1.291    0.225
        40 -10.6133    137.3096    211.3576   8.5257863734e+01   1.0897237244e+01    0.1447094    0.1016273 -11.06 0.0006072603    1.733    0.423
        41 -10.3088    214.7514    209.9867   6.8801892291e+01  -1.7311068853e-01    0.1548724   0.09370488 -33.77 0.0002999468    1.498    0.332
        42 -12.8918    194.1936    208.0920   7.2398477316e+01   2.9587136194e+00    0.3413455    0.1563218 -33.51  0.001548376    2.170    0.539
        43 -10.6263    137.3176    208.3181   8.4768705633e+01   1.1504064240e+01    0.1433578    0.1030614  -7.95 0.0007040279    1.657    0.396
        44 -12.1083    228.6774    206.7680   6.5740923720e+01  -1.4741627679e+00    0.3727125    0.2026168  26.12  0.002057855    1.875    0.467
        45 -11.8046    220.3229    206.3637   6.7148343312e+01  -3.3768614281e-01    0.2115365    0.1802935  -9.54 0.0002893976    1.143    0.125
        46 -10.3241      6.3751    207.5532   1.1643979585e+02   2.8408279569e+01    0.1177248    0.1008707  84.67 0.0004535222    1.106    0.096
        47 -10.8072     18.8073    205.8236   1.1345416722e+02   2.7695827061e+01    0.1830602    0.1206106  63.65 0.0004646742    1.358    0.264
        48 -10.2842     14.4350    202.5691   1.1427073401e+02   2.8846144588e+01    0.2004091    0.1362155 -83.27 0.0005361844    1.349    0.259
        49 -11.1027    124.2590    206.1149   8.7511233048e+01   1.3982498027e+01    0.2648388     0.184929  35.64 0.0006348451    1.323    0.244
        50 -12.3951    127.1447    200.7217   8.5951152784e+01   1.4667693352e+01    0.7185379     0.210991 -55.23  0.002284961    3.979    0.749
        51 -11.9508    121.4758    200.4918   8.7293821400e+01   1.5610653280e+01     0.265036    0.2381883  -0.53 9.978835e-05    1.127    0.113
        52 -12.7362    123.9079    195.8042   8.5930289595e+01   1.6237480887e+01    0.4746304    0.3675199  -7.02  0.001750112    1.501    0.334
        53 -11.8836    213.1720    200.5839   6.7416284023e+01   1.5433277926e+00    0.3706892    0.2274074  50.41  0.001834724    2.636    0.621
        54 -10.7974     26.1229    200.9625   1.1134765965e+02   2.8122198645e+01    0.3400692    0.1409447  50.02  0.001453286    2.237    0.553
        55 -12.4022    225.1391    198.6656   6.4912415243e+01   2.3490432190e-01    0.3287067     0.207573 -44.72  0.001577128    1.759    0.431
        56 -12.2641    184.8363    194.3972   7.1813475194e+01   6.7504555798e+00    0.3658144    0.1770572  29.88  0.001496701    2.116    0.527
        57 -13.4193    192.5098    198.9381   7.1090995454e+01   4.7789253597e+00    0.4522134    0.2644204 -15.56  0.002117719    2.086    0.521
        58 -13.3350    190.0944    195.3382   7.0915078297e+01   5.7770161393e+00    0.4840382    0.2748867  21.47     0.002313    1.919    0.479
        59 -10.8032     16.0693    197.9507   1.1357022175e+02   2.9775695115e+01    0.3297621    0.1830097  63.62  0.001717588    1.707    0.414
        60 -11.1683    109.5001    198.0660   8.9880380080e+01   1.8010698849e+01    0.2001809    0.1424974 -56.55 0.0004066757    1.504    0.335
        61 -10.4094    238.4942    196.5348   6.2248810853e+01  -1.1601463197e+00    0.1237017   0.09581655 -15.43   3.3955e-05    1.004    0.004
        62 -12.9595    170.0132    193.8071   7.4842516172e+01   9.1884075683e+00    0.3545148    0.3474242 -87.00  0.001572486    1.324    0.245
        63 -14.4966    161.1789    192.1151   7.6481187495e+01   1.0941043086e+01    0.9611472    0.4813609  50.04  0.003781357    2.773    0.639
        64 -12.4443    113.8605    194.4795   8.8215155471e+01   1.8127857023e+01    0.3540269    0.2055336  53.27  0.001086618    2.081    0.520
        65 -11.5300    234.0359    192.0050   6.2171597122e+01   1.0648886626e-01    0.2025871    0.1282062  -7.05  0.001130813    1.673    0.402
        66 -10.7684    174.7406    243.7899   8.2131228484e+01  -2.0313301068e-01    0.1578899    0.1355083  31.11 0.0006541706    1.339    0.253
        67 -12.4423    181.0676    189.4630   7.1672939720e+01   8.2489326606e+00     0.255143    0.2067827  25.55  0.001454939    1.215    0.177
        68 -12.7966    173.4060    189.0560   7.3222744439e+01   9.5527433418e+00    0.3265097    0.2677774  82.17  0.001612695    2.001    0.500
        69  -9.9609      5.4276    190.6370   1.1567565672e+02   3.2404178034e+01    0.1207999    0.1042372  76.23 0.0001102574    1.043    0.041
        70  99.0000      8.7895    188.5936   1.1471882928e+02   3.2619475320e+01    0.4467475    0.0798082  38.07  0.001612497    3.724    0.731
        71 -11.6805    143.9696    188.2024   7.9737058303e+01   1.4577645316e+01    0.2413347    0.1599035   6.07  0.001030396    1.945    0.486
        72 -11.2430    248.5928    185.8709   5.8694662212e+01  -8.1775031355e-01    0.2418542     0.155418  -2.94 0.0008938091    1.680    0.405
        73 -11.4709    208.7095    185.9975   6.5539919093e+01   4.6184958225e+00    0.1887993     0.150949 -26.89 0.0005038924    1.117    0.104
        74 -12.5144    186.6422    185.8220   6.9826080783e+01   8.0399752426e+00    0.3505766    0.1667949  39.20  0.001140442    2.181    0.542
        75 -10.3270    116.0000    243.8918   9.4650465395e+01   7.7642654782e+00    0.2126385    0.1240184 -60.60  0.001111447    2.130    0.531
        76 -10.4086     25.4136    185.4520   1.1025481356e+02   3.1908187516e+01    0.1288625    0.1153056 -66.06 0.0007962165    1.185    0.156
        77 -11.3133    213.9088    184.5243   6.4300609721e+01   4.1044633071e+00    0.1796985    0.1233757  30.14 0.0003717575    1.527    0.345
        78 -11.2152    212.9052    194.3799   6.6331080461e+01   2.5988445824e+00    0.2729939    0.1710957 -49.25 0.0008742961    1.949    0.487
        79 -12.9592    177.0208    182.7839   7.1250013309e+01   1.0166732536e+01    0.3629025    0.2246493  23.05  0.001725513    1.737    0.424
        80 -10.3009      9.2762    182.2931   1.1416537627e+02   3.4099033925e+01    0.1208971   0.08909729 -50.59 0.0002527686    1.524    0.344
        81 -10.3011     23.0393    181.5928   1.1054146268e+02   3.3079613655e+01    0.1703665    0.1228626  32.70 0.0009577706    1.427    0.299
        82 -12.4840    191.4505    178.0042   6.7333154828e+01   8.7148313209e+00    0.3243056    0.2438387 -44.80 0.0009168226    1.387    0.279
        83 -10.3455     18.8981    174.1352   1.1099738731e+02   3.5303637592e+01    0.3549185    0.2691976 -28.59  0.002010426    1.676    0.403
        84 -13.0260    175.1313    173.4874   6.9820553219e+01   1.2290846024e+01    0.2901879    0.2426391 -38.46  0.001605792    1.185    0.156
        85 -14.8736    153.2607    167.6018   7.3543286320e+01   1.7336054398e+01    0.7724009    0.6696154   0.94  0.003149363    1.163    0.140
        86 -13.6782    158.4565    157.4832   7.0212422107e+01   1.8535249796e+01    0.5388531    0.2965745  34.98  0.002277721    1.889    0.471
        87 -12.2523    160.0767    169.5056   7.2351321974e+01   1.5719809870e+01    0.2678358    0.2122716 -61.30  0.001194023    1.529    0.346
        88 -10.1400    225.9867    168.2316   5.9035147953e+01   5.0682170554e+00    0.1502279    0.1061283  33.72 0.0005212511    1.580    0.367
        89 -12.4060    201.5975    167.4866   6.3253571612e+01   8.9957703135e+00    0.3102963    0.2285055 -81.26  0.001417432    2.786    0.641
        90 -11.7546     33.0272    168.0762   1.0648280879e+02   3.5510291457e+01     0.249735    0.2117392 -32.49 0.0005634176    1.378    0.274
        91 -11.4133    116.4365    240.0897   9.4086322184e+01   8.4031337372e+00    0.2152114    0.1537236  30.89 0.0004388793    1.194    0.163
        92 -10.3151     11.5712    167.4395   1.1242259905e+02   3.7588441202e+01    0.1296412    0.1130189 -78.92 0.0001587733    1.080    0.074
        93 -11.2741    157.9550    179.0000   7.4728559795e+01   1.4125688943e+01    0.2382997   0.08019097  37.06 0.0008024665    2.943    0.660
        94 -12.4212     37.7025    155.1000   1.0355977371e+02   3.8378063660e+01    0.5991793    0.3053562  77.79  0.002293741    2.786    0.641
        95 -14.8204     16.0194    134.4655   1.0779060534e+02   4.5715154822e+01      2.03479    0.7227554  29.12  0.008243052    2.810    0.644
        96 -14.6624     36.3674    135.7039   1.0125590759e+02   4.3595031084e+01     1.248074    0.8530433 -57.64  0.005690482    1.333    0.250
        97 -13.0802     27.1489    160.4761   1.0734147643e+02   3.8027131195e+01    0.4471285    0.3673462   8.01  0.001363332    1.444    0.307
        98 -12.1785     21.6453    159.8539   1.0887728250e+02   3.8682453304e+01    0.2695287    0.1939839  24.81 0.0003862059    1.528    0.346
        99 -14.9326     22.4422    153.0000   1.0791374119e+02   4.0379705004e+01     1.168386     1.000216  -1.06  0.005051882    1.393    0.282
       100 -13.6767    170.1812    159.9538   6.8102847491e+01   1.5871256923e+01    0.4746592    0.2664102 -48.18  0.002069384    1.814    0.449
       101 -11.1259      3.0133    161.3392   1.1429593953e+02   3.9748028974e+01     0.206078    0.1470733 -70.79 0.0002979461    1.247    0.198
       102 -11.0359    197.4760    170.4869   6.4649044323e+01   9.1204950540e+00    0.1400949    0.1199118 -15.10 0.0002345918    1.038    0.037
       103 -11.7833    184.3166    156.6744   6.4416142322e+01   1.3979628404e+01     0.243883    0.2181689 -57.60  0.000841429    1.296    0.229
       104 -17.3085     51.5726    124.3112   9.4112080512e+01   4.4863833158e+01     5.745848     2.948425  40.36   0.02408835    2.062    0.515
       105 -10.3006    222.5145    164.5092   5.8891713679e+01   6.2173688987e+00    0.1336298    0.1095509 -20.36 5.341896e-05    1.043    0.042
       106 -11.9826    212.2279    154.2069   5.8593746543e+01   9.6383712341e+00    0.2328191    0.2209497 -42.65 0.0006457875    1.219    0.180
       107 -11.0674      3.4644    154.4167   1.1362446827e+02   4.1463042060e+01    0.2975262    0.1404452  57.99  0.001347097    2.262    0.558
       108 -13.3280    150.0069    143.2566   6.9058390894e+01   2.3198418985e+01    0.5605701    0.4403947  15.27 0.0008717078    1.447    0.309
       109 -12.0772    149.2741    152.6765   7.1336159424e+01   2.1289242763e+01    0.2678205    0.2261757 -37.29 0.0004881499    1.153    0.132
       110 -13.7328    145.5165    149.3785   7.1522545197e+01   2.2727766462e+01    0.6248438    0.3478181  41.22 0.0004753698    1.824    0.452
       111 -14.8878    128.3577    147.4481   7.5458964631e+01   2.6438908067e+01    0.7886485    0.6404609  63.67   0.00293868    1.468    0.319
       112 -10.1430    142.0000    238.9775   8.8314189933e+01   5.0422295350e+00    0.1823511   0.07380449 -50.56 0.0007865699    2.834    0.647
       113 -13.3209    170.7828    150.4044   6.5913215467e+01   1.7704651589e+01    0.4296735    0.2545088  44.77  0.001441523    1.806    0.446
       114 -11.7930    179.9617    150.3226   6.3946869063e+01   1.6014822129e+01    0.1998842    0.1863945   5.68 0.0004904508    1.077    0.072
       115 -11.2701     39.8266    149.2912   1.0212602712e+02   3.9669962203e+01    0.3380588    0.1773491 -66.46  0.001493596    1.744    0.427
       116 -10.8209    224.8342    148.8325   5.5354862688e+01   8.5273625581e+00    0.1726679    0.1477146 -52.87  0.000563474    1.332    0.249
       117 -12.7609    156.4519    144.9436   6.7918872885e+01   2.1579565163e+01    0.3341933    0.2606257  49.13  0.001322172    1.392    0.282
       118 -13.0036    141.0325    144.8010   7.1608016931e+01   2.4607737251e+01    0.3543708    0.2859779   6.75            0    1.425    0.298
       119 -11.2801    213.7088    144.8327   5.6386659600e+01   1.1053089825e+01    0.3592966    0.1015959  49.32  0.001149282    4.784    0.791
       120 -12.7328     17.3794    143.4960   1.0840616171e+02   4.3262714546e+01    0.4656163    0.2329498  17.63  0.002121633    2.313    0.568
       121 -14.4992     90.0384    234.4909   9.9380967730e+01   1.3090312660e+01     1.903286    0.6684583  39.65  0.007938942    2.355    0.575
       122 -11.5230    186.4017    138.9339   6.0130787656e+01   1.7041220496e+01    0.2197489    0.1997702  55.62 0.0003823293    1.263    0.208
       123 -17.7029     55.4538    227.4187   1.0660822816e+02   1.8957562413e+01      6.18478     3.645542  20.04   0.03176376    1.938    0.484
       124 -12.0957    159.8934    135.7771   6.5023266988e+01   2.2839957234e+01    0.3657394    0.2056592 -30.35  0.001413099    2.079    0.519
       125 -12.9420      3.6857    136.1692   1.1193232770e+02   4.6109164473e+01    0.3198467    0.2428468 -71.66 0.0006526407    1.126    0.112
       126 -12.5998    139.9598    134.7832   6.9559939497e+01   2.7051021773e+01     0.465101     0.268735  32.45  0.001884869    1.925    0.481
       127 -11.7781    144.8809    131.3745   6.7524500203e+01   2.6808161314e+01    0.3985312    0.2596831  16.02  0.001415571    2.246    0.555
       128  -9.3590     14.9130    237.1151   1.1615517637e+02   2.1262322520e+01    0.2422922    0.1562659  20.42  0.001471249    1.818    0.450
       129 -10.9009    206.1739    236.1864   7.4799663975e+01  -3.0618855551e+00    0.1505965    0.1353002   9.23 0.0004523496    1.367    0.269
       130 -10.1120    106.4488    241.9515   9.6533234054e+01   9.4259565847e+00    0.2287552    0.1976312  59.84  0.001132205    1.260    0.206
       131 -13.1739    145.7845    127.1784   6.6288508745e+01   2.7533646844e+01    0.8151953    0.4312654  20.26   0.00241382    4.201    0.762
       132 -14.1003    157.6741    127.2240   6.3499192562e+01   2.5077448098e+01    0.8088163    0.6280521  77.75   0.00379784    1.755    0.430
       133 -13.0166    153.8251    129.6273   6.4964789946e+01   2.5360889222e+01    0.6002334    0.3038822  44.50  0.002186854    2.044    0.511
       134 -11.1161    138.0482    130.9530   6.9128862989e+01   2.8286771952e+01    0.2328769    0.2232063   2.65 0.0005762533    1.046    0.044
       135 -11.9930     29.6580    128.9354   1.0248424350e+02   4.6021500278e+01    0.2231447    0.1926962 -21.38 0.0004936134    1.275    0.216
       136 -10.7632    134.0272    127.4926   6.9320385210e+01   2.9874039753e+01    0.2241642    0.2021981 -40.20 -7.44366e-05    1.087    0.080
       137 -10.5588    157.6201    234.2467   8.4268980461e+01   3.6779942516e+00    0.2101769    0.1325429 -16.67 0.0005841911    1.897    0.473
       138 -13.0963    120.3275    123.6616   7.2053702825e+01   3.3513210842e+01    0.4453251    0.2626787  55.16   0.00174801    2.076    0.518
       139 -11.7376    120.2647    120.3405   7.1236682361e+01   3.4286419547e+01    0.3010502    0.2204074 -44.36 0.0005687031    1.348    0.258
       140 -10.7939    205.4760    164.5417   6.1929720412e+01   8.8967253913e+00    0.1374986    0.1182562 -19.14 5.408105e-05    1.011    0.011
       141 -12.0164    180.0859    244.4723   8.1156870616e+01  -1.0041113497e+00     0.223515    0.1816564 -17.42 0.0005420863    1.209    0.173
       142 -10.5938    189.2157    121.6455   5.5654004927e+01   1.9793773708e+01    0.1907232    0.1333146  37.20 0.0006576192    1.610    0.379
       143 -11.6162      4.1484    121.0012   1.1017669811e+02   4.9979743887e+01    0.2995605     0.160627 -22.87  0.001398048    2.344    0.573
       144 -11.8647    200.9605    120.5977   5.3305865785e+01   1.7703020799e+01    0.2702472    0.1269942  40.05  0.001106403    2.576    0.612
       145 -11.9067    160.9462    232.1677   8.3247719333e+01   3.5681159339e+00    0.3294324    0.2193012 -29.50  0.001844795    1.578    0.366
       146 -12.1979    155.9315    117.6594   6.1547882035e+01   2.7419946384e+01    0.3468945    0.2082802 -51.36   0.00113886    1.742    0.426
       147 -12.5870     11.7009    116.2397   1.0693371249e+02   5.0742498590e+01    0.3435022     0.237408 -67.51  0.001874499    1.244    0.196
       148 -11.2436    144.3993    115.2108   6.3633348906e+01   3.0378488726e+01    0.2218835    0.1427202 -53.22 0.0005268208    1.656    0.396
       149 -12.3055    105.8886    114.1834   7.3815694470e+01   3.8568798637e+01    0.4821448    0.3302262   2.77  0.001925767    2.225    0.551
       150 -12.3763     82.4742    113.8747   8.1169988931e+01   4.2946350321e+01    0.3631726    0.2543348 -69.14 0.0008626939    1.703    0.413
       151 -12.0823     99.2026    114.3561   7.5902986208e+01   3.9814951884e+01    0.3421143    0.1784694  41.46 0.0008148786    1.939    0.484
       152  -9.7917     17.5217    242.2700   1.1588226671e+02   1.9966701195e+01    0.3527793    0.2061235  48.63  0.002183489    1.366    0.268
       153 -12.1546    114.9521    111.3646   7.0410987972e+01   3.7401750663e+01    0.4650381    0.2342066 -51.08  0.001541703    2.064    0.516
       154 -13.0530     88.0760    110.9861   7.8584023032e+01   4.2666372808e+01    0.4959145    0.3149779 -25.69   0.00149502    2.063    0.515
       155 -14.0850     36.3883    126.6952   9.9815159774e+01   4.5955038913e+01     1.391134     0.331002  34.55  0.004474563    3.793    0.736
       156 -12.3776    142.0938    107.7388   6.2250543807e+01   3.2434841229e+01    0.4351159    0.3349937  12.70  0.002009475    1.670    0.401
       157 -12.0921    105.6163    104.6152   7.1339324003e+01   4.0811554657e+01    0.4675888    0.4487667 -10.21  0.001819253    1.035    0.034
       158 -11.3514     51.0982    106.9761   9.0638654499e+01   4.9360495216e+01    0.2200451     0.201422 -34.67 0.0004085067    1.042    0.041
       159 -12.9516     14.8561    105.2290   1.0413424572e+02   5.3350294363e+01    0.3644578    0.2678789 -42.47  0.001420468    1.273    0.215
       160 -12.8161    112.8339    228.4899   9.3420531623e+01   1.1125712580e+01    0.4576748    0.3501514  80.10  0.002539506    1.768    0.434
       161 -11.9134    174.8446    106.3512   5.4733540379e+01   2.5623265240e+01    0.2531264    0.2284202 -43.03 0.0002504565    1.045    0.043
       162 -11.2734    154.8242    230.7513   8.4344118161e+01   4.6774377966e+00    0.3197911    0.2090365  -7.88  0.001654824    1.835    0.455
       163  99.0000     21.0000    239.0232   1.1499240311e+02   2.0282309061e+01    0.2971889    0.1190875 -67.76  0.001491548    2.533    0.605
       164 -14.0062     75.5257     98.2282   7.9469734443e+01   4.7876140925e+01     1.013309    0.4677568  50.74  0.003432731    3.014    0.668
       165 -12.6422     58.1224     99.8780   8.6293086254e+01   5.0178023957e+01    0.3803856    0.3375031 -70.46  0.001207721    1.223    0.182
       166 -12.6342     60.4201     94.3273   8.3973039323e+01   5.1183980738e+01    0.5409501    0.2838151 -54.75  0.001525536    1.859    0.462
       167 -11.5856    178.5427     99.7632   5.2393022527e+01   2.6053377402e+01     0.250223      0.18321  86.48  0.001187701    1.825    0.452
       168 -12.8202     33.9958     94.3471   9.4445345730e+01   5.4466123221e+01    0.4196492    0.2135479 -39.77  0.001661387    1.947    0.486
       169 -10.2671    198.0285    242.7658   7.7381770747e+01  -3.0183135085e+00    0.1526311   0.08594961  26.68 0.0004226895    1.565    0.361
       170 -11.5243    237.8460     98.8171   4.3108832418e+01   1.4591310420e+01    0.2066986    0.1676553 -53.56 0.0003476442    1.123    0.110
       171 -10.8768    162.9661    100.6559   5.5687707631e+01   2.9270157600e+01     0.238569    0.1260853  73.33 0.0007045181    4.345    0.770
       172 -10.6411     98.7608     95.9576   7.1020889730e+01   4.4107601097e+01    0.2008414       0.1281 -44.63 0.0006036666    1.559    0.359
       173 -11.7938     38.7471     95.8649   9.2872441586e+01   5.3591022327e+01     0.250165    0.1917087  -1.62  0.001315603    1.429    0.300
       174 -11.4039    196.5078     93.8837   4.7854641828e+01   2.3299714627e+01    0.3631221    0.1263048 -38.54  0.001335949    2.623    0.619
       175 -12.1419     21.5177     91.4373   9.8959344490e+01   5.6316987299e+01    0.2325132    0.2128808 -35.48 0.0006118072    1.067    0.063
       176 -12.4735      2.4278     91.1840   1.0682421568e+02   5.7603899766e+01    0.2939551    0.2198315 -38.17  0.001748178    1.249    0.200
       177 -12.7010     12.4055     88.9964   1.0229840798e+02   5.7578375565e+01    0.4607264    0.2912398  88.44  0.002275734    1.972    0.493
       178 -11.1565    171.1440     88.1717   5.0835690998e+01   2.9752031548e+01    0.2011132    0.1650145 -69.78 0.0003634609    1.309    0.236
       179 -11.3568    152.0068     88.0879   5.4666249577e+01   3.4080674307e+01     0.235181    0.1781393 -76.79  0.000500183    1.658    0.397
       180 -11.2955     78.0369     88.5325   7.5804183119e+01   4.9660889889e+01    0.2232659    0.1460601  37.08 0.0001559415    1.540    0.351
       181 -13.1977     31.1356     87.4980   9.4048445645e+01   5.6424461269e+01    0.3702585    0.2589017   1.15  0.001675195    1.586    0.370
       182 -10.8611    178.0075     87.2248   4.9340780929e+01   2.8398371314e+01    0.1818308    0.1176958  56.37 0.0004418431    1.616    0.381
       183 -10.6966    162.6563     87.7109   5.2355222880e+01   3.1736604226e+01     0.146315     0.115765  17.14 0.0004231295    1.651    0.394
       184 -14.0811     53.8920     84.9937   8.3953501948e+01   5.4308441546e+01    0.6861196    0.4990426  51.14  0.003394877    1.690    0.408
       185 -11.3721     45.5309     86.5010   8.7777220868e+01   5.5062084278e+01    0.1434803    0.1301443 -31.53 1.873965e-05    1.004    0.004
       186 -13.6168    187.2374    226.1354   7.6854786571e+01   9.3716577630e-01     0.433839    0.2635248 -27.36  0.001720194    1.627    0.385
       187 -11.2728    214.1484     92.4049   4.4860722835e+01   1.9996023031e+01    0.2297964    0.1672079 -32.04 0.0005776898    1.349    0.259
       188 -12.5545    150.7306    228.1010   8.4832751568e+01   5.7326990510e+00    0.4358636    0.2913441  12.97  0.001689149    1.512    0.339
       189 -10.4938    222.5302     82.1086   4.1459712460e+01   1.9999302193e+01    0.1897039    0.1112618 -40.17  0.000395948    1.472    0.321
       190 -12.1200    206.6700     81.0377   4.3317118190e+01   2.3317612800e+01    0.3575214    0.2400528 -19.47  0.001476512    1.953    0.488
       191 -12.0796    151.8550     80.8948   5.2710829287e+01   3.5417825057e+01    0.3798802    0.2670715  26.56  0.001313168    1.896    0.473
       192 -11.0325    107.3658     80.6968   6.3805464978e+01   4.5512902346e+01    0.4331911    0.3161374  86.15  0.001866037    2.147    0.534
       193 -11.2465    165.8554    239.6727   8.3343268193e+01   1.6376728442e+00    0.2046947    0.1539079 -20.03 0.0006050327    1.331    0.249
       194 -11.4960     87.4066     79.1855   6.9655494178e+01   4.9920993787e+01    0.3094176    0.2763861 -36.21  0.001201263    1.122    0.108
       195 -12.8155     28.2971     79.8798   9.3416661206e+01   5.8517920709e+01    0.3046776    0.1766612  38.36  0.001460307    1.985    0.496
       196 -11.2004    214.1972     78.8632   4.1804470522e+01   2.2134998651e+01    0.2011511    0.1551427 -58.88 0.0004515163    1.201    0.167
       197 -10.3747    120.4636     78.5008   5.9452928366e+01   4.3050400998e+01    0.1485936    0.1455271  28.32  0.000109675    1.011    0.010
       198 -10.8304    189.8272     77.1678   4.4864726098e+01   2.7490848011e+01     0.218274    0.1729588 -61.59 0.0006614659    1.231    0.188
       199 -11.2958    182.8355     77.1660   4.5972563310e+01   2.9023472633e+01    0.1917696    0.1727953  14.50  0.001095631    1.363    0.266
       200 -12.2218     75.3986     75.7316   7.2786167124e+01   5.2889906647e+01    0.3076574    0.2713689  20.58 0.0005027267    1.106    0.096
       201 -13.2384     31.6468     74.8247   9.0594165968e+01   5.9362660968e+01    0.3953522    0.2691627  -2.99   0.00134218    1.613    0.380
       202 -12.2733     23.2992     76.1702   9.4724812786e+01   5.9842612256e+01    0.2314233    0.1752024  -9.20 0.0009013044    1.354    0.261
       203 -11.5095     15.4871     75.9876   9.8241936794e+01   6.0504470426e+01    0.1985105    0.1722973  -9.70 0.0006019699    1.178    0.151
       204 -10.5370    177.8230     75.1243   4.6279278906e+01   3.0472522263e+01    0.1833075    0.1688534  11.43 0.0004795581    1.304    0.233
       205 -11.6602    115.9356     74.2080   5.9343019502e+01   4.4866214445e+01    0.3174053       0.2136 -30.65  0.001452112    1.617    0.382
       206 -11.9332     50.7778     74.0718   8.1997028646e+01   5.7204273097e+01    0.2756504    0.1760155  -6.51 0.0008665303    2.043    0.510
       207 -10.8455    232.5830     73.2510   3.8367404117e+01   1.9418759212e+01    0.1669041    0.1453596  66.72 0.0005277616    1.332    0.249
       208 -10.5735    125.0230     73.4930   5.6733801903e+01   4.2933977621e+01    0.2230194    0.1431325  49.33 0.0004698238    1.518    0.341
       209 -10.7874    219.5341     72.4735   3.9706488684e+01   2.2044302661e+01    0.1301537    0.1091897 -56.49  0.000191208    1.023    0.023
       210 -10.2238    196.6887     70.6960   4.2275954792e+01   2.7026948437e+01    0.1265085    0.1065812  16.72 0.0003246026    1.612    0.380
       211 -12.1062     99.9327     67.3472   6.1733398293e+01   4.9644013144e+01    0.4075486    0.2961022 -57.38  0.001946302    1.671    0.402
       212 -10.6558     87.2947     68.3248   6.6121003713e+01   5.2093190377e+01    0.1498834    0.1128059   1.08 0.0004706556    1.622    0.383
       213 -11.4674    188.5425     65.6720   4.2213451740e+01   2.9568345618e+01    0.4027212    0.1755821 -52.41  0.001611311    2.508    0.601
       214 -10.2825    250.1694     66.3619   3.5168108843e+01   1.7213660432e+01     0.140075    0.1018162 -84.86  0.000168725    1.497    0.332
       215 -11.0297     73.9934     66.2423   7.0125132535e+01   5.5054267861e+01    0.2030747    0.1829399  18.12 0.0004588524    1.056    0.053
       216 -11.5806    114.4445     64.0503   5.6494087829e+01   4.7005541203e+01    0.3835704    0.2351526 -61.99 0.0006894695    2.411    0.585
       217 -14.0551     25.2419     64.0059   9.0506903742e+01   6.2429518825e+01    0.6748119    0.3169388  13.90  0.002973259    2.418    0.586
       218 -11.1837    215.2385     62.6279   3.8021192905e+01   2.4346192919e+01     0.156997    0.1157246  57.70 0.0002621213    1.527    0.345
       219 -11.4616    109.3133     60.3609   5.6666273093e+01   4.8792103496e+01    0.3321314    0.2367479 -39.51  0.001639862    1.464    0.317
       220 -11.4546     95.9979     61.9577   6.1113499667e+01   5.1450975999e+01     0.211266    0.2006834  24.82  0.001197732    1.014    0.014
       221 -11.5481     45.3577     61.3943   8.0226402155e+01   6.0646014847e+01     0.287111     0.200113 -21.10  0.001483346    1.478    0.324
       222 -12.2599     41.2653     60.1131   8.1655446092e+01   6.1455495241e+01    0.3463495    0.1910333  19.49  0.001064238    1.962    0.490
       223 -11.7121     13.1644     62.2167   9.5946918833e+01   6.3832671718e+01     0.207571    0.1501232 -32.83 0.0007722175    1.200    0.167
       224 -11.7724      2.5051     59.2691   1.0058993003e+02   6.5144997572e+01    0.3026794    0.2044423 -41.26  0.001127279    1.210    0.174
       225 -11.4098    153.5033     57.5502   4.5773101453e+01   3.8861927776e+01     0.235378    0.2258343 -81.09 0.0005629887    1.033    0.032
       226 -10.4373    119.5525     58.5157   5.3367471202e+01   4.6745022279e+01    0.1435008    0.1374585  48.61 0.0001444955    1.006    0.006
       227 -11.8137    193.0761     57.2241   3.9503127883e+01   2.9813053188e+01    0.2306193    0.1402462 -76.41  0.001093942    2.026    0.506
       228 -11.1012    139.0126     56.8082   4.8388577437e+01   4.2420299698e+01    0.2337422    0.1608798 -87.90  0.000689525    1.920    0.479
       229 -10.8386     98.8447     57.1894   5.8586594042e+01   5.1650486488e+01    0.2013699    0.1669824   9.68 0.0005753072    1.328    0.247
       230 -12.9394     28.9466     56.4472   8.6321455372e+01   6.3675025758e+01    0.4868739    0.2457724  42.16  0.002174939    2.578    0.612
       231 -10.8473    225.0032     56.5014   3.5603795655e+01   2.3253136060e+01    0.1737198   0.09359194 -78.56 0.0008100226    2.491    0.599
       232 -11.3936    126.1720     55.0783   5.0664282992e+01   4.5732290445e+01    0.2717989    0.1869953  89.26 0.0008903657    2.027    0.507
       233 -11.0485    111.4982     53.7362   5.3840484967e+01   4.9363829769e+01    0.3246371    0.1535418  41.92  0.001285462    2.192    0.544
       234 -11.1004     94.2997     51.5438   5.7951702228e+01   5.3561174776e+01    0.2455928    0.1751442  -4.72  0.001174681    1.793    0.442
       235 -12.3095     17.2847     51.1038   9.0553521169e+01   6.5910886217e+01    0.3170998    0.1890362 -44.39 0.0007743605    1.432    0.302
       236 -11.6933    174.5946     50.6459   4.0406111921e+01   3.4912630166e+01    0.3582353    0.1855538  63.51  0.001660572    1.882    0.469
       237 -11.6938     37.5437     49.9562   7.9788946581e+01   6.3962693318e+01    0.2103473    0.1673926  14.68 0.0007809947    1.201    0.168
       238 -11.1725     29.0719     50.0491   8.4048909545e+01   6.4965031177e+01    0.1861279    0.1631191  62.91 0.0004820926    1.654    0.395
       239  -9.9437    133.3054     48.3012   4.6944253637e+01   4.5035856242e+01    0.1413879    0.1059615  29.08 0.0002970812    1.594    0.373
       240 -10.9210      1.6957     47.5549   9.7975836342e+01   6.7741665918e+01    0.1584308    0.1092769  23.51 0.0009475093    1.646    0.392
       241 -10.3811    181.3133     51.3196   3.9622501747e+01   3.3278556689e+01    0.1289273    0.1042243  28.45 0.0002964068    1.651    0.394
       242 -10.7875    153.3460     44.7884   4.2127185198e+01   4.0717339729e+01    0.1803354    0.1317814 -19.95 0.0003935817    1.655    0.396
       243 -10.7633     90.1069     44.8564   5.6772590073e+01   5.5503122941e+01    0.1943044     0.185644  67.87 0.0002817798    1.177    0.150
       244 -11.7891    195.4650     43.9962   3.6000190997e+01   3.1100806668e+01    0.2288766    0.1623034 -82.98 0.0004129705    1.409    0.290
       245 -10.9719    189.1827     43.1426   3.6541656263e+01   3.2604999886e+01    0.1900033    0.1366057 -71.62  0.000683677    1.360    0.265
       246 -11.3966    145.0526    226.0958   8.5780500027e+01   6.9188056031e+00     0.358504    0.2424866 -68.33   0.00180657    2.287    0.563
       247 -11.4301    146.0016     39.6538   4.1873309495e+01   4.3154566180e+01    0.1909339    0.1635197  70.25  0.001107163    1.081    0.075
       248 -11.1757    104.5205     39.9491   5.0839611935e+01   5.2983106785e+01    0.2563555    0.1715841  41.89 0.0004673755    1.428    0.300
       249 -11.9303     36.0443     39.5536   7.6430124754e+01   6.6084109528e+01    0.3317167    0.2141631  -1.16  0.001727702    1.722    0.419
       250 -11.6792     59.9862     37.9536   6.4775382861e+01   6.2559342913e+01     0.281915    0.2161972 -45.58 0.0008200708    1.561    0.360
       251 -10.6058    110.4454     37.4844   4.8465217586e+01   5.1936542473e+01    0.1380499    0.1269694  50.82 0.0001260109    1.006    0.006
       252 -12.0385     11.1233     35.9455   8.8722134018e+01   6.9457940241e+01    0.3667921    0.2535089 -44.04  0.002245497    1.303    0.233
       253 -11.5225    222.9079     33.5913   3.0896189630e+01   2.6638644983e+01    0.2284836    0.1518044 -27.91 0.0008379429    1.735    0.424
       254 -11.6007     43.6903     33.8803   7.0225630504e+01   6.5934119191e+01    0.2413256    0.1758448  33.52 0.0006464929    1.342    0.255
       255 -12.7103     30.6947     32.9595   7.6393301407e+01   6.7930933340e+01    0.4290397     0.249216  -4.16  0.002078173    2.160    0.537
       256 -11.4543    106.8259     32.4130   4.7527277891e+01   5.3425302738e+01     0.245663    0.1978162 -18.48 0.0006569524    1.389    0.280
       257 -11.4260     47.6949     32.9859   6.7952009777e+01   6.5439113342e+01     0.180599    0.1523951 -11.24 0.0001914537    1.111    0.100
       258 -10.8042    214.9930     31.5008   3.1136074127e+01   2.8502043705e+01    0.1749151   0.08529033 -76.32  0.000809757    2.473    0.596
       259 -11.7796    169.4610     31.0700   3.5920498669e+01   3.8630584749e+01    0.2298995    0.1703321  83.66  0.001319122    1.263    0.208
       260 -11.3642    139.8497     29.9290   3.9975617279e+01   4.5828424579e+01    0.3061881    0.2224661  29.09  0.001095388    1.724    0.420
       261 -12.5161     74.8815     30.1932   5.5881597820e+01   6.0778273592e+01    0.3572195    0.1671877  54.51  0.001178361    2.186    0.543
       262 -12.2754     38.8893     29.2565   7.0479768684e+01   6.7392629257e+01    0.3133669    0.2279308  13.31 0.0008102978    1.262    0.208
       263 -11.0305    155.9995     29.3324   3.7278146838e+01   4.2017026586e+01    0.1873311    0.1570414  76.97 0.0004044286    1.080    0.074
       264 -10.1340    178.9919     28.0089   3.3957624140e+01   3.6780384172e+01    0.1511212    0.1319145 -69.84 0.0009629739    1.055    0.052
       265 -12.2880    101.5792     25.6997   4.6327892482e+01   5.5438320837e+01    0.2695957    0.2292037  57.40 0.0008572688    1.078    0.073
       266 -12.6958     84.3151     23.6822   5.0165587945e+01   5.9566909978e+01    0.3604441    0.2848412  86.46  0.002012223    1.685    0.407
       267 -11.5567     81.6966     20.6961   4.9695053729e+01   6.0474566055e+01    0.1998927    0.1692323  29.63 0.0004125597    1.089    0.082
       268 -10.3948     20.5805     23.1642   7.7606600411e+01   7.0792802557e+01    0.1761398   0.09710561 -29.95  0.000944417    1.698    0.411
       269 -10.4295    185.4497     22.4457   3.1862054008e+01   3.5941415350e+01     0.124637    0.1071415 -80.88 0.0001154973    1.024    0.024
       270 -10.9284    172.3997     21.2417   3.2969260797e+01   3.9057694709e+01    0.1761094    0.1063885 -45.26 0.0007782065    1.603    0.376
       271 -10.8249     30.4920     17.4639   6.9104981558e+01   7.0366121587e+01    0.2059772    0.1121205 -46.10  0.001036993    2.432    0.589
       272 -10.5768     10.8111     15.7929   8.0109575580e+01   7.3032889636e+01    0.1474765    0.1267285  12.91 0.0003730535    1.321    0.243
       273 -10.8810    234.3209     13.3352   2.5911069181e+01   2.6712833731e+01   0.09784287    0.0860049  41.55 0.0007049929    1.705    0.414
       274 -11.3941     85.5122     11.4970   4.4763800446e+01   6.0562477757e+01    0.1295975      0.11201  48.12 9.855899e-05    1.030    0.029
       275 -11.1058    238.1387    248.7190   7.1056479150e+01  -8.3893068431e+00    0.1847261       0.1275 -28.80 0.0008273988    1.444    0.308
       276 -11.1258    127.4277    247.0724   9.2548267495e+01   5.6355590091e+00    0.3099418    0.1734297 -41.13  0.001625788    2.087    0.521
       277 -10.4578    139.6263    247.2075   8.9941037415e+01   3.9512615609e+00    0.1541117    0.1115368 -30.04 0.0002089994    1.544    0.352
       278 -10.5126    170.0434    246.4931   8.3482096354e+01  -8.9733311658e-03    0.1857514     0.103685  29.38   0.00061054    1.532    0.347
       279 -11.7617    156.3762    242.6468   8.5758828310e+01   2.4357148925e+00    0.4726772    0.2555375  46.79  0.001849717    2.310    0.567
