#   1 NUMBER                 Running object number                                     
#   2 MAG_AUTO               Kron-like elliptical aperture magnitude                    [mag]
#   3 X_IMAGE                Object position along x                                    [pixel]
#   4 Y_IMAGE                Object position along y                                    [pixel]
#   5 X_WORLD                Barycenter position along world x axis                     [deg]
#   6 Y_WORLD                Barycenter position along world y axis                     [deg]
#   7 A_WORLD                Profile RMS along major axis (world units)                 [deg]
#   8 B_WORLD                Profile RMS along minor axis (world units)                 [deg]
#   9 THETA_WORLD            Position angle (CCW/world-x)                               [deg]
#  10 FWHM_WORLD             FWHM assuming a gaussian core                              [deg]
#  11 ELONGATION             A_IMAGE/B_IMAGE                                           
#  12 ELLIPTICITY            1 - B_IMAGE/A_IMAGE                                       
         1 -14.0121    192.5984     23.6856   6.6070045284e+01   3.3505888214e+01     2.011369     1.315587   1.93  0.008092083    2.344    0.573
         2 -14.0798    199.9545     18.6975   6.3854898288e+01   3.2190875721e+01     1.518775      1.36489 -69.99  0.006601151    1.077    0.072
         3 -13.8042    205.4794     11.4684   6.1390509000e+01   3.1578443410e+01     1.425213    0.8043301  50.03  0.001355185    1.958    0.489
         4 -13.3825      5.2925      9.8596   1.1689420688e+02   7.2808291764e+01     1.493563    0.5457021 -40.97  0.008079445    2.086    0.521
         5 -11.8044     68.8961    193.2014   1.3416583000e+02   2.7143146681e+01    0.3703535    0.2680774 -41.18  0.001667934    2.009    0.502
         6 -11.4056    246.8801    249.4402   1.0723119750e+02  -1.0670732083e+01    0.4631536    0.1861573  30.79  0.002477794    2.069    0.517
         7 -10.9443    142.8102    241.4322   1.2482263783e+02   6.5758659699e+00    0.3212757   0.09984261  40.54  0.001038098    2.566    0.610
         8 -11.9131    139.7507    248.6298   1.2626792894e+02   5.9785969056e+00    0.3903533     0.285085 -74.27  0.002504502    1.871    0.466
         9 -11.7782    125.0020    244.7573   1.2858555326e+02   8.9337892994e+00    0.3410402    0.2257064 -85.65  0.001991389    2.127    0.530
        10 -11.6998    124.0916    249.6826   1.2929838368e+02   8.3049012640e+00    0.5712212    0.1140557  41.19  0.002010075    3.804    0.737
        11 -12.6793     99.1303    247.0388   1.3364837930e+02   1.2557857504e+01    0.7042744    0.3538476  55.89  0.003908883    1.726    0.421
        12 -13.3702     78.4732    232.8901   1.3619596988e+02   1.8020993351e+01    0.7213619    0.4519404  66.13  0.004450718    1.423    0.298
        13 -12.4066    107.5393    247.0465   1.3209364606e+02   1.1287594962e+01    0.5255505    0.2534519  46.30  0.002780167    1.583    0.368
        14 -11.7874    103.4705    242.9958   1.3244535899e+02   1.2575288591e+01    0.3629428    0.1986958  51.64  0.001666276    1.455    0.313
        15 -12.7436     89.8929    245.6278   1.3521792599e+02   1.4154766950e+01    0.5923979    0.3242633  60.31  0.002100585    1.632    0.387
        16 -11.9330     84.9316    239.2934   1.3556178440e+02   1.5959823115e+01    0.3147971    0.2506334 -86.63  0.001403759    1.329    0.248
        17 -13.4036     30.6844    206.0445   1.4322456747e+02   2.9251921106e+01     3.263047    0.4374764  53.63   0.00787143   10.235    0.902
        18 -14.6309     33.8282    247.3248   1.4524475115e+02   2.1192302111e+01     9.879534     2.468996  31.43   0.02289975   15.231    0.934
        19 -15.3324     21.5944    174.5037   1.4270356720e+02   3.6768556787e+01     5.911061     1.969542  86.25   0.01998871    5.002    0.800
        20 -15.4917     53.5350    214.9139   1.3944019171e+02   2.4780265237e+01     5.838948     2.240013  49.63   0.02914467    2.119    0.528
        21 -11.7997     73.8038    186.0912   1.3225666522e+02   2.7956736293e+01    0.2919695     0.230731 -55.32 0.0007955816    1.472    0.320
        22  -8.7960    181.5031    192.4782   1.0966219987e+02   7.6786201008e+00    0.1389631    0.1218236  31.11 -2.721101e-06    1.003    0.003
        23 -11.1463     82.5623    174.4590   1.2872184310e+02   2.9186044277e+01    0.2369479    0.2179515  81.36 0.0002339512    1.094    0.086
        24 -13.3955     70.0844    171.7888   1.3131211115e+02   3.1616287244e+01     0.478154    0.2837825 -43.97  0.001559823    2.262    0.558
        25 -10.8943    105.0158    173.1496   1.2321076805e+02   2.5810511470e+01     0.648909    0.1606674  45.06  0.002028613    3.684    0.729
        26 -12.7467     57.6936    131.1925   1.2849627062e+02   4.2637488971e+01     1.838872    0.6329715 -75.03  0.004774536    6.418    0.844
        27 -13.3233     67.7713    145.0227   1.2801447598e+02   3.8055284692e+01     1.329916    0.7168379  85.18   0.00246062    2.926    0.658
        28  -9.4297    163.8645    156.8768   1.0645377835e+02   1.7753455442e+01    0.2062686    0.1805116 -89.46  0.001076709    1.350    0.259
        29 -10.0887    101.3037    149.9190   1.2011395480e+02   3.1620616166e+01    0.2925842    0.2584847 -31.32 0.0007636641    1.359    0.264
        30  -9.3512    104.1673    145.2584   1.1849086184e+02   3.2169879787e+01    0.3110811    0.1888074 -34.39  0.001299089    2.318    0.569
        31 -12.1798     90.0938    149.0274   1.2284015233e+02   3.3730845703e+01    0.2782723    0.2615236 -30.92 0.0004717381    1.267    0.211
        32 -13.5988     44.5510    226.6808   1.4205727645e+02   2.3642824172e+01    0.6413285    0.3898501  58.83 0.0009328096    1.278    0.217
        33 -10.5809     35.9633    141.3362   1.3587748637e+02   4.2769881411e+01    0.1742472    0.1534713  83.22 0.0008223921    1.075    0.070
        34  -9.7538    111.6408    135.6267   1.1457423181e+02   3.2969877618e+01    0.3080159    0.2389176 -11.89  0.001211869    1.853    0.460
        35 -10.6411     99.1928    132.6214   1.1726293415e+02   3.5949398612e+01    0.2750058    0.2227637 -30.33 0.0005666905    1.487    0.327
        36 -14.1963     10.1863    206.6957   1.4716815591e+02   3.1225428768e+01     1.046356    0.8327832 -89.94  0.002539053    1.227    0.185
        37 -12.1399     43.6243    127.8412   1.3191329006e+02   4.5091357592e+01    0.4297905     0.266485 -73.66  0.002303106    1.478    0.323
        38 -10.5613    103.8683    236.7907   1.3173356759e+02   1.3565303547e+01    0.1776004    0.1474894  46.18 0.0005875799    1.179    0.152
        39  -9.4421    108.2457    122.9556   1.1267124710e+02   3.6482175977e+01    0.1947061    0.1843075 -58.11 0.0002435283    1.060    0.056
        40 -14.8131      3.0852    230.5453   1.4957300218e+02   2.7409078017e+01     7.503127          nan -72.40   0.02162012   10.239    0.902
        41 -11.1524    168.0324    113.0488   9.5259855068e+01   2.5516440761e+01     0.370864    0.3143754 -85.04 0.0007889827    1.389    0.280
        42 -12.3996     89.1178    166.1783   1.2592850821e+02   2.9997749539e+01    0.9835882    0.5056126  53.53  0.002012418    1.986    0.496
        43  -9.6155    204.7427    110.9028   8.7297848948e+01   1.7268712204e+01    0.3923403     0.173347  38.12  0.001341822    2.956    0.662
        44 -11.8056     43.6511    109.5962   1.2885172167e+02   4.9341849760e+01    0.4396609     0.218182  32.61  0.002129248    2.210    0.548
        45 -10.7736      1.6371     88.4439   1.3879260586e+02   5.7492935055e+01    0.3036891    0.0714281 -66.07  0.001258048    2.855    0.650
        46 -13.8504      5.3967    150.4706   1.4441897255e+02   4.3418286464e+01     1.954635    0.6604766  30.86  0.009663389    3.076    0.675
        47  -9.3679    156.0018     76.7524   8.7918197605e+01   3.5268806036e+01    0.2082618    0.1290489  54.36 0.0004918686    1.565    0.361
        48  -9.4969     13.4710     61.4934   1.2954245841e+02   6.2624672117e+01    0.1205492   0.09348147 -47.23 1.236356e-05    1.049    0.046
        49 -10.4070    128.3350     54.6216   8.7477929376e+01   4.5797731290e+01    0.2786207    0.2591407  88.63 0.0006584689    1.189    0.159
        50 -11.0566    120.2364     49.5042   8.7800690690e+01   4.8513159689e+01    0.4491071    0.3030237  81.36 0.0009247244    2.279    0.561
        51 -10.2490    228.4183    205.2197   1.0302824425e+02  -2.6482878380e+00    0.2419621    0.2112483 -47.83 0.0008305945    1.599    0.374
        52 -13.6516     13.3748    239.3410   1.4825243798e+02   2.4817453995e+01     1.266547    0.7660238 -85.07  0.007669691    1.487    0.328
        53 -10.2534    192.0349    193.0707   1.0765958933e+02   5.5966706369e+00    0.4377375    0.2513308 -64.85  0.001590832    4.268    0.766
