#   1 NUMBER                 Running object number                                     
#   2 MAG_AUTO               Kron-like elliptical aperture magnitude                    [mag]
#   3 X_IMAGE                Object position along x                                    [pixel]
#   4 Y_IMAGE                Object position along y                                    [pixel]
#   5 X_WORLD                Barycenter position along world x axis                     [deg]
#   6 Y_WORLD                Barycenter position along world y axis                     [deg]
#   7 A_WORLD                Profile RMS along major axis (world units)                 [deg]
#   8 B_WORLD                Profile RMS along minor axis (world units)                 [deg]
#   9 THETA_WORLD            Position angle (CCW/world-x)                               [deg]
#  10 FWHM_WORLD             FWHM assuming a gaussian core                              [deg]
#  11 ELONGATION             A_IMAGE/B_IMAGE                                           
#  12 ELLIPTICITY            1 - B_IMAGE/A_IMAGE                                       
         1 -14.3721    164.9090     54.6333   7.1441589950e+01   3.7112313744e+01     2.190256     1.604028  16.02  0.006700667    1.707    0.414
         2 -14.2298    178.8796     39.0116   6.3768335038e+01   3.5764453871e+01     1.155195    0.9354845  52.12  0.002940499    1.241    0.194
         3 -13.7338    183.2101     32.1870   6.0835826082e+01   3.5510513917e+01    0.7541906    0.6429459  19.23   0.00157774    1.277    0.217
         4 -12.9646    189.9428     14.5743   5.4143078117e+01   3.5753934053e+01    0.4634043    0.3825462 -24.74  0.001510275    1.216    0.178
         5 -14.7247    198.6356      6.8613   5.0684974057e+01   3.4219025980e+01      1.36217      1.23948   8.92  0.004279919    1.195    0.163
         6 -11.9505    229.9870      2.0000   4.6374642037e+01   2.6605746469e+01    0.3850201    0.1643266  71.02  0.001621062    2.307    0.567
         7  99.0000     12.5071    205.8471   1.3241471417e+02   3.2137224905e+01     0.362685    0.1555205  43.36  0.002439398    1.948    0.487
         8 -13.8289    248.2451    244.3747   9.7693669767e+01  -5.5043320328e+00     0.910717     0.581853 -15.22  0.006992406    1.735    0.424
         9 -17.5149     60.0808    237.0142   1.2639740753e+02   2.1995171069e+01     7.378706     5.542549  79.42   0.05789471    1.223    0.183
        10 -12.0553    193.4691    195.4930   9.9093472799e+01   8.0456317495e+00    0.8717553    0.4871488 -65.05   0.00316259    6.051    0.835
        11 -11.5441     28.4795    184.8779   1.2853194921e+02   3.4335350324e+01    0.1523543    0.1207862  65.97 0.0003979194    1.189    0.159
        12 -11.7981    159.9230    198.0419   1.0538567797e+02   1.3448974772e+01    0.4176583     0.324109  75.42  0.001498397    1.575    0.365
        13 -10.1088    169.1942    178.0673   1.0060705360e+02   1.4834597069e+01    0.2065489    0.1725358 -78.60 0.0005045887    1.534    0.348
        14 -11.2138    204.7120    176.5562   9.3942193312e+01   8.5667162371e+00    0.3413659    0.2840801 -46.93  0.001357032    1.503    0.335
        15 -10.9897      1.4523    177.2930   1.3306461978e+02   3.8233662117e+01   0.09347135   0.07190147  74.38 0.0003971772    1.161    0.139
        16 -11.9862    153.3228    201.1134   1.0699848509e+02   1.4104998109e+01    0.2497644    0.2358593  46.20  0.001536218    1.158    0.136
        17 -10.4904    165.1551    172.0538   1.0035473484e+02   1.6521031475e+01    0.1894332    0.1708216  57.97 0.0005290211    1.104    0.095
        18 -10.2990    205.0271    166.8367   9.2095701379e+01   9.8407383415e+00    0.3109358    0.1879773  29.42  0.001120508    1.695    0.410
        19 -11.4028    230.1692    166.4769   8.7758437093e+01   5.2542885419e+00    0.2826394    0.1626136 -47.56  0.001386151    2.531    0.605
        20 -10.3161    200.9479    168.4882   9.3125676539e+01   1.0373351031e+01    0.2206964    0.1936383 -37.28 0.0006917838    1.310    0.237
        21 -12.1043    192.7215    164.6555   9.3884014790e+01   1.2481531304e+01    0.5263636    0.3491704 -59.86  0.001835308    2.278    0.561
        22 -11.6508    189.2124    154.9907   9.2664023219e+01   1.4626722340e+01    0.4168617    0.3863435  55.54  0.002041968    1.160    0.138
        23  -9.9528     17.8801    167.5666   1.2944776958e+02   3.8663894227e+01     0.133482   0.09521386  44.00  0.000987372    1.512    0.338
        24 -10.7622    113.1863    160.2352   1.0887609860e+02   2.7853516806e+01    0.2113262    0.1906238  69.50 0.0006094506    1.051    0.049
        25 -10.3270    128.0434    155.7066   1.0500754528e+02   2.6162305719e+01    0.2586837    0.1603754 -87.19  0.001147831    2.587    0.613
        26 -12.4149    134.0275    146.0619   1.0202175295e+02   2.6913408701e+01     1.170582     0.302508 -55.36  0.003213627    5.861    0.829
        27 -10.1483    128.9686    139.7733   1.0194038787e+02   2.9077265201e+01     0.223345    0.1753701  72.19  0.001222775    1.347    0.258
        28 -12.5551    149.6109    149.8056   9.9437984175e+01   2.3263562078e+01    0.7053697     0.328393  60.76  0.002585001    3.212    0.689
        29 -10.6129    163.6591    151.3573   9.6880803942e+01   2.0258565892e+01    0.2054502    0.1581777  79.08  0.001010169    1.664    0.399
        30 -10.6317    174.4477    148.8749   9.4259890814e+01   1.8543850894e+01    0.2780265    0.2334551  77.22 0.0006889161    1.428    0.300
        31 -12.9367    100.6772    137.5989   1.0796072255e+02   3.4478602639e+01    0.4035388    0.2920332  40.75 0.0008490143    1.458    0.314
        32 -12.1712    105.9392    130.8556   1.0551521466e+02   3.5013121264e+01    0.4427613    0.3132539 -64.45  0.001196464    1.398    0.285
        33 -11.3902    105.8469    124.8334   1.0438112811e+02   3.6300919559e+01    0.2466742    0.2355799  35.84 0.0005257939    1.218    0.179
        34 -10.3419    135.0000    119.9519   9.6463710611e+01   3.1863794032e+01    0.2871765    0.1439839 -43.13  0.001030601    2.081    0.519
        35 -11.0902    136.0000    129.0111   9.8210593320e+01   2.9861953382e+01    0.3676719    0.1710752 -49.41   0.00152049    2.211    0.548
        36 -10.7116    135.3844    125.2013   9.7534538679e+01   3.0738838707e+01    0.3304785    0.1898028 -43.76   0.00138234    1.822    0.451
        37 -11.4137    117.5466    129.0624   1.0244317826e+02   3.3340999646e+01    0.2960032    0.2493724 -33.46 0.0007428384    1.429    0.300
        38 -10.9499    160.7094    127.9036   9.2602363706e+01   2.5048082708e+01    0.3597052    0.2808577 -70.00  0.001463218    1.562    0.360
        39 -10.6537    121.3277    123.5372   1.0042507122e+02   3.3783779931e+01    0.2301794    0.1689608 -31.67 0.0006562087    1.724    0.420
        40 -10.6804     25.2026    206.3601   1.3032961002e+02   3.0816286064e+01   0.08621607   0.06342706 -74.69 0.0006774348    1.549    0.354
        41 -10.5583    112.4060    118.4269   1.0147815390e+02   3.6496879687e+01     0.233698    0.2187729  78.08 0.0001183929    1.038    0.036
        42 -10.9728    167.7493    112.7081   8.7558929785e+01   2.6310576774e+01    0.3685234    0.2840689 -82.42  0.001338145    1.749    0.428
        43 -10.5801    134.6742    105.5195   9.3122619757e+01   3.4833958601e+01    0.3711357    0.1437464 -43.35  0.001329775    2.595    0.615
        44 -10.7144    205.5364    110.1457   7.9633370429e+01   1.8263747844e+01    0.3190042    0.2019604  41.91 0.0009329829    1.583    0.368
        45 -19.0790     38.0150     99.4363   1.1769400769e+02   5.1293967607e+01     14.75166    0.9485299 -66.44   0.02785531   12.860    0.922
        46  -9.5886    150.1872     80.8603   8.2782553052e+01   3.6206380108e+01    0.2068628    0.1794436  -1.56 0.0005226549    1.308    0.236
        47 -10.9264     83.4140     76.5493   9.9160088884e+01   5.0555426359e+01    0.2345423    0.2115097 -59.52 0.0002668496    1.020    0.020
        48 -11.7326    175.8163     74.2052   7.5412600124e+01   3.1195910471e+01    0.4435604    0.3208449 -75.32 0.0006117959    1.889    0.470
        49 -11.4082    167.5118    231.9760   1.0851800331e+02   7.6779582527e+00     0.247483    0.1759998  30.97 0.0007635272    1.340    0.254
        50 -11.9387     59.6125    202.1869   1.2410484934e+02   2.7719351679e+01    0.1864407    0.1313941  62.95 0.0004908561    1.082    0.076
        51 -13.0531    151.2023    191.0073   1.0596209873e+02   1.5997893845e+01    0.4910019    0.3761176 -87.76  0.002128661    1.693    0.409
        52 -10.3781     13.5198     59.9545   1.1861944878e+02   6.2170318490e+01    0.1777194    0.1463654  77.81 0.0004137963    1.342    0.255
        53 -11.5633    155.1776    187.8093   1.0475496020e+02   1.5811518424e+01    0.2844262    0.1943667  52.63  0.001343795    1.312    0.238
        54  -9.6197    172.5715    188.8416   1.0172765352e+02   1.2611443608e+01    0.1510848    0.1190759 -62.80 0.0009342792    1.644    0.392
        55 -10.6597    113.1724     21.9994   7.0778300306e+01   5.4613369355e+01    0.3937534    0.2168137  75.18  0.001508379    2.956    0.662
