#   1 NUMBER                 Running object number                                     
#   2 MAG_AUTO               Kron-like elliptical aperture magnitude                    [mag]
#   3 X_IMAGE                Object position along x                                    [pixel]
#   4 Y_IMAGE                Object position along y                                    [pixel]
#   5 X_WORLD                Barycenter position along world x axis                     [deg]
#   6 Y_WORLD                Barycenter position along world y axis                     [deg]
#   7 A_WORLD                Profile RMS along major axis (world units)                 [deg]
#   8 B_WORLD                Profile RMS along minor axis (world units)                 [deg]
#   9 THETA_WORLD            Position angle (CCW/world-x)                               [deg]
#  10 FWHM_WORLD             FWHM assuming a gaussian core                              [deg]
#  11 ELONGATION             A_IMAGE/B_IMAGE                                           
#  12 ELLIPTICITY            1 - B_IMAGE/A_IMAGE                                       
         1 -13.5073     68.3113    144.2636   1.0006498390e+02   3.7360980012e+01     3.741648     1.773684 -87.04  0.002526877    6.312    0.842
         2 -13.2279    208.6249     40.4108   4.0150598929e+01   2.8536078777e+01    0.7722476    0.5728203 -48.82  0.002792393    1.249    0.199
         3 -13.5205    215.5984     36.1718   3.8386937148e+01   2.7531009078e+01     1.001091    0.6774351 -59.00  0.004118474    1.339    0.253
         4 -13.1494    223.3717     29.1864   3.6038905325e+01   2.6713878793e+01    0.6746053    0.5529014  83.42  0.001245063    1.179    0.152
         5 -13.7421    237.9240     16.2075   3.2072503798e+01   2.5198181414e+01    0.7778398    0.6744183 -51.55   0.00267767    1.256    0.204
         6 -11.5828      2.2796      4.1849   8.6839318736e+01   7.4183538156e+01     0.603946    0.1361187 -41.76  0.002620431    3.465    0.711
         7 -11.9402     54.8687    178.4994   1.0893658654e+02   3.0472204500e+01    0.4446059    0.2988746 -35.72  0.001588341    1.997    0.499
         8 -14.8865     99.0526    227.0758   1.0448513780e+02   1.3209501916e+01      5.88583    0.5930027  40.14   0.01286755    5.756    0.826
         9 -15.3813     54.4273    246.8459   1.1575445433e+02   1.5350108015e+01     6.655878     1.664273  29.01   0.01873925    6.884    0.855
        10 -11.8741     60.8115    172.8134   1.0665708767e+02   3.1124981490e+01    0.3371093    0.2609114 -42.50 0.0006918733    1.483    0.326
        11 -14.3505      7.5984    245.6091   1.2443960642e+02   2.0781729274e+01      1.44159     1.072553  68.89   0.01087118    1.031    0.030
        12 -12.8319     78.2977    156.6455   9.9394435813e+01   3.2762475276e+01     1.985083    0.9737287  60.48  0.002002956    3.213    0.689
        13 -14.9545      9.2105    207.7764   1.2212105726e+02   2.8465040959e+01     2.161341     1.254368 -89.71  0.007680794    1.450    0.310
        14 -11.4673     71.6401    163.1719   1.0232754326e+02   3.2077255369e+01    0.2949249    0.2878909 -70.21 0.0003727907    1.098    0.089
        15 -13.3227     58.0567    159.4505   1.0549098588e+02   3.4842906234e+01    0.5417946    0.3119607 -40.38  0.001484035    2.121    0.529
        16 -11.4849     36.4809    160.4824   1.1151692516e+02   3.7065653083e+01    0.3906142    0.2355327  63.49  0.001341297    1.806    0.446
        17 -11.8675     33.0975    157.1632   1.1202577451e+02   3.8244030550e+01    0.3653984    0.2904388  87.61 0.0008198593    1.151    0.131
        18  -8.7562    174.6790    149.2908   7.2909234149e+01   1.6550584192e+01    0.1486556    0.1236482 -89.76 0.0002903462    1.606    0.377
        19 -10.0596     94.6561    142.8915   9.2097032749e+01   3.3634328423e+01     0.310261    0.2844291 -35.27 0.0007809239    1.131    0.116
        20  -9.3984     97.9772    139.5574   9.0429817909e+01   3.3897914611e+01    0.3065641    0.1952895 -32.20 0.0008654759    1.945    0.486
        21 -12.1079     82.6557    141.2268   9.5255395608e+01   3.6013598194e+01    0.3188594    0.2698468 -48.79 0.0004762976    1.151    0.131
        22 -13.6965     11.2618    232.7876   1.2313784834e+02   2.2967343771e+01    0.9540516    0.5669017  81.48  0.003353383    1.402    0.287
        23  -9.1155    198.1493    139.9472   6.5841688188e+01   1.3724805877e+01     0.246839    0.1652259 -64.28   0.00088926    2.086    0.521
        24  -8.6640    131.4419    137.4317   8.0650700700e+01   2.8072812096e+01     0.157727    0.1507452 -88.95 9.687935e-05    1.110    0.099
        25 -10.6305    106.7674    131.2526   8.6016168413e+01   3.4367386930e+01    0.3661798    0.3142888  22.34  0.001212234    1.259    0.206
        26 -11.6358     67.2267    128.4933   9.7368874954e+01   4.1539492183e+01    0.5923747    0.3773081  75.25  0.001700778    2.368    0.578
        27 -10.8449     94.2444    127.6574   8.8867630128e+01   3.7507194043e+01    0.2754947    0.2475078 -39.97 0.0003988119    1.097    0.088
        28  -9.1138    114.4904    125.4991   8.2417960593e+01   3.4283862304e+01     0.158339    0.1512794 -25.34 -4.666049e-05    1.052    0.050
        29 -10.8328     49.1467    122.6833   1.0197942169e+02   4.5317692083e+01    0.2962044    0.2145338  63.14 0.0006218648    1.661    0.398
        30  -9.5270    105.0549    119.8758   8.3759237743e+01   3.7444213196e+01    0.2234199    0.2122978 -30.91 0.0002969091    1.040    0.038
        31 -10.7643    192.6790    194.1530   7.8436271492e+01   4.2429862973e+00    0.5693661    0.3251228 -66.69  0.001774062    5.394    0.815
        32  -9.0808    167.6760    112.3701   6.5504676095e+01   2.5808081743e+01    0.1643378    0.1223744 -76.62 0.0007033959    1.808    0.447
        33  -9.8095    205.2450    110.3978   5.7572417246e+01   1.7946153042e+01    0.3277733    0.2171599  38.30  0.001351413    1.776    0.437
        34  -9.3089     65.3101    102.6086   9.2157127675e+01   4.8232556029e+01    0.1498713    0.1139963  81.77 0.0007010578    1.829    0.453
        35 -10.7990     52.2501     90.5453   9.3752908787e+01   5.2820497353e+01    0.4631773    0.3189617  60.90  0.002203768    2.122    0.529
        36 -10.6527     42.9173     91.2022   9.7387880572e+01   5.3749283452e+01    0.3910218     0.236842 -25.58  0.001639029    1.912    0.477
        37  -9.7157    162.0008     83.2481   5.8909659241e+01   3.2804658631e+01    0.2012521    0.1285054  54.05 0.0006011277    1.576    0.366
        38 -10.6702     56.0060     75.7029   8.8176624113e+01   5.5670551619e+01    0.3291412    0.2406909  81.92  0.001522937    2.473    0.596
        39 -11.1525     13.3768     60.3530   1.0161495901e+02   6.3242722244e+01    0.2469731    0.1846437 -53.62 0.0004887177    1.191    0.160
        40 -12.0389    199.9263     49.2243   4.3368529421e+01   2.9317146085e+01    0.6397849    0.3141851 -45.82  0.002915469    1.909    0.476
        41  -9.0503     26.8068     51.8110   9.2966285253e+01   6.3937055319e+01    0.1491921    0.1443931 -24.91 0.0004033365    1.304    0.233
        42 -11.0402      2.1166     50.1250   1.0409456138e+02   6.6030782736e+01    0.4419706   0.07290573 -63.27  0.001283232    6.053    0.835
        43  -9.7461    209.5120    199.4827   7.6063892079e+01   5.3008973931e-01    0.2269399    0.1236234 -49.24  0.001029737    2.246    0.555
        44 -13.1401     24.7270    205.4312   1.1869088451e+02   2.7490910656e+01     0.495425    0.3826424 -49.05 0.0009818674    1.649    0.393
        45  -8.9945     94.7123     46.3741   6.4229241344e+01   5.4416675535e+01    0.1358316    0.1116525 -70.21 0.0007019444    1.720    0.419
        46  -9.7003     56.4932    193.2952   1.1029505109e+02   2.6690423937e+01    0.2376501    0.1653677  80.00 0.0008568241    1.431    0.301
        47 -11.3186      2.5307     38.5336   1.0054696980e+02   6.8320631824e+01    0.3143324    0.1264614 -57.74  0.001569161    2.180    0.541
        48 -10.6601    127.8884     35.5753   5.1710073702e+01   4.8466873318e+01    0.3239274     0.238755 -82.08 0.0009335269    1.773    0.436
        49  -9.2638    130.3652     30.0177   4.9336615096e+01   4.8556627491e+01    0.1739838    0.1731556  17.65 0.0004296834    1.099    0.090
        50 -16.1322     31.8446    189.2550   1.1573749715e+02   3.0498873871e+01     9.397994     3.528977  85.70   0.03093139    4.405    0.773
        51 -10.5480    189.9501     15.0530   3.6092671820e+01   3.5883484600e+01    0.2014897    0.1718091  89.96 0.0008689769    1.030    0.030
