#   1 NUMBER                 Running object number                                     
#   2 MAG_AUTO               Kron-like elliptical aperture magnitude                    [mag]
#   3 X_IMAGE                Object position along x                                    [pixel]
#   4 Y_IMAGE                Object position along y                                    [pixel]
#   5 X_WORLD                Barycenter position along world x axis                     [deg]
#   6 Y_WORLD                Barycenter position along world y axis                     [deg]
#   7 A_WORLD                Profile RMS along major axis (world units)                 [deg]
#   8 B_WORLD                Profile RMS along minor axis (world units)                 [deg]
#   9 THETA_WORLD            Position angle (CCW/world-x)                               [deg]
#  10 FWHM_WORLD             FWHM assuming a gaussian core                              [deg]
#  11 ELONGATION             A_IMAGE/B_IMAGE                                           
#  12 ELLIPTICITY            1 - B_IMAGE/A_IMAGE                                       
         1 -14.6198      8.8496    156.4440   1.4666803444e+02   4.1696252036e+01     8.353995     3.506062  68.75    0.0197071    2.418    0.586
         2 -13.2612    192.2729     27.4729   7.0580056603e+01   3.3727395162e+01     1.427549     1.273014 -39.52   0.00693592    1.162    0.140
         3 -13.3742    206.8832      9.3339   6.3737151001e+01   3.1965098228e+01      1.36642      1.03659  32.03  0.007386443    1.665    0.399
         4 -11.7820      2.3791     14.1683   1.2423181747e+02   7.2323347481e+01    0.5282531    0.2554713 -23.69  0.003101402    2.096    0.523
         5 -12.8575      2.1637      6.6326   1.2122508630e+02   7.3617151180e+01     1.372755    0.5648211 -47.02   0.00802709    1.807    0.447
         6 -10.1688     33.0000      6.7713   1.0480068078e+02   7.0793564152e+01    0.6907356   0.05609767 -39.64  0.001575249   10.873    0.908
         7  -9.8192      1.5667    241.7784   1.5240486880e+02   2.5892149309e+01    0.1869664   0.07436406 -84.40  0.001101625    2.134    0.531
         8 -10.8611    138.5837    249.5450   1.3012685798e+02   6.7168097647e+00    0.2714467     0.212007 -48.13  0.001927016    1.716    0.417
         9 -10.6709    126.8189    249.5356   1.3218745405e+02   8.5575729489e+00    0.2248973    0.1867033  88.45  0.001664464    1.379    0.275
        10  -8.7932     98.6401    250.6738   1.3717818599e+02   1.2620170211e+01    0.1006081   0.08421102  22.72 0.0007042747    1.785    0.440
        11  -9.7274     29.2367    249.5987   1.4849799094e+02   2.1730354639e+01    0.2119555    0.1281461  66.73  0.001472287    1.141    0.123
        12  -9.7603     33.4190    248.3111   1.4778031244e+02   2.1475010814e+01    0.2605524    0.1201422 -69.68  0.001696857    2.308    0.567
        13 -10.0683     34.1471    244.2493   1.4745451264e+02   2.2072085842e+01    0.2835844    0.1820756  47.83   0.00212816    1.413    0.292
        14  -9.7166      2.0278    249.7080   1.5261215601e+02   2.4534505569e+01    0.1966762    0.1215069  63.32  0.001629398    1.093    0.085
        15  -9.2650      5.6809    248.3073   1.5202394654e+02   2.4407827271e+01     0.142989   0.09006634  58.76 0.0004402258    1.184    0.155
        16  -9.4182     12.4909    240.7750   1.5069862262e+02   2.4986597885e+01    0.1807573    0.1070007  51.21  0.001380083    1.380    0.275
        17  -9.7825      5.8662    240.8564   1.5171963644e+02   2.5632054947e+01    0.1560244    0.1168132  47.74 0.0007508834    1.531    0.347
        18  -8.7092     71.5581    240.0146   1.4096008909e+02   1.8154412128e+01    0.1532163   0.09684694 -82.51  0.001028616    1.612    0.380
        19 -13.1592      8.8772    204.2278   1.4961119150e+02   3.1945045555e+01     1.765551    0.7241747  77.87  0.006593203    2.133    0.531
        20  -8.5896    152.5103    212.9668   1.2292913049e+02   1.0049682438e+01    0.1587299    0.1297462 -54.68 0.0003688748    1.459    0.315
        21 -11.1823     64.2543    199.1711   1.3881824081e+02   2.6691893439e+01    0.2891676    0.2195303 -54.68 0.0006006065    1.706    0.414
        22 -11.5067     19.2962    199.2679   1.4745913403e+02   3.1898515193e+01    0.4063267    0.1520521  53.12  0.001120685    2.147    0.534
        23  -9.4590    191.9474    193.2011   1.1205186947e+02   6.0397003159e+00    0.3234344    0.1923186 -61.19   0.00141393    2.942    0.660
        24 -12.3802     38.7777    233.7317   1.4610910726e+02   2.3352644339e+01     0.262459    0.2165386 -87.73 0.0007757624    1.388    0.280
        25  -9.4481    143.3293    230.6578   1.2705538652e+02   8.7799111968e+00    0.1262206   0.08282838  66.51  0.000705124    1.745    0.427
        26 -11.5001     70.0569    191.0436   1.3682063877e+02   2.7554586454e+01    0.2490609    0.2184772 -77.55 0.0004599131    1.274    0.215
        27 -14.1320     44.5501    226.0422   1.4464183943e+02   2.4046771674e+01     2.385849     1.360285  36.55  0.006424913    1.955    0.489
        28 -10.6199     79.6967    178.2324   1.3328162954e+02   2.8867285152e+01    0.2348534     0.204794 -77.80 0.0003819927    1.192    0.161
        29 -12.9135     66.7141    176.2141   1.3588441585e+02   3.1131975878e+01    0.4548622    0.2644475 -47.99  0.001772836    2.277    0.561
        30  -8.5039    101.8605    178.5535   1.2844265389e+02   2.5342132542e+01    0.1862706    0.1087077  55.38 0.0005249699    1.619    0.382
        31  -8.1833    171.2207    173.0166   1.1246218924e+02   1.3499230121e+01    0.1678818    0.1178679 -43.19            0    1.558    0.358
        32 -11.5466     87.2753    168.5934   1.3029285644e+02   2.9805913233e+01    0.6080204    0.5613518  40.76  0.003851407    1.293    0.227
        33 -11.6996     32.7860    117.9537   1.3673150251e+02   4.8260675726e+01     1.235793   0.03490165 -67.02  0.002345016   12.305    0.919
        34 -10.8775      4.3753    228.8136   1.5147990244e+02   2.7853858898e+01    0.3559656    0.1546967  77.63  0.002288696    1.818    0.450
        35 -11.8350     32.8677    132.8607   1.3869181123e+02   4.4823390921e+01    0.9000457    0.1211295 -69.37  0.002429709    6.319    0.842
        36  -9.7834     99.1433    152.5273   1.2497463985e+02   3.1446241557e+01    0.2829529    0.2388742  66.77 0.0007780525    1.110    0.099
        37 -11.7975     87.8324    151.9082   1.2762349579e+02   3.3428836843e+01     0.271079    0.2493219 -49.76 0.0005761564    1.281    0.219
        38 -12.2323     67.1051    143.9379   1.3150911713e+02   3.8290461188e+01    0.7377579    0.4793122  75.23  0.003833634    1.681    0.405
        39  -9.0030      7.7602    226.3520   1.5083580804e+02   2.7964341578e+01     0.163115    0.1121816  40.70 0.0005646775    1.681    0.405
        40  -8.7027    101.9777    148.2704   1.2353328084e+02   3.1918283455e+01    0.2017806    0.1639411   0.22 0.0008551778    1.851    0.460
        41  -8.9849    182.9871    146.1981   1.0445574068e+02   1.6009290030e+01     0.223384    0.1949658  77.07 0.0007028136    1.331    0.249
        42  -8.2746    192.2175    144.0178   1.0207777933e+02   1.4405034982e+01    0.1843057    0.1203537 -37.79 0.0003950412    1.575    0.365
        43 -10.2400    173.8740    222.3998   1.2023748033e+02   4.8334879392e+00     0.354876    0.2596209  82.31  0.001975511    2.185    0.542
        44  -9.4767    110.2756    137.4467   1.1939581762e+02   3.2880933283e+01    0.3749633    0.2495895 -27.90  0.001364103    2.312    0.567
        45  -9.5837     84.6721    135.2595   1.2555394581e+02   3.7736855536e+01    0.3017808     0.197931  64.47  0.001474458    1.706    0.414
        46 -10.7785     96.5660    134.5417   1.2232520660e+02   3.5964879694e+01    0.4394732    0.2448438  46.51  0.001270955    1.803    0.445
        47 -11.0133     57.1504    130.4209   1.3199240018e+02   4.2715364249e+01    0.4147413     0.200994 -76.36  0.001823803    2.226    0.551
        48  -8.7624    160.9535    125.9403   1.0453392612e+02   2.4867705346e+01    0.2529945    0.1910301 -85.78  0.001122482    1.797    0.443
        49  -9.1983    107.1539    124.1430   1.1738982516e+02   3.6468904936e+01    0.1966876    0.1926193 -35.40 0.0003094504    1.137    0.121
        50  -9.0007     94.4689    216.8998   1.3470031134e+02   1.8967947894e+01    0.2204685    0.1298456  69.53 0.0009452566    1.735    0.424
        51  -9.1517    161.6796    248.6843   1.2596925525e+02   3.1558369296e+00    0.1135158   0.08039301  21.59 0.0007040547    1.658    0.397
        52 -10.1676    168.0533    113.0864   9.9719295231e+01   2.5808859005e+01    0.3481901    0.2857805 -83.37 0.0007795118    1.478    0.323
        53  -8.6885    203.3225    111.3391   9.2061044965e+01   1.7795435620e+01    0.1582544    0.1183104  12.08 0.0007050716    1.719    0.418
        54  -9.9855    188.7381    152.2300   1.0459926909e+02   1.3662427747e+01    0.4385822    0.3035097  88.05   0.00179662    2.664    0.625
        55  -9.3439     73.2867     86.3928   1.1812761215e+02   5.0703414108e+01    0.2702572    0.1969106  72.37 0.0007540129    1.873    0.466
        56  -9.3490      5.3290     68.3105   1.3739522703e+02   6.1432490931e+01    0.1215295   0.06503935 -44.61 0.0007041441    1.666    0.400
        57  -9.9039     33.7256     62.6635   1.2560877642e+02   6.0616021012e+01    0.3531247    0.2803268  67.88  0.001824002    1.689    0.408
        58 -10.2319     28.4800     60.6463   1.2708035528e+02   6.1504758401e+01    0.2893669    0.1967972  44.87  0.001360744    1.884    0.469
        59 -10.8681      8.9187     63.6081   1.3518540410e+02   6.2246398068e+01     0.281793    0.1611797  45.68  0.001389078    2.314    0.568
        60 -10.6992      2.8663     47.1357   1.3399352163e+02   6.6009207168e+01    0.2318512    0.1274962 -61.02 0.0008972101    1.387    0.279
        61 -10.5218      2.4851     38.1136   1.3190857502e+02   6.7841458481e+01    0.1654652    0.1484146 -75.91  0.001294275    1.327    0.247
        62 -10.2954    238.7568    247.5874   1.1265373359e+02  -8.6974988106e+00    0.1551312   0.08700685  42.68 0.0009552636    1.669    0.401
        63 -10.1592    101.7136    247.0975   1.3633035566e+02   1.2733005810e+01    0.2086983     0.117587  54.98  0.001294413    1.382    0.276
        64 -10.6993      2.1670     27.9869   1.2914828771e+02   6.9817579864e+01    0.3190995    0.1080865 -57.81  0.001619253    2.208    0.547
        65  -9.6282     82.1703    242.6508   1.3933600719e+02   1.6258995323e+01    0.2145937    0.1185393  75.79   0.00127467    1.905    0.475
        66 -10.4992    196.1339    240.8297   1.1887840971e+02  -1.3941217406e+00     0.248345    0.1581616 -61.38   0.00134784    3.009    0.668
