#   1 NUMBER                 Running object number                                     
#   2 MAG_AUTO               Kron-like elliptical aperture magnitude                    [mag]
#   3 X_IMAGE                Object position along x                                    [pixel]
#   4 Y_IMAGE                Object position along y                                    [pixel]
#   5 X_WORLD                Barycenter position along world x axis                     [deg]
#   6 Y_WORLD                Barycenter position along world y axis                     [deg]
#   7 A_WORLD                Profile RMS along major axis (world units)                 [deg]
#   8 B_WORLD                Profile RMS along minor axis (world units)                 [deg]
#   9 THETA_WORLD            Position angle (CCW/world-x)                               [deg]
#  10 FWHM_WORLD             FWHM assuming a gaussian core                              [deg]
#  11 ELONGATION             A_IMAGE/B_IMAGE                                           
#  12 ELLIPTICITY            1 - B_IMAGE/A_IMAGE                                       
         1 -13.9425    216.3594     27.9176   6.3972934562e+00   2.8277575615e+01    0.9196649    0.8593871 -48.09  0.003868498    1.295    0.228
         2 -11.7900    227.4494      9.6090   1.6190416283e+00   2.7970035969e+01    0.2910302    0.1977052  89.06 0.0007821643    1.251    0.201
         3  -9.9169     44.6692      2.3201   3.2847759591e+01   6.8849070734e+01   0.09729241   0.09551834  77.97 0.0005714354    1.692    0.409
         4 -19.5362     20.2840    144.6603   8.4156498132e+01   4.3138269819e+01     18.48714     3.258903 -72.10   0.04820535    5.873    0.830
         5 -12.8545    248.3302    244.4364   4.6393771247e+01  -1.1863421251e+01    0.6479543    0.4748869  16.61  0.004502852    1.242    0.195
         6 -10.1677     69.4411    195.7961   7.7606213880e+01   2.4898813478e+01    0.3876361    0.1333985 -66.06  0.001405478    2.967    0.663
         7  -9.9205    192.5345    193.8587   4.7937844870e+01   4.3207722453e+00    0.4365527    0.2447285 -64.66  0.001433629    4.508    0.778
         8 -10.8469     54.9177    191.9024   8.0706094426e+01   2.7762284800e+01    0.3661128    0.1831791 -73.13 0.0005170015    1.983    0.496
         9 -11.6276     67.8432    214.0940   8.0185823856e+01   2.0877495944e+01    0.1968964    0.1701476  67.22 0.0002928881    1.014    0.013
        10 -15.7290     68.5675    143.7228   6.9718856743e+01   3.8015732446e+01     2.465761     1.923057  65.95   0.01251073    1.452    0.311
        11  -9.0538     46.4955    185.4164   8.2036531955e+01   3.0363144271e+01    0.1366526    0.1155784  76.38 0.0004700641    1.073    0.068
        12  -9.2425     78.2912    184.0097   7.3736259057e+01   2.6474128857e+01    0.1611014    0.1241907 -66.93   0.00032189    1.273    0.214
        13 -10.5383     73.9954    180.1945   7.4289564054e+01   2.8038734939e+01    0.3091006    0.1996762 -68.55 0.0007308149    1.532    0.347
        14  -9.8289     71.9949    176.7740   7.4306842813e+01   2.9172520598e+01     0.199991    0.1748951  46.91  0.001028572    1.148    0.129
        15 -10.3430    174.8081    179.5859   4.8922731389e+01   1.0348220340e+01    0.2798576    0.2335037  38.37 0.0007100283    1.210    0.173
        16 -12.1796    172.6691    174.6576   4.8382932969e+01   1.1776116950e+01    0.6444595    0.5023148  -7.88  0.001228186    1.462    0.316
        17 -11.6818    179.7031    169.0612   4.5626469825e+01   1.1582702039e+01    0.6433771    0.5584314 -45.39  0.002630912    1.192    0.161
        18 -10.8891    154.6885    178.5636   5.3367900407e+01   1.4389809126e+01    0.2955429    0.1456871  34.66  0.001134797    2.072    0.517
        19 -11.1402    151.9531    207.5239   5.9473368087e+01   8.7774532284e+00    0.2711278    0.2524327 -24.19  0.001297324    1.122    0.109
        20 -12.5351     53.9030    231.3711   8.4994740681e+01   1.8935663178e+01    0.5562442     0.247261  89.63  0.002313187    3.126    0.680
        21 -11.5490    139.4132    171.1521   5.5591023609e+01   1.8980963676e+01    0.3139975    0.2225114  46.51  0.001438871    1.430    0.301
        22 -10.0719     70.3489    233.9097   8.1729162879e+01   1.6235122731e+01    0.1488938    0.1101762 -55.11 0.0004871825    1.581    0.367
        23 -10.8346    229.9909    166.0009   3.4957623682e+01   2.9859301534e+00    0.1730148      0.14747 -23.79 0.0009934027    1.016    0.015
        24 -11.9953    133.5893    145.2137   5.1439114544e+01   2.6167975305e+01     1.202032    0.3429268 -53.22  0.003114858    4.344    0.770
        25  -8.8710    182.3037    201.7096   5.1632948842e+01   4.6124721602e+00     0.130558    0.1142599  70.64 0.0003715987    1.570    0.363
        26 -10.9287    112.1848    150.3851   5.8401225963e+01   2.9117685746e+01    0.3924002    0.2631648  64.53  0.001249704    1.981    0.495
        27  -9.8798    115.3460    147.6951   5.6936334530e+01   2.9176669267e+01     0.276509    0.1579841 -57.20 0.0005542464    1.851    0.460
        28 -11.9160    109.3427    145.2862   5.8082935183e+01   3.0895306693e+01    0.5354164     0.356007  33.52  0.001866935    1.562    0.360
        29 -12.0973     95.7876    130.9738   5.8789844407e+01   3.6878100836e+01    0.4519403    0.3156019 -46.92 0.0004591809    1.391    0.281
        30 -11.0323     90.4372    148.6153   6.4211881267e+01   3.3407250584e+01    0.2894448    0.2776365  27.48 0.0004130164    1.089    0.082
        31 -12.4797     95.2162    144.4555   6.1958302946e+01   3.3638883099e+01    0.6920285    0.6071211 -23.56  0.001735003    1.246    0.198
        32 -11.5039     98.1644    139.1333   5.9938595778e+01   3.4445518370e+01    0.4396738    0.3233564  74.88 0.0009069471    1.822    0.451
        33 -10.1705    161.4157    200.0156   5.5954500518e+01   8.6266951169e+00      0.37086    0.2733586  49.74  0.001857495    1.480    0.324
        34  -9.1716    171.5381    143.0209   4.1619608326e+01   1.8717751822e+01    0.2274121    0.1343314 -64.50 0.0008091216    2.661    0.624
        35 -11.0785    106.3800    138.7638   5.7463810813e+01   3.3043315667e+01    0.4829133    0.3088925  74.20  0.001395165    2.724    0.633
        36 -12.4884    106.4354    131.6955   5.5800192459e+01   3.4752633561e+01    0.6798038    0.5044639 -57.33  0.002634675    1.380    0.275
        37  -9.5815    150.8333    134.1630   4.4393541393e+01   2.5074327668e+01    0.2305952    0.2112693 -80.57 0.0004538604    1.216    0.178
        38 -11.3946    135.5659    130.5110   4.7393108378e+01   2.9164559894e+01    0.6443464    0.2926579 -49.00  0.001761703    2.235    0.553
        39 -10.7863    135.0000    121.3381   4.5220941885e+01   3.1361909748e+01    0.6386975   0.09015016 -45.53  0.001262725    7.045    0.858
        40 -10.2541    161.4030    127.3423   4.0167304096e+01   2.4258715713e+01    0.4223435    0.2792509 -27.16  0.001767677    1.784    0.440
        41  -9.9421    131.4670    125.9461   4.7341036487e+01   3.1075387347e+01    0.3039635     0.227462  22.19 0.0007301198    1.561    0.359
        42 -11.5212    114.6957    125.3305   5.1849508082e+01   3.4670227386e+01    0.4037039    0.3346867  42.31  0.001072512    1.223    0.183
        43 -10.3458     40.8463    230.7029   8.7667988520e+01   2.0673682889e+01     0.190012    0.1350307 -60.56  0.001003768    1.595    0.373
        44 -10.6734    102.3814    120.5254   5.4265983709e+01   3.8195473686e+01    0.2943226    0.2513343  -9.88 0.0004791353    1.306    0.234
        45 -10.2597    155.9673    111.2480   3.7330975120e+01   2.8871181228e+01    0.4405541    0.2534259 -62.22   0.00146044    2.537    0.606
        46  -9.9596    162.3187    119.8236   3.8065427182e+01   2.5648534297e+01    0.3124345     0.240518 -69.06 0.0009152847    1.584    0.369
        47  -9.7994    159.6748    116.0122   3.7702720842e+01   2.7040375154e+01    0.2380893    0.2092157 -75.86 0.0003780999    1.276    0.217
        48 -10.4918    110.0363    115.7776   5.0758121303e+01   3.7825134793e+01      0.26043    0.2223523 -41.91  0.000390197    1.153    0.133
        49 -11.0132    134.5818    105.9573   4.1234781507e+01   3.4810456164e+01    0.5753689    0.1505814 -44.28  0.001572981    3.831    0.739
        50 -12.3321    115.9608    108.6918   4.7128791650e+01   3.8228881155e+01    0.8277457    0.5833097  83.83  0.003274793    2.397    0.583
        51  -9.1708    160.0304    108.2460   3.5598838045e+01   2.8557922231e+01    0.2058439    0.1983915  57.91 0.0002300969    1.049    0.046
        52 -12.0615    119.2618    103.9207   4.4864217006e+01   3.8583279976e+01    0.5052627    0.3432982 -57.00  0.002067276    1.678    0.404
        53  -9.3824     84.7958    104.5561   5.5645565522e+01   4.5109423438e+01    0.2010468    0.1417565  47.79 0.0004595777    1.581    0.367
        54 -11.5672    111.5801     98.8382   4.5655119879e+01   4.1288996417e+01     0.572717    0.3779833  70.86  0.002002198    2.495    0.599
        55  -9.7241    128.2892     97.3269   4.0497612071e+01   3.8013884787e+01    0.1574503    0.1232983   0.55 0.0002036173    1.615    0.381
        56  -9.9918    211.0145    198.7823   4.5126018807e+01   3.2003618188e-01    0.2208404    0.1814927 -23.42 0.0004852031    1.126    0.112
        57  -9.0658     99.5538     95.4989   4.8354590632e+01   4.4424013318e+01    0.1508677    0.1459259 -12.70  0.000178507    1.029    0.028
        58 -15.0741    120.4598    234.1986   7.0769102289e+01   8.7059829272e+00     7.818292     4.692945 -69.24   0.03806484    2.211    0.548
        59 -12.4252     59.8941    227.5714   8.3361266517e+01   1.8975430902e+01    0.2036923    0.1900965 -59.33 0.0006388122    1.317    0.241
        60 -10.4861     98.1229     88.1356   4.6627073312e+01   4.6258273474e+01    0.5047202    0.3230285  76.78  0.001705067    3.755    0.734
        61 -12.6588     47.9104    228.9015   8.6044069062e+01   2.0207770033e+01    0.2846746      0.23023 -63.22  0.001838751    1.406    0.289
        62 -10.4903     83.6730    221.6124   7.7433746956e+01   1.6968440424e+01    0.3053132    0.1894543 -68.02  0.001103507    1.715    0.417
        63  -9.4029    114.2935     88.9423   4.1965158427e+01   4.2776631610e+01    0.2095526    0.1962468 -26.15 0.0003361318    1.068    0.064
        64  -9.0993    102.3877     77.1092   4.1876812294e+01   4.7594059117e+01    0.1922651    0.1396699 -51.06 0.0003900377    1.548    0.354
        65  -9.9881     82.3672     74.1999   4.7478314578e+01   5.2020676254e+01    0.2692081     0.227476  51.50  0.001128516    1.381    0.276
        66 -13.1431    173.9617     67.2209   2.1739702351e+01   3.2715661385e+01    0.7110264    0.6789487 -71.12 0.0008497368    1.049    0.046
        67 -13.9235    191.1198     53.6200   1.5443433711e+01   3.0674346723e+01     1.274917    0.9668232  36.95  0.004093369    1.673    0.402
        68 -12.1337    196.7653     48.5464   1.3406631456e+01   3.0064987041e+01    0.3657469    0.3234861  39.68  0.001025951    1.388    0.280
        69  -8.9907     98.9787     64.4882   3.8802656747e+01   5.0589357568e+01       0.1909    0.1293395  70.17 0.0005608251    2.350    0.574
        70  -9.0064    144.2475     61.0186   2.5846814343e+01   4.0876460047e+01    0.1760235    0.1259418 -34.32 0.0002306159    1.487    0.327
        71  -9.4822    128.6648     61.3366   2.9548697598e+01   4.4531323696e+01    0.1498449    0.1152902 -79.26 0.0007051893    1.746    0.427
        72 -10.9204     89.9330    221.9300   7.6045614025e+01   1.5971975920e+01    0.3690388     0.261537  25.31  0.001622804    1.564    0.360
        73 -12.0425     89.1430    216.1932   7.5505623076e+01   1.7341443671e+01    0.5359319    0.3692569 -58.02  0.002151549    1.549    0.354
        74 -12.3951     91.9240    241.6061   7.7911650485e+01   1.1607212155e+01    0.2529719    0.2172075 -65.98 0.0006985475    1.319    0.242
        75 -10.0885     60.9183    219.1168   8.2295917147e+01   2.0685192138e+01    0.1727362     0.136084  73.92 0.0003073064    1.153    0.133
        76  -9.1939     51.8372     24.6549   4.0366549999e+01   6.5221126591e+01    0.1650313    0.1061553  43.01 0.0003718746    1.658    0.397
        77 -10.0306     60.7791     21.1916   3.5291591336e+01   6.4156549900e+01    0.2067842    0.1543286  42.86 0.0007754395    1.367    0.269
        78  -9.6668     62.4271    239.4080   8.3929956445e+01   1.6161307435e+01    0.1150695     0.109042 -16.57 0.0007708371    1.449    0.310
