#   1 NUMBER                 Running object number                                     
#   2 MAG_AUTO               Kron-like elliptical aperture magnitude                    [mag]
#   3 X_IMAGE                Object position along x                                    [pixel]
#   4 Y_IMAGE                Object position along y                                    [pixel]
#   5 X_WORLD                Barycenter position along world x axis                     [deg]
#   6 Y_WORLD                Barycenter position along world y axis                     [deg]
#   7 A_WORLD                Profile RMS along major axis (world units)                 [deg]
#   8 B_WORLD                Profile RMS along minor axis (world units)                 [deg]
#   9 THETA_WORLD            Position angle (CCW/world-x)                               [deg]
#  10 FWHM_WORLD             FWHM assuming a gaussian core                              [deg]
#  11 ELONGATION             A_IMAGE/B_IMAGE                                           
#  12 ELLIPTICITY            1 - B_IMAGE/A_IMAGE                                       
         1 -14.9620     68.6175    144.1382   1.0286806405e+02   3.7591299794e+01      5.22675     2.080761  58.33  0.002740616    5.636    0.823
         2 -14.3319    198.8707     40.4862   4.4130154673e+01   3.0580307510e+01     1.416048     1.242383 -14.43  0.003655067    1.412    0.292
         3 -14.6673    209.1290     30.3964   4.0388936875e+01   2.9446610559e+01     1.686213     1.225067   6.89  0.001778372    2.270    0.559
         4 -13.6074    233.9019      5.0685   3.2458250311e+01   2.6783500821e+01    0.8485497    0.5367073  82.67  0.005000878    1.416    0.294
         5  -9.6548     60.6700      7.6930   6.3402226282e+01   6.6206937802e+01    0.1312997   0.07887162  19.73 0.0003250609    1.660    0.398
         6 -11.6369     17.4473      3.8329   8.1925863837e+01   7.2832350824e+01     0.236523    0.1870528 -39.93  0.001685132    1.682    0.405
         7 -11.3669    112.3420    205.8293   1.0134427630e+02   1.6289620713e+01    0.2725041    0.2311559  51.15 0.0007371482    1.059    0.056
         8 -12.0142    139.8954    249.5492   1.0127758819e+02   3.6745211907e+00    0.4867418    0.2887375  36.03  0.002728429    1.386    0.278
         9 -11.4577    140.4796    245.4722   1.0064192548e+02   4.2570350486e+00    0.2284416    0.1797349  77.31 0.0008509254    1.668    0.401
        10 -14.7893     55.1136    187.2479   1.1241832358e+02   2.8887991021e+01      11.4953          nan  39.14   0.02698653    7.994    0.875
        11 -14.9353     55.6290    248.9647   1.1785508035e+02   1.5847688153e+01     1.421115    0.6654861 -79.77  0.007685035    2.344    0.573
        12 -12.1912    195.0675    197.6347   8.1679295771e+01   3.4426478209e+00     1.165282    0.8752435 -77.51  0.005610979    2.487    0.598
        13 -15.5099     24.9438    227.0960   1.2222905679e+02   2.3678903758e+01     2.293449     1.047125  74.84   0.01207381    2.136    0.532
        14 -17.1403      6.8291    203.4997   1.2439034643e+02   3.0373652158e+01     10.37962     1.327951 -77.07   0.03081884    6.557    0.847
        15 -16.4417      4.7270    247.5414   1.2690958903e+02   2.1775950636e+01    0.9950635    0.7238065  54.01  0.007114507    1.224    0.183
        16 -16.2628     21.9978    249.6703   1.2402775942e+02   1.9623598528e+01     2.256464    0.7055391  26.12  0.007350133    7.718    0.870
        17 -10.4150    120.0345    193.8905   9.7745601545e+01   1.7547462397e+01    0.2277378    0.2036364 -78.05 0.0005112285    1.193    0.162
        18 -10.2927    149.6907    187.7934   8.9742423578e+01   1.3523146607e+01    0.2882096    0.2293428  57.32 0.0008406112    1.365    0.267
        19 -16.6196     47.3906    200.8563   1.1558212992e+02   2.6731654260e+01     12.66375     3.190548  48.58    0.0456396    3.639    0.725
        20  -9.8718    120.3282    186.2958   9.6434132490e+01   1.9161112510e+01    0.1422196    0.1148253  -5.14 0.0001993058    1.631    0.387
        21  -9.4524     81.1543    184.7283   1.0579098126e+02   2.5909058720e+01    0.2475611    0.1284234  67.82 0.0009514354    2.775    0.640
        22  -9.5383     91.0292    182.4843   1.0302743044e+02   2.4924194119e+01    0.2041945    0.1804709 -80.84 0.0003452644    1.115    0.103
        23 -10.9443     99.4075    180.8562   1.0069181371e+02   2.3958055116e+01    0.2608159    0.2536528 -89.63 0.0006401313    1.086    0.079
        24 -10.7482    189.3615    177.6431   7.8978947834e+01   8.1066354163e+00     0.509581    0.3299172 -55.48  0.002346356    1.959    0.490
        25 -10.7803     46.1734    176.8439   1.1342620036e+02   3.2416975018e+01    0.2891159    0.2469558  73.27 0.0008677017    1.055    0.052
        26 -10.0668    143.1501    179.1488   8.9674994068e+01   1.6566240834e+01     0.202884    0.1766886  74.88 0.0006967123    1.310    0.236
        27 -10.5830    146.6194    171.9995   8.7471324411e+01   1.7450563829e+01    0.3544751     0.247857 -79.46  0.001161476    2.161    0.537
        28 -13.0588     55.3081    147.0092   1.0712578929e+02   3.8616791142e+01     3.919382    0.8177053 -56.14   0.01227579    3.751    0.733
        29 -10.6620    242.4898    174.4909   6.8176333158e+01  -6.2667078926e-01    0.1323641    0.1115182 -13.11 6.326221e-05    1.001    0.001
        30 -11.4644    131.6326    172.1668   9.1146388575e+01   2.0265103098e+01    0.4042185    0.2160125  32.52  0.001629506    1.994    0.498
        31 -10.5757    137.2072    167.2713   8.8822845449e+01   2.0304597321e+01    0.3930054    0.2431421  55.29  0.001668594    1.841    0.457
        32  -9.4356    110.8780    168.1021   9.5624466910e+01   2.4986464036e+01    0.2275743    0.1952343  75.44 0.0004437855    1.225    0.184
        33 -11.3461     34.2042    165.5944   1.1517806198e+02   3.6420663300e+01     0.473907    0.3859774  50.51  0.002316736    1.254    0.203
        34 -10.5320    230.1328    166.1888   6.8660589469e+01   2.7905884514e+00     0.176303     0.162269 -51.54  0.000451778    1.331    0.249
        35  -9.1069    133.7681    163.3752   8.8900366684e+01   2.1844222988e+01    0.2193507     0.142392  31.05 0.0009526648    1.642    0.391
        36 -10.1349     43.0047    179.9888   1.1453485538e+02   3.2036838903e+01    0.1959042    0.1913186  54.91            0    1.253    0.202
        37 -13.5032     50.0971    107.9506   1.0178128346e+02   4.8922336344e+01     1.521178     1.201784 -74.10  0.007859034    1.279    0.218
        38 -12.3403     89.4289    153.0958   9.8605919167e+01   3.2238711483e+01    0.6957991    0.4961179 -25.33  0.003191314    1.940    0.484
        39 -11.5619    133.8223    144.9747   8.4995106078e+01   2.6048314574e+01     1.222527    0.3403264 -55.10  0.002967238    5.259    0.810
        40  -9.5834    111.5541    149.7691   9.1917107219e+01   2.9222962226e+01    0.3853023    0.2164305  67.12  0.001304437    3.147    0.682
        41 -10.4474    174.3689    148.8525   7.6089236555e+01   1.6794924341e+01     0.311318    0.2733563  82.55 0.0008800346    1.388    0.280
        42 -10.6612    144.0824    146.3839   8.2703166954e+01   2.3635029668e+01    0.4239636    0.2526066 -71.56  0.001479673    2.926    0.658
        43 -11.1388     38.6381    146.2026   1.1168661105e+02   4.0702441770e+01    0.3253698    0.2332239  54.11 0.0007007357    1.448    0.309
        44  -9.0450    199.4384    141.5608   6.9126482575e+01   1.3059843861e+01    0.1458864    0.1392836 -31.11 0.0002013501    1.052    0.049
        45 -11.0294    102.9204    138.9754   9.2046638457e+01   3.3397928019e+01    0.5800365     0.379827 -21.62  0.002314057    2.379    0.580
        46 -12.5827     90.3682    138.5962   9.5551044250e+01   3.5656392672e+01    0.2928501     0.269078 -34.95 0.0005799371    1.162    0.139
        47 -12.2597     43.8860    130.0695   1.0780770523e+02   4.4155983070e+01    0.4925866    0.3178921 -78.86  0.001674466    1.539    0.350
        48 -10.8316    105.9586    130.7895   8.9379242156e+01   3.4824709597e+01    0.3680602    0.3213881 -75.58  0.001385965    1.213    0.176
        49 -11.5049    135.6412    127.2726   8.0382460897e+01   2.9726248014e+01    0.7188959     0.150622 -49.48  0.001665733    5.338    0.813
        50 -10.3137    160.6254    128.0579   7.4354207949e+01   2.4132719032e+01    0.3458564    0.2913758 -56.03  0.001697106    1.244    0.196
        51 -11.4428    118.6694    123.4394   8.4038435848e+01   3.4114382372e+01    0.6952267    0.4384012 -14.92  0.002447621    2.953    0.661
        52 -11.1016     99.1841    125.5967   9.0156524024e+01   3.7312181256e+01    0.3045356    0.2524032  -5.32 0.0006384221    1.474    0.322
        53  -9.6768     92.9991    125.5128   9.1972220569e+01   3.8419719148e+01    0.2629988    0.2068402 -79.37 0.0006664329    1.458    0.314
        54 -10.4873    111.9680    129.6484   8.7407717534e+01   3.3965251916e+01    0.3555348    0.2776801  15.31 0.0009889761    1.556    0.357
        55 -10.0354    108.0352    118.8380   8.5943655374e+01   3.7281460671e+01    0.2182717    0.2179952   3.33 0.0003829389    1.018    0.018
        56 -12.3049     69.7207    173.4879   1.0710456769e+02   3.0218771499e+01     0.443643    0.3095651 -36.15  0.001447303    1.901    0.474
        57 -12.2464     73.9585    168.7124   1.0532894582e+02   3.0774131077e+01    0.3950351    0.2897643 -56.19  0.001050404    1.374    0.272
        58  -9.2826    168.1738    113.0074   6.8828713345e+01   2.5582139803e+01    0.2652867    0.1796462 -68.01  0.001076435    2.038    0.509
        59 -10.4490    134.5118    105.5514   7.5064568090e+01   3.4790807160e+01    0.5545519    0.1518985 -46.44   0.00152934    3.753    0.734
        60 -10.3078    205.2920    110.2649   6.0642289026e+01   1.7740312875e+01    0.3289641    0.2499557  39.11  0.001154063    1.449    0.310
        61 -11.2424    117.0320    109.3603   8.0910278351e+01   3.7684870916e+01     0.658797    0.4331696  59.50  0.002764473    1.864    0.464
        62 -11.1183    119.3602    104.2744   7.8876571543e+01   3.8340061111e+01    0.3049374    0.2473949   4.61  0.001434263    1.503    0.335
        63 -12.0172     18.6950    110.3733   1.1262050447e+02   5.1254245083e+01    0.4151708    0.1965757  37.54   0.00202322    2.383    0.580
        64 -11.3668     17.6556    107.3278   1.1249929625e+02   5.2061434510e+01    0.2702743    0.1805173  50.08  0.001105125    1.763    0.433
        65 -12.4267     31.1073    108.0666   1.0816901795e+02   5.0820555295e+01    0.3788756    0.3352605 -22.40  0.002396532    1.250    0.200
        66  -8.7320    140.5824    107.5094   7.4010382243e+01   3.3017352059e+01    0.1555439    0.1531779 -54.60  8.31943e-05    1.022    0.022
        67 -13.2663     82.3670    160.1788   1.0176190846e+02   3.1610254877e+01     1.391498    0.6966692  62.14 0.0004813886    2.991    0.666
        68 -13.8406     70.9303    154.9267   1.0401532026e+02   3.4585331254e+01    0.6447751    0.5795802 -36.61  0.002077425    1.271    0.213
        69 -10.0604    241.6796    101.6811   5.2808316971e+01   1.1647736544e+01    0.1321011    0.1048101   1.19 0.0004600296    1.665    0.399
        70 -10.8094     29.5574     98.8825   1.0702305687e+02   5.3164154192e+01     0.380653    0.1989134  43.89  0.001780599    2.320    0.569
        71  -9.3693    128.7060     95.9804   7.3958848977e+01   3.8113910321e+01    0.2138113    0.2018772 -35.97 0.0004734395    1.061    0.057
        72 -12.9309    108.1944    203.2927   1.0193863796e+02   1.7507185236e+01    0.9198968    0.5532098 -34.79 0.0006148843    2.478    0.597
        73  -9.8957    156.8753     88.8381   6.4884323849e+01   3.3025739254e+01    0.2991642    0.1973704 -66.02  0.001213129    2.062    0.515
        74  -9.2095    117.0569     85.9903   7.4298651830e+01   4.2729371206e+01    0.1931351    0.1671364  41.65 0.0009762975    1.149    0.130
        75  -8.8213     74.5269     84.5439   8.7496514203e+01   5.1059337782e+01    0.1421057    0.1349853 -32.33 0.0001729857    1.054    0.051
        76 -10.0660    158.3178     82.1370   6.2662965234e+01   3.3936928439e+01    0.2620197     0.210782  42.12 0.0005645662    1.274    0.215
        77  -8.7940     70.6789     82.2437   8.8192364312e+01   5.2161842885e+01    0.1318554    0.1114942  66.94 0.0001881891    1.524    0.344
        78  -9.1304    184.6129     77.1317   5.5981300229e+01   2.8452500251e+01    0.2041491    0.1426487 -23.07 0.0005546737    1.700    0.412
        79  -9.1241     56.4682     66.4845   8.8741986525e+01   5.7549673101e+01    0.1347725    0.1224602 -26.16 0.0001537168    1.063    0.059
        80 -13.9141    188.4054     48.3273   4.7642211845e+01   3.2039888634e+01     1.260445    0.8939574  39.22 0.0008833443    1.712    0.416
        81 -13.4550     28.1175    215.2794   1.2083814182e+02   2.5779672850e+01    0.9792987    0.3858471  77.79  0.004190694    3.106    0.678
        82 -10.1780    169.0359    235.8749   9.3482549455e+01   1.3193548996e+00    0.1895235    0.1737124  -4.61 0.0004134446    1.177    0.150
        83 -11.3574    143.3820     48.3851   5.5782541483e+01   4.3199930402e+01     0.610114    0.3597331 -82.79 0.0009163606    3.346    0.701
        84 -11.7155     21.7162     33.8754   9.2949123938e+01   6.7683407649e+01    0.3672589    0.2071478  34.19  0.001603281    2.143    0.533
        85 -11.0102     13.4390     59.9100   1.0484217375e+02   6.3165647269e+01    0.2413913    0.1903725 -57.12 0.0004114844    1.178    0.151
        86 -10.8518    187.8396     31.0061   4.3129253673e+01   3.4476471210e+01    0.2465317    0.1862964  73.17 0.0006683339    1.215    0.177
        87  -9.5284     69.0660     52.7839   7.9189325325e+01   5.8315326412e+01    0.1919427       0.1817  36.09 0.0006269044    1.255    0.203
        88 -10.6053    198.0597     23.8673   4.0036644808e+01   3.2859322914e+01    0.2778064    0.1985259 -20.81  0.001095697    1.744    0.427
        89  -9.6493    189.6641     14.9748   3.8739641533e+01   3.5878762318e+01    0.1808835    0.1569289 -60.64 0.0006245072    1.146    0.128
        90 -10.2595     90.1673    213.2919   1.0735132763e+02   1.8202840461e+01    0.3744043    0.2092943  65.51  0.001213199    2.127    0.530
        91 -10.8175    184.1550    206.3222   8.5519315544e+01   3.8021379053e+00     0.284227    0.1136866  32.30  0.001088583    2.579    0.612
