#   1 NUMBER                 Running object number                                     
#   2 MAG_AUTO               Kron-like elliptical aperture magnitude                    [mag]
#   3 X_IMAGE                Object position along x                                    [pixel]
#   4 Y_IMAGE                Object position along y                                    [pixel]
#   5 X_WORLD                Barycenter position along world x axis                     [deg]
#   6 Y_WORLD                Barycenter position along world y axis                     [deg]
#   7 A_WORLD                Profile RMS along major axis (world units)                 [deg]
#   8 B_WORLD                Profile RMS along minor axis (world units)                 [deg]
#   9 THETA_WORLD            Position angle (CCW/world-x)                               [deg]
#  10 FWHM_WORLD             FWHM assuming a gaussian core                              [deg]
#  11 ELONGATION             A_IMAGE/B_IMAGE                                           
#  12 ELLIPTICITY            1 - B_IMAGE/A_IMAGE                                       
         1  -7.4655     82.8256     10.8069   2.9636737218e+01   6.3264947406e+01    0.1734289    0.1573283 -51.48 0.0002252569    1.278    0.217
         2  -8.5239     98.9023      4.9778   2.2366243903e+01   6.0114107079e+01    0.2087894    0.1875811  25.63  0.000339964    1.064    0.060
         3  -8.4162    225.5138    242.9904   5.8752558355e+01  -3.9220145402e+00    0.1849649    0.1238206  38.13 0.0007327448    1.537    0.350
         4  -8.0902    236.7813    250.3666   5.8019613385e+01  -6.0285475796e+00    0.1467092   0.07068696  26.99 0.0005326072    1.615    0.381
         5  -9.9394     93.7524    250.1697   8.2402743364e+01   1.3074246872e+01     0.185214    0.1261129  42.24  0.000451533    1.151    0.131
         6  -7.1343     44.4570    250.5989   9.1102385723e+01   1.8977347529e+01     0.105097    0.0724273  55.58 8.755762e-05    1.017    0.016
         7  -7.8323     15.7796    250.0133   9.5924116167e+01   2.2076562482e+01    0.1605545    0.1006982  84.33    0.0006804    1.453    0.312
         8  -8.9221     13.6902    246.5533   9.6160497768e+01   2.2845791650e+01    0.2175493    0.1932344 -68.57  0.001918594    1.720    0.419
         9  -8.3883      2.5568    249.2035   9.8068671504e+01   2.3465842551e+01     0.197821    0.1133401 -79.03  0.001505875    1.877    0.467
        10  -8.7924    118.4537    239.7239   7.6981201388e+01   1.1313045709e+01    0.1929618    0.1485904  35.69 0.0005344601    1.163    0.140
        11  -9.4753    247.6774    238.6134   5.4682705951e+01  -6.2478678886e+00    0.2422251    0.1146376  19.91  0.001462106    1.948    0.487
        12  -8.4607     44.4862    237.4795   9.0421616300e+01   2.1139571162e+01     0.177052    0.1311995  56.54 0.0001674625    1.066    0.062
        13 -10.3846      3.4708    228.7546   9.7362121260e+01   2.6847554316e+01    0.4319865    0.2754793  89.05  0.003303465    1.428    0.300
        14 -10.4137     19.3367    230.4228   9.4612110999e+01   2.5038297369e+01    0.3942277    0.2493021  10.54  0.002313912    3.269    0.694
        15  -7.9608    104.1585    235.0179   7.9186353040e+01   1.4023605436e+01    0.1779503    0.1466888  85.27  0.001307063    1.361    0.265
        16  -9.1868      9.7460    225.3313   9.6141884784e+01   2.6875685791e+01    0.1769681     0.157528  78.40 0.0008839754    1.406    0.289
        17  -7.2106    226.4353    224.4462   5.5887509839e+01  -2.0955202857e+00    0.1098984   0.08571195  15.05 8.705734e-05    1.071    0.066
        18  -8.6097     25.6819    223.0176   9.3139556438e+01   2.5721884481e+01    0.1536164    0.1106635  69.14 0.0007221277    1.077    0.072
        19 -10.4480      7.1236    234.1366   9.6888159466e+01   2.5568996317e+01     0.579797    0.2733903  20.77  0.003078238    3.739    0.733
        20  -7.3518     67.5142    219.5368   8.4899214658e+01   2.1544731545e+01    0.1175727   0.08979439  58.23 0.0001939666    1.008    0.008
        21  -7.8465    231.7081    217.3247   5.3926285752e+01  -2.0239815607e+00   0.09254885   0.08815924  26.14 0.0002184464    1.615    0.381
        22  -7.3016     63.6891    214.3847   8.5253679956e+01   2.2975260948e+01    0.1293925   0.06754751  63.89  0.000701982    1.811    0.448
        23  -8.7260     46.0462    213.5907   8.8709601394e+01   2.5250495670e+01    0.1861679    0.1460414 -89.20 0.0004986328    1.276    0.216
        24  -9.2791     51.8817    210.9918   8.7368404702e+01   2.5060281662e+01     0.232775    0.1837689 -44.89 0.0008354321    1.901    0.474
        25  -7.4718     26.5990    210.2372   9.2342054582e+01   2.8017340087e+01    0.1358415   0.09048384 -74.34 0.0002817625    1.589    0.371
        26  -9.9094     10.5101    207.3668   9.5336249910e+01   3.0149167209e+01    0.4756457    0.2959376  23.57  0.002987606    2.122    0.529
        27  -7.6976     80.9680    202.3088   8.0622335637e+01   2.2993920873e+01    0.1713037    0.1298394  48.94 0.0002295296    1.124    0.111
        28  -9.9997      2.5373    193.2383   9.6358604907e+01   3.3649026024e+01    0.2527722    0.1975663 -82.04  0.000829445    1.359    0.264
        29 -11.5043     10.9305    186.9729   9.4366417935e+01   3.4193695016e+01    0.7328159    0.5034497  81.95  0.004042794    1.163    0.140
        30 -10.1249     22.6831    180.6788   9.1492550558e+01   3.4415183826e+01    0.4819875    0.3070251  68.07  0.003064099    1.260    0.206
        31  -8.0443    138.1385    186.3025   6.6350209097e+01   1.7183076492e+01    0.2293031    0.1408243  36.88 0.0008553248    1.492    0.330
        32  -7.2855    246.3192    180.6744   4.5300619002e+01   1.9068924227e-01     0.102984   0.09415975 -45.77 0.0007046073    1.678    0.404
        33  -8.8650     75.5528    175.7864   7.8937447950e+01   2.9177167339e+01    0.2206518    0.1905236  61.12 0.0003396602    1.063    0.059
        34  -8.9000     38.1795    170.4335   8.7209721488e+01   3.5046317046e+01    0.2438293    0.1978266  55.59 0.0005668113    1.166    0.143
        35  -9.1649     46.3649    164.8458   8.4736388558e+01   3.5376669054e+01    0.2303045     0.202803 -84.43 0.0004385358    1.181    0.153
        36  -9.6400    132.0493    188.5612   6.7987665971e+01   1.7789728454e+01    0.2232078    0.2014484 -51.08  0.001420724    1.252    0.202
        37  -8.1018    219.3869    165.0419   4.6692255412e+01   6.5208407921e+00     0.201132    0.1717698  46.94 0.0001054773    1.416    0.294
        38  -7.8829     40.8873    159.0108   8.5519680523e+01   3.7337570182e+01    0.1846811    0.1517459  76.38  0.000276895    1.014    0.014
        39  -8.4770     59.8728    156.3714   8.0433911372e+01   3.5660447628e+01     0.231954     0.192902 -67.45 0.0005159684    1.248    0.199
        40  -7.3752    232.7331    154.3787   4.2323930386e+01   5.7787107050e+00    0.1787512    0.1088392  30.46 0.0007181327    1.684    0.406
        41 -10.4530     44.1733    152.1820   8.3987525602e+01   3.8557562952e+01    0.4030114    0.3015147 -26.63  0.001570236    2.080    0.519
        42  -7.5011     85.4398    151.7119   7.3225401877e+01   3.3100496436e+01     0.173531     0.127092 -55.98 0.0003709705    1.421    0.296
        43  -9.3887     68.1537    151.1583   7.7620911854e+01   3.5766706330e+01    0.3679426     0.232696 -56.40  0.001272929    1.633    0.388
        44 -10.3877     68.5543    144.3618   7.6546527140e+01   3.7316986493e+01     0.674596    0.3699421  73.18  0.002713316    2.371    0.578
        45  -8.8523    145.3812    143.8726   5.7029616622e+01   2.4093023085e+01    0.3434251    0.2542793 -22.90  0.001319955    1.682    0.405
        46  -9.3427     74.0908    137.0083   7.3891668614e+01   3.8282467771e+01    0.2650513    0.2369694  59.50 0.0003257517    1.113    0.102
        47  -8.6280     31.0241    133.7846   8.5542521879e+01   4.4370400207e+01    0.2134159    0.1595134 -75.31 0.0002899589    1.179    0.152
        48  -9.0632     59.5361    131.9740   7.7183969413e+01   4.1537440358e+01    0.3181871    0.1680238  76.19  0.001259623    2.627    0.619
        49  -8.5739     66.0659    130.8629   7.5138552293e+01   4.0924546066e+01    0.2349302    0.2013188  -3.47 0.0009885187    1.596    0.374
        50  -7.2909    123.9827    128.0273   5.8743798774e+01   3.1700079153e+01    0.1720117    0.1655445  71.45 0.0009430879    1.018    0.017
        51 -10.6417     52.2348    120.1097   7.7468730805e+01   4.5401741034e+01    0.4098838    0.2881637  69.22  0.002163013    1.471    0.320
        52  -7.4943     88.5343    125.4830   6.7741527460e+01   3.8789921603e+01    0.1468023    0.1339203  89.86 0.0003175141    1.023    0.023
        53  -7.1481    102.0004    118.2563   6.2399506633e+01   3.8144483475e+01    0.1849459    0.1282717  42.78 0.0003722777    1.473    0.321
        54  -8.0686      2.0458    116.9757   9.2345895953e+01   5.0797169311e+01    0.1544261    0.1184255 -89.48 0.0007978133    1.014    0.014
        55  -7.4067    103.8059    109.1061   5.9724221480e+01   3.9950590011e+01    0.1932926    0.1732731 -23.38  0.001004088    1.290    0.225
        56  -7.3329     20.5211    102.5453   8.5007673632e+01   5.3040669840e+01    0.1311459    0.1075525 -82.28 9.125302e-05    1.009    0.009
        57  -7.8745    198.0087     87.1037   3.2194863294e+01   2.3280867673e+01    0.2105262    0.1982975 -42.03            0    1.036    0.035
        58  -7.0078    131.2495     87.6904   4.6329999745e+01   3.8929019428e+01    0.1535267    0.1201823 -71.87  0.000204609    1.511    0.338
        59  -7.3837    210.7300     84.3599   2.9430328673e+01   2.0827438857e+01    0.1827461    0.1341323  45.97 0.0003532343    1.495    0.331
        60  -7.6086    124.4900     84.1947   4.7038715525e+01   4.1191957257e+01     0.220455    0.1510927 -41.25 0.0009731174    1.425    0.298
        61  -7.2498     92.6199     83.4593   5.6139939942e+01   4.8038873331e+01    0.1510259    0.1387745 -53.85 7.287304e-05    1.027    0.026
        62  -8.9229     95.7291     71.1995   5.1267928368e+01   5.0146691214e+01    0.2978624    0.2388625 -50.70 0.0002395825    1.201    0.167
        63  -7.2917    164.0050     65.9995   3.2183725251e+01   3.5086702555e+01    0.1810237     0.171034  69.28 0.0003619096    1.089    0.082
        64  -7.0869     93.7368     54.9835   4.6116725445e+01   5.3891802595e+01    0.1797853    0.1251655 -39.64 0.0002824184    1.373    0.272
        65 -10.6729    240.2152     42.8970   1.5032694247e+01   2.0128842083e+01     0.752407    0.3085735  56.29  0.002996786    2.724    0.633
        66  -7.0550     91.7025     44.7122   4.2701502537e+01   5.6251557266e+01     0.145654    0.1134098   7.06 0.0003009146    1.553    0.356
        67  -8.2322    144.9900     49.1107   3.0403478995e+01   4.2718414427e+01    0.2257145     0.210271 -52.79 0.0004213988    1.058    0.055
        68  -8.4346    182.3856     28.9017   1.7421144751e+01   3.5783779148e+01    0.2413079    0.1983443  60.31 0.0003123797    1.259    0.205
        69  -6.8674    133.2706     25.6802   2.4074445210e+01   4.9112561813e+01    0.1508535    0.1082598 -58.79 0.0001956597    1.565    0.361
        70  -9.9309    245.7813    247.9819   5.6317455125e+01  -6.8842159485e+00     0.217446    0.1595508 -25.92  0.001744559    1.699    0.411
