#   1 NUMBER                 Running object number                                     
#   2 MAG_AUTO               Kron-like elliptical aperture magnitude                    [mag]
#   3 X_IMAGE                Object position along x                                    [pixel]
#   4 Y_IMAGE                Object position along y                                    [pixel]
#   5 X_WORLD                Barycenter position along world x axis                     [deg]
#   6 Y_WORLD                Barycenter position along world y axis                     [deg]
#   7 A_WORLD                Profile RMS along major axis (world units)                 [deg]
#   8 B_WORLD                Profile RMS along minor axis (world units)                 [deg]
#   9 THETA_WORLD            Position angle (CCW/world-x)                               [deg]
#  10 FWHM_WORLD             FWHM assuming a gaussian core                              [deg]
#  11 ELONGATION             A_IMAGE/B_IMAGE                                           
#  12 ELLIPTICITY            1 - B_IMAGE/A_IMAGE                                       
         1 -11.7465     45.0526     81.6394   1.0455444931e+02   5.5073984453e+01     1.277416    0.5667534 -44.01  0.005703362    2.088    0.521
         2 -10.4651     82.2500     39.8515   7.7558539629e+01   5.8180655828e+01     0.548552    0.3722185 -36.39  0.002886483    1.424    0.298
         3  -9.9351     38.7460      8.6435   8.0814696555e+01   6.9599582286e+01     0.591082    0.3339101 -12.05  0.003245518    1.872    0.466
         4  -9.0959     40.3764      1.9355   7.6511461175e+01   7.0240671310e+01    0.2709165    0.1459377  27.06  0.001538609    1.806    0.446
         5 -10.7292     39.6605     29.9290   9.0234170159e+01   6.6195513320e+01     0.552361    0.3270027 -45.98   0.00272997    1.609    0.378
         6 -12.0924     44.8209     22.3473   8.4659915020e+01   6.6809908926e+01      1.02354    0.9026952 -60.48  0.006460662    1.741    0.426
         7 -11.4527    128.5988     15.2885   5.5006109013e+01   5.1377079057e+01     1.242886    0.7401406 -34.41   0.00603325    1.789    0.441
         8 -12.1704     82.4164      6.9864   6.3189886757e+01   6.2528276053e+01     1.954087     1.050069   0.11  0.009096669    2.318    0.569
         9 -10.3649     71.1406      5.6902   6.6222333979e+01   6.4825159885e+01    0.5355973    0.3599099  34.14   0.00252019    1.330    0.248
        10 -11.4117    109.1751      4.7555   5.5092399543e+01   5.6989263442e+01     1.655882    0.4241753  61.39  0.005542683    3.649    0.726
        11 -10.7869    131.4363      3.4617   5.0048775662e+01   5.1806470698e+01    0.8948399    0.3508987  59.69  0.002949607    2.126    0.530
        12 -10.6950    121.3015      4.0033   5.2188248846e+01   5.4215802696e+01    0.5977233     0.447886  67.82  0.002541644    1.321    0.243
        13 -13.7212    165.8300     10.3766   4.6898788959e+01   4.2476328013e+01     3.268572     1.985409  63.79   0.01611383    1.472    0.321
        14 -10.1861    116.5373     17.2949   5.8445525640e+01   5.4040005064e+01    0.8925682    0.3449975 -39.60  0.003426293    2.944    0.660
        15  -9.4596     94.0443     17.5704   6.4460667670e+01   5.8998222451e+01      0.43585    0.3402382  83.58  0.002348039    1.914    0.478
        16 -10.8587     63.9436     16.5954   7.4091926449e+01   6.4797622817e+01    0.5474946    0.4518824 -87.89  0.003101401    2.355    0.575
        17  -8.6783     49.6554      6.3469   7.4763387712e+01   6.8362255504e+01    0.3675057    0.1903813  14.50  0.001668124    2.512    0.602
        18 -10.6477     59.7020      4.0683   6.9540431924e+01   6.7019588925e+01    0.8146257    0.5091749  -2.23  0.004640629    1.594    0.373
        19  -8.6043     52.6869      1.8321   7.1134124942e+01   6.8415589016e+01    0.3666151    0.1546405  41.19  0.001820515    2.239    0.553
        20  -8.8492     20.3901     13.9910   9.2540982844e+01   7.0840630436e+01    0.5094138    0.1996086 -31.39   0.00245607    2.427    0.588
        21  -9.9052    248.6689     14.9934   3.9339348112e+01   2.1609657442e+01    0.2845881    0.2221707 -28.89  0.001389884    1.408    0.290
        22 -11.2535    155.2670     21.0447   5.2011860013e+01   4.4066309739e+01    0.7591209    0.4851814  67.00  0.002499718    1.487    0.327
        23 -10.8803    143.9510      3.5386   4.7940734452e+01   4.8688449677e+01     0.767108    0.5289441  71.77  0.003677638    1.366    0.268
        24  -9.9244    104.0938     12.0977   5.9382575481e+01   5.7430409398e+01    0.4502248    0.3407302 -14.31  0.002561636    1.352    0.260
        25  -9.5603     69.8117     14.4653   7.0911842811e+01   6.4060881485e+01    0.3015437    0.2345809 -85.52  0.001568046    2.685    0.628
        26 -10.3962    248.6234      6.9128   3.7535139543e+01   2.2534377133e+01    0.5155417    0.3839531  48.44  0.003110538    1.736    0.424
        27  -9.0827    213.6802      5.0782   3.9938907575e+01   3.0893433605e+01    0.2727315     0.144539  57.73  0.001320237    1.900    0.474
        28 -10.5913    205.1145      3.9641   4.0452262616e+01   3.3115371860e+01     0.505561    0.2277419  77.63  0.002219753    2.117    0.528
        29  -8.7120     26.9823      3.5364   8.3906431923e+01   7.1724385749e+01    0.2378091     0.143546 -30.93  0.001505853    1.408    0.290
        30  -8.9071     17.3665      2.1275   8.8290080581e+01   7.2928789744e+01    0.2230957    0.1774934 -30.64   0.00146036    1.334    0.250
        31  -9.2710    218.4677      2.1642   3.8788737555e+01   3.0029334423e+01    0.2491443    0.1682496  81.13  0.001391879    1.352    0.261
        32  -8.3589    139.3552     77.7822   7.4183378842e+01   3.9293465025e+01    0.4275322    0.1497171 -35.79   0.00132268    3.035    0.671
        33  -9.6295     49.7640     61.3335   9.7279509141e+01   5.9002373994e+01    0.3462805    0.2899007   5.54  0.002148322    1.300    0.231
        34 -10.0561     74.8634     69.8940   9.0864398450e+01   5.3770910086e+01    0.5221643    0.3844806  65.34  0.002593802    1.986    0.496
        35  -8.4935     70.3293     62.0890   8.9927384567e+01   5.6077305684e+01    0.2870381    0.1077883 -41.18  0.001087847    2.492    0.599
        36  -7.9365     83.5134     89.4692   9.3764527808e+01   4.8116611386e+01    0.1458941    0.1325971 -40.00 0.0002655768    1.036    0.035
        37  -8.1195     76.1812     59.5226   8.6991991167e+01   5.5671417467e+01    0.2626504    0.1603027 -32.01  0.001249659    1.626    0.385
        38  -8.6417     16.2757     58.3874   1.0959504047e+02   6.2680546026e+01    0.2021144     0.136525 -80.40  0.001188932    1.746    0.427
        39  -8.4282     93.9319     57.6986   8.0396630912e+01   5.2886174816e+01    0.2009256    0.1909818  13.78  0.001162068    1.084    0.077
        40  -9.0160    199.2531     55.6910   5.5378793821e+01   2.8089473363e+01    0.2626788    0.2480437  24.13 0.0005355578    1.188    0.158
        41  -7.8485    138.4197     55.7729   6.7276356091e+01   4.3477585192e+01    0.2114893    0.1467005 -18.37 0.0008608496    1.652    0.395
        42  -9.2169     66.1316     53.8007   8.8612216746e+01   5.8346468798e+01    0.5129329    0.1860676 -50.95  0.001880825    3.019    0.669
        43  -8.4767     35.5455     53.0032   1.0030186495e+02   6.2253084852e+01    0.2109324    0.1728736  42.41   0.00120727    1.569    0.363
        44  -8.0534     23.1837     52.1924   1.0514804702e+02   6.3495396244e+01    0.1554659    0.1371284 -71.64  0.001068522    1.326    0.246
        45 -10.3026     84.1990     47.6555   7.9926097065e+01   5.6506593281e+01    0.6235025    0.5222832  72.01  0.003122334    1.697    0.411
        46 -10.1380    208.3301    223.1654   9.2130846414e+01  -2.2722501687e+00    0.2642477    0.1462101 -21.82  0.001343864    2.282    0.562
        47  -7.9264    110.9974     46.5141   7.1156184782e+01   5.1332356737e+01    0.2158637    0.1128658  29.92  0.000810191    2.544    0.607
        48 -10.2570      3.2290     40.7499   1.1058114441e+02   6.7092659380e+01    0.4291662    0.3364089 -80.93  0.002972991    1.541    0.351
        49  -9.4804      6.5881     35.4559   1.0754148591e+02   6.7971103285e+01    0.3179236    0.2841778  53.90  0.002396422    1.596    0.373
        50  -9.2164     12.1597     33.4694   1.0430019922e+02   6.8020919470e+01    0.4080996    0.2041885 -52.55  0.001885462    1.565    0.361
        51 -11.0572      8.9917    141.7528   1.2438104114e+02   4.4109705856e+01    0.5961514    0.3150227  63.71  0.003351244    1.907    0.476
        52  -9.8281     10.6145    136.0354   1.2345768846e+02   4.5300967476e+01    0.2150402    0.1893986   8.99  0.001462915    1.590    0.371
        53 -10.6625     50.2001     35.7565   8.8069500774e+01   6.3888351818e+01    0.6942022    0.5496265 -68.46  0.004007411    1.995    0.499
        54  -8.5377     53.8763    143.2855   1.1336956498e+02   3.9417613777e+01    0.2497808    0.1643648 -82.07  0.001336375    1.423    0.297
        55  -9.2469     40.7974    141.8459   1.1652378615e+02   4.1235808070e+01    0.2555567    0.2292527  83.52   0.00169934    1.127    0.112
        56  -9.2688     68.4056     36.3280   8.1095491791e+01   6.1133305068e+01    0.4467478    0.2934045  49.82  0.002330112    1.934    0.483
        57  -8.3963     27.7677     34.9624   9.7570426129e+01   6.6518419584e+01    0.2267566    0.1427554 -16.89  0.001324637    1.647    0.393
        58 -10.1101     86.2518     31.2903   7.2721273420e+01   5.8758037564e+01    0.4255122    0.2361319 -28.50  0.001796046    1.767    0.434
        59 -10.2015     90.3308     28.4249   7.0211329237e+01   5.8368093268e+01    0.4296554    0.3605408 -72.96  0.002388506    1.771    0.435
        60 -12.7637    241.7686    131.1222   6.7674155098e+01   5.8978083131e+00     1.481562     1.360418   3.40  0.006197154    1.087    0.080
        61  -8.0898     55.0000    127.0032   1.1055664262e+02   4.3195197077e+01    0.2280077   0.06787214 -63.79  0.000799906    2.925    0.658
        62  -8.4928     58.9963    124.0000   1.0892166828e+02   4.3432047145e+01    0.2082672    0.0787231  32.02  0.000810812    3.001    0.667
        63  -8.8672     73.2227    118.6007   1.0382692519e+02   4.2833401712e+01    0.1902635    0.1403226  18.47 0.0009629505    1.749    0.428
        64  -8.4772      3.1627    116.5933   1.2342512196e+02   5.0287560400e+01    0.1384531    0.1101476 -21.62 0.0009489497    1.705    0.414
        65  -9.7466     17.1132    104.6833   1.1800203273e+02   5.2142769232e+01    0.3489548    0.2172127 -69.63  0.001495828    1.260    0.207
        66 -11.2612     11.6639    126.1474   1.2218732460e+02   4.7513672606e+01     0.576832    0.2469263 -67.80  0.002973884    1.773    0.436
        67  -8.9130     97.5120     28.4191   6.8011808015e+01   5.6903138319e+01    0.4245954    0.2116723 -13.24  0.001646779    2.849    0.649
        68  -9.0303    104.2623     26.4326   6.5260876330e+01   5.5725113876e+01    0.4149525    0.2636559  67.79   0.00193292    2.073    0.518
        69  -8.3915     38.6528     38.4077   9.4011027486e+01   6.4789836434e+01    0.2623847    0.1318176 -45.33  0.001353933    1.681    0.405
        70  -8.6150     21.4034     22.9341   9.5920645069e+01   6.9253035332e+01    0.2545134    0.1967499  20.73  0.001774814    1.498    0.332
        71  -9.0590     68.5056    105.9994   1.0255032964e+02   4.6517881253e+01    0.2289667    0.1261161 -58.33  0.001043413    1.622    0.383
        72  -9.0115    111.1537     16.3222   5.9352865078e+01   5.5389699844e+01    0.3157955    0.2268541  39.71  0.001101219    1.275    0.216
        73  -9.3922     46.4916    102.5054   1.0862912034e+02   5.0050164044e+01     0.253548     0.175942 -56.62 0.0009803975    1.223    0.183
        74  -9.1758     29.8892    102.0530   1.1371028516e+02   5.1760094457e+01    0.3635363    0.2106021 -39.40  0.001910073    1.906    0.475
        75  -8.5203     63.7756     98.0007   1.0220919770e+02   4.9050829316e+01    0.1999314    0.1029212 -57.23 0.0008889968    1.711    0.416
        76  -9.2909      2.2910     88.4580   1.2025664633e+02   5.6791741111e+01    0.4621381    0.1613645 -73.09  0.002130923    2.282    0.562
        77  -9.2850    175.0209    242.7348   1.0121155773e+02   4.1962400130e-01    0.2066765    0.1228192   0.44 0.0009043635    3.627    0.724
        78  -9.2364     20.8553     87.5654   1.1406654072e+02   5.5857799544e+01    0.4300946    0.1495839 -56.37   0.00195699    2.100    0.524
        79  -8.1635     12.3532     89.6609   1.1720988409e+02   5.5947987859e+01    0.1232773   0.08143441  73.36 0.0007042851    1.803    0.445
        80  -8.5652    101.0321     83.7007   8.6667057687e+01   4.6297845501e+01    0.2103145    0.1992911  34.21  0.001159581    1.111    0.100
        81  -8.9868    227.8387     78.9988   5.7250357817e+01   1.7486770616e+01    0.4145549    0.2756013  -4.72   0.00178648    2.254    0.556
        82 -10.3356     25.0181     66.1722   1.0809121297e+02   6.0369649866e+01    0.6761998    0.2105526 -50.44  0.002925965    2.349    0.574
        83  -8.3801      9.0283     80.3449   1.1677742411e+02   5.8270157465e+01     0.286496    0.2223647 -39.11  0.001500314    1.315    0.240
        84  -9.6251     66.6467     29.2275   7.8771816507e+01   6.2549529756e+01     0.364094    0.2033529 -23.12  0.001676676    1.839    0.456
        85  -7.1047     11.9607     14.0000   9.6995141900e+01   7.1544581671e+01    0.1605281   0.06018065  21.84 0.0008065458    2.971    0.663
        86 -10.6196      4.0817     75.9972   1.1774170147e+02   5.9511972418e+01    0.4663102    0.4206721 -70.85  0.003198276    1.186    0.157
        87 -10.0705    225.2258     28.9948   4.4845765317e+01   2.5349414955e+01    0.4797945    0.2976282  69.75   0.00170029    1.591    0.372
        88  -8.4321    125.5451     29.4524   6.0993087095e+01   5.0465515250e+01     0.250898     0.218246 -33.28  0.001399696    1.216    0.178
        89 -11.4911     15.2040     72.3970   1.1312571990e+02   5.9684786356e+01    0.7469471    0.6238452  62.38  0.004515886    1.496    0.331
        90  -9.3316     83.5671     68.9401   8.7614532462e+01   5.2551124443e+01    0.3646355    0.2780152  61.84  0.001846861    1.745    0.427
        91 -10.9306     38.9967     82.6882   1.0690199027e+02   5.5449046354e+01    0.6035471    0.3854346  63.64  0.003049189    2.290    0.563
        92  -8.0172     34.0653     68.6962   1.0530471198e+02   5.9053653828e+01    0.1762727    0.1518201 -40.34 0.0008287715    1.082    0.076
