#   1 NUMBER                 Running object number                                     
#   2 MAG_AUTO               Kron-like elliptical aperture magnitude                    [mag]
#   3 X_IMAGE                Object position along x                                    [pixel]
#   4 Y_IMAGE                Object position along y                                    [pixel]
#   5 X_WORLD                Barycenter position along world x axis                     [deg]
#   6 Y_WORLD                Barycenter position along world y axis                     [deg]
#   7 A_WORLD                Profile RMS along major axis (world units)                 [deg]
#   8 B_WORLD                Profile RMS along minor axis (world units)                 [deg]
#   9 THETA_WORLD            Position angle (CCW/world-x)                               [deg]
#  10 FWHM_WORLD             FWHM assuming a gaussian core                              [deg]
#  11 ELONGATION             A_IMAGE/B_IMAGE                                           
#  12 ELLIPTICITY            1 - B_IMAGE/A_IMAGE                                       
         1 -14.1875     68.6983    144.6344   9.5785956897e+01   3.7186546879e+01     4.559611     2.439483  74.46  0.002816201    4.380    0.772
         2 -13.6183    206.8165     42.5988   3.7046401293e+01   2.8948500920e+01     1.645939     1.341611  30.00  0.008295988    1.806    0.446
         3 -13.4340    219.9812     30.9587   3.3162919760e+01   2.7650742350e+01    0.9492778    0.8021083  38.53  0.006278297    1.726    0.420
         4 -10.2368      2.1896     17.6044   8.8469211459e+01   7.2280113704e+01    0.2764264   0.06946363 -49.06  0.001146611    3.600    0.722
         5 -12.6764    245.9733      6.3599   2.6422931368e+01   2.5356440286e+01    0.7171891    0.5052131 -63.50  0.005272682    1.077    0.072
         6  -9.3141     49.2130      3.2107   5.6921986684e+01   6.8050930857e+01     0.146489    0.1327863  35.09 0.0004514874    1.342    0.255
         7 -10.4897    139.6841    216.7930   8.9498162266e+01   8.2469146824e+00    0.2990021    0.1851219  43.47  0.001420724    1.612    0.380
         8  -9.3738    102.2311    250.0431   1.0260282357e+02   7.2406482361e+00    0.2058499    0.1549498 -82.59  0.001205182    1.623    0.384
         9 -15.7095     31.3758    179.8888   1.1163202320e+02   3.2429813202e+01     10.98498     4.450078  76.83   0.03375839    4.657    0.785
        10  -8.0001    223.7344    206.6957   6.9772855664e+01  -2.8024242934e+00      0.13152   0.08599922 -12.11 0.0001978631    1.527    0.345
        11  -9.7666    111.1289    203.9084   9.4306417406e+01   1.5681581452e+01    0.2160021     0.185863  58.43 0.0003737861    1.204    0.169
        12 -10.4256    192.9873    194.9452   7.3621973104e+01   3.9290307851e+00    0.8540316    0.4081525 -60.77  0.002339156    6.356    0.843
        13 -13.0276      5.5980    185.7403   1.1857404023e+02   3.3296909282e+01     1.339375    0.6592535  88.79  0.001932859    1.875    0.467
        14  -8.1246     69.2360    194.3554   1.0354580868e+02   2.4260053491e+01    0.1399398    0.1026126 -41.60  0.000230893    1.578    0.366
        15 -10.2173     55.6805    192.1838   1.0675210186e+02   2.6573074201e+01    0.3119368    0.2372334  89.03  0.001171321    1.289    0.224
        16  -8.6397    149.4375    192.2341   8.2871995493e+01   1.1860896735e+01    0.2055217    0.1456154 -60.41 0.0009538169    1.669    0.401
        17 -16.2524     16.1834    241.9559   1.1991632827e+02   1.9557818276e+01     6.454318     2.268939  23.10   0.02616491    4.189    0.761
        18  -9.0721    122.8399    199.9704   9.0755377557e+01   1.4670295374e+01    0.2698002    0.2094749 -87.42  0.001065638    1.677    0.404
        19  -9.1872     99.4478    180.7961   9.3503365832e+01   2.3119390435e+01    0.2648176    0.2092065  34.80 0.0006832823    1.265    0.209
        20 -11.3797     62.3800    172.3284   1.0230115673e+02   3.0775700276e+01    0.4978129    0.3060198 -34.03  0.001996365    2.133    0.531
        21 -11.3212     67.2535    167.5860   1.0020419926e+02   3.1356058504e+01    0.3876873     0.291981 -35.42  0.000729896    1.518    0.341
        22  -9.0696    186.2477    173.7562   7.0784302399e+01   9.2794454815e+00    0.3377466    0.1978666  53.09   0.00141291    2.321    0.569
        23  -9.9699     86.6016    173.0806   9.5676991427e+01   2.7107821961e+01    0.4945867     0.329615   5.69  0.002085578    2.159    0.537
        24 -12.1308     84.4457    152.5305   9.2540405325e+01   3.2762345562e+01      1.80104    0.8254511 -58.18  0.002906489    2.100    0.524
        25 -12.0331     76.7579    158.5798   9.5939484917e+01   3.2357546189e+01    0.8049472    0.5783105  67.22  0.000491223    1.667    0.400
        26 -12.7575     64.1232    154.4870   9.8956869044e+01   3.5220040613e+01    0.5442029    0.3626394 -35.76 0.0009577669    1.729    0.422
        27 -10.4396    119.7428    244.9390   9.8144184504e+01   5.6940700572e+00    0.2904995    0.1918235 -47.23  0.001054317    1.721    0.419
        28  -8.8921    110.7071    167.5579   8.8011595855e+01   2.4524121790e+01    0.2605346    0.1924103 -82.15  0.001148683    1.729    0.422
        29 -14.6250      9.4073    208.2066   1.1926359419e+02   2.7630540484e+01     1.369123      1.17302 -76.16  0.006078992    1.224    0.183
        30  -9.1036     44.1853    165.3193   1.0641589664e+02   3.4822837307e+01    0.2612656    0.1778346  62.77 0.0006448356    1.592    0.372
        31  -8.9397    175.0549    149.4969   6.7944567743e+01   1.6482203750e+01    0.2256922    0.1524961  42.70 0.0005786731    1.570    0.363
        32 -10.2198    133.4989    144.2036   7.6813500532e+01   2.5990760024e+01     1.173532    0.2955849 -54.40  0.002524201    6.197    0.839
        33 -10.4624     54.3471    147.6700   1.0075398065e+02   3.8280055520e+01     0.476817    0.2346539 -61.14  0.001978362    1.818    0.450
        34 -10.1341     31.9898    143.4749   1.0696294667e+02   4.1821878196e+01    0.4911817    0.3138525  -5.08  0.002325586    2.154    0.536
        35 -10.3904     99.6201    138.5416   8.5060534705e+01   3.3818992920e+01    0.6208454    0.3938726 -16.75  0.002298805    2.527    0.604
        36 -11.6897     86.4879    138.0363   8.8933922854e+01   3.6193258682e+01    0.3374215     0.289111 -45.42 0.0005085357    1.123    0.109
        37 -10.3183    107.5752    130.2522   8.0750515384e+01   3.4433043589e+01    0.6325187     0.376291  24.00  0.002453392    2.092    0.522
        38  -9.3853     97.1886    124.8650   8.2574686672e+01   3.7683034795e+01    0.3147311    0.2426896   1.79  0.001424678    1.599    0.375
        39 -11.6223    238.6373    170.6996   6.0172646571e+01   1.2726335234e+00    0.7060335    0.3456446  20.21  0.002742786    3.727    0.732
        40  -9.3501    135.5924    129.7494   7.2782539270e+01   2.8974989207e+01    0.3228361    0.1488433 -42.60   0.00114068    2.153    0.536
        41  -9.0848    106.6990    118.2670   7.8008298047e+01   3.7510580726e+01    0.2149035    0.2046536 -50.11  0.000559382    1.058    0.055
        42  -9.9262    231.2551    113.7053   4.9557122170e+01   1.2676798820e+01    0.2572592    0.2366909 -56.69 0.0007894859    1.105    0.095
        43 -10.9010    247.5536    111.6241   4.6852743529e+01   1.0154966285e+01    0.3230632    0.2334645 -14.00  0.001773962    1.900    0.474
        44  -9.2098    205.4046    110.2692   5.2882760174e+01   1.8289355697e+01    0.2796187    0.1982652  46.35  0.001049882    1.587    0.370
        45  -9.2373     30.8867    108.0000   1.0133973026e+02   5.1091985083e+01    0.2067992   0.08053298  20.91 0.0007976962    2.910    0.656
        46  -8.0053    156.2637    111.5777   6.3010104454e+01   2.8561566286e+01    0.1632497    0.1189984 -71.25 0.0004812727    1.782    0.439
        47  -9.5159    243.3315     95.3145   4.4054792955e+01   1.3614999752e+01      0.12027   0.09918336  -7.41 0.0007045618    1.681    0.405
        48  -9.4932     53.1429     90.8715   8.8947470189e+01   5.2822251454e+01    0.2071949      0.15472 -26.81  0.000473857    1.313    0.238
        49  -9.8012    249.0000     85.0002   4.1281649168e+01   1.4255512230e+01    0.2148709   0.05993281 -39.63 0.0008060556    2.968    0.663
        50 -12.2302    197.3980     48.9096   3.9635803051e+01   3.0156922648e+01    0.7151666    0.4981084  51.34  0.001979971    1.630    0.386
        51 -10.4338    101.5232    243.3118   1.0197458084e+02   8.6588102083e+00     0.391807    0.1299218 -59.76  0.001522048    3.415    0.707
        52  -8.9098     46.0968     61.3641   8.2861391046e+01   6.0079215451e+01    0.1835991    0.1534085   9.73 0.0003862953    1.153    0.133
        53 -10.4788     13.4665     59.9589   9.7248770763e+01   6.3621697769e+01    0.2548951    0.1980233 -47.63 0.0004101672    1.169    0.145
        54 -10.2244    119.7545    213.3722   9.3676555492e+01   1.2175097540e+01    0.4462739    0.1921716 -56.30  0.001717651    2.521    0.603
        55  -8.9509    198.1928     23.7850   3.3714077666e+01   3.3180876401e+01    0.1533405    0.1428493  62.15 0.0005663831    1.319    0.242
        56  -8.2860    169.0000    235.9310   8.6032986381e+01   3.4897623033e-02    0.1936175   0.07428596 -46.53 0.0005158904    2.816    0.645
        57  -9.8914     74.5965    207.7615   1.0392352650e+02   2.0273378166e+01    0.3263046    0.2250095  83.33  0.001075357    1.645    0.392
        58  -8.7944    189.4443     15.2073   3.2630222722e+01   3.6073981474e+01    0.1707931   0.09721646 -49.72 0.0007587447    1.668    0.401
