#   1 NUMBER                 Running object number                                     
#   2 MAG_AUTO               Kron-like elliptical aperture magnitude                    [mag]
#   3 X_IMAGE                Object position along x                                    [pixel]
#   4 Y_IMAGE                Object position along y                                    [pixel]
#   5 X_WORLD                Barycenter position along world x axis                     [deg]
#   6 Y_WORLD                Barycenter position along world y axis                     [deg]
#   7 A_WORLD                Profile RMS along major axis (world units)                 [deg]
#   8 B_WORLD                Profile RMS along minor axis (world units)                 [deg]
#   9 THETA_WORLD            Position angle (CCW/world-x)                               [deg]
#  10 FWHM_WORLD             FWHM assuming a gaussian core                              [deg]
#  11 ELONGATION             A_IMAGE/B_IMAGE                                           
#  12 ELLIPTICITY            1 - B_IMAGE/A_IMAGE                                       
         1 -11.5039     45.5467     27.7542   8.0961149153e+01   6.5814575910e+01    0.4332223    0.3142398  10.59  0.002667495    1.281    0.219
         2 -11.4305      2.1629     22.1703   1.0044384846e+02   7.0885766758e+01    0.3368557     0.160907 -51.46 0.0006036813    1.717    0.418
         3  -9.9717     20.9958     17.7498   8.8425953613e+01   7.0207108443e+01    0.2815095    0.2555647 -32.21  0.002079337    1.475    0.322
         4  -9.7676     11.2329      7.2795   8.8884770791e+01   7.2704208566e+01    0.3554272    0.2577438  53.16  0.002050158    3.309    0.698
         5 -10.8340     13.9996     16.0299   9.1422788749e+01   7.1108893183e+01    0.3076131    0.2728764  51.61  0.002194574    1.981    0.495
         6  -9.8043     14.8847      9.2733   8.7774814257e+01   7.2082852967e+01    0.4498276    0.2192748  -7.04  0.001808663    2.598    0.615
         7  -9.7945     86.3266     11.8648   5.8607839743e+01   6.0802799675e+01     0.230629     0.200594 -18.23  0.001469235    1.261    0.207
         8 -11.5438     66.7216     13.7084   6.5895030607e+01   6.4383083390e+01    0.4136038     0.268543  53.70  0.001516444    1.849    0.459
         9 -10.7429     43.6195     13.6507   7.5305633318e+01   6.8107524584e+01    0.2940843    0.2589066 -46.74  0.001972052    1.756    0.431
        10  -9.4631     45.9149     10.1998   7.2567893457e+01   6.8212746322e+01    0.2111626     0.141257  20.46 0.0003519018    1.322    0.244
        11 -11.0767    208.1970     13.0074   3.7862101411e+01   3.1781223093e+01    0.2203182    0.1871218 -54.41 0.0004024337    1.145    0.127
        12 -11.7470     30.4207      7.1256   7.8341587645e+01   7.0712794320e+01    0.7434899    0.3999619  26.87   0.00435777    1.761    0.432
        13 -11.4324     34.6929     12.5026   7.8941938761e+01   6.9459329885e+01    0.3315128    0.2742777 -11.50   0.00147415    1.184    0.156
        14 -10.9405     36.8226      7.7833   7.5525598958e+01   6.9801441294e+01    0.4332951    0.2975018   4.69  0.002791985    1.256    0.204
        15 -10.7258    134.9796     11.5493   4.7182123984e+01   4.9784575501e+01    0.2246548    0.1766313  21.99 0.0003591375    1.386    0.279
        16  -9.7599     99.7887     11.6761   5.4819395076e+01   5.7958921950e+01    0.2189472    0.1611947  60.52 0.0008615351    1.380    0.275
        17 -10.7878    126.0047     11.0369   4.8688996489e+01   5.1991824232e+01    0.1999453    0.1723071  48.00            0    1.025    0.024
        18 -10.5411     22.4964      9.8002   8.3845425049e+01   7.1255715218e+01    0.3186924    0.1893003   6.77  0.001934739    1.643    0.391
        19 -10.1994      3.8810     10.7160   9.4804870004e+01   7.2732790207e+01    0.1786211    0.1261523 -37.21 0.0002910342    1.222    0.181
        20  -9.5032      2.7165      6.5864   9.3605455498e+01   7.3469678265e+01    0.1820719    0.1176573   1.47 0.0008493046    1.429    0.300
        21  -9.8605     93.0143      9.9886   5.5909310623e+01   5.9586078908e+01     0.205466    0.1279566  27.90  0.001079288    1.569    0.363
        22 -10.7859     57.2598      8.7145   6.7090084275e+01   6.6587550720e+01    0.3526146    0.2188198 -22.11  0.002056741    1.556    0.357
        23 -11.4712     57.4669      3.0432   6.4185086112e+01   6.7149131475e+01    0.4721639    0.2737715   2.87  0.000941833    1.846    0.458
        24 -10.7048    211.2512      6.8488   3.6095962426e+01   3.1709710010e+01    0.2256743    0.1816868   7.22   0.00137102    1.761    0.432
        25 -10.2241    204.5662      6.7952   3.6693509678e+01   3.3271889260e+01    0.1772188    0.1034682 -45.37 0.0005986159    1.635    0.388
        26 -10.7853    188.0367      6.9745   3.8394981167e+01   3.7193427085e+01    0.2053705    0.1413877  42.06 0.0006252798    1.704    0.413
        27  -9.7953     74.7052      4.4456   5.8840922313e+01   6.3843993291e+01    0.1746375   0.09780834  39.86 0.0009317452    1.516    0.340
        28 -11.0450    151.0401      5.8370   4.2701452450e+01   4.6367727277e+01    0.2052687    0.1891224 -35.07 0.0002476478    1.219    0.180
        29  -9.1489    120.6907      4.2838   4.7283114104e+01   5.3838827788e+01     0.124239   0.09810086 -73.96 0.0003155667    1.568    0.362
        30 -10.7356    102.1319      2.4707   5.0512022649e+01   5.8251029955e+01    0.3170545    0.2490648  77.92   0.00155129    1.492    0.330
        31 -10.1895    175.9780      2.6062   3.8545235046e+01   4.0526472718e+01    0.2433167    0.1602272  58.01 0.0008129395    1.412    0.292
        32 -10.2492    129.9050      3.1508   4.5187482153e+01   5.1737986219e+01    0.1935496    0.1697689 -85.35 0.0004753269    1.250    0.200
        33 -11.0732     19.8230      1.9066   8.1199635540e+01   7.2625202129e+01     0.265588    0.1645126  31.40  0.001718054    1.775    0.437
        34  -9.6822      1.3629      2.4551   9.2439909039e+01   7.4199543751e+01    0.1784742   0.08401179 -44.04  0.001061944    1.821    0.451
        35 -11.0784     80.3159      1.6441   5.5838873083e+01   6.2975842980e+01    0.2842507    0.1470648  51.80 0.0008445886    1.695    0.410
        36 -10.5834     11.7045      1.8589   8.5834530468e+01   7.3446412652e+01    0.1796397     0.138925  12.33 0.0005015667    1.357    0.263
        37 -10.5327     71.0081      6.3418   6.0937569266e+01   6.4374109610e+01    0.3091992    0.2653567  20.40  0.002063877    1.090    0.082
        38  -9.6742    167.3212      1.6679   3.9290416375e+01   4.2725040660e+01    0.1368941   0.08830797 -66.35 0.0007049469    1.698    0.411
        39  -9.7941      1.2832    191.1350   1.2617458364e+02   3.3422451372e+01    0.1645342   0.07842425  89.26 0.0006697704    1.753    0.430
        40 -11.2973      3.0762    249.0656   1.2859694787e+02   2.1859282627e+01    0.3947451    0.2084793  54.03  0.002798048    1.407    0.289
        41 -12.0029      4.8357    240.7477   1.2796854399e+02   2.3200652494e+01    0.4169637    0.1640557  44.73  0.002541419    1.972    0.493
        42 -11.8686     17.6132    249.2147   1.2621628618e+02   2.0410490949e+01    0.2819301    0.2131169  37.58   0.00217633    1.554    0.356
        43  -9.6259     22.3371    179.9691   1.2095622485e+02   3.4065022074e+01    0.1710922     0.130096 -87.99 0.0004504826    1.080    0.074
        44  -9.2829     13.3460    180.6634   1.2298209864e+02   3.4713939207e+01    0.1305908   0.06897995  66.31 0.0007048554    1.775    0.437
        45 -10.8679      4.9989    167.0439   1.2382761279e+02   3.8458765312e+01     0.186565    0.1449872  88.29 0.0008233358    1.007    0.007
        46  -9.5764    226.4754    163.9901   7.1398432627e+01   4.1614238023e+00    0.2068373    0.1251715 -33.30 0.0006201554    1.525    0.344
        47 -10.8522      2.7361    153.5682   1.2332590075e+02   4.1712421662e+01    0.2517501    0.1089106  27.26   0.00130934    2.653    0.623
        48 -10.6002     16.0069    150.4856   1.1980704429e+02   4.1456346075e+01    0.1585166    0.1233487  29.04 0.0006298559    1.553    0.356
        49  -8.9810     37.3047    146.2552   1.1380120287e+02   4.0575762320e+01    0.1227735   0.09218419 -42.16 0.0002101151    1.511    0.338
        50  -9.7643     22.8156    143.1584   1.1728227589e+02   4.2651550486e+01    0.1705864    0.1302226 -54.76 0.0004770979    1.307    0.235
        51 -10.0845    212.5649    133.9320   6.7299907398e+01   1.2121621193e+01    0.2512856    0.2086332  69.88 0.0008819877    1.541    0.351
        52 -10.3388      2.4875    133.2442   1.2162242253e+02   4.6479599892e+01    0.2800102     0.169496  53.85  0.001651136    1.786    0.440
        53  -9.2916     96.2950    133.6961   9.5087641555e+01   3.5793284912e+01     0.149298    0.1160226  79.49 0.0003347899    1.579    0.367
        54 -10.6046     12.1394    129.7259   1.1865018747e+02   4.6690761507e+01     0.213603    0.1436054 -86.64 0.0006434977    1.313    0.238
        55  -9.3269     28.6583    128.2688   1.1379939316e+02   4.5764199103e+01    0.1287323   0.08888158  67.56 0.0002412499    1.606    0.377
        56  -9.8407      1.7669    123.0225   1.2080114938e+02   4.8933422313e+01    0.1787673    0.1260464 -75.89 0.0005098704    1.109    0.099
        57 -11.4824     23.9248    121.4172   1.1422599071e+02   4.7821991731e+01    0.3943433    0.2314089  67.73  0.001505206    2.106    0.525
        58  -9.3104     17.6182    122.1651   1.1618108172e+02   4.8119959768e+01     0.176449     0.091132 -60.40 0.0002939552    1.558    0.358
        59 -11.1147      7.8202    121.0830   1.1887929410e+02   4.9036121087e+01    0.2068849    0.1678463  84.46 0.0005604309    1.195    0.163
        60 -11.3198      2.6542    109.3459   1.1900853106e+02   5.2113113513e+01    0.2362343     0.208784  44.89 0.0009563387    1.376    0.273
        61 -10.8902     65.9019    110.9418   9.9268902861e+01   4.5947855076e+01    0.3248747     0.249284  70.10  0.001274289    1.632    0.387
        62 -11.1714     57.7136    107.5691   1.0116936776e+02   4.7814222037e+01    0.2673253    0.2213241 -25.26 0.0007739292    1.301    0.232
        63 -10.6473     14.3477    107.4773   1.1515845749e+02   5.1868360975e+01    0.2567654   0.09309493 -49.27  0.001084187    2.372    0.578
        64 -10.4923     27.7043    106.1858   1.1069046518e+02   5.1200970992e+01    0.3178529    0.1786092   9.71 0.0004242459    2.363    0.577
        65 -10.0868    186.9290    103.0297   6.4641503993e+01   2.3460805453e+01    0.2284327     0.220978 -42.44  0.000556096    1.022    0.021
        66  -9.6044    246.6629    101.6630   5.4237403700e+01   1.0865299287e+01    0.1367854    0.1032727   2.49 0.0004259406    1.752    0.429
        67  -9.4623     55.8096     97.2062   9.9460988103e+01   5.0520791828e+01    0.1985488    0.1457335 -35.69 0.0008097139    1.337    0.252
        68 -10.3394      3.5110     95.2975   1.1688933608e+02   5.5362838900e+01    0.2459651    0.1472099 -54.96 0.0007060767    1.334    0.250
        69 -11.0384     24.4987     88.1543   1.0844802831e+02   5.5723786374e+01    0.3920692    0.2363422 -50.17 0.0009976838    1.358    0.264
        70 -12.2090     20.8071     92.7394   1.1062393742e+02   5.4922473045e+01    0.3406436    0.2210533 -41.86 0.0004181615    1.424    0.298
        71 -10.8262     19.2837     87.1834   1.1012053823e+02   5.6325162206e+01    0.3469318    0.1827093 -73.36 0.0009946927    1.869    0.465
        72 -11.9872    125.1807     93.3149   7.6527877116e+01   3.9497452450e+01    0.2724422    0.2668692  16.90 0.0002317036    1.034    0.033
        73 -10.0509     78.8396     93.9341   9.0859184340e+01   4.8079353003e+01    0.2175176    0.1804389 -23.19 0.0003000758    1.234    0.190
        74 -10.1916     94.0354     93.2404   8.5743881382e+01   4.5682741491e+01    0.1950677    0.1271217  36.35 0.0005662788    1.606    0.377
        75 -11.4140     57.3983     91.8660   9.7616401307e+01   5.1575172559e+01    0.3412385    0.2553399   3.92  0.001191761    1.576    0.366
        76 -10.1290      9.8680     91.9107   1.1424307290e+02   5.5813509664e+01    0.3224986    0.2168104  36.97  0.001952717    1.819    0.450
        77 -11.7221     11.4612     86.3984   1.1275895402e+02   5.7001057975e+01    0.3790056    0.2326862  78.61  0.001989817    2.204    0.546
        78 -10.4366     43.9577     89.9977   1.0189887105e+02   5.3547019193e+01    0.3758544    0.2771626  89.10  0.001837607    1.792    0.442
        79  -9.9858     28.9537     92.1676   1.0767519539e+02   5.4434144991e+01    0.1852638    0.1677735  75.40 0.0009693945    1.293    0.227
        80  -9.6337     64.2280     88.0581   9.4244766427e+01   5.1559573264e+01    0.2276748    0.1668145 -86.95  0.001086399    2.024    0.506
        81 -12.3079     55.5383     85.8348   9.6730104323e+01   5.3191456608e+01    0.2599268    0.2522055 -18.44 0.0003563214    1.127    0.112
        82  -9.3977    124.4740     86.4871   7.4697775826e+01   4.1054432460e+01    0.1545317    0.1477732  -4.98 0.0001309722    1.022    0.022
        83  -9.2430     72.3436     85.6829   9.0768444970e+01   5.0934332403e+01    0.1404818    0.1143683  79.89 0.0007048726    1.717    0.418
        84 -10.4766      3.5017     81.6597   1.1478321122e+02   5.8506738827e+01    0.3209888    0.1494401 -72.65  0.001627475    1.872    0.466
        85  -9.9628    124.5074     79.4717   7.2539577824e+01   4.2438120858e+01    0.2642982    0.1472538 -43.71 0.0002757738    1.812    0.448
        86  -9.7366     89.5334     81.0240   8.3586798151e+01   4.9132400063e+01    0.2228636    0.1393066 -46.76 0.0005175775    1.551    0.355
        87 -10.7420     64.2784     80.4551   9.2116329777e+01   5.3253739052e+01    0.3028044    0.2239076 -32.40 0.0009063248    1.283    0.221
        88  -9.3085    250.3124     80.7070   4.9034770908e+01   1.3438988770e+01    0.1349836   0.09160661 -62.18 0.0003592286    1.592    0.372
        89  -9.4492     80.9404     79.0037   8.5843551052e+01   5.1033456902e+01    0.1735549    0.1519373 -33.27 0.0003653599    1.057    0.054
        90 -10.3306     24.7742     78.8306   1.0637887589e+02   5.7846635028e+01    0.3075504    0.1643172 -25.37  0.001390937    2.214    0.548
        91 -10.0240     43.1120     75.9782   9.8710358706e+01   5.6826313650e+01    0.3758025    0.2164616  60.16  0.001533056    3.463    0.711
        92 -11.8244     14.6947     75.1870   1.0941992176e+02   5.9365660664e+01    0.3335998    0.2770755 -38.11  0.001574161    1.132    0.117
        93 -10.6035     20.8282     72.9687   1.0656808557e+02   5.9456261354e+01    0.3527934    0.1604802 -57.95 0.0009673102    1.738    0.425
        94  -9.6861    176.7522     76.6114   5.9487358319e+01   3.0645370455e+01    0.2112387    0.1454304  68.03 0.0008686307    1.624    0.384
        95 -10.2623     55.8581     75.8448   9.3868543838e+01   5.5379177102e+01    0.2139063    0.1692313 -26.37 0.0005237783    1.198    0.165
        96 -11.2889     37.0061     75.0084   1.0079263499e+02   5.7655766517e+01    0.6121202    0.3080261 -67.57  0.002570816    2.350    0.574
        97 -10.4572     33.1431     73.3522   1.0186190851e+02   5.8382077774e+01     0.248604    0.2040229  30.94 0.0007251442    1.445    0.308
        98  -9.6575     81.3601     73.3298   8.3924440419e+01   5.2147880820e+01    0.1975803    0.1303495 -50.06 0.0005412694    1.552    0.356
        99  -9.2952    217.0000     72.0630   5.1466996998e+01   2.1886550545e+01    0.2207257    0.0758933 -34.69 0.0003670624    2.735    0.634
       100 -11.5268    106.1330     71.2354   7.5208638049e+01   4.7933286652e+01    0.3528501    0.3058556  73.61  0.001392098    1.460    0.315
       101 -10.5531     77.0222     67.9702   8.3697533717e+01   5.3955496842e+01    0.4504483    0.2043149 -31.07  0.001663079    2.751    0.636
       102 -10.0330     80.6077     67.2182   8.2189393756e+01   5.3505932492e+01    0.2649249    0.1270809 -43.73  0.001101946    1.987    0.497
       103 -10.3518     10.2331     69.0710   1.0986369095e+02   6.0991356933e+01     0.374607     0.116646 -57.55  0.001670616    2.221    0.550
       104 -10.1974     46.0299     69.5265   9.5786325522e+01   5.7917939147e+01    0.2447589    0.1319715  18.19 0.0009628334    2.194    0.544
       105 -11.3518      5.3711     68.4318   1.1164774415e+02   6.1386121007e+01     0.276972      0.18241  66.09  0.001489796    2.225    0.550
       106 -10.1044     16.3485     67.6674   1.0711596359e+02   6.0933319953e+01    0.2253493    0.1834762  85.60  0.001438443    1.574    0.365
       107 -10.1257     14.1053     63.7772   1.0711126617e+02   6.1923972441e+01    0.2781489    0.1890891   5.40  0.001244713    1.693    0.409
       108  -8.7184     92.3022     72.3030   7.9919266551e+01   5.0419492722e+01    0.1489125    0.1105948  -4.96 0.0006307111    1.592    0.372
       109 -11.1565      6.4922     63.2082   1.1010007687e+02   6.2474235964e+01    0.2660905    0.1898148  53.43  0.001641386    1.967    0.492
       110 -10.2331     62.8602     61.8912   8.6872860494e+01   5.7348270989e+01    0.2252314    0.1659829 -23.12  0.001041563    1.304    0.233
       111 -10.6085     38.8513     61.6989   9.6337579983e+01   6.0344983096e+01    0.3165959    0.1889324 -40.73  0.001208315    1.418    0.295
       112 -13.0928     20.4755     58.1287   1.0300412877e+02   6.2704319570e+01    0.3852475    0.2601758 -64.56  0.001143561    1.515    0.340
       113  -8.9324     72.5923     63.5223   8.3799900646e+01   5.5552643903e+01    0.1393363     0.124894 -22.45 0.0001666886    1.045    0.043
       114 -11.0002      4.4713     57.5342   1.0966849449e+02   6.3794422082e+01    0.1600753    0.1003114 -16.00 0.0009708724    1.708    0.414
       115 -10.8745     84.1159     57.0959   7.7473149866e+01   5.4808419910e+01    0.3730335    0.2576507 -54.81  0.001809142    1.845    0.458
       116 -11.1003     88.3323     52.9859   7.4554741126e+01   5.4756933625e+01    0.3268023    0.2592287 -10.70  0.001052458    1.257    0.205
       117  -9.9958     48.3129     58.9038   9.1599196428e+01   5.9865293046e+01    0.2160532    0.1896906  63.36 0.0008226687    1.622    0.383
       118 -10.3456     10.4997     58.8981   1.0743997148e+02   6.3187410988e+01    0.3004417    0.1539004 -38.56  0.001651671    1.651    0.394
       119  -9.4903    194.0674     59.0000   5.1563682703e+01   2.9283307430e+01    0.2370829   0.08057226  60.74  0.000804397    2.956    0.662
       120 -10.3824     33.0414     56.3451   9.7128828290e+01   6.2024340268e+01    0.4000593    0.1867965 -43.66  0.001960858    1.756    0.430
       121  -9.8194     71.6131     56.6869   8.1785387650e+01   5.7018369905e+01    0.2383606    0.1228728 -39.59 0.0006741848    1.819    0.450
       122 -10.1675     26.8360     56.9042   9.9942513471e+01   6.2462476470e+01    0.2451586    0.1576079  -9.04  0.001381695    1.714    0.417
       123  -9.7180    104.2989     56.3177   7.0680069022e+01   5.1013273936e+01    0.2480707    0.1357063 -26.76 0.0006508192    2.035    0.509
       124 -11.3216    105.5961     52.6939   6.9003081879e+01   5.1347062380e+01    0.2625435     0.236392  10.66 0.0003217471    1.046    0.044
       125 -11.3122    114.7655     53.8505   6.6777566166e+01   4.9175473657e+01    0.3267652    0.3126155  86.08  0.001053447    1.224    0.183
       126  -9.4802    165.0073     54.2000   5.5245336083e+01   3.7145632695e+01    0.1902721    0.1127619  58.84            0    1.638    0.390
       127 -11.7613     65.3997     52.5915   8.2647746444e+01   5.8751729110e+01    0.4404992    0.2235223  36.43  0.001296295    2.048    0.512
       128  -9.9379    149.4975     51.9786   5.7678428577e+01   4.1304943502e+01    0.2757485    0.2024063  75.10 0.0007601538    1.556    0.357
       129  -9.7270    121.8645     51.6789   6.4104763467e+01   4.7925951242e+01    0.1980415    0.1791628  45.41 0.0003938306    1.091    0.083
       130 -11.6646     15.8418     44.0775   1.0097594290e+02   6.5904875422e+01    0.5843616    0.4608557 -49.35  0.003962868    1.201    0.167
       131 -11.9103      9.2381     47.1351   1.0492876778e+02   6.5711101364e+01    0.4875542    0.2358767 -45.56  0.002716096    1.544    0.352
       132  -9.3048    161.3690     49.8359   5.4621433602e+01   3.8690978488e+01    0.1908118    0.1405364 -15.16 9.564369e-05    1.596    0.374
       133 -11.6238     77.7705     46.7470   7.5872151887e+01   5.7744319087e+01    0.4874993    0.3160473   2.92  0.001246489    1.961    0.490
       134  -9.8426     82.5143     47.4134   7.4457774426e+01   5.6781551929e+01     0.215829    0.1747697  -1.54 4.261723e-05    1.194    0.162
       135 -10.5863     38.6256     48.4515   9.2138546279e+01   6.3028207623e+01    0.2093387    0.1723413 -22.63 0.0001601379    1.024    0.023
       136  -9.9700    101.7340     48.0687   6.8480635044e+01   5.2903565750e+01    0.1938793    0.1752138  -2.52 0.0003646382    1.051    0.049
       137  -9.7230     58.1425     48.2023   8.3875273984e+01   6.0625414440e+01    0.1832676    0.1757597 -33.50 0.0003490932    1.300    0.231
       138 -10.1856     54.3076     46.6769   8.4859817161e+01   6.1438196410e+01     0.419815    0.2347571  -4.57  0.001771413    2.798    0.643
       139  -9.6852    152.4000     44.5924   5.4743188660e+01   4.1657779814e+01    0.2085937    0.1973483  89.84 6.810794e-05    1.090    0.083
       140 -10.3933     30.9005     45.7419   9.4618258538e+01   6.4336507791e+01     0.293654    0.2347042 -58.87  0.001215993    1.490    0.329
       141 -10.6802     26.1721     45.1434   9.6556611851e+01   6.4884913933e+01    0.3689463    0.1782006 -58.98  0.001769462    2.302    0.566
       142  -9.6363    135.7066     46.5424   5.8951298098e+01   4.5453179543e+01    0.1905351    0.1397776  68.34 0.0007676564    1.496    0.331
       143  -9.7420     67.7818     46.8240   7.9586779268e+01   5.9410151576e+01    0.3029349     0.095089  33.95  0.001033861    3.630    0.725
       144 -12.6370    141.3401     41.6409   5.6069963374e+01   4.4780546815e+01    0.3216264    0.2784184 -81.87 0.0005256132    1.323    0.244
       145 -10.5015      3.5517     42.3058   1.0621937891e+02   6.6989478249e+01    0.2332157    0.1457845 -28.16  0.001482733    1.407    0.289
       146 -10.3644     69.0997     41.9948   7.7212155204e+01   6.0012705044e+01    0.1990091    0.1711775  -4.58  0.001203143    1.004    0.004
       147  -9.4754    154.5325     47.4770   5.5226139827e+01   4.0723788420e+01    0.2162532    0.2142776 -40.61 0.0005089633    1.052    0.050
       148 -10.4033     35.8185     41.1526   9.0763079650e+01   6.4703267742e+01    0.3110605    0.2210409 -34.96  0.001899026    1.180    0.153
       149  -9.5912     35.2188     29.0059   8.6239063722e+01   6.6894046037e+01    0.1924421    0.1323136 -18.27 0.0003290156    1.262    0.208
       150 -12.0131     39.4813     32.8446   8.5854096372e+01   6.5755479813e+01    0.4516447    0.3105633 -25.08  0.001115416    1.240    0.193
       151  -9.9656    229.7611    247.9269   8.6343982886e+01  -8.7032222709e+00     0.174619    0.1249503   4.85 0.0005313136    1.153    0.133
       152 -11.1885     40.0370     20.7010   8.0309230122e+01   6.7609493010e+01    0.3483323     0.234495  -4.07  0.001773745    1.390    0.281
       153 -10.9003     35.3538     22.1676   8.3193425530e+01   6.7971321354e+01    0.2745611    0.2219036  -7.07 0.0009924673    1.063    0.059
       154  -9.6412     36.4594     18.5803   8.1013682982e+01   6.8375652067e+01     0.175651    0.1403071  21.16 0.0005171294    1.322    0.243
       155  -9.7389    183.9466     41.4451   4.8312723904e+01   3.4253292037e+01    0.3010918    0.1829426  87.37  0.001329319    2.033    0.508
       156 -10.4256     43.3038     39.9429   8.6967310525e+01   6.4066957166e+01    0.2772055    0.1809632 -27.23  0.001573947    1.356    0.263
       157  -9.5702    152.4492     39.2128   5.3030553840e+01   4.2374809706e+01    0.1892236      0.13079 -45.02 0.0004076936    1.548    0.354
       158 -10.0536    128.1928     38.8376   5.8065139216e+01   4.8321940523e+01    0.1997957    0.1905261 -72.03 0.0003631636    1.182    0.154
       159 -11.6165    121.3721     37.3644   5.9187195053e+01   5.0119183983e+01    0.3834266    0.3321469  37.14   0.00110925    1.069    0.065
       160 -10.1553     22.3591     38.1361   9.5922410383e+01   6.6549585673e+01    0.1995786    0.1637381  12.27 0.0005492179    1.347    0.258
       161 -11.4338      2.6767     34.9744   1.0449423060e+02   6.8475414199e+01    0.3695785      0.18551 -61.14  0.002068898    1.875    0.467
       162 -11.1468      7.5365     34.0456   1.0177357829e+02   6.8385761749e+01    0.3603095     0.235634  41.02  0.002200345    2.272    0.560
       163  -9.4008    223.7200     36.3270   4.1877068352e+01   2.5457616950e+01    0.1388229   0.08651852 -61.62 0.0001936238    1.597    0.374
       164  -9.9343     90.0127     35.9905   6.7510854862e+01   5.7113885220e+01    0.2109478    0.1798763  14.36  0.000420593    1.059    0.056
       165 -10.7543     27.0935     34.7931   9.2430357038e+01   6.6740642253e+01    0.3281389    0.1703515 -26.27  0.001217759    1.881    0.468
       166  -9.4085    185.4683     35.4486   4.6420743087e+01   3.4656831307e+01    0.1400948     0.125521 -81.13 -1.196439e-06    1.063    0.059
       167 -10.6785     74.1024     34.2488   7.2226734981e+01   6.0368183787e+01    0.3271419    0.2530408 -58.84  0.001341821    1.992    0.498
       168 -10.6461     18.6660     32.5312   9.5688471995e+01   6.7889269610e+01    0.4509464    0.2412152   1.87  0.002289792    2.134    0.531
       169  -9.5353    162.3810     31.8088   4.8943366491e+01   4.0842379812e+01    0.1792302    0.1356082  -6.51 0.0005390983    1.616    0.381
       170 -11.0996    128.0378     30.7409   5.5263780572e+01   4.9398880180e+01    0.3795502    0.2994817 -65.01  0.001703557    1.591    0.372
       171 -11.9106      9.9184     29.4589   9.8988323236e+01   6.9092461156e+01    0.4588776    0.2986676  51.88  0.001948128    3.000    0.667
       172  -9.5565    187.8417     30.8859   4.4836245735e+01   3.4639635588e+01    0.1960432    0.1501476 -68.05 0.0004548812    1.329    0.248
       173  -9.2691    166.4574     31.4205   4.8154853029e+01   3.9873332646e+01    0.1390568    0.1278039  78.86 9.695848e-05    1.027    0.026
       174  -9.2964    119.6099     29.8012   5.6881778967e+01   5.1497166252e+01    0.1804383    0.1274906 -38.46 0.0003807252    1.556    0.357
       175 -10.9750     68.8238     26.6387   7.0943063613e+01   6.2382862303e+01    0.3357375    0.2471579 -39.66   0.00103635    1.581    0.368
       176  -9.4637    139.2933     27.2067   5.1676154838e+01   4.7101308176e+01    0.2178114    0.1097852  72.02 0.0008709994    2.348    0.574
       177 -10.0290     77.2691     26.6983   6.7932476937e+01   6.0852095357e+01    0.2558444    0.1515225 -22.70  0.001299321    1.704    0.413
       178  -9.6896    213.4881     26.4977   4.0611639897e+01   2.9024935243e+01    0.1310477    0.1159429 -76.62 0.0001973162    1.014    0.014
       179 -10.3978    113.6969     25.7413   5.6818325761e+01   5.3344973431e+01     0.234885    0.2270537 -54.78 0.0008289512    1.211    0.174
       180  -9.9230    100.8850     26.2920   6.0398135605e+01   5.6131284194e+01    0.2044784    0.1630675  35.85  0.001164294    1.124    0.110
       181  -8.9439     18.7874     25.6322   9.2954670693e+01   6.9102414678e+01    0.2579541    0.1072916 -33.55  0.001115418    2.111    0.526
       182 -11.1010     14.7946     21.5931   9.3386844616e+01   7.0123566058e+01    0.3898169    0.1926429  25.82  0.001898858    2.195    0.544
       183  -9.1885     41.5105     24.4120   8.1311671775e+01   6.6861402132e+01     0.164205    0.1098948 -42.91 6.792863e-05    1.668    0.401
       184 -10.3291    225.0407    247.4704   8.7116590205e+01  -8.0077809422e+00    0.2214828    0.1572767 -19.49  0.001484556    1.399    0.285
       185  -9.9224      7.0484     20.8736   9.7276822360e+01   7.0815593776e+01    0.1874001     0.141198  19.31 0.0006495349    1.564    0.361
       186 -10.1770     59.3610     23.2990   7.3124472012e+01   6.4427694914e+01    0.2590802    0.1672412   1.46 0.0009934371    1.654    0.395
       187 -10.2627     58.7967     19.6071   7.1669189261e+01   6.5014902665e+01    0.3045283    0.1961336  56.11   0.00156534    2.401    0.584
       188  -9.0866    124.0000     22.9152   5.3372501615e+01   5.1267544792e+01    0.2104432   0.07881881 -25.63 0.0007961356    2.899    0.655
       189 -10.6990     90.6786     22.3199   6.1746561513e+01   5.8762827707e+01    0.3120282    0.2353133  50.52  0.001516821    1.332    0.249
       190 -10.6879     83.1446     22.1341   6.4016779088e+01   6.0304111189e+01    0.4965411    0.1677848  34.53  0.001642682    3.939    0.746
       191 -10.5578     74.9612     21.8774   6.6649888830e+01   6.1902746511e+01    0.2878447    0.2052671   3.85 0.0005550028    1.391    0.281
       192 -10.6389     76.3334     17.8257   6.4391824995e+01   6.2134099360e+01    0.3376576    0.1715114  39.53  0.001002096    1.776    0.437
       193 -11.1018     30.4177     21.3365   8.5225287473e+01   6.8669039578e+01    0.2403778    0.1850454  12.20 0.0009748399    1.258    0.205
       194  -9.4343    181.3235     21.3173   4.3071365364e+01   3.7352495544e+01    0.1377925   0.09692402  38.54 0.0007043696    1.668    0.401
       195  -9.6907    164.9785     21.0182   4.5276604682e+01   4.1434438320e+01    0.1631332    0.1534421  79.56 0.0005597277    1.038    0.037
       196  -9.1362    131.7016     20.6622   5.0952005713e+01   4.9670877639e+01      0.14474   0.09504077  30.81 0.0007033414    1.658    0.397
       197  -9.7322     58.0298    248.0280   1.1906809371e+02   1.6074082566e+01    0.1391518     0.106478  61.46 0.0004115967    1.005    0.005
       198  -9.4441    170.5944    247.2004   9.7292663112e+01  -2.2479693894e-02    0.1521911    0.1108699 -22.21 0.0007616252    1.632    0.387
       199 -12.3740     10.0889    246.0505   1.2732419172e+02   2.1730303790e+01    0.5076331    0.2386191  57.82  0.003297463    1.594    0.373
       200 -10.1030     74.1725    243.6311   1.1571014971e+02   1.4810831098e+01    0.1519177   0.09941863  33.89 0.0003632669    1.565    0.361
       201 -10.4324    204.4991     18.0577   3.9483432975e+01   3.2104788000e+01    0.1953265    0.1224579 -34.75  0.001038952    1.616    0.381
       202  -9.1345    141.6578     18.3385   4.8264914664e+01   4.7490838149e+01    0.1422654     0.100433 -68.67 0.0007049619    1.770    0.435
       203  -9.4464    199.2366     17.0022   3.9781260311e+01   3.3472239594e+01    0.1631979    0.1073997 -31.98 0.0008744791    1.598    0.374
       204 -10.1104    114.7718     17.2447   5.3359676155e+01   5.4029375454e+01    0.2215676    0.1639651  51.36 0.0002934666    1.202    0.168
       205 -10.2013     82.8570     16.1246   6.1517208612e+01   6.1056002698e+01    0.2176654    0.1718232   4.96  0.000323992    1.192    0.161
       206 -11.1738    234.6896     15.1034   3.5978844638e+01   2.5560094407e+01    0.2148776    0.1809824 -82.99 0.0003164414    1.083    0.076
       207  -9.3856     90.4765     16.4872   5.9365667376e+01   5.9462788368e+01    0.1884775    0.1177068 -34.20 -4.345592e-05    1.778    0.438
       208  -9.4265     89.5339     13.4876   5.8368129815e+01   5.9974304720e+01     0.131419    0.1126883  26.85 0.0001316077    1.018    0.018
       209  -9.5716    202.4465    240.4665   9.0180725253e+01  -3.8703653073e+00    0.1240773   0.09802752  16.08 0.0001154894    1.018    0.018
       210  -9.0577     27.2791     16.6924   8.4673272585e+01   6.9728187010e+01    0.0984651   0.09194724 -30.72  0.000200615    1.556    0.357
       211 -10.0480    154.2828     15.0126   4.5078530015e+01   4.4712664738e+01    0.1817829    0.1714556  74.92 0.0003292272    1.053    0.050
       212  -9.1008     61.0438    241.0000   1.1797680040e+02   1.6989257949e+01     0.183106   0.05621713  36.34 0.0007933225    2.880    0.653
       213 -10.1506     35.9699    240.4885   1.2255610631e+02   2.0057314491e+01    0.1606664   0.09151626  42.27 0.0005343117    1.549    0.354
       214 -10.1844    117.5247    239.0582   1.0674643064e+02   9.4635564251e+00    0.1647394    0.1235637 -60.95 0.0006930371    1.565    0.361
       215 -11.2993     14.0664    238.8219   1.2631736103e+02   2.2669683356e+01    0.1849813    0.1206549  81.97 0.0005984759    1.231    0.187
       216  -9.2350    148.5296    238.5247   1.0044743974e+02   4.7555202141e+00    0.1269805    0.1059399  35.15 0.0002833919    1.002    0.002
       217  -9.7898     91.1027    237.1853   1.1181762973e+02   1.3679717639e+01    0.1652011    0.1568463  40.72 0.0005666348    1.256    0.204
       218 -11.7124     25.6907    235.8337   1.2412116394e+02   2.2048557418e+01    0.2595578    0.2009822  41.61   0.00109478    1.417    0.294
       219  -9.6015    164.5812     12.5147   4.2805655875e+01   4.2407623916e+01    0.1324002    0.1194538  79.32 -9.943421e-05    1.021    0.021
       220  -9.9467    249.3360    233.8944   8.0605150971e+01  -9.5880410010e+00    0.1789189    0.1340295  21.27 0.0004200786    1.247    0.198
       221 -12.0627      3.9977    232.6738   1.2776017426e+02   2.4785770495e+01     0.248828    0.1625054  65.42  0.001840004    1.134    0.118
       222  -9.5967    153.7221     11.2940   4.4006080968e+01   4.5211508598e+01    0.1308328   0.09630504 -68.35 0.0001705529    1.529    0.346
       223 -12.6129      9.7283    227.3472   1.2651106251e+02   2.5272334867e+01    0.3825814    0.2669003 -87.26  0.001824874    1.256    0.204
       224  -9.2145    243.3120    230.3179   8.1041965885e+01  -8.3440007450e+00    0.1246855    0.0751458   2.67 0.0007035313    1.644    0.392
       225  -9.4438     47.8581    229.8671   1.1962361340e+02   2.0726436572e+01    0.1631334    0.1054362  65.68 0.0004010127    1.304    0.233
       226  -9.6811    209.4980    229.5381   8.7080523433e+01  -3.3941454776e+00    0.1274314    0.1012559  12.49 1.056012e-06    1.028    0.027
       227 -10.7814    140.1126    227.9611   1.0071044917e+02   7.8950566000e+00    0.3419515    0.2216982 -79.09  0.001674496    2.563    0.610
       228 -10.7173      1.4570    224.9521   1.2785597698e+02   2.6495415480e+01    0.2033967   0.08391621 -88.48 0.0009413807    2.082    0.520
       229 -11.2790      2.4201    220.6431   1.2748780336e+02   2.7251803492e+01    0.3042226     0.128488  89.50  0.001715777    2.043    0.511
       230  -9.2361    123.3163    222.2984   1.0345225910e+02   1.1617833410e+01    0.1241316    0.1000846   3.05 0.0003939158    1.611    0.379
       231  -9.1001    126.6632    220.7270   1.0253041719e+02   1.1378605086e+01    0.1262238    0.0993264   8.32 0.0003911531    1.603    0.376
       232 -10.5612      9.0836    217.8834   1.2614433429e+02   2.7196882428e+01    0.2128588    0.1861826  24.69  0.001651365    1.633    0.388
       233 -10.0289    205.5203    212.4863   8.4911830948e+01  -2.3518392865e-01    0.2315105    0.1715941 -15.98 0.0006847995    1.338    0.253
       234  -9.7225     15.4521    213.4688   1.2470945932e+02   2.7491723566e+01    0.1146201   0.08523566  74.63 2.619245e-05    1.020    0.019
       235  -9.3856    249.4712    211.4801   7.6638692553e+01  -6.7238777455e+00    0.1255188   0.09582883  -0.97 0.0008093452    1.038    0.037
       236  -8.9641    209.6612    211.3003   8.3896622176e+01  -7.1573242177e-01    0.1176429    0.1044465  61.89 0.0007035938    1.665    0.399
       237 -10.0858    223.3070    226.6052   8.4003048885e+01  -5.0377112234e+00    0.2110578    0.1292847 -11.32 0.0007013309    1.749    0.428
       238  -9.9994     20.2151    209.8666   1.2357179847e+02   2.7772662162e+01    0.1834433    0.1175397  67.17 0.0007004753    1.281    0.219
       239 -10.0733      3.0007    206.2307   1.2666639264e+02   3.0105514739e+01      0.13346   0.08335182  38.50 0.0008859275    1.667    0.400
       240  -9.4227    193.4078    201.8064   8.5390036129e+01   3.5082882397e+00    0.1772387    0.1218524 -24.21 0.0004182906    1.535    0.348
       241  -9.9909     23.5518    196.8076   1.2200511509e+02   3.0216744448e+01    0.2088117    0.1747533 -52.74  0.001337075    1.530    0.346
       242 -10.9038     13.7731    192.6077   1.2372980403e+02   3.2044690737e+01    0.2121134    0.1450753  69.53  0.000529067    1.220    0.180
       243 -10.7864      6.0895    191.9312   1.2525441171e+02   3.2857208268e+01    0.1812039    0.1376396  82.79  0.001287736    1.013    0.013
