#   1 NUMBER                 Running object number                                     
#   2 MAG_AUTO               Kron-like elliptical aperture magnitude                    [mag]
#   3 X_IMAGE                Object position along x                                    [pixel]
#   4 Y_IMAGE                Object position along y                                    [pixel]
#   5 X_WORLD                Barycenter position along world x axis                     [deg]
#   6 Y_WORLD                Barycenter position along world y axis                     [deg]
#   7 A_WORLD                Profile RMS along major axis (world units)                 [deg]
#   8 B_WORLD                Profile RMS along minor axis (world units)                 [deg]
#   9 THETA_WORLD            Position angle (CCW/world-x)                               [deg]
#  10 FWHM_WORLD             FWHM assuming a gaussian core                              [deg]
#  11 ELONGATION             A_IMAGE/B_IMAGE                                           
#  12 ELLIPTICITY            1 - B_IMAGE/A_IMAGE                                       
         1 -11.1477      9.0751     26.2032   1.2476758965e+02   6.8914876310e+01    0.5881217    0.1500808 -48.40  0.002598186    2.543    0.607
         2 -10.0390     20.3270     15.6783   1.1525364712e+02   7.0425863858e+01    0.4225565    0.2565385 -39.17  0.001930419    1.292    0.226
         3 -12.5791     25.9263     13.5861   1.1126869655e+02   7.0391030351e+01    0.4927326    0.3077713 -65.22 0.0003510996    2.152    0.535
         4 -11.9073     23.3653     21.6154   1.1583947609e+02   6.9011905973e+01    0.5718596    0.1844375 -42.60  0.002500391    2.456    0.593
         5 -11.3928     31.5570      2.5036   1.0270639499e+02   7.1847571647e+01    0.2552685    0.2031394  22.57 0.0008418637    1.439    0.305
         6 -11.7365     26.9938      3.5284   1.0592189407e+02   7.2141450884e+01    0.4406318    0.2582758   8.90  0.002504633    1.884    0.469
         7 -12.1099    132.8660     15.8827   7.1151355477e+01   5.0424297195e+01    0.5687127    0.4600908 -60.67  0.002882223    1.565    0.361
         8 -10.8262    217.0072     16.5800   5.8076105553e+01   2.8253411107e+01    0.6564249    0.1446008  51.83  0.001992547    4.154    0.759
         9 -10.7164     75.7188     16.7899   8.8875784242e+01   6.3086132486e+01     0.440548    0.2554333  -2.29  0.001874237    2.357    0.576
        10 -11.6161     79.1296     10.7513   8.4586008520e+01   6.3314491744e+01    0.4602361    0.3021854  20.46   0.00153832    1.547    0.353
        11 -11.7347     81.2647      6.0276   8.1392767517e+01   6.3509422755e+01     0.263294    0.2147983  -0.09 0.0003155417    1.078    0.072
        12 -10.2576     70.7639     14.5250   8.9760106367e+01   6.4315793500e+01    0.2438384    0.1704217 -26.56 0.0005334857    1.311    0.237
        13 -10.7683     99.0706     12.6612   7.8701569880e+01   5.8916797452e+01    0.3213456     0.210056 -32.99 0.0008149915    1.597    0.374
        14 -10.0287     56.1294     13.2976   9.5551084144e+01   6.6886405173e+01    0.2371364    0.1578547 -22.95  0.001303501    1.343    0.255
        15 -10.0991    175.5193     12.0254   6.1914085044e+01   3.9535819452e+01    0.2741807    0.1808676  48.30  0.000391517    1.432    0.302
        16 -11.3313     61.7251     11.2995   9.1995614004e+01   6.6332955500e+01    0.3619888    0.2814338  62.38   0.00131601    2.149    0.535
        17  -9.9786     30.9669     11.5545   1.0755938130e+02   7.0309328489e+01    0.3598524   0.09880023 -37.57  0.001295763    3.577    0.720
        18 -10.0703      3.6132     10.5094   1.2303281994e+02   7.2413258572e+01    0.1935194    0.1388862  86.89  0.000539191    2.022    0.505
        19 -11.5343     75.0742      5.1256   8.3227930435e+01   6.4838287657e+01    0.6268942    0.2666074 -16.71  0.002376343    2.959    0.662
        20  -9.5116    122.3432      8.7852   7.0620482399e+01   5.3852094934e+01    0.1933189    0.1318349  -3.91 0.0004566369    1.540    0.351
        21  -9.6632     37.1766      8.4982   1.0267444727e+02   7.0195523220e+01    0.1594679    0.1148973  15.71 0.0003876835    1.425    0.298
        22 -10.1826      9.1341      7.7118   1.1868063081e+02   7.2708584535e+01     0.352059    0.1665132 -18.99  0.001670255    2.349    0.574
        23 -10.2323     15.1510      5.8970   1.1423337155e+02   7.2690170599e+01    0.3001328    0.2264714 -59.09  0.001995389    1.469    0.319
        24 -10.7850     18.8490      3.9370   1.1105745440e+02   7.2784775629e+01    0.2395585    0.1769195  31.82 0.0003572117    1.761    0.432
        25  -9.2810    155.5498      6.4238   6.3056652677e+01   4.5429779132e+01    0.1459378    0.1352219  49.39 6.062006e-05    1.025    0.025
        26 -10.0675    115.2138      4.4171   7.0420068119e+01   5.6060188751e+01      0.26726    0.1993289  -9.76  0.001387916    1.349    0.259
        27  -9.3704     92.3489      3.8787   7.6552637933e+01   6.1434376501e+01    0.1921656    0.1196336  -4.59 0.0004048355    1.670    0.401
        28 -10.6502    129.2406      3.0810   6.6649055413e+01   5.2664148396e+01    0.2787679    0.1876124 -70.70 0.0009203182    2.195    0.544
        29  -9.9583    139.7370      1.7780   6.4046533000e+01   5.0049522047e+01    0.2775239    0.1278385  65.92  0.001098836    2.082    0.520
        30 -10.4047     66.3480    226.3350   1.3376684469e+02   2.2209023270e+01    0.2364009    0.1230136  44.99 0.0009099508    1.444    0.308
        31 -11.0992    246.8988    250.1770   1.0494447620e+02  -5.3750729100e+00    0.3938214    0.1448439  31.41  0.002256771    1.934    0.483
        32 -11.0653    250.3815    244.7854   1.0363450925e+02  -5.3895382666e+00    0.4614491    0.1505016 -29.00   0.00248525    3.548    0.718
        33 -10.9783    181.1114    248.9843   1.1562611438e+02   3.7626271773e+00    0.2923978    0.1341126 -36.71  0.001747525    2.979    0.664
        34  -9.3644    168.6487    250.6825   1.1794875521e+02   5.3364202755e+00    0.1104606    0.0676988  19.66 0.0007047349    1.737    0.424
        35  -9.8526    127.9659    249.5114   1.2481828771e+02   1.1103589252e+01    0.1453583    0.1259652  48.04   0.00115666    1.215    0.177
        36  -9.9844     72.6352    250.1093   1.3420090569e+02   1.7955422278e+01     0.150141    0.1216011  26.96  0.001254154    1.579    0.367
        37 -10.2918      1.4119    244.9924   1.4514249995e+02   2.5715549553e+01    0.1163459   0.06665701  84.12 0.0003589149    1.521    0.342
        38 -11.6219     14.2107    244.7415   1.4322076071e+02   2.4661676361e+01    0.2867478    0.1125847 -87.43  0.001969678    2.500    0.600
        39 -12.2756     21.1893    248.9723   1.4229460102e+02   2.3420612352e+01    0.4383171    0.1345053  43.08  0.002866617    2.072    0.517
        40 -11.6038     27.8587    246.0709   1.4117057328e+02   2.3221657670e+01    0.3355175    0.1452163 -88.43  0.002335297    2.372    0.578
        41 -10.7156     10.8777    250.3609   1.4388042378e+02   2.4140224337e+01    0.3171999    0.1258547  36.24  0.002240948    2.115    0.527
        42 -11.0363      5.8367    244.9791   1.4448629780e+02   2.5348795816e+01     0.267931    0.1214956  62.07  0.001002074    1.542    0.351
        43 -11.9533      8.8563    242.0062   1.4395364168e+02   2.5528759657e+01    0.3716765    0.1310039  60.52  0.002518398    2.025    0.506
        44 -10.0639      5.8111    226.7952   1.4399603343e+02   2.8099052288e+01    0.2375122          nan  48.72  0.001066479    4.214    0.763
        45 -10.0264    144.4536    226.5086   1.1950553665e+02   1.1816254298e+01    0.1161349   0.08807435  39.99 0.0001046644    1.028    0.027
        46 -10.4068    115.8463    225.8119   1.2472421945e+02   1.6006196147e+01    0.1576395    0.1083914  57.41 0.0006203355    1.370    0.270
        47 -10.3993    180.8423    224.1479   1.1253268328e+02   6.6445330421e+00    0.1807627    0.1471733  -9.62  0.000642318    1.419    0.295
        48 -10.1557     81.2527    224.5954   1.3096734244e+02   2.0714270215e+01    0.1950633    0.1192755  79.94  0.001138037    1.868    0.465
        49  -9.5270     25.6439    225.6917   1.4073544360e+02   2.6532569862e+01   0.07830062   0.07445406 -33.12 0.0003634618    1.726    0.421
        50 -11.1593    141.1970    221.5098   1.1953072354e+02   1.2990119790e+01    0.2701794    0.1749072  22.91  0.001294424    1.678    0.404
        51  -9.4961     51.5048    222.5563   1.3615318644e+02   2.4454184994e+01    0.1023725   0.07635901  57.69 0.0001355228    1.020    0.019
        52 -10.5696     13.2531    221.9379   1.4264149689e+02   2.8240078446e+01    0.1529529    0.1127793  48.03 0.0004093474    1.263    0.208
        53  -9.8680    174.1058    219.8996   1.1318965360e+02   8.2075203040e+00    0.1783002    0.1345543  43.22 0.0006500412    1.256    0.204
        54  -9.7210    250.4696    219.1029   9.9725585253e+01  -3.1636417531e+00    0.1481212   0.09486996 -12.17 0.0005418534    1.514    0.340
        55 -10.4007    191.5191    217.0004   1.0958755989e+02   5.8656297845e+00    0.1982366    0.1616508   4.49  0.001334378    1.249    0.199
        56 -10.8904     10.0020    217.0308   1.4301212747e+02   2.9309255165e+01    0.2415255    0.1192537  55.76 0.0008306706    1.454    0.312
        57 -10.9820    123.1812    221.4940   1.2291381702e+02   1.5613590375e+01    0.2707386    0.1728423  46.20 0.0009080481    1.243    0.195
        58 -10.5204    234.6795    216.3577   1.0190157859e+02  -6.3187562373e-01    0.1562153    0.1332228  42.75  0.001063645    1.741    0.426
        59  -9.7890    201.4713    215.7268   1.0759813368e+02   4.4697724827e+00    0.1446105     0.101328  -4.01 0.0009245736    1.546    0.353
        60 -10.0165     31.1418    215.8535   1.3936633794e+02   2.7609327315e+01    0.1651111     0.100042  61.33  0.001240423    1.254    0.202
        61  -9.4797    137.1862    215.6293   1.1959581967e+02   1.4432715332e+01    0.1723073   0.09122498  32.05  0.000941288    1.709    0.415
        62  -9.6319    170.4025    213.2249   1.1296308422e+02   9.6547485401e+00    0.1335254    0.1186576 -57.00 0.0007883747    1.588    0.370
        63  -9.4189    142.8002    213.4057   1.1824842299e+02   1.3911514772e+01    0.1663603   0.09331558  31.78 0.0005592574    1.589    0.371
        64 -11.0875     20.6926    211.7026   1.4099788008e+02   2.9264689658e+01    0.2600102    0.1200853  65.13 0.0009046892    1.765    0.433
        65 -10.2962    208.9849    212.0677   1.0569101908e+02   3.7249098009e+00    0.1864066    0.1367212  22.97 0.0004429548    1.024    0.024
        66 -10.3742    240.9456    211.0000   9.9981426820e+01  -1.0149555123e+00    0.1930821   0.05272381  39.86 0.0008097223    2.993    0.666
        67 -11.9301      4.4498    207.6245   1.4363615559e+02   3.1319766892e+01    0.3552482    0.2000496  68.83  0.002739565    1.332    0.249
        68  -9.3718    218.3321    206.9705   1.0321704599e+02   2.8471821044e+00    0.1823906    0.0850541  -8.28 0.0007035487    4.230    0.764
        69  -9.4678    212.8696    211.8787   1.0496943743e+02   3.1427978598e+00    0.1500565    0.1232032  32.87 0.0004859707    1.314    0.239
        70  -9.2891    175.2964    202.3206   1.1044944677e+02   1.0348315385e+01    0.1238286   0.08424933  13.25 0.0002493245    1.616    0.381
        71  -9.8617    218.2897    201.3486   1.0229883961e+02   3.4964144553e+00    0.1272772   0.07707731  11.77 0.0007026041    1.664    0.399
        72 -10.1597    206.1475    201.0583   1.0444641408e+02   5.4797798398e+00     0.200671    0.1212612   2.47 0.0008909264    2.009    0.502
        73  -9.4250     34.7298    200.6810   1.3793985240e+02   2.9852702024e+01    0.1381412   0.07221586  44.89 0.0004047515    1.539    0.350
        74 -10.0991    222.9780    201.2028   1.0144215629e+02   2.7706329106e+00    0.2381988    0.1964396 -88.44   0.00131543    3.172    0.685
        75 -10.1787    227.0162    196.9823   1.0001193248e+02   2.6107339979e+00    0.1931026    0.1418973  17.90 0.0006227638    1.033    0.032
        76 -11.4626    192.6055    195.0900   1.0599372305e+02   8.4670541543e+00    0.2599655    0.2351665 -28.18  0.001782546    1.412    0.292
        77  -9.6292    202.8660    196.1048   1.0423266432e+02   6.6320865412e+00    0.1763617    0.1230968  15.48 0.0007325724    1.302    0.232
        78 -10.4059    184.4770    208.9617   1.0970315244e+02   7.9799327906e+00    0.2353634    0.1364817  27.04 0.0007996578    1.523    0.344
        79 -10.4734    215.3677    194.7644   1.0170977486e+02   4.7449107549e+00    0.1993972     0.138812  -8.75 0.0005976416    1.464    0.317
        80 -10.9430    232.5466    191.3096   9.8050328447e+01   2.3743698699e+00    0.2948216    0.1521776  24.92  0.001552794    1.730    0.422
        81  -9.3049     56.6330    197.7238   1.3356629896e+02   2.8105705998e+01   0.09448109   0.08461707  -7.78 0.0005757524    1.676    0.403
        82  -9.5864    250.4742    189.9858   9.4764275317e+01  -2.8200430308e-01    0.1677356    0.1039209 -18.55 0.0005615909    1.558    0.358
        83  -9.5156    246.3484    190.3138   9.5511462488e+01   3.1665517219e-01    0.1315977   0.07319804  13.95 0.0007046792    1.720    0.419
        84  -9.3396    205.5131    190.4520   1.0277914348e+02   6.9115260738e+00    0.1296719    0.1003594  21.95 0.0001721742    1.010    0.010
        85 -10.3087    167.8828    184.1147   1.0904873326e+02   1.4234633426e+01    0.3892643    0.1968582  57.02  0.001563195    3.234    0.691
        86  -9.3866     61.6175    184.7896   1.3152844853e+02   2.9908204843e+01    0.1553907   0.09554942  89.17 0.0009490807    1.687    0.407
        87 -11.8027     16.1285    182.9093   1.4054159857e+02   3.4736556795e+01    0.3479678    0.1695466  77.99  0.002191166    1.815    0.449
        88  -9.9583    236.4830    182.4975   9.5765762234e+01   2.7484610059e+00    0.1273689    0.0978564  14.68 0.0008103166    1.025    0.024
        89 -10.6042    249.6754    181.6867   9.3372428405e+01   7.3153335671e-01    0.2553697    0.1059798  18.42 0.0009536439    3.754    0.734
        90 -10.3285      2.1456    180.1408   1.4309251605e+02   3.6335801754e+01    0.1749937    0.1123744  57.40 0.0006311111    1.240    0.193
        91 -11.2634    244.6504    177.9303   9.3510094726e+01   1.9483202839e+00    0.2688069    0.1362989 -12.35  0.001334108    2.165    0.538
        92  -9.5008     36.0733    178.5045   1.3631817795e+02   3.3789754371e+01    0.1461747   0.09429368  40.03 0.0004914704    1.459    0.314
        93 -10.3294    200.1739    176.8069   1.0135962297e+02   9.6468533653e+00    0.1869392    0.1329404  14.38 0.0005768565    1.330    0.248
        94 -11.2431    224.3600    178.3626   9.7138081760e+01   5.2539389216e+00    0.2620791     0.209453  16.72 0.0005109828    1.052    0.049
        95  -9.4401     70.2074    177.6170   1.2904666289e+02   3.0253987707e+01    0.1458723    0.1050372  29.50 0.0005006784    1.517    0.341
        96  -9.7046     59.6243    171.7794   1.3078334149e+02   3.2633597288e+01    0.1614037   0.09857056 -88.57 0.0009489795    1.687    0.407
        97  -9.6758     74.6847    171.4290   1.2742398951e+02   3.0900368308e+01      0.14868     0.110073  29.29 0.0008707763    1.473    0.321
        98 -11.2673     12.7951    170.1834   1.4057325327e+02   3.7407927016e+01    0.2773984    0.1112916  84.66  0.001501994    2.362    0.577
        99  -9.8101      4.5219    168.0051   1.4213682168e+02   3.8444880083e+01    0.1595195   0.08249806 -85.38  0.001042412    1.621    0.383
       100  -9.6671    209.8422    166.3820   9.7528552093e+01   9.3577930504e+00    0.1911416    0.1052694  31.32  0.000530452    1.622    0.383
       101 -10.9476     36.2397    162.4331   1.3512212094e+02   3.6927010724e+01    0.3552873    0.1532549 -70.28  0.001253939    2.119    0.528
       102  -9.1526     21.6395    166.6991   1.3855712582e+02   3.7372601513e+01   0.09853645   0.07737263 -46.17 0.0007036442    1.719    0.418
       103 -10.7644     51.5977    164.5862   1.3189237704e+02   3.4950211559e+01     0.235942    0.1764171 -28.52  0.001472124    2.050    0.512
       104 -10.5681     44.9982    163.7693   1.3329177109e+02   3.5801997581e+01    0.2137777    0.1279684  84.14   0.00128136    1.633    0.388
       105 -11.0626    248.1746    158.9247   8.9183516457e+01   3.5714687207e+00    0.2572559    0.2111055 -13.47  0.001651582    1.260    0.206
       106  -9.0321    229.4848    164.5425   9.3545534025e+01   6.1023296771e+00    0.1347554     0.105288  13.45 9.631065e-05    1.025    0.025
       107 -10.4074    246.4982    162.4860   9.0184262489e+01   3.4322196713e+00    0.1715284    0.1115969 -31.20 0.0007322166    1.682    0.406
       108 -10.1192    238.7990    158.1367   9.0614670457e+01   5.2773321870e+00    0.1952215     0.129971   9.94  0.001078862    1.391    0.281
       109  -9.3533      8.2966    158.3375   1.4090125551e+02   4.0059796918e+01   0.09933368   0.07076977 -56.97 0.0007031183    1.654    0.395
       110 -11.1130     22.2163    155.8698   1.3774495033e+02   3.9487740548e+01    0.3244455    0.2036559  47.76  0.002187124    1.457    0.314
       111  -9.4851    217.0128    155.0000   9.3882722696e+01   9.6117837367e+00     0.225843   0.06960043  44.07 0.0008096537    2.993    0.666
       112 -10.0534    205.4688    152.4987   9.5562447447e+01   1.2135761818e+01    0.2407466    0.1249924 -19.91  0.001031072    2.341    0.573
       113  -9.5619    197.3319    153.6867   9.7411944981e+01   1.3511503413e+01    0.1269998    0.1127339  76.32 0.0007044877    1.679    0.404
       114  -9.5739    151.5380    153.0659   1.0705139458e+02   2.2329694369e+01    0.1778714    0.1251879 -76.38  0.000762581    2.423    0.587
       115  -9.3365     31.0698    153.0276   1.3554958663e+02   3.9316839112e+01    0.1305651    0.1087022  73.62 0.0003703171    1.039    0.038
       116 -10.3703     10.4780    152.7043   1.4012984673e+02   4.1030564080e+01    0.3279744    0.1133225  37.83  0.001785119    2.516    0.603
       117 -10.3676    178.2154    151.4769   1.0089104625e+02   1.7537117668e+01    0.2928412    0.2380916  56.33   0.00160407    1.465    0.317
       118  -9.1339    235.6779    154.6889   9.0446325618e+01   6.2592703030e+00    0.1406147   0.08658864  12.47 0.0006027858    1.651    0.394
       119  -9.2220     92.6812    148.3067   1.2022569560e+02   3.3146029344e+01    0.1346467   0.09300506  67.32 0.0005718859    1.634    0.388
       120  -9.3723    233.5388    146.5264   8.9100081083e+01   7.6973787114e+00    0.1373283     0.111416   9.18 5.723971e-05    1.004    0.004
       121 -10.3168    207.0023    145.9821   9.3883408718e+01   1.2795989696e+01     0.219519    0.1815931  17.09 0.0006317406    1.031    0.030
       122  -9.4870     19.2985    146.6062   1.3777133734e+02   4.1621940724e+01    0.1228946   0.06404017  66.97 0.0007007424    1.801    0.445
       123 -10.9828      9.1154    145.4146   1.4001381793e+02   4.2612184946e+01    0.2441946    0.1486658  57.62  0.001647332    1.460    0.315
       124 -10.4563      2.9829    143.8290   1.4130300910e+02   4.3344067310e+01     0.191233    0.1089634 -67.29  0.001255164    1.630    0.386
       125  -9.6994    213.0025    141.4969   9.1756360346e+01   1.2282786888e+01    0.2991243    0.1573362   5.46  0.001044519    3.521    0.716
       126  -9.7913     49.4310    141.8914   1.3013415524e+02   3.9907097261e+01     0.173861    0.1592016 -42.16 0.0003987633    1.329    0.248
       127 -11.2749      2.7840    137.5628   1.4100976314e+02   4.4647767824e+01    0.3691604    0.1701405 -75.39  0.001143167    1.776    0.437
       128 -12.4004      8.8768    136.5005   1.3952535480e+02   4.4480541284e+01    0.3549213    0.2366721  75.18 -0.001416066    1.270    0.212
       129 -10.6793    236.6077    138.8846   8.6908088117e+01   8.1307921632e+00    0.2288287    0.1817161  36.98 0.0003735712    1.305    0.234
       130 -10.5841     57.5364    138.5076   1.2770301523e+02   3.9766357885e+01    0.3018393    0.1923966  70.27  0.001287167    1.684    0.406
       131 -10.8328     40.4586    135.7407   1.3172575187e+02   4.2125366119e+01    0.2041147    0.1817577  69.88 0.0006102689    1.093    0.085
       132 -10.5694     21.7546    135.4777   1.3635793112e+02   4.3778839008e+01    0.3078002    0.1759304 -77.29  0.001881679    1.490    0.329
       133  -9.9478    138.2651    135.4079   1.0664833759e+02   2.8125389298e+01    0.2767511    0.1308677  36.34 0.0008643888    2.088    0.521
       134  -9.7872     79.9875    133.4900   1.2117850492e+02   3.8088923802e+01    0.1864944    0.1242557  36.75 0.0004350209    1.502    0.334
       135 -11.7801     37.4822    130.9204   1.3198160385e+02   4.3452963182e+01    0.2798819    0.2538757 -26.41 0.0009416665    1.401    0.286
       136 -10.4674     34.7138    128.2881   1.3242403734e+02   4.4277788315e+01    0.1823192    0.1599436  81.25 0.0002351543    1.056    0.053
       137 -10.1487    249.4572    129.9508   8.2785663519e+01   6.9011364414e+00    0.2090532     0.167252  27.33   0.00125024    1.204    0.169
       138  -9.9795     73.9922    129.3630   1.2212677543e+02   3.9789351129e+01    0.2150921    0.1696792 -53.74 0.0008037783    1.288    0.224
       139  -9.4887    243.0062    128.4626   8.3503302271e+01   8.2917186173e+00    0.1888817    0.1247173  40.39 0.0004969356    1.499    0.333
       140  -9.9420     60.0255    127.0241   1.2554049148e+02   4.2011447065e+01    0.1881368    0.1700156  86.01  0.000369356    1.016    0.015
       141 -10.2354      1.7509    126.3962   1.4060724812e+02   4.7053616679e+01    0.2060236    0.1248594 -89.45  0.001207849    1.325    0.245
       142 -10.1399    219.6824    124.6994   8.6693158520e+01   1.3381468048e+01    0.2438472    0.1891529   8.68 0.0005238568    1.205    0.170
       143 -11.1066     10.6606    122.8561   1.3814500550e+02   4.7276394032e+01    0.2461039    0.1791414  71.28  0.001673163    1.234    0.190
       144  -9.7816     41.6594    121.3357   1.2978580167e+02   4.5193012101e+01    0.1310773   0.08050127  67.21 0.0007050938    1.758    0.431
       145  -9.3795     20.5273    121.4834   1.3547585208e+02   4.6907844493e+01    0.1151681   0.09522998 -83.18 -5.078774e-05    1.043    0.042
       146  -9.5974    221.6207    120.1731   8.5272826077e+01   1.3636842125e+01    0.2032189    0.1249512 -14.81 0.0008463896    1.697    0.411
       147 -11.1111     17.3016    117.2437   1.3594883140e+02   4.8068075922e+01     0.400544    0.1769927 -51.24  0.002071137    2.358    0.576
       148 -10.0324     19.9853    113.0161   1.3482315093e+02   4.8821796937e+01    0.1817941    0.1420989 -78.24 0.0007505151    1.069    0.065
       149 -12.3698     16.4043    108.4707   1.3537506385e+02   5.0076760633e+01     0.392534    0.2961767  16.68            0    1.664    0.399
       150  -9.7602    249.6731    118.3091   8.0110123714e+01   8.3386920912e+00    0.1243518    0.1054774 -51.77 0.0004289993    1.658    0.397
       151  -9.8604    179.3922    116.3962   9.2735979212e+01   2.3223008484e+01    0.2194025    0.1629015  11.63  0.001044949    1.482    0.325
       152  -9.5755     86.4369    116.5233   1.1647507209e+02   4.0924141014e+01    0.1337045    0.1271454 -86.57 0.0002426625    1.026    0.026
       153 -11.4390     36.0141    110.9203   1.3007242478e+02   4.8049715002e+01    0.4935176    0.2488039 -68.26  0.001592585    1.695    0.410
       154  -9.2200     66.5098    112.5906   1.2147712161e+02   4.4493713341e+01    0.1286087    0.1186539  89.45 8.833294e-05    1.045    0.043
       155  -9.3195    167.3959    108.8405   9.3513600791e+01   2.7174237547e+01     0.207427    0.1419636 -21.75  0.000413652    1.612    0.380
       156  -9.9072     56.3239    109.3372   1.2391864992e+02   4.6421455908e+01    0.1326691   0.09097315 -36.56 0.0007051089    1.718    0.418
       157 -10.1645    242.1472    108.3731   7.8966909817e+01   1.1097226214e+01    0.1806266     0.133561  59.33 0.0006674433    1.730    0.422
       158 -11.6829     23.3438    106.3053   1.3317290271e+02   5.0091888909e+01    0.4432713     0.237619  62.10  0.002379081    2.082    0.520
       159 -10.7360      3.7495    100.7500   1.3825534243e+02   5.2521585277e+01    0.2759939    0.1841068  69.30  0.001167373    1.450    0.310
       160 -10.1143      6.3943    106.2179   1.3796661884e+02   5.1172543653e+01    0.2397106    0.1531819 -74.36 0.0008779077    1.257    0.205
       161 -10.4021      2.8396    105.1712   1.3886665537e+02   5.1590044605e+01    0.3085768    0.1447732  88.88  0.001517425    1.895    0.472
       162  -9.2513    133.3156    107.3621   1.0152029670e+02   3.4686415883e+01    0.1571417    0.1164047  -2.30  0.000704175    1.761    0.432
       163 -10.2776     62.0197    107.0450   1.2184042523e+02   4.6297224069e+01    0.1930599    0.1754175 -59.74 0.0003041581    1.066    0.062
       164 -10.4183    243.4894    104.4720   7.7818757548e+01   1.1343002806e+01    0.1416907    0.1188147   1.96  0.000809573    1.042    0.040
       165  -9.9145    223.3283    103.9686   8.1017057172e+01   1.5602267617e+01     0.205626    0.1692565 -15.29 0.0005283566    1.129    0.114
       166  -9.9617     93.6367    103.7474   1.1174502458e+02   4.2667337944e+01    0.1946757    0.1366862 -39.96 0.0005072601    1.481    0.325
       167 -11.2342     70.0738    102.6799   1.1860012972e+02   4.6304361052e+01    0.3544005    0.2156242  17.62 0.0006858279    2.150    0.535
       168 -10.3762     10.4845    102.4630   1.3648200510e+02   5.1779975689e+01    0.2221821    0.1481393  44.37  0.001451327    1.623    0.384
       169 -10.6389    247.9879    102.2729   7.6597707457e+01   1.0729788441e+01    0.1941304    0.1696158  11.83 0.0006491709    1.083    0.077
       170  -9.6574    120.0326    101.4683   1.0362476642e+02   3.8513042987e+01    0.2110389    0.1288037  16.94 0.0008093862    2.511    0.602
       171 -10.4998     35.8020    101.2156   1.2883930465e+02   5.0281985430e+01    0.2418233    0.1626738  34.39  0.001154094    1.641    0.391
       172 -10.2187     27.8872    100.9688   1.3119920597e+02   5.0970741342e+01     0.172213    0.1453439 -71.03 0.0002726993    1.050    0.048
       173 -11.1961     20.6774     97.4342   1.3294302453e+02   5.2286551180e+01    0.4589983    0.1685618 -79.85    0.0016057    2.653    0.623
       174 -10.6837     63.4058     98.4725   1.1984060635e+02   4.8097629960e+01    0.4361399    0.2157395  26.25  0.001980364    2.353    0.575
       175  -9.6352     50.4244     99.2243   1.2402865532e+02   4.9371839598e+01    0.1700489    0.1134981 -78.36 0.0003218617    1.495    0.331
       176 -11.2724     10.8715     91.8054   1.3530190743e+02   5.4154502244e+01    0.4379877     0.240575 -42.07  0.002515953    1.993    0.498
       177  -9.2140      6.9882     88.4854   1.3615303312e+02   5.5104782108e+01    0.1344846    0.1128626  32.85 -5.659767e-05    1.441    0.306
       178 -10.3593      1.4769     94.1554   1.3835561481e+02   5.4095509723e+01    0.2499541   0.07577159 -70.57  0.001129217    2.380    0.580
       179  -9.3149    227.4507     93.4748   7.7667715566e+01   1.6193277504e+01     0.145227    0.1286295  -0.26 8.064508e-05    1.004    0.004
       180  -9.5113    171.2110     91.5618   8.8017467838e+01   2.9371852734e+01    0.2269561    0.1371776  36.99 0.0009475123    1.668    0.400
       181 -10.3220     26.9605     90.7743   1.3012502712e+02   5.3373506066e+01    0.2327735    0.1503761  13.07 0.0005784726    1.955    0.489
       182  -9.9045     97.3715     89.2069   1.0710439373e+02   4.5256855903e+01    0.2065078    0.1341736 -58.66 0.0009500149    1.666    0.400
       183  -9.8790     72.9997     88.6927   1.1471005400e+02   4.9107114055e+01    0.1748528    0.1707671  26.90 0.0002745525    1.100    0.091
       184  -9.7437    103.7015     88.5664   1.0500333284e+02   4.4289064467e+01    0.1912033    0.1387903  49.39 0.0009265692    1.495    0.331
       185 -11.2633     48.1949     85.4652   1.2224952606e+02   5.2774316548e+01    0.5343722    0.3289296  80.69  0.001379803    2.298    0.565
       186  -9.8852     45.4331     87.4479   1.2354859134e+02   5.2587845209e+01    0.1828709    0.1700272  53.89 4.583497e-05    1.195    0.163
       187 -10.7695    117.7050     83.5009   9.9434110707e+01   4.2699416617e+01    0.2786088     0.250096   5.77 0.0006670105    1.131    0.116
       188 -11.1798     78.3037     72.0297   1.0867102962e+02   5.2078568029e+01     0.365919    0.2169056  39.31  0.001091524    1.812    0.448
       189 -10.3482     75.5171     79.4506   1.1162452830e+02   5.0841713145e+01    0.2946582    0.1968254 -42.19 0.0008877455    1.429    0.300
       190 -11.9786     72.0877     78.6079   1.1257274141e+02   5.1510553001e+01    0.6275126    0.3592711 -32.37  0.001404113    2.104    0.525
       191 -11.6187     19.6875     81.3720   1.3118007752e+02   5.6019776655e+01    0.5362206    0.3005066  19.09  0.002762909    2.169    0.539
       192 -11.4969     23.3078     80.3193   1.2980170629e+02   5.6029063870e+01    0.3748382    0.2150088 -65.64  0.001567319    1.408    0.290
       193 -11.1577     85.2569     80.7712   1.0872948662e+02   4.9090953276e+01    0.2956563    0.2244592 -40.92 0.0009296252    1.257    0.204
       194  -9.3194    126.4122     80.5032   9.6066706126e+01   4.1514137140e+01    0.1504101    0.1449253 -11.41 5.578286e-05    1.043    0.041
       195 -10.1174      2.6664     71.4805   1.3569629017e+02   5.9133030353e+01     0.267371    0.1779131 -55.10  0.001765949    1.302    0.232
       196 -11.7177      3.3837     78.5023   1.3624843656e+02   5.7520589513e+01    0.3917012    0.2933171  88.98  0.002399198    1.207    0.172
       197 -10.9606      7.1798     76.8550   1.3479616549e+02   5.7724700324e+01    0.2405122    0.1936754  86.70  0.001015291    1.193    0.162
       198 -10.8588      7.6996     73.6596   1.3422493095e+02   5.8424932448e+01     0.281541    0.2004248  -7.77  0.001858519    1.794    0.443
       199 -11.0068    150.5432     78.0392   8.8947106004e+01   3.6598013156e+01    0.3339099    0.2748371 -49.51  0.001010141    1.367    0.268
       200  -9.9486     93.1404     77.7359   1.0532299979e+02   4.8464996054e+01     0.290742       0.1774 -25.78  0.001232819    2.115    0.527
       201 -11.5571     58.4488     75.4337   1.1653248280e+02   5.3964360571e+01    0.4881002     0.302292  79.99  0.002085659    2.907    0.656
       202 -11.8182     62.2452     72.3861   1.1442656392e+02   5.4196714434e+01    0.4723663    0.3238336 -49.76   0.00190224    1.296    0.228
       203  -9.8410    121.5438     76.4771   9.6237120249e+01   4.3332625972e+01    0.1517648    0.1438551  -2.91 0.0001937859    1.005    0.005
       204 -10.9679     46.9999     74.1386   1.2032538064e+02   5.5500197094e+01    0.3422716    0.2138325   4.23   0.00174401    2.164    0.538
       205 -12.1783     48.9888     69.7222   1.1859355450e+02   5.6306523080e+01    0.4891222    0.3213409 -27.98  0.001901744    1.735    0.423
       206 -10.9847     40.3589     72.8179   1.2244402095e+02   5.6431657813e+01    0.3205135    0.2147194 -69.95 0.0008109581    1.397    0.284
       207  -9.2090    219.7711     73.9743   7.3790155767e+01   2.0631107372e+01    0.1860273    0.1157746 -25.05 0.0002994514    1.534    0.348
       208 -10.2717    102.6760     73.0153   1.0088059981e+02   4.7764903094e+01    0.2089556    0.1894371 -24.17 0.0006979094    1.052    0.050
       209 -10.3356     27.2816     70.3388   1.2673227687e+02   5.8049019844e+01    0.5106427    0.1586409 -73.39   0.00182911    3.658    0.727
       210 -10.5957     16.9564     72.6020   1.3083720082e+02   5.8189501202e+01    0.2218184    0.1481664 -80.95 0.0007258782    1.358    0.264
       211 -10.3826    175.0419     71.7929   8.1428722970e+01   3.1768188895e+01    0.2642606    0.2155244 -24.72  0.000337378    1.219    0.180
       212  -9.9683     40.0890     80.7072   1.2410317580e+02   5.4639737761e+01    0.2279885     0.141123  43.05   0.00124177    1.844    0.458
       213 -10.2503    145.0090     71.2306   8.8229247892e+01   3.9114917722e+01    0.2261872    0.1652462 -52.42 0.0004960972    1.630    0.387
       214 -11.1629     95.1617     67.5342   1.0161505991e+02   5.0271500897e+01     0.495051    0.2877994 -41.24  0.002221347    1.644    0.392
       215 -10.8763     68.8078     67.6693   1.1080023517e+02   5.4395312432e+01    0.4031097    0.1683445 -49.37 0.0008957257    2.120    0.528
       216 -11.2191     36.2421     68.2147   1.2299555039e+02   5.7843515070e+01    0.3748695    0.2311093 -34.82  0.002040541    1.713    0.416
       217 -10.8771     31.0577     66.2075   1.2452897804e+02   5.8717268351e+01    0.3015486    0.1810234 -69.04 0.0005942985    1.491    0.329
       218 -10.3345    156.9786     67.2539   8.4046365386e+01   3.6944821905e+01    0.3364557    0.1880839 -55.52  0.001189427    2.769    0.639
       219 -11.8724      4.2981     65.0870   1.3431735615e+02   6.0510347330e+01    0.5024468     0.266736  67.67  0.001476992    2.356    0.576
       220 -10.5657     21.4011     66.1567   1.2815568562e+02   5.9397118778e+01    0.2271215     0.199641  27.38 0.0008270009    1.374    0.272
       221  -9.7443     15.8545     66.7563   1.3032120498e+02   5.9585131439e+01    0.2412439    0.1351465  78.93  0.001241564    2.263    0.558
       222  -9.4800    146.8170     65.8771   8.6062899433e+01   3.9631101837e+01    0.2008423    0.1838273 -60.71 0.0003153895    1.284    0.221
       223 -10.0014    119.0541     65.7380   9.3560288995e+01   4.5948631191e+01    0.2516263    0.2030132  -8.04 0.0004017068    1.327    0.246
       224 -10.4715    121.8869     61.8296   9.1430896632e+01   4.6074714366e+01    0.2846628    0.2120374 -11.82 0.0009408779    1.502    0.334
       225 -10.1474    130.0000     64.9221   9.0168279427e+01   4.3706582932e+01    0.2563729   0.08661502 -37.17 0.0008040784    2.954    0.661
       226 -10.0233    106.4049     64.1083   9.6878699344e+01   4.8855268347e+01    0.3692506    0.1328145 -49.37  0.001160574    3.375    0.704
       227  -9.7702     77.0610     61.1025   1.0585717892e+02   5.4624395113e+01     0.231887    0.1933973  60.68 0.0005440742    1.528    0.345
       228 -11.5911     83.7664     62.3818   1.0387015043e+02   5.3294042870e+01    0.4455039    0.4004735  69.88  0.001545497    1.394    0.283
       229 -10.4658     77.1218     65.2739   1.0711768752e+02   5.3723793702e+01    0.2554851    0.1938251  53.46  0.001332266    1.624    0.384
       230 -10.1174    174.0055     63.7697   7.9187966757e+01   3.3293370641e+01    0.2561336    0.2243708 -21.64 0.0005563325    1.135    0.119
       231 -10.6094     51.6976     62.5129   1.1576920958e+02   5.7644636983e+01    0.2846587     0.181435 -37.64 0.0008320573    1.515    0.340
       232 -11.1688     10.8957     62.6427   1.3151770560e+02   6.0774272078e+01    0.2181729    0.1870262 -76.78 0.0004073114    1.120    0.107
       233  -9.7371    192.5069     62.0495   7.5061709401e+01   2.8911544567e+01    0.2188109    0.1480568 -24.22 0.0003248297    1.470    0.320
       234 -11.3812     56.7733     61.3639   1.1351040985e+02   5.7321547351e+01    0.3876261    0.2424432 -30.98 0.0009893284    1.720    0.419
       235  -9.9834     46.2889     46.9842   1.1351017282e+02   6.1636314241e+01    0.2333601    0.1371507 -49.35 0.0003443954    1.434    0.303
       236 -11.9271     37.6601     52.4103   1.1869395525e+02   6.1287627157e+01    0.7829318    0.3816531 -49.06  0.003913624    1.674    0.403
       237 -10.6914     44.7812     51.9754   1.1562495277e+02   6.0707774055e+01    0.2490153    0.1996356 -47.89 0.0003363389    1.064    0.061
       238 -11.1485     27.1769     61.2941   1.2501248822e+02   6.0121554398e+01     0.366662    0.2028366  11.53  0.001960193    2.266    0.559
       239  -9.3322    183.8030     60.8626   7.6331627685e+01   3.1270312168e+01    0.2051098    0.1827122 -62.67 0.0005072604    1.316    0.240
       240  -9.1320    160.3447     61.2979   8.1364506379e+01   3.7096346308e+01    0.1668919    0.1153058  21.75 0.0007034887    1.673    0.402
       241  -9.1923    134.6311     61.2916   8.7698719195e+01   4.3302016547e+01    0.1534332    0.1260215 -83.83 0.0007025629    1.717    0.417
       242  -9.9468     93.1086     61.1086   1.0023359285e+02   5.1957147718e+01    0.2176674    0.1833001 -15.94 0.0003531186    1.180    0.152
       243 -10.7222     70.4025     59.2484   1.0772487430e+02   5.6003550304e+01    0.4903381     0.247054 -48.19  0.002122609    1.792    0.442
       244 -10.9500     64.6516     59.8706   1.1007670815e+02   5.6660538011e+01    0.3874283    0.1986641  35.22  0.001192119    2.122    0.529
       245 -11.7136     33.5956     59.8174   1.2216828827e+02   5.9971219078e+01    0.2576573    0.2068421 -33.11 0.0003066116    1.232    0.189
       246 -10.5732    137.0168     57.4473   8.5763095995e+01   4.3411701873e+01    0.3547067    0.2109348 -23.54  0.001456981    1.838    0.456
       247 -11.1450    123.1349     56.6899   8.9307989971e+01   4.6736070986e+01    0.3223473    0.2688392 -63.55 0.0008635454    1.534    0.348
       248 -10.3521     43.7809     57.2734   1.1748624654e+02   5.9635306643e+01    0.2004256    0.1820992 -73.11 0.0002577608    1.205    0.170
       249 -10.0870    113.2224     57.5406   9.2536684178e+01   4.8729116730e+01    0.3793513    0.1421774  42.72  0.001305663    2.690    0.628
       250 -10.2912     86.0370     58.2657   1.0173109769e+02   5.3768576708e+01    0.2743524    0.2010565 -49.63 0.0004539301    1.385    0.278
       251 -10.9444    100.3670     55.9190   9.6044207599e+01   5.1633798217e+01    0.6259105    0.2321432  41.63  0.002217908    2.768    0.639
       252  -9.3075     58.2835     56.3494   1.1147434753e+02   5.8238974945e+01      0.14235   0.09137854 -29.35 0.0002194309    1.652    0.395
       253 -12.1923    128.1244     51.5441   8.6088027104e+01   4.6498919376e+01    0.5608364     0.371652 -20.37  0.000522501    1.621    0.383
       254 -10.7884     86.1603     52.3218   9.9649482935e+01   5.4944620067e+01    0.4612259    0.1955283  49.62  0.001647549    3.218    0.689
       255 -11.0330     13.0069     50.3356   1.2852368724e+02   6.3446767237e+01    0.5467764    0.2000879 -71.09  0.002274236    2.385    0.581
       256 -11.8222     10.1202     44.7732   1.2864592514e+02   6.4824259473e+01    0.6961151    0.2836497 -27.16  0.003239208    3.019    0.669
       257 -11.5349      7.0241     40.9131   1.2922561094e+02   6.5811693592e+01    0.3637556    0.1315589 -61.78 0.0004247839    1.944    0.486
       258  -9.5970    157.5241     52.0466   7.8949098227e+01   3.9255744488e+01    0.2244996     0.152205 -27.42 0.0003338489    1.486    0.327
       259  -9.3038     50.0597     51.9786   1.1345739426e+02   6.0148868189e+01    0.1834844    0.1331175 -30.99 0.0003233281    1.323    0.244
       260 -10.8346     51.1375     48.3052   1.1188576037e+02   6.0820455695e+01      0.24466     0.209913 -77.72 0.0004097529    1.441    0.306
       261  -9.1519    250.3405     51.7553   6.3724612964e+01   1.6535786304e+01    0.1303676   0.09821199 -60.74  0.000277759    1.562    0.360
       262 -10.6537    114.5139     49.3281   8.9208576519e+01   4.9940736719e+01    0.3962493    0.2688188 -25.07  0.001832829    1.497    0.332
       263 -10.6387     72.7227     51.0406   1.0416609892e+02   5.7384049676e+01    0.3682916    0.1925883  27.33  0.001614264    2.213    0.548
       264 -11.0931      5.1555     52.8806   1.3219520027e+02   6.3222980881e+01      0.32808    0.1854811 -34.84  0.001956103    1.803    0.445
       265 -10.9136    100.9671     48.7458   9.3266135115e+01   5.2869153586e+01    0.3118727    0.2486336 -29.30  0.001619199    1.196    0.164
       266  -9.4114    225.0073     47.9495   6.5884114299e+01   2.2784065018e+01    0.1654638    0.1564841 -11.92 0.0003080848    1.001    0.001
       267  -8.9791    196.7294     48.2926   7.0191774697e+01   2.9744384494e+01    0.1463491    0.1136524 -58.09 0.0001637654    1.514    0.339
       268 -10.8289    157.6999     46.2383   7.6938388400e+01   4.0080088556e+01    0.4317995    0.2834562 -57.31  0.001786563    2.086    0.520
       269 -10.1377     79.9619     47.6828   1.0024832170e+02   5.6912058513e+01    0.2303095    0.1113867  17.91 0.0007045696    4.393    0.772
       270  -9.5634     62.7210     47.4012   1.0683978754e+02   5.9567465804e+01    0.1749327    0.1260082  10.66 0.0005171887    1.573    0.364
       271 -10.8217    142.7558     46.2891   8.0406789884e+01   4.3838014197e+01    0.2852779    0.2525558 -15.59 0.0005832933    1.119    0.106
       272 -10.0594     98.8422     44.3803   9.2328774982e+01   5.4085668385e+01    0.3786498    0.2479469   1.18  0.001398963    2.075    0.518
       273 -11.3426     95.5658     39.7281   9.1623972323e+01   5.5559882278e+01    0.4310339    0.3393314 -36.31  0.002268846    1.267    0.211
       274 -10.5538     69.5885     45.9490   1.0359500883e+02   5.8889063020e+01     0.224978    0.1956345  32.21 0.0002389538    1.278    0.217
       275  -9.5757     22.9588     46.4840   1.2343881158e+02   6.3734998665e+01    0.1602712    0.1331052 -41.65 0.0001025498    1.100    0.091
       276 -10.8096     23.9243     41.8796   1.2184913562e+02   6.4685232237e+01    0.2339707    0.1964918 -50.15 0.0008335161    1.055    0.052
       277 -10.7941    122.3863     44.2139   8.5006490003e+01   4.9045811785e+01    0.4339829    0.3293077 -30.41  0.001337365    1.309    0.236
       278  -9.8770     86.2441     45.0199   9.6955655661e+01   5.6345279091e+01    0.2370129    0.1501091  37.68 0.0008154583    1.637    0.389
       279 -10.8278    163.0102     42.4601   7.4522268432e+01   3.9251967881e+01    0.2710998    0.2234083 -19.09 0.0002903994    1.224    0.183
       280 -10.0870     64.0868     41.6079   1.0422762063e+02   6.0558322628e+01    0.2755083    0.1732572 -50.95  0.001235827    1.595    0.373
       281  -9.4176    110.6881     42.2759   8.7718933373e+01   5.1985821241e+01    0.1387478    0.1216677 -78.32 0.0002035418    1.559    0.358
       282 -10.1679     80.5118     42.1445   9.7973531637e+01   5.7889650156e+01    0.2760393    0.1911207  55.77  0.001326264    1.998    0.500
       283 -10.2870     56.5534     42.1403   1.0755428597e+02   6.1461704681e+01    0.2559436    0.1638796 -62.85  0.001024734    1.951    0.487
       284  -9.5024     52.4494     42.4333   1.0939981828e+02   6.1906684338e+01    0.1339877     0.112477 -31.50 0.0001075865    1.023    0.022
       285 -10.4492    226.4211     40.3148   6.3598669447e+01   2.3356895740e+01    0.2488187    0.2286833 -54.53 0.0005138749    1.134    0.118
       286  -9.3827    235.5823     40.5675   6.2550176369e+01   2.1160323565e+01    0.1356279     0.126801  -8.63 0.0002504517    1.043    0.041
       287 -10.1367     89.6742     39.8841   9.3739684679e+01   5.6665655629e+01    0.2891005    0.1740345 -59.85  0.001127893    2.902    0.655
       288  -9.9791     44.1984     39.3846   1.1196501559e+02   6.3469955968e+01    0.2743816    0.1571101 -59.71  0.001313942    1.807    0.447
       289  -9.4025    159.3326     39.3109   7.4198764500e+01   4.0640594513e+01    0.1663757    0.1108286  26.38 0.0003392956    1.675    0.403
       290 -10.3655    135.7848     38.2468   7.9193216915e+01   4.6772993270e+01    0.3155916    0.2083567 -15.47  0.001396609    1.634    0.388
       291 -11.4155     70.3752     36.4270   9.9682225891e+01   6.0629690422e+01    0.4797632    0.2583557 -23.03  0.001361828    2.336    0.572
       292 -11.6026     81.9785     36.3552   9.5135960293e+01   5.8704955462e+01    0.4165873    0.2946018  18.22  0.001696414    1.525    0.344
       293 -11.4799     24.7021     35.4852   1.1971029568e+02   6.6017311045e+01     0.308496    0.2753328  34.32  0.001185121    1.410    0.291
       294 -10.2500      1.4885     37.9513   1.3113029027e+02   6.6665749780e+01     0.221573   0.09365101 -53.07 0.0004007744    1.706    0.414
       295 -11.3149      2.0263     31.9332   1.2965847537e+02   6.7961125783e+01    0.3392409    0.2252337  67.09   0.00208405    2.062    0.515
       296 -10.4738      9.4731     32.9804   1.2631964715e+02   6.7441761997e+01    0.1753976    0.1570927 -85.55 0.0009273277    1.312    0.238
       297 -10.5086      5.2120     18.0129   1.2448700010e+02   7.0806320437e+01    0.4692263    0.1406165 -47.29   0.00224454    2.231    0.552
       298 -12.4080    226.4915    246.3127   1.0768515020e+02  -2.3273510416e+00    0.5598779    0.3064005  16.45  0.003628626    1.653    0.395
       299 -10.6733      8.0162     21.2923   1.2393101296e+02   6.9999866648e+01    0.2540765    0.1804626  -1.13  0.001445229    1.604    0.376
       300  -9.5806    102.0977     36.8925   8.8310900248e+01   5.4717567977e+01    0.2069804    0.1617595  15.72 0.0009622522    1.294    0.227
       301  -9.7889     56.9560     35.6976   1.0501317039e+02   6.2707399527e+01     0.185824    0.1579069 -21.96 0.0007531992    1.031    0.030
       302 -10.2912    111.0885     35.0980   8.4767246131e+01   5.3067250069e+01    0.2188318    0.2022309  -1.10 0.0004246759    1.054    0.051
       303 -10.3858    106.1184     34.2937   8.5971740681e+01   5.4285339123e+01    0.2719252    0.2312446 -75.92 0.0009921463    1.692    0.409
       304 -10.1530     32.5326     34.0511   1.1555120612e+02   6.5706531008e+01    0.2808467    0.1694399  20.17  0.001574542    1.891    0.471
       305  -9.7637    128.8500     33.9713   7.9332482786e+01   4.9094422171e+01    0.2683524    0.1672427  10.62  0.001082366    2.112    0.526
       306 -10.0938     77.0681     33.5272   9.5850739832e+01   6.0068350092e+01    0.2030157    0.1337466  33.24   0.00062305    1.563    0.360
       307  -9.6607    162.2777     30.7651   7.0623361331e+01   4.0988871715e+01    0.2134182    0.1620951  31.42 0.0003947426    1.323    0.244
       308  -9.2383     90.2622     31.6579   9.0163197035e+01   5.7978230038e+01    0.1347601    0.1127208 -57.90 0.0003243623    1.594    0.373
       309 -10.3935     50.1186     28.0387   1.0504569648e+02   6.5075557076e+01     0.448956     0.131555 -39.80  0.001603255    3.198    0.687
       310 -10.0179     19.6544     37.8568   1.2274212356e+02   6.5839523334e+01    0.1911607    0.1596992 -40.76 0.0006939124    1.092    0.084
       311 -10.9242    124.8362     28.0103   7.8024753592e+01   5.0908456941e+01    0.2502014    0.1987931  36.51 -0.0009232552    1.178    0.151
       312  -9.9990    156.6751    245.7064   1.1946553440e+02   7.6009033789e+00    0.1073366   0.06992069  20.80 0.0002848006    1.620    0.383
       313 -10.1823    148.2926    244.3443   1.2078202223e+02   8.9500187969e+00    0.1041988   0.07308236  16.37 0.0003583398    1.660    0.398
       314 -11.9713     24.5963     27.1589   1.1714274350e+02   6.7782734822e+01    0.2279233    0.1977642 -26.44 0.0003347758    1.138    0.121
       315  -9.7298    115.4343    244.3020   1.2651829365e+02   1.3459436101e+01    0.1213982   0.09500562  79.23 0.0009409039    1.535    0.349
       316 -10.1824    109.7540    243.0695   1.2740030072e+02   1.4374613446e+01    0.2387916    0.1139504  54.64  0.001246649    1.984    0.496
       317 -10.3817     72.0394    243.6944   1.3390553369e+02   1.8936878874e+01    0.1460715     0.129496  71.85 0.0008022445    1.300    0.231
       318 -10.6467     89.6829     26.6451   8.8206387012e+01   5.8905972979e+01    0.3586728    0.2142636  41.89  0.001691879    1.672    0.402
       319 -11.0151     70.7016     25.8720   9.5108001374e+01   6.2486193633e+01    0.5428886    0.2683412  30.65  0.002383408    2.231    0.552
       320 -10.3831    129.6185     24.6497   7.5456992846e+01   5.0181499014e+01    0.4625806    0.2462754 -57.41  0.001541483    3.630    0.725
       321 -11.3798     60.7697     23.4562   9.8254831153e+01   6.4468813029e+01    0.4656312     0.254604 -54.89  0.001998867    2.726    0.633
       322 -11.0667     65.5831     21.4876   9.5266486764e+01   6.4066990874e+01    0.3485194    0.2289656   8.79 0.0005992205    1.744    0.427
       323 -10.3353     27.7551     19.6003   1.1274720795e+02   6.9064422822e+01    0.2062703    0.1884666 -55.93 0.0008029375    1.333    0.250
       324 -10.7891     54.1046     23.3623   1.0121903386e+02   6.5433980105e+01    0.2443469    0.2052757 -15.10 0.0005073984    1.034    0.033
       325 -10.8008     84.4170     22.3839   8.8195167331e+01   6.0599794452e+01    0.2626595    0.2098392  -0.00 0.0005969025    1.167    0.143
       326 -10.1569    100.1845     21.6117   8.2441750571e+01   5.7480650210e+01    0.2567751    0.1682205  37.31 0.0005128408    1.457    0.314
       327 -10.2652    104.0858     18.9444   8.0036815306e+01   5.6986548454e+01    0.2873277    0.1839271  26.22  0.001334346    1.620    0.383
       328  -9.5056     34.5569     22.5319   1.1037401505e+02   6.7867509326e+01     0.202191    0.1205844 -30.01  0.000567222    1.531    0.347
       329  -9.4786     35.5548     19.5109   1.0862127919e+02   6.8355315214e+01    0.1831566    0.1447572 -28.17  0.001170438    1.022    0.021
       330 -11.6478     74.0377    238.1226   1.3320812014e+02   1.9519841109e+01    0.4784343    0.2438164  48.58  0.003255369    1.434    0.303
       331  -9.4900     45.2821     20.6155   1.0420026592e+02   6.7069057921e+01    0.1729544    0.1139538  10.64 0.0009475239    1.664    0.399
       332 -10.9287     31.3679    237.7951   1.4029480009e+02   2.4116398555e+01    0.2477591    0.1878269 -67.26   0.00173763    1.750    0.429
       333  -9.4408    129.3011     19.3159   7.3377187140e+01   5.0925926799e+01    0.1592108    0.1042647  25.52 0.0002938327    1.616    0.381
       334  -9.4655     50.3800     18.7866   1.0090588204e+02   6.6757759535e+01    0.1704843    0.1045069 -31.65 0.0002003206    1.423    0.297
       335  -9.0395    224.2666     18.7218   5.7896050246e+01   2.6240072382e+01    0.1363089   0.09652341 -55.58 0.0001704294    1.482    0.325
       336 -10.1926     29.0447    233.0055   1.4047491304e+02   2.5069226121e+01    0.2387616    0.1014402  49.87  0.001202726    1.638    0.389
       337 -11.6441     18.8021    238.1628   1.4230350228e+02   2.5229699839e+01    0.4167394    0.1723424  31.64   0.00270752    2.470    0.595
       338 -10.7052     73.9742    233.0046   1.3287498161e+02   2.0293766943e+01    0.2529367    0.1127258  42.21 0.0008911606    1.661    0.398
       339  -9.7423    188.2861     17.0085   6.1730495726e+01   3.5632045195e+01    0.2003877    0.1897157 -18.95 0.0004343598    1.085    0.079
       340  -9.7004    108.4347     17.2995   7.8014468573e+01   5.6212349831e+01    0.1852054     0.133838 -32.18 0.0003962609    1.448    0.309
       341  -9.8212     81.8244     16.3976   8.6351250667e+01   6.1998241727e+01    0.1877517    0.1193145  31.37 0.0002768804    1.545    0.353
       342 -10.0523      9.7978     16.0176   1.2129599010e+02   7.1006370549e+01    0.1870913    0.1434961 -27.95 0.0006479622    1.197    0.164
       343  -9.3408     50.3004    240.3248   1.3732929987e+02   2.1829939495e+01   0.07837249   0.07500265  13.81 0.0003437703    1.634    0.388
       344  -9.7633    164.6681     14.5774   6.4487299941e+01   4.2192115021e+01    0.2068371    0.1421674  79.33  0.000777908    1.618    0.382
       345 -11.3360    177.5753    234.8271   1.1451417335e+02   5.8608191808e+00    0.2692046    0.1787595   3.27  0.001486329    1.922    0.480
       346  -9.9839    195.7454    238.4063   1.1179542287e+02   2.7957513948e+00    0.2129105    0.1051648  31.93  0.001234157    1.518    0.341
       347  -9.7182     50.3291     14.6650   9.8980566908e+01   6.7484586151e+01    0.2170468     0.112318 -43.61  0.001056204    1.856    0.461
       348  -9.0392     51.3044     11.3271   9.6851103620e+01   6.7908994461e+01    0.1363584   0.08756728  -9.12 0.0003719416    1.647    0.393
       349  -9.6108    115.1322     12.7961   7.4172465910e+01   5.5180021298e+01    0.2843272    0.1769381  72.66  0.001220525    2.176    0.540
       350 -10.2417    137.0379    247.6952   1.2308129623e+02   1.0099394297e+01    0.1553229    0.1056341  38.88 0.0004478325    1.070    0.065
       351 -10.4556    159.8978    235.8697   1.1778775724e+02   8.3332331029e+00     0.177046    0.1229993  26.96 0.0006488831    1.260    0.206
       352 -11.6639     34.8894    241.4626   1.3988226881e+02   2.3225063211e+01    0.3690675      0.18977  38.32  0.002716264    1.639    0.390
       353  -9.1362    119.6817     11.7254   7.2538846743e+01   5.4194264881e+01    0.1550231   0.09879052  29.64 0.0002242067    1.569    0.363
       354 -11.2940    156.6376    240.8531   1.1893662816e+02   8.1919271560e+00    0.1921599    0.1275323  38.06  0.001340987    1.096    0.087
       355  -9.1926    107.6745     10.2799   7.5065562705e+01   5.7239990957e+01    0.1340337    0.1147691 -67.13  0.000384093    1.593    0.372
       356 -10.4327    167.0108    233.7974   1.1626817574e+02   7.5440079341e+00    0.1741667    0.1511513  22.11 0.0007642692    1.208    0.172
       357  -9.4951     24.4520    232.4612   1.4119875240e+02   2.5583480988e+01    0.1625379   0.08968807  49.62 0.0008517153    1.304    0.233
       358  -9.8908     79.7332    231.4037   1.3174992600e+02   1.9850352924e+01     0.173311    0.1052923  37.77 0.0006058445    1.410    0.291
       359 -10.9267    238.2295    246.4106   1.0579722978e+02  -3.9220215923e+00    0.1457945   0.07757713  38.78 0.0009433838    1.633    0.388
       360  -9.0692     58.6620    230.2971   1.3536287683e+02   2.2453985530e+01    0.1093738   0.05436146  58.10 0.0007031948    1.656    0.396
       361 -10.8297    153.4133    233.6128   1.1868968751e+02   9.5642217614e+00    0.2006191    0.1550193   6.44 0.0007551929    1.566    0.362
       362 -10.4415    190.4413    226.9289   1.1118558024e+02   4.8576596051e+00    0.2294173      0.13633 -34.36  0.001264888    2.125    0.529
       363  -9.3324    249.3507    227.2586   1.0118999595e+02  -3.7514131338e+00    0.1169318    0.0608054  18.45 0.0003010673    1.605    0.377
       364 -10.2826    129.8108    226.8219   1.2224589305e+02   1.3896746777e+01    0.3211777    0.1237324  50.02  0.001541915    2.524    0.604
       365 -10.2667     88.1279    227.1369   1.2992134040e+02   1.9467702962e+01    0.1555776    0.1292133  39.13 0.0009441699    1.244    0.196
