#   1 NUMBER                 Running object number                                     
#   2 MAG_AUTO               Kron-like elliptical aperture magnitude                    [mag]
#   3 X_IMAGE                Object position along x                                    [pixel]
#   4 Y_IMAGE                Object position along y                                    [pixel]
#   5 X_WORLD                Barycenter position along world x axis                     [deg]
#   6 Y_WORLD                Barycenter position along world y axis                     [deg]
#   7 A_WORLD                Profile RMS along major axis (world units)                 [deg]
#   8 B_WORLD                Profile RMS along minor axis (world units)                 [deg]
#   9 THETA_WORLD            Position angle (CCW/world-x)                               [deg]
#  10 FWHM_WORLD             FWHM assuming a gaussian core                              [deg]
#  11 ELONGATION             A_IMAGE/B_IMAGE                                           
#  12 ELLIPTICITY            1 - B_IMAGE/A_IMAGE                                       
         1 -14.4798    202.7338     40.7334   4.1430265233e+01   2.9835360853e+01     1.693449      1.37714  27.14  0.005871937    1.689    0.408
         2 -14.3599    214.6864     29.4296   3.7431236173e+01   2.8573637724e+01     1.021886      0.89356  22.39  0.003796965    1.607    0.378
         3 -13.3662    240.1716      4.9650   3.0135477255e+01   2.5948263773e+01    0.7733635    0.4976219  87.22  0.005045615    1.392    0.281
         4 -10.9920     56.0550      5.7281   6.0344169388e+01   6.6743245748e+01    0.2769866    0.1942948  58.76  0.001541179    1.853    0.460
         5 -10.0112     89.9664    212.2702   1.0497599935e+02   1.8006590219e+01    0.2420048    0.1843367 -85.73 0.0005643326    1.402    0.287
         6 -10.7290    140.2818    250.0390   9.9027444013e+01   3.1006078377e+00    0.2399361    0.1372609  45.35  0.001284121    1.608    0.378
         7 -13.8498     68.2514    171.4778   1.0471022717e+02   3.0638430913e+01     2.508244     1.190202 -30.86  0.006814132    6.392    0.844
         8 -16.1506     43.0207    193.7327   1.1367997766e+02   2.8440338468e+01     5.543189      2.46218  63.73   0.02302191    2.759    0.638
         9 -10.6299    149.3165    187.5263   8.7224427086e+01   1.3518368631e+01    0.3491342    0.2320341 -82.42  0.001388513    2.819    0.645
        10  -9.6759     79.8510    183.0782   1.0343292844e+02   2.6173334817e+01    0.3515005    0.2086217  85.48  0.001482643    2.333    0.571
        11 -15.6771      5.3397    161.1202   1.1966891284e+02   3.9800575926e+01     6.860192    0.7110658 -72.71   0.01897215    5.861    0.829
        12 -10.0300     99.3360    180.8860   9.8185150524e+01   2.3691176259e+01    0.2543322    0.2102955  27.56 0.0006550425    1.295    0.228
        13 -15.5013      9.4731    207.3797   1.2210948983e+02   2.8785495245e+01     1.182491     1.108746 -34.30  0.008845243    1.527    0.345
        14 -10.5882    188.9188    176.8770   7.6362753835e+01   8.4636013421e+00    0.4272297    0.3340454 -78.29  0.002072939    2.031    0.508
        15  -9.7196    148.1125    175.0394   8.5093520427e+01   1.6417561077e+01    0.2293245    0.1848164  85.40  0.001055999    1.671    0.401
        16  -9.7023    185.4940    169.4840   7.5544992368e+01   1.0538459684e+01    0.2458311    0.1367318 -52.07 0.0007660154    2.080    0.519
        17  -9.3124    194.4753    171.5000   7.4100273938e+01   8.4885603430e+00    0.1456475     0.130705 -10.32 0.0003097768    1.025    0.024
        18  -9.2343    110.8363    167.8162   9.2941131955e+01   2.4866145291e+01    0.2056631    0.1739456  86.47 0.0004498929    1.320    0.242
        19 -11.1753    111.6856    204.4931   9.8894424458e+01   1.6333321336e+01    0.3532998    0.2479456  88.85   0.00089368    1.882    0.469
        20  -8.6592    120.3793    165.7207   9.0080011622e+01   2.3665546329e+01    0.1579309    0.1159006  68.65 0.0007007338    1.713    0.416
        21  -9.5094    121.0357    195.9830   9.5360640084e+01   1.6645318023e+01    0.2165422    0.1670377  76.80 0.0005293497    1.592    0.372
        22  -8.9082    130.4934    159.4681   8.6230723866e+01   2.3252716869e+01    0.1529352    0.1473517  78.73  0.000135181    1.086    0.079
        23 -11.5880     32.9172    156.1241   1.1202124934e+02   3.8652409728e+01     0.347637    0.3129325 -86.63  0.001334309    1.063    0.059
        24 -12.3951     86.9145    153.3013   9.6633244924e+01   3.2412336446e+01    0.6434416    0.4487371 -26.15  0.002902453    1.916    0.478
        25 -11.2987    133.7300    144.7617   8.2189856636e+01   2.6042539766e+01      1.22577    0.3300654 -54.59  0.002856484    5.570    0.820
        26  -9.4029    111.6807    149.9518   8.9156185566e+01   2.9016328284e+01    0.3303896    0.1814844  60.05  0.001173798    2.721    0.632
        27 -12.0004     54.1208    147.0824   1.0483784117e+02   3.8590568552e+01    0.7235318    0.3190041 -58.57  0.003025373    1.978    0.494
        28 -10.6477    174.2906    148.6708   7.3401097277e+01   1.6961660521e+01    0.3571748    0.2787098 -68.65  0.001197021    1.637    0.389
        29  -9.3676     36.0363    144.9788   1.0969553746e+02   4.1135627536e+01    0.2068109    0.1445538 -40.86 0.0004597175    1.583    0.368
        30 -10.7998     29.2062    144.2437   1.1153431483e+02   4.1981261755e+01    0.3683825    0.2626328  20.14  0.002062853    1.703    0.413
        31  -9.1218    200.1806    143.0715   6.6746873944e+01   1.2907403565e+01    0.2358581    0.1604517 -61.35 0.0005954215    1.931    0.482
        32 -11.0571    101.1199    139.2455   8.9777597719e+01   3.3522280991e+01    0.5698078    0.3742899 -19.54  0.002272209    2.328    0.571
        33 -12.4571     88.4205    138.7041   9.3309795421e+01   3.5814751372e+01    0.3000907    0.2699911 -39.38 0.0004397091    1.128    0.114
        34  -9.1661    197.1946    138.2203   6.6221149090e+01   1.4443755592e+01    0.1911377    0.1675744 -63.08  0.000329184    1.289    0.224
        35 -11.0156     25.1103    137.3116   1.1178894999e+02   4.4086112571e+01    0.3720777    0.1770425  38.63  0.001749966    2.267    0.559
        36 -10.6863    105.9596    130.9988   8.6531426255e+01   3.4658993220e+01    0.4212949    0.3083784 -62.04  0.001567255    1.438    0.304
        37 -10.4046    110.6898    129.8672   8.4921203219e+01   3.4047930716e+01    0.3703623    0.2646463  21.26  0.001020976    1.684    0.406
        38 -11.3677    135.3750    127.8418   7.7735067773e+01   2.9598886656e+01     0.555267    0.3009299 -50.54  0.002171674    1.870    0.465
        39 -11.4463     97.8856    125.7772   8.7644409527e+01   3.7385907058e+01    0.3205961    0.2710177  -8.44 0.0006948032    1.373    0.272
        40 -14.1727     19.9888    220.1647   1.2080470687e+02   2.5020179426e+01    0.6893382    0.4609742  68.95  0.002011985    1.230    0.187
        41 -17.5353     17.6662    242.4540   1.2257350846e+02   2.0718810087e+01     7.499358     2.483675  26.85   0.02074913    4.264    0.765
        42 -10.3931    116.9250    124.0614   8.1754960467e+01   3.4218623409e+01    0.2529869    0.1928688 -10.92  0.001121777    1.700    0.412
        43 -10.0756    160.6069    127.8142   7.1537465149e+01   2.4243159138e+01    0.3134653    0.2449242 -76.39  0.001427592    1.670    0.401
        44  -9.2482    163.4257    121.2232   6.9242196821e+01   2.5026759547e+01    0.2206765    0.1438771 -52.86 0.0009292868    1.626    0.385
        45 -11.4364     44.0164    129.4843   1.0491913317e+02   4.4214751386e+01    0.2984016    0.2225449  60.31  0.001592041    1.526    0.345
        46  -9.8620    107.2134    118.8226   8.3203678142e+01   3.7332663357e+01    0.2122332    0.2053779 -69.32 0.0003428863    1.069    0.065
        47  -9.6218     84.4892    118.4985   8.9967524319e+01   4.1447816667e+01    0.2492718    0.1953088  74.27 0.0006023007    1.631    0.387
        48 -10.6042     40.0862    113.6107   1.0328481101e+02   4.8603968554e+01    0.2337233    0.1789676 -74.20 0.0006455667    1.283    0.220
        49 -10.3231    205.3498    110.3758   5.8130973083e+01   1.8055192924e+01    0.3136798    0.2616558  34.19  0.001099319    1.359    0.264
        50 -11.1132     33.1315    108.4705   1.0463329623e+02   5.0553033797e+01     0.314435    0.2572018  73.35  0.001821592    1.433    0.302
        51  -9.7813    115.5012    108.0044   7.7974249549e+01   3.8192454255e+01    0.2314048    0.1315866 -25.60 0.0008106612    2.602    0.616
        52 -12.4857    247.8371    105.3915   5.0470486087e+01   1.0515160709e+01    0.4379952    0.3420428 -42.89  0.002629444    1.072    0.067
        53 -11.2933    204.4277    199.9138   7.7753104025e+01   1.5963825286e+00    0.2831129    0.1678391  17.60  0.001333133    1.960    0.490
        54 -10.6505     41.8687    103.4734   1.0061204654e+02   5.0903327036e+01    0.3159437    0.2145172  51.34  0.001068951    1.831    0.454
        55  -9.8945    120.3085    103.6684   7.5427720847e+01   3.8161834659e+01    0.1572458    0.1257675 -86.08   0.00040782    1.667    0.400
        56 -10.2738    134.7666    106.0123   7.2188667859e+01   3.4560276287e+01    0.3703937    0.1506865 -43.48  0.001264183    2.412    0.585
        57 -10.8503     36.3737    101.2061   1.0205407319e+02   5.2011895647e+01    0.2311132    0.2281364 -79.17 0.0008453682    1.158    0.136
        58 -10.3191    120.8607     98.8289   7.3912048531e+01   3.9091443201e+01    0.2160929    0.1912977 -82.85 0.0008385812    1.329    0.247
        59  -9.4439    137.3192    103.6968   7.0895162625e+01   3.4491839141e+01    0.2585551    0.1481373  54.77 0.0005014843    1.961    0.490
        60 -13.6506     67.4764    155.3479   1.0241007900e+02   3.4769238145e+01    0.6234378    0.4661391 -48.97  0.001596649    1.347    0.257
        61 -10.3893     53.1646     91.2524   9.3686070801e+01   5.2499609398e+01    0.2920532    0.1900209 -63.24  0.000950492    1.620    0.383
        62 -14.7996     68.4637    144.2554   1.0021046888e+02   3.7435431074e+01     4.274502     2.256311  82.23   0.01214039    4.391    0.772
        63  -9.7590    151.1528     83.1287   6.1737642431e+01   3.5411692867e+01    0.2979302    0.2041723 -76.57  0.001011812    2.189    0.543
        64  -9.7494    159.4984     82.9364   5.9854839882e+01   3.3486405609e+01    0.2281091    0.1474283 -38.06 0.0005351017    1.537    0.349
        65  -8.5500     69.5583     81.5630   8.5040592825e+01   5.2372168434e+01    0.1396142    0.1330076 -37.93 0.0001762311    1.118    0.105
        66  -8.6828    109.4756     79.4484   7.1366735783e+01   4.5469469377e+01    0.1466246    0.1457991 -20.23 3.808564e-05    1.078    0.072
        67  -8.8793    184.3647     77.2965   5.3497735653e+01   2.8624670123e+01    0.1475383    0.1138939  22.80  0.000703159    1.718    0.418
        68  -8.7820    102.2997     74.3418   7.1880361458e+01   4.7940691651e+01    0.1536422    0.1142445  -0.80 0.0007036123    1.670    0.401
        69 -10.4274     51.9159     64.4334   8.6310936091e+01   5.8481735898e+01    0.3326294     0.218383  50.27  0.001640518    2.146    0.534
        70 -10.6382     13.5140     59.9626   1.0125490529e+02   6.3262511627e+01    0.2410676    0.1829078 -47.62 0.0004277629    1.102    0.093
        71 -13.4924    193.2834     47.7443   4.4402419347e+01   3.1076819335e+01    0.9166394    0.6556687  47.32   0.00104702    1.580    0.367
        72  -9.2894    169.0659    236.5039   9.1229762128e+01   9.8078527125e-01    0.1807808     0.160753 -18.52 0.0004533245    1.197    0.165
        73 -10.8474    107.5752    203.7116   9.9737845675e+01   1.7163099179e+01    0.2515376    0.2003352 -81.53 0.0006941822    1.395    0.283
        74  -8.6985     61.0417     49.0000   7.7222599115e+01   6.0048272737e+01    0.2125228   0.07299828  37.91 0.0008014048    2.935    0.659
        75 -10.6385    137.9439     43.9976   5.2729942331e+01   4.4891219372e+01    0.3415259    0.2482624 -74.89  0.000529234    1.781    0.439
        76 -10.8848    187.8575     31.1164   4.0854421261e+01   3.4513279220e+01    0.2090065    0.1647782 -71.92 0.0005411477    1.208    0.172
        77 -10.2463    198.0341     23.9123   3.7865241997e+01   3.2992392987e+01    0.2686552    0.1898703 -20.41 0.0009785349    1.774    0.436
        78 -10.1895      2.1163     25.0238   9.5707511317e+01   7.0759390037e+01    0.1879103     0.140349  -8.63 0.0008503397    1.211    0.174
        79  -9.8666     77.9812     57.5628   7.4105918633e+01   5.5703219474e+01    0.3449775    0.1579825  48.34  0.001381036    2.550    0.608
        80  -9.5341    189.6632     15.0151   3.6573476349e+01   3.5911294992e+01    0.1736386    0.1525553 -61.91 0.0006134967    1.126    0.112
        81 -11.9207    193.7254    196.1827   7.9191457080e+01   4.0165946554e+00     1.133989    0.6009701 -62.95  0.003445289    5.707    0.825
