#   1 NUMBER                 Running object number                                     
#   2 MAG_AUTO               Kron-like elliptical aperture magnitude                    [mag]
#   3 X_IMAGE                Object position along x                                    [pixel]
#   4 Y_IMAGE                Object position along y                                    [pixel]
#   5 X_WORLD                Barycenter position along world x axis                     [deg]
#   6 Y_WORLD                Barycenter position along world y axis                     [deg]
#   7 A_WORLD                Profile RMS along major axis (world units)                 [deg]
#   8 B_WORLD                Profile RMS along minor axis (world units)                 [deg]
#   9 THETA_WORLD            Position angle (CCW/world-x)                               [deg]
#  10 FWHM_WORLD             FWHM assuming a gaussian core                              [deg]
#  11 ELONGATION             A_IMAGE/B_IMAGE                                           
#  12 ELLIPTICITY            1 - B_IMAGE/A_IMAGE                                       
         1 -14.8591     68.4308    144.6805   9.0113497987e+01   3.7137062457e+01     5.304686      2.78613  74.44   0.01859947    3.518    0.716
         2 -13.7047    229.2661     29.0657   2.4621521602e+01   2.4468740678e+01    0.8219496    0.7861238 -52.74  0.002671158    1.204    0.169
         3 -14.1609    212.3375     42.7543   2.9744880222e+01   2.6600633715e+01     1.978268     1.485633  26.18  0.006866448    1.865    0.464
         4 -12.2263    249.5809      7.5088   1.8309328903e+01   2.2578453120e+01    0.6659469    0.2404557 -32.65  0.003148137    2.579    0.612
         5  -8.7722    224.0250    206.9631   6.4894578972e+01  -2.3509508139e+00    0.1513779    0.1227603   4.53 0.0003001564    1.009    0.008
         6 -11.0155    139.8661    250.1194   8.8153935060e+01   4.2448907263e+00    0.2226087    0.1780401  46.26  0.001491349    1.154    0.133
         7 -11.6856    119.9075    244.8543   9.1509320912e+01   8.0975868271e+00     0.292852    0.2079291 -59.76  0.001044284    1.738    0.425
         8 -11.9048    116.0067    244.4816   9.2249181943e+01   8.7422040705e+00    0.2624357    0.1841765  40.76  0.001635006    1.145    0.127
         9 -11.7934    101.4432    243.4271   9.5050535501e+01   1.1059960672e+01    0.5552582    0.1792996 -57.52  0.002428188    3.588    0.721
        10 -13.2766     28.3257    196.6996   1.0608704698e+02   2.9687816141e+01    0.4689946     0.367403 -46.39  0.001413763    1.705    0.414
        11 -16.4034     37.7700    188.0664   1.0330386520e+02   3.0590768778e+01     8.911046     3.669833  79.20   0.03439742    3.518    0.716
        12 -14.4910     55.9799    235.0974   1.0330804586e+02   1.8716096787e+01     1.696306    0.7963918  87.91  0.006852896    2.648    0.622
        13 -13.3513     15.9668    248.9814   1.1145280773e+02   2.0643439473e+01    0.2580257    0.1733405  74.79 0.0007675665    1.176    0.150
        14 -16.6837      8.5784    243.8440   1.1249771795e+02   2.2293067565e+01     8.063914      2.64861  24.29   0.02780819    6.755    0.852
        15 -11.4281    192.8765    194.7822   6.8736459465e+01   4.6521623507e+00    0.9404176    0.4949628 -61.98  0.002786088    6.400    0.844
        16  -9.5785    157.9468    192.9303   7.5882310548e+01   1.1187935180e+01    0.2059809    0.1936833  40.98 0.0005247609    1.116    0.104
        17  -9.8121     99.2862    180.9593   8.7725587192e+01   2.3896284624e+01    0.2371079     0.189805  42.89 0.0005799956    1.175    0.149
        18 -12.9009    241.0259    170.3456   5.4786933948e+01   4.5680989060e-01    0.8899533    0.4887909  27.44  0.004373828    1.995    0.499
        19 -10.5994    123.9559    202.2389   8.5097309977e+01   1.5293783758e+01    0.2181846    0.1974064 -64.40 0.0004399162    1.234    0.189
        20 -12.1474     57.7626    171.8593   9.6834411662e+01   3.1979193801e+01    0.4275281    0.2939873 -33.87  0.002190011    2.050    0.512
        21 -12.0763     63.1427    167.1331   9.4867797105e+01   3.2407856768e+01     0.328257    0.2774385 -39.62 0.0006656437    1.417    0.294
        22 -13.6057     60.4247    153.8085   9.3747108427e+01   3.5962995006e+01    0.5494896    0.4538545 -58.49  0.001941258    1.207    0.172
        23 -12.5387     81.2407    152.2459   8.7806992662e+01   3.3446894471e+01    0.7397038    0.5302156 -27.20  0.001334576    1.886    0.470
        24 -12.7155     73.9012    157.8637   9.0710156783e+01   3.3162638568e+01    0.8508208    0.5580015  47.75   0.00149694    1.510    0.338
        25 -11.4639    125.0798    244.4978   9.0431285439e+01   7.3794225251e+00    0.3053677    0.1621624 -56.63  0.001642716    2.345    0.574
        26  -8.5760    119.6563    142.6699   7.5441992915e+01   2.9142960090e+01    0.1592323    0.1219436  -8.95 -0.0001027225    1.751    0.429
        27 -12.5084     84.0533    137.7164   8.4385754251e+01   3.6554967886e+01    0.3295873    0.2715418 -55.83 0.0004058258    1.179    0.152
        28 -10.8828     97.3846    138.5505   8.0730288386e+01   3.4165586215e+01    0.5741778    0.3728516 -18.25  0.002271397    2.567    0.610
        29 -11.9682    230.1595    168.7451   5.6376451823e+01   2.5121268376e+00    0.4564671    0.2349021 -34.93   0.00215968    1.814    0.449
        30 -10.9744    106.9230    130.1847   7.6217609408e+01   3.4470836128e+01    0.4572903    0.3593543   7.41  0.001596526    1.595    0.373
        31  -9.7399    191.9690    167.3841   6.3518104990e+01   9.6576768261e+00    0.2767186    0.2058454 -25.75 0.0009048448    1.357    0.263
        32  -8.8778     96.4214    124.5185   7.7992635207e+01   3.7712101249e+01    0.1495083    0.1443712 -52.80 0.0003004161    1.016    0.016
        33 -12.7872     34.7841    158.5912   1.0114918829e+02   3.7726880192e+01    0.8009527     0.448418  71.78  0.002136561    1.955    0.488
        34  -9.0439    162.4458    119.9428   5.9151658268e+01   2.5186171244e+01    0.2304498     0.152665 -43.04 0.0004530586    1.512    0.339
        35  -9.6965    174.8800    149.1734   6.3270577654e+01   1.6541924647e+01    0.2246034    0.2110955  77.58 0.0006030704    1.250    0.200
        36  -9.9909    105.7623    118.2164   7.3752294092e+01   3.7515126751e+01    0.2111669    0.2037975 -84.35 0.0003715612    1.077    0.072
        37 -10.5706    133.7154    144.9929   7.2247939986e+01   2.5865649290e+01    0.9567668    0.2397001 -54.27  0.002163845    6.251    0.840
        38 -10.7167    231.1879    113.8778   4.4214920930e+01   1.1428146773e+01    0.2883632    0.2620283 -41.52 0.0007892817    1.083    0.076
        39 -15.2354      9.4753    207.3846   1.1063536083e+02   2.9248492822e+01     1.594333    0.9399328 -69.63   0.01022197    1.673    0.402
        40 -10.8253    247.1995    112.3899   4.1441859750e+01   8.5770667916e+00    0.1751305    0.1315368  69.03 0.0009583379    1.735    0.424
        41 -10.0929    205.1993    110.5857   4.7883021715e+01   1.7432477741e+01    0.3294829    0.2514236  32.26  0.001141488    1.451    0.311
        42  -9.3141     71.9818    107.9727   8.1827173441e+01   4.5645467745e+01     0.223379     0.173355  77.38  0.000540735    1.635    0.388
        43 -10.0793     65.2004    102.7025   8.2861195487e+01   4.7875510032e+01    0.2936666    0.2151075 -83.37 0.0006865942    1.709    0.415
        44 -11.4987    241.4672    102.1833   3.9988575628e+01   1.1302863173e+01    0.2428143     0.198269  53.66  0.001412171    1.385    0.278
        45 -10.8652    242.6051     92.1909   3.7566756821e+01   1.2656915670e+01    0.1965246    0.1196809 -26.35 0.0009056237    1.695    0.410
        46 -10.3742     45.6058     91.1910   8.7068987468e+01   5.3031469345e+01     0.252104    0.2049245  65.63  0.001382504    1.516    0.341
        47 -10.7085     53.0505     90.7367   8.4266529194e+01   5.2285799638e+01    0.2839906    0.1845249 -48.86 0.0008750121    1.368    0.269
        48  -9.2356     74.2331     88.9847   7.6277825320e+01   4.9770053006e+01    0.2286611    0.1696842 -88.12  0.001053955    2.005    0.501
        49  -9.8392    234.2210     86.4173   3.7397858551e+01   1.5273648667e+01    0.1746243    0.1326783  78.94 0.0003616218    1.566    0.361
        50  -9.3312    162.0411     84.7682   4.9754426358e+01   3.2212505474e+01    0.2080912    0.1285199  53.27 0.0005268138    1.618    0.382
        51 -10.1057     58.0246     77.4711   7.8950766584e+01   5.4697447519e+01    0.2144603    0.1752574 -44.08  0.000390888    1.114    0.102
        52  -8.7563    184.3701     77.2786   4.3122707019e+01   2.8112417023e+01    0.1544802    0.1149942  25.67 0.0007010255    1.689    0.408
        53  -9.5394     50.6074     71.6182   8.0145857859e+01   5.6932160360e+01     0.249185    0.1871435  66.73 0.0008824904    2.000    0.500
        54  -8.8939     43.9365     67.9823   8.1772416458e+01   5.8502317382e+01    0.1569996    0.1387625 -23.86 0.0004200806    1.058    0.054
        55  -8.9414     39.6923     65.2960   8.2745372310e+01   5.9542709141e+01    0.1204468     0.103677  74.95 0.0004275258    1.589    0.371
        56 -11.7194     12.6485     60.1039   9.2912388331e+01   6.2878052315e+01    0.3498362    0.2818764  18.85 0.0008948048    1.463    0.317
        57 -12.5000    221.6424     35.6681   2.6944732439e+01   2.5367534483e+01    0.4871621    0.3850144  45.08  0.001110875    1.534    0.348
        58  -9.8024     87.0425    205.2823   9.3901589323e+01   2.0490611670e+01    0.2775649    0.1825038 -70.49 0.0009216234    1.633    0.388
        59 -12.9760    203.5705     49.1005   3.2495325585e+01   2.7814578471e+01     1.041862    0.5463639  43.71  0.001479838    2.364    0.577
        60 -10.2436     72.6814    204.9216   9.7084165729e+01   2.2601684496e+01    0.2902698     0.198316 -80.48  0.001044792    1.510    0.338
        61 -10.0811     31.8665     54.1855   8.2811104989e+01   6.2675825500e+01     0.202474    0.1745733 -33.48 0.0003850014    1.062    0.059
        62 -11.2722     13.2183     53.0671   9.0917584552e+01   6.4359852426e+01    0.4004195    0.1933746  35.59  0.002031137    2.620    0.618
        63 -10.4709      1.7078     49.4256   9.5298958486e+01   6.5732675692e+01    0.3116336    0.1028702 -71.00  0.001233117    3.453    0.710
        64  -8.7626    234.3018     45.3057   2.7838624151e+01   2.1276577289e+01    0.1203102     0.102047  24.73 0.0002862478    1.596    0.373
        65  -9.7065    187.5344     31.4796   3.0003184311e+01   3.4064455511e+01    0.1377604    0.1266436  86.01 7.810005e-05    1.027    0.027
        66 -10.1390    197.9986     23.8229   2.6651610387e+01   3.2405096463e+01    0.2606715    0.2045008 -12.77  0.001088259    1.602    0.376
        67  -9.3430    189.5195     15.0555   2.5330582508e+01   3.5456100381e+01    0.1863789    0.1304481 -31.17  0.000587263    1.542    0.352
