#   1 NUMBER                 Running object number                                     
#   2 MAG_AUTO               Kron-like elliptical aperture magnitude                    [mag]
#   3 X_IMAGE                Object position along x                                    [pixel]
#   4 Y_IMAGE                Object position along y                                    [pixel]
#   5 X_WORLD                Barycenter position along world x axis                     [deg]
#   6 Y_WORLD                Barycenter position along world y axis                     [deg]
#   7 A_WORLD                Profile RMS along major axis (world units)                 [deg]
#   8 B_WORLD                Profile RMS along minor axis (world units)                 [deg]
#   9 THETA_WORLD            Position angle (CCW/world-x)                               [deg]
#  10 FWHM_WORLD             FWHM assuming a gaussian core                              [deg]
#  11 ELONGATION             A_IMAGE/B_IMAGE                                           
#  12 ELLIPTICITY            1 - B_IMAGE/A_IMAGE                                       
         1 -12.6851    156.9418     51.4136   3.7986905662e+00   3.9159993336e+01     1.106755    0.8856073 -35.23  0.004101819    1.303    0.233
         2 -12.7378    168.9167     21.0548   3.5375078007e+02   4.0343811809e+01    0.8891571    0.6992922 -61.68  0.004318498    1.073    0.068
         3 -11.3237    165.0719    187.8894   3.3721535595e+01   1.2501413574e+01      0.36928    0.2581901   1.06 0.0004660732    1.578    0.366
         4 -11.3643    247.4369    248.4270   2.8846548039e+01  -5.0366156714e+00    0.5391958    0.2986088   4.62  0.004019003    1.540    0.351
         5 -13.2211    185.9458    246.6273   3.8552810934e+01   7.7702129701e-01    0.7820818    0.5054481  17.01  0.005412804    1.285    0.222
         6 -11.1713    155.3904    248.8531   4.4570486875e+01   3.6887933961e+00    0.3486847    0.2172277  12.10  0.001596727    1.408    0.290
         7 -10.1059    149.8419    247.8949   4.5545694513e+01   4.4391336150e+00    0.3245263    0.2187433 -25.19  0.002115228    1.535    0.348
         8 -10.2217    151.2939    241.6318   4.4477729882e+01   5.2274450829e+00    0.3322188    0.2212013 -56.07  0.002049146    2.053    0.513
         9 -15.6693     61.3948    141.5062   5.2976778721e+01   3.8952760692e+01     7.115399     5.260944   2.02   0.03319718    1.711    0.416
        10  -9.6906    133.8911    199.6933   4.2369913866e+01   1.4677271541e+01    0.3397209    0.2657916   1.87  0.001967628    1.298    0.230
        11  -9.6337     62.0224    169.7529   5.6897328686e+01   3.1507094615e+01    0.3506851    0.2170432  21.35   0.00131866    1.710    0.415
        12  -9.3149     56.4382    168.6910   5.8438245287e+01   3.2486684805e+01    0.3786038    0.1761643  37.56 0.0005768795    1.928    0.481
        13 -10.3275     55.9984    164.4934   5.8046016100e+01   3.3620036238e+01    0.5023425    0.2467482  39.39  0.001332603    1.859    0.462
        14 -14.6141     53.1187    246.3432   6.6310304811e+01   1.5497235913e+01     0.537768    0.4246153  30.74  0.001990522    1.093    0.085
        15  -9.9567    122.0369    166.4870   3.9702120525e+01   2.3342147878e+01    0.5057803     0.246372  51.10 0.0009238374    2.660    0.624
        16  -9.7684    192.0052    165.4443   2.4537055492e+01   1.2585503713e+01    0.3078637    0.1965342 -50.84  0.001663709    1.744    0.427
        17  -9.0962    141.9949    165.8062   3.4773848974e+01   2.0254751600e+01    0.2397534    0.1936029 -46.13 0.0005694918    1.240    0.194
        18 -19.1367     78.1943    225.2471   5.8764348861e+01   1.6831831166e+01     5.261334     3.432817  23.21   0.01579082    1.395    0.283
        19  -9.7973    122.3528    158.3274   3.8110648702e+01   2.5102345945e+01    0.4117123    0.2620764 -56.08  0.001373801    1.648    0.393
        20 -14.6545     95.6559    208.8548   5.2722825829e+01   1.8017942535e+01    0.4637096    0.4264722  59.74  0.001333463    1.170    0.145
        21 -10.8237    189.3773    155.9764   2.3204699819e+01   1.4609407382e+01    0.4392459    0.3679105  -2.35  0.001679631    1.206    0.171
        22  -9.6939     32.8947    203.1373   6.8343522044e+01   2.6673809389e+01    0.2835765    0.1825268 -46.50 0.0005791104    1.930    0.482
        23 -10.7248    134.0312    146.9202   3.2942486673e+01   2.5607359107e+01     0.796141    0.2902561 -54.95  0.002626617    3.244    0.692
        24  -9.6282    132.4122    139.6653   3.1808844145e+01   2.7482638483e+01    0.3649568    0.1905682 -50.75  0.001513603    1.902    0.474
        25 -10.2041     14.3572    198.5209   7.2969535329e+01   2.9479796940e+01    0.2576587    0.1874546 -60.42  0.001030768    1.565    0.361
        26 -11.2934    144.3079    177.5766   3.6383108842e+01   1.7505069324e+01    0.5770183    0.5199764  79.00  0.003413379    1.430    0.301
        27 -12.1046     28.8434    145.6709   6.4633126508e+01   4.1692899582e+01    0.7004201    0.3519466 -46.23  0.002869122    2.274    0.560
        28  -9.1243    136.5299    180.5923   3.8682762638e+01   1.8082202163e+01    0.2490608     0.199452  16.99 0.0007106119    1.231    0.188
        29  -9.3705    143.8644    146.7808   3.0592323313e+01   2.3901354029e+01    0.2739873    0.1907304 -73.91  0.001232077    2.113    0.527
        30 -11.9167    188.8698    177.5579   2.7314517301e+01   1.0974580018e+01    0.5451234    0.3733249 -46.23  0.002230672    1.519    0.341
        31 -11.0944    119.2590    134.6169   3.4067008657e+01   3.1037554896e+01    0.4599388    0.3530293 -54.77  0.002268476    1.304    0.233
        32  -9.5951     14.9208    220.9096   7.3856452836e+01   2.4372276756e+01     0.332501     0.151089 -79.51  0.001654498    2.305    0.566
        33 -10.4971    135.7582    128.6602   2.8554895594e+01   2.9254729356e+01    0.3430746    0.2278589 -55.47  0.001394942    1.556    0.357
        34 -10.1401    185.4426    169.7363   2.6524128736e+01   1.2797890774e+01    0.3458274    0.2391423 -51.30  0.001364672    1.626    0.385
        35  -9.1362    160.8264    128.9422   2.3044873925e+01   2.4462824760e+01    0.2759078    0.1967743 -62.13  0.001361804    1.637    0.389
        36 -11.1131    122.0764    126.8835   3.1582718454e+01   3.2271402787e+01    0.3319907    0.3046156 -10.64 0.0008590236    1.195    0.163
        37 -10.2279    135.4487    121.8791   2.7052205084e+01   3.0776203328e+01    0.4074034    0.1417019 -47.25  0.001365984    2.775    0.640
        38  -9.2811    140.1696    121.0920   2.5749429960e+01   3.0015494686e+01    0.2559697    0.2133735  69.24 0.0007308875    1.373    0.272
        39 -10.8138    149.9690    195.5708   3.8164437122e+01   1.3216282399e+01    0.4000809     0.250394 -61.32  0.001990838    2.199    0.545
        40  -8.9532     25.3028    202.9578   7.0329108288e+01   2.7453055973e+01    0.2668155    0.1143533 -59.47  0.001178878    2.556    0.609
        41 -10.6311     36.5006    117.2491   5.8007798235e+01   4.8712443558e+01    0.2718308    0.2114166  22.50  0.000692171    1.363    0.266
        42 -10.2703    152.1498    191.8473   3.7089066914e+01   1.3601583303e+01    0.2046596    0.1779724  -6.18  0.000370018    1.052    0.049
        43 -10.3876    127.2807    173.4789   3.9648242409e+01   2.0990400124e+01    0.5795217    0.3513229  39.07  0.001806064    1.618    0.382
        44 -10.0820    194.8808    173.1122   2.5436836096e+01   1.0887420330e+01     0.291273    0.2279403 -48.81  0.001782672    1.449    0.310
        45 -10.0641    137.4361    170.8633   3.6761232461e+01   1.9939106481e+01    0.4641731    0.3836254 -49.93   0.00241936    1.255    0.203
        46  -9.0005    207.5688    172.0384   2.3078065561e+01   9.3426077397e+00    0.2565286    0.1524821 -51.71  0.001049255    2.080    0.519
        47  -9.7573    134.5619    106.7979   2.3550653492e+01   3.4160463434e+01    0.3707739    0.1404757 -47.33   0.00128437    2.561    0.609
        48  -9.7769     47.9681    107.0095   5.1518788900e+01   5.0094077455e+01    0.2219411    0.2160483 -63.39 -0.002661949    1.037    0.036
        49  -9.8248    156.5956    190.7969   3.5969346125e+01   1.3167660395e+01    0.2339381    0.1309791 -51.69 0.0006681103    1.988    0.497
        50 -10.4226    154.3575    186.8645   3.5783605349e+01   1.4216780475e+01    0.2568341    0.2417094  86.81 0.0007950787    1.401    0.286
        51  -8.5085    101.6056    100.7243   3.0797741619e+01   4.2350846804e+01    0.1570793    0.1243114   3.08 0.0006991915    1.741    0.426
        52 -10.6666    115.2380     93.3995   2.4856027039e+01   4.1113629311e+01    0.4068241    0.2722036  28.82  0.001736763    1.964    0.491
        53 -10.2430    150.8328    183.0925   3.5899154512e+01   1.5446469348e+01    0.2632108    0.2340201  73.80 0.0005473939    1.513    0.339
        54 -12.0419    147.2252     65.3303   9.4367007116e+00   3.9223643648e+01    0.6738371     0.541679 -69.09  0.001973088    1.221    0.181
        55  -9.4773      9.7950    210.9745   7.4702977663e+01   2.7000918346e+01     0.228153     0.150952 -83.84 0.0005081687    1.541    0.351
        56 -10.9262    249.0633     58.9843   3.5578181212e+02   1.9907134456e+01    0.3264998    0.2228049 -20.15  0.002101186    1.838    0.456
        57 -11.5004     11.6804    206.4902   7.4038284711e+01   2.7858067228e+01    0.5055685    0.2995199  16.31  0.002553701    1.812    0.448
        58 -11.3912    161.7320     41.8144   3.8501707780e-01   3.9414057818e+01    0.4266369    0.3606287 -63.43 0.0007494395    1.034    0.033
        59  -9.5064     26.7140     59.2916   4.9560768000e+01   6.5025044919e+01     0.400271    0.2129129   7.05  0.001625479    2.523    0.604
        60  -9.8561    250.2788     51.8914   3.5429661912e+02   2.0601125931e+01    0.1629708    0.1192429 -14.11  0.001073884    1.927    0.481
        61  -8.2640     80.2739     33.3127   1.4116845983e+01   6.0326868641e+01    0.1378824    0.1076117  22.63 0.0001825779    1.557    0.358
