#   1 NUMBER                 Running object number                                     
#   2 MAG_AUTO               Kron-like elliptical aperture magnitude                    [mag]
#   3 X_IMAGE                Object position along x                                    [pixel]
#   4 Y_IMAGE                Object position along y                                    [pixel]
#   5 X_WORLD                Barycenter position along world x axis                     [deg]
#   6 Y_WORLD                Barycenter position along world y axis                     [deg]
#   7 A_WORLD                Profile RMS along major axis (world units)                 [deg]
#   8 B_WORLD                Profile RMS along minor axis (world units)                 [deg]
#   9 THETA_WORLD            Position angle (CCW/world-x)                               [deg]
#  10 FWHM_WORLD             FWHM assuming a gaussian core                              [deg]
#  11 ELONGATION             A_IMAGE/B_IMAGE                                           
#  12 ELLIPTICITY            1 - B_IMAGE/A_IMAGE                                       
         1 -11.5641    231.6252     60.2801   8.3521878589e+00   2.0276863834e+01    0.3212365    0.2282451 -71.47  0.001174403    1.486    0.327
         2 -10.2914     45.5761     12.2113   3.3052187949e+01   6.9848587055e+01    0.2543746    0.1784772  35.76 0.0006914621    1.270    0.212
         3 -11.6989     49.8682     14.4329   3.2175155725e+01   6.8766440582e+01    0.5188164    0.3204535  44.37  0.001702004    1.514    0.340
         4 -11.5384     56.1502     19.9832   3.2198696115e+01   6.6823165715e+01    0.4686691    0.2918069  53.17  0.001442643    1.765    0.433
         5 -12.4957      4.0350     19.8073   6.3991949444e+01   7.3854893170e+01    0.5263243    0.3987089 -37.75  0.002317847    1.120    0.107
         6 -10.8764    109.1593     17.9688   1.4225773392e+01   5.4932104986e+01    0.3568985    0.3051255  21.99  0.002049515    1.279    0.218
         7 -10.9978     15.1895     17.2299   5.4588271023e+01   7.3415310003e+01    0.4201233    0.2167181   7.27   0.00198697    2.204    0.546
         8 -11.1121     17.1175     12.5445   5.0726262777e+01   7.4024260816e+01    0.3789291    0.1886495 -35.48   0.00146812    1.871    0.466
         9 -10.2808    126.9099     14.8569   9.5708959800e+00   5.0710780594e+01    0.4562106    0.1676431  50.11  0.001745298    2.535    0.605
        10 -10.6697    148.6566     14.3146   6.0563792219e+00   4.5162219705e+01    0.2447272    0.1883486 -76.58 0.0008162524    1.277    0.217
        11 -11.1555    163.5249     12.0884   3.5437297742e+00   4.1610413012e+01    0.3113627    0.2107646  74.52  0.001197978    1.317    0.240
        12  -9.5697     79.1347     11.8670   1.9451168924e+01   6.2877985399e+01    0.1973924    0.1745652  75.49 0.0006657834    1.275    0.216
        13 -11.0299    241.6802     10.2063   3.5684255924e+02   2.4201020443e+01    0.2552746     0.129629 -27.98  0.001427646    2.040    0.510
        14 -11.9804    182.2421     10.1290   1.0950840385e+00   3.7201921718e+01    0.3269197    0.2476724 -84.75  0.001962892    1.164    0.141
        15 -11.0455    183.7135      3.5765   3.5924995220e+02   3.7473823422e+01    0.3207324    0.2008087 -15.25  0.001720006    2.061    0.515
        16  -9.7252     27.6888     11.0984   4.2659036265e+01   7.2909729352e+01    0.1769509     0.143387 -10.14  0.000912192    1.097    0.088
        17 -10.1224     69.4144      9.7113   2.1590265772e+01   6.5307227435e+01    0.3079537    0.1785585 -23.52  0.001108566    1.894    0.472
        18 -10.1145     69.1828      5.6050   1.9554446368e+01   6.5772829283e+01     0.209788    0.1913377 -86.06 0.0009371798    1.377    0.274
        19  -9.3661    115.1525      8.8416   9.4570696227e+00   5.4302360712e+01    0.1930979    0.1368037  50.90 0.0005799584    1.288    0.224
        20  -9.8524     74.5838      7.6605   1.8828750250e+01   6.4350991169e+01    0.3031507    0.1667812  -9.59  0.001416357    2.264    0.558
        21 -10.7829     78.7238      5.3874   1.6446212951e+01   6.3607378313e+01    0.3547772    0.2309791  27.03  0.001133114    1.615    0.381
        22 -10.6842    236.8935      7.7109   3.5659878322e+02   2.5397643017e+01    0.2692067    0.1535623 -72.50  0.001624038    1.584    0.369
        23 -10.4320    124.3386      6.9733   7.1718370559e+00   5.2109776075e+01    0.3857552    0.2239632 -81.67  0.001758243    2.070    0.517
        24  -9.9978     97.5094      6.5892   1.2160569782e+01   5.8957550261e+01    0.4649522    0.1982487 -51.65  0.001678874    3.755    0.734
        25 -11.4859     86.6335      6.7552   1.4897297648e+01   6.1604262896e+01    0.4697141    0.2372735  53.02  0.001816547    1.636    0.389
        26  -9.6998      3.4077      8.2969   5.9102260008e+01   7.6052618850e+01    0.2108921    0.1244351  -0.84 0.0009811396    1.630    0.387
        27 -11.0378    160.0926      5.0073   1.8482229025e+00   4.3136041891e+01    0.2949845    0.1412617 -44.68  0.001382803    2.057    0.514
        28 -10.1503      4.3182      3.9588   5.5925691856e+01   7.6732957313e+01    0.4318172    0.1713245  33.67   0.00207164    2.848    0.649
        29 -10.9304     15.7168      4.6359   4.7098553020e+01   7.5456240779e+01    0.2233612    0.1685489 -20.75 0.0005653239    1.174    0.148
        30 -11.4745     11.4054      3.3108   4.9630909503e+01   7.6152106543e+01    0.3668671    0.3034502  36.35  0.001726822    1.607    0.378
        31 -12.0961    174.4127      3.9644   1.5425369704e-01   3.9682504854e+01    0.4141974    0.2929911 -80.48   0.00116197    1.267    0.211
        32 -10.3739    178.9608      1.4488   3.5908434671e+02   3.8806386532e+01    0.1903813    0.1650133  59.11  0.000336732    1.297    0.229
        33 -10.1039     63.2901      4.9597   2.1291140721e+01   6.7133753348e+01     0.230739    0.1851121  27.63 0.0008352613    1.120    0.107
        34 -11.3363    114.8740      1.9282   6.8608290502e+00   5.4959728918e+01    0.4260033    0.1996593  72.46  0.001369621    1.915    0.478
        35 -10.3636    153.3337      1.7308   1.5915149996e+00   4.5125226842e+01    0.2333922    0.1694718  75.80  0.001173845    1.191    0.160
        36  -9.6151    220.0340      1.3496   3.5620606177e+02   2.9487900094e+01    0.1614291   0.09748252  85.56 0.0003354752    1.528    0.346
        37  -9.5487     89.1414      1.3400   1.1784226548e+01   6.1459651090e+01    0.1839874    0.1142709  74.39 0.0003862568    1.626    0.385
        38  -9.5267     89.9525     94.2919   4.7113953636e+01   4.6147543082e+01    0.2236868     0.193812  33.42 0.0007753287    1.137    0.121
        39 -10.0363    132.9753     92.2562   3.3620637866e+01   3.7299996764e+01    0.2748435    0.2249138 -44.00 0.0006621511    1.250    0.200
        40 -10.0399     37.0353     89.9743   6.6486828508e+01   5.5267764226e+01    0.1683646    0.1562777 -48.79  0.000329534    1.008    0.008
        41 -11.2119    248.6899     88.8178   1.2642648846e+01   1.3209588610e+01    0.2528556     0.101157 -28.44  0.001083672    2.609    0.617
        42  -8.8780      2.2646     88.3584   8.1021332584e+01   5.8272316884e+01     0.140056   0.07706595 -48.54 0.0004433503    1.633    0.388
        43 -11.2532     12.5546     84.0939   7.5961318629e+01   5.8790465100e+01    0.4346655      0.28162 -14.97  0.001912609    1.745    0.427
        44 -10.1099    232.5063     84.4954   1.3601116918e+01   1.6748869717e+01    0.1274779    0.1102981 -41.12 0.0008105993    1.015    0.015
        45 -11.6178     98.8099     81.1519   4.0221987316e+01   4.7227990304e+01    0.6145136    0.4865677 -51.19  0.002993802    1.341    0.254
        46 -11.4752     99.8535     73.0465   3.7277295540e+01   4.8659930835e+01     0.464325    0.3763837  64.77   0.00129649    1.400    0.285
        47 -10.8230    238.1277     81.4620   1.2278075653e+01   1.6128789871e+01    0.2806315    0.1313541 -48.10  0.001340143    2.011    0.503
        48 -11.9362    118.7422     76.0850   3.2587596772e+01   4.3774994664e+01    0.5688197    0.5348477  77.94   0.00302327    1.123    0.109
        49 -11.0933     54.4677     78.4971   5.6140204599e+01   5.5871233086e+01    0.3293385    0.2837508  81.33  0.001759626    1.435    0.303
        50 -10.1946    116.2915     81.3416   3.4922397982e+01   4.3316622146e+01    0.2675401    0.2209313 -20.65  0.000638009    1.357    0.263
        51  -9.4147    144.0298     77.2712   2.6558975244e+01   3.7515408974e+01    0.1991543    0.1306067  52.80 0.0006945772    1.486    0.327
        52 -10.2059    154.2792     75.9025   2.3921082919e+01   3.5277398198e+01    0.3514283    0.1875638  39.03  0.001347223    2.253    0.556
        53 -12.1133     36.1493     73.5670   6.2928198090e+01   5.9366232904e+01    0.5506271    0.4526694  -2.68  0.001968627    1.258    0.205
        54 -10.3135      3.9025     75.2253   7.8436157007e+01   6.1442883942e+01    0.2567712    0.1635987  32.16  0.001307414    1.770    0.435
        55  -9.6336     76.6111     72.2682   4.5208928229e+01   5.3576621978e+01    0.2914745     0.144947 -50.95  0.001140005    2.154    0.536
        56  -9.3006     89.9816     72.2315   4.0314373461e+01   5.0934191137e+01    0.1992143    0.1234776  42.94 0.0002684088    1.565    0.361
        57 -11.3625     63.8330     69.5455   4.9420582886e+01   5.6438137989e+01    0.2688448    0.2433929  17.48 0.0002246817    1.076    0.071
        58 -10.4791      7.6232     68.7523   7.5541202292e+01   6.2832580758e+01    0.2407412      0.20082  52.49 0.0005481499    1.409    0.290
        59 -10.8770      4.4584     63.8278   7.6190051227e+01   6.4169577414e+01    0.2748915    0.1901554 -61.14  0.001006599    1.242    0.195
        60 -11.2868      3.5549     58.7929   7.5672768701e+01   6.5402299431e+01    0.3430219     0.274901 -35.94  0.001511776    1.127    0.113
        61  -9.5933     83.0743     68.2396   4.1430759539e+01   5.3160117241e+01    0.2078332    0.1861825  37.54 0.0003281943    1.091    0.083
        62  -9.6533    135.3297     75.3324   2.8027406992e+01   3.9965572185e+01    0.1591222     0.120398  16.77 0.0004417259    1.720    0.419
        63  -9.7669    204.7787     65.9744   1.2817101813e+01   2.5078842266e+01     0.217307    0.1597459 -58.22 0.0009102037    1.334    0.250
        64 -11.8091    249.3484     58.1632   6.1929544500e+00   1.7184972679e+01    0.7180324    0.1725166 -39.16  0.002896701    2.957    0.662
        65  -9.1326    192.2786     65.7305   1.4485393186e+01   2.7906078054e+01    0.1365836   0.09905334 -66.76 0.0002402377    1.488    0.328
        66 -10.6718    164.6361     62.0241   1.7928832214e+01   3.5016720126e+01    0.4919806     0.224862 -27.61  0.001854819    2.600    0.615
        67  -9.1253     75.3215     64.6826   4.3123773938e+01   5.5404058734e+01     0.145906    0.1202289  80.45 0.0007042555    1.664    0.399
        68 -10.5042     44.9161     63.2639   5.5785724095e+01   6.0677857299e+01    0.2463799    0.2042375 -86.25  0.001096919    1.600    0.375
        69 -10.3705     99.0439     61.5339   3.3607313281e+01   5.1044853281e+01    0.4001006    0.2913997 -77.63  0.001742246    2.107    0.525
        70  -9.2560      1.3333    181.1612   8.8465617456e+01   3.5542427129e+01    0.1640986    0.0939551  81.33 0.0002471484    1.558    0.358
        71 -11.7071     66.7568     59.9108   4.4870472372e+01   5.7962263269e+01    0.4402162    0.3752276  49.76  0.001404529    1.295    0.228
        72 -10.5947     70.0698     55.2282   4.1768890163e+01   5.8280113856e+01    0.3214272    0.2302127 -14.62  0.001031143    1.672    0.402
        73 -11.0093     22.1628     61.6164   6.6588577271e+01   6.3537059604e+01    0.3216355    0.2086411 -11.30   0.00164025    1.693    0.410
        74 -11.2313     22.2072     58.1833   6.5630204800e+01   6.4325701097e+01    0.3295756    0.2090431 -65.56 0.0007554854    1.618    0.382
        75 -10.7693     15.0678     60.8205   7.0066212940e+01   6.4268013890e+01    0.4170642    0.1840792   7.17  0.001793594    2.660    0.624
        76 -10.2839     17.0131     57.4857   6.8196961465e+01   6.4903147660e+01    0.2701528    0.1255361 -35.29 0.0009485978    2.159    0.537
        77  -9.3962     35.1743     60.6545   5.9697308220e+01   6.2467665524e+01    0.1851949    0.1236155   7.49 0.0003837699    1.637    0.389
        78 -11.3704    117.2774     52.9975   2.5306740816e+01   4.8204691155e+01     0.766041    0.5042149 -69.87  0.003182204    2.288    0.563
        79 -11.2946    119.5507     44.0348   2.1574528368e+01   4.9017111723e+01    0.6645584    0.3386689 -41.21  0.002764201    2.091    0.522
        80 -10.5049     45.8837     56.9075   5.3188561101e+01   6.1932679832e+01     0.270313    0.2022938  68.50  0.001321227    2.061    0.515
        81 -10.1364     29.0208     56.5091   6.1558103750e+01   6.4063923062e+01    0.2256117    0.1651946 -50.30  0.001246873    1.269    0.212
        82 -11.0354    149.2759     54.3299   1.8509291363e+01   3.9999844592e+01    0.3617206    0.2555299  10.57  0.001078477    2.116    0.527
        83 -10.5140    136.3475     55.9774   2.1714172296e+01   4.2992811826e+01    0.2098453    0.1990347 -42.39  0.001095485    1.107    0.097
        84  -9.7990     78.2495     55.6483   3.8706187039e+01   5.6600394025e+01     0.263091    0.1809486  32.65 0.0008037493    1.444    0.308
        85  -9.5718     99.3973     55.2936   3.1255520052e+01   5.2079294813e+01     0.191766    0.1430699 -46.72 0.0005789913    1.466    0.318
        86 -10.6612     63.2122     53.7621   4.4088180524e+01   5.9822083185e+01     0.305415    0.1941864 -33.05  0.001435064    1.647    0.393
        87 -10.8495    170.0390     49.7661   1.3534062900e+01   3.5490570327e+01    0.4269345    0.3480999 -28.82  0.002336223    1.324    0.245
        88 -11.1524     85.6570     50.7579   3.4121434812e+01   5.5937625042e+01    0.5725408    0.3659948  62.40  0.002501539    1.982    0.495
        89 -10.7440    128.0546     50.4973   2.1789122811e+01   4.5920975176e+01    0.5184327    0.2134418  51.18  0.001928744    2.235    0.553
        90 -11.1094     94.1021     48.1006   3.0246494809e+01   5.4510718409e+01    0.3967123    0.2150369 -33.14  0.001681258    1.996    0.499
        91  -9.2535     91.5220     43.5254   2.9298315461e+01   5.5839817593e+01    0.1466402    0.1356179  36.54 9.423083e-05    1.012    0.012
        92 -11.6777     50.2399     46.9823   4.7369243859e+01   6.3320308252e+01    0.6415744    0.3422769  19.95   0.00269702    2.322    0.569
        93 -10.9614     38.8595     48.6456   5.3729106937e+01   6.4620121429e+01    0.3945449    0.2644936 -32.84  0.001250626    1.446    0.308
        94 -11.0979     39.4693     44.4940   5.1821918054e+01   6.5385780858e+01     0.369295    0.3377893  49.81  0.001925914    1.363    0.266
        95  -9.6955    114.3288     60.9724   2.8855556971e+01   4.7584261253e+01    0.2045348    0.1949781 -20.70 0.0003409914    1.104    0.094
        96 -11.2433    249.0616     44.5793   3.4050527954e+00   1.8927983651e+01    0.3598723    0.2144052 -42.67   0.00200661    1.349    0.259
        97  -9.7870    105.7855     43.3703   2.4927619291e+01   5.2506228953e+01    0.2899199    0.1358602  57.55  0.001127304    2.083    0.520
        98  -9.1260    185.7112     41.6430   9.0902172882e+00   3.2784459663e+01    0.1323905     0.104746  26.51 0.0003301182    1.681    0.405
        99 -10.8240     73.6833     50.6903   3.8568201258e+01   5.8434811294e+01     0.326271    0.2470517  -4.57 0.0006797322    1.549    0.354
       100 -10.8110    158.9166     39.3933   1.2264054210e+01   3.9663015409e+01    0.2461968     0.219007 -49.70 0.0002987141    1.144    0.126
       101  -9.4743     89.8983     39.1930   2.8087746333e+01   5.6883128318e+01    0.1980519    0.1571332  24.85  0.001025556    1.303    0.232
       102  -9.7499     96.0225     38.0310   2.5697003162e+01   5.5632905549e+01    0.2129115    0.1956443  47.82  0.000330495    1.040    0.038
       103 -10.5057    119.1386     35.1700   1.8483542802e+01   5.0354898068e+01    0.2322005    0.2142724  46.47 0.0003380446    1.064    0.060
       104  -9.9844     46.9167     35.7159   4.4262416745e+01   6.5956078717e+01    0.2454518    0.1879033 -24.98 0.0004550987    1.270    0.213
       105 -10.3791     50.0909     32.5309   4.1222327841e+01   6.5988935101e+01     0.419228    0.2095183  47.98  0.001570868    2.351    0.575
       106 -10.9929     39.4981     35.6986   4.8149406021e+01   6.7082117356e+01    0.4711283    0.2214946  39.28  0.002101189    2.220    0.550
       107 -10.8931     26.8270     34.7449   5.4971647258e+01   6.8888055259e+01    0.3200932     0.276727   2.76  0.001410815    1.100    0.091
       108 -10.3172     76.4077     34.9010   3.0971982463e+01   6.0526345139e+01    0.3201752    0.2254077  44.87   0.00145171    1.312    0.238
       109 -10.2607     13.0333     34.9520   6.3611106183e+01   7.0158707925e+01    0.2122613    0.1238337 -27.64 0.0005298326    1.627    0.385
       110  -9.6523    130.7796     34.4145   1.5704867700e+01   4.7488335212e+01    0.2064585    0.1209746  52.41 0.0005381776    1.577    0.366
       111  -9.8530    139.3369     32.9771   1.3577054480e+01   4.5474252026e+01    0.1922669    0.1891448 -77.38 0.0005398022    1.098    0.089
       112 -10.9719      3.9963     31.4270   6.8327547341e+01   7.1498502923e+01    0.2831949    0.2022476  28.45  0.001322135    1.614    0.380
       113 -10.0795     17.4882     31.1183   5.9286838350e+01   7.0563335750e+01    0.2372009    0.1613631  31.73  0.001215144    1.627    0.386
       114 -10.3136     57.7833     29.5836   3.6198078797e+01   6.5096193562e+01    0.5126632    0.1590493  45.04  0.001814739    3.087    0.676
       115 -10.6302    153.1079     27.7903   9.6305922996e+00   4.2569189128e+01    0.2247053    0.1974433 -43.57 0.0003727492    1.200    0.167
       116  -9.9245    103.9938     28.1512   1.9509020440e+01   5.5046558993e+01    0.2121847    0.1863708  52.42 0.0003171045    1.025    0.024
       117 -10.4138    160.9736     26.9896   8.2522162329e+00   4.0665058148e+01    0.2713237     0.180683  70.75 0.0007989854    1.381    0.276
       118 -10.4717     46.9562     26.8676   4.0093217119e+01   6.7456898889e+01    0.2241947    0.1797016 -18.28 0.0003844091    1.207    0.171
       119  -9.4076     49.6594     24.2636   3.7442034775e+01   6.7400694275e+01    0.1897373    0.1316405 -33.76 0.0002607022    1.492    0.330
       120 -10.0227    120.3063     25.9891   1.4869221884e+01   5.1203467450e+01    0.3716755    0.1467978  48.16  0.001406632    2.409    0.585
       121 -10.9183     88.7119     24.9198   2.2453262903e+01   5.9139950461e+01    0.3493899    0.2585028  46.36  0.001672806    1.202    0.168
       122 -10.6918     83.8719     25.6430   2.4291687141e+01   6.0172746071e+01     0.307779     0.208176  19.14  0.001493589    1.755    0.430
       123  -9.5672     31.9815     25.9990   4.7947612248e+01   6.9880130747e+01    0.1853765    0.1667872  77.43  0.001017684    1.734    0.423
       124  -9.3409    239.2296     24.4278   3.5993957911e+02   2.3158337486e+01     0.149359    0.0971322 -79.23 0.0002912657    1.482    0.325
       125  -9.5836    136.5940     23.7770   1.0991104798e+01   4.7269182519e+01    0.1858783    0.1260405 -43.65 0.0003573025    1.560    0.359
       126  -9.5210    128.8690     24.1548   1.2508243971e+01   4.9217881176e+01    0.1887849    0.1523568  43.26 0.0002961238    1.266    0.210
       127 -10.6915     98.4681     22.7563   1.8762105502e+01   5.7059345804e+01     0.254548    0.2215442  48.30 0.0004760436    1.025    0.025
       128 -10.4419     38.4816     22.7606   4.2566559553e+01   6.9488648349e+01    0.2293238    0.1612022  30.08 0.0004307764    1.333    0.250
       129 -10.5616    243.9802    180.0133   3.1359661151e+01   9.6418125713e-01    0.1663486    0.1413092 -46.73 0.0008994956    1.698    0.411
       130 -10.5984    224.2580    173.0213   3.3282936020e+01   4.7379188317e+00    0.1836341    0.1428453 -21.54  0.001153602    1.125    0.111
       131  -9.7371     21.4855    170.0185   8.2510564826e+01   3.6503612183e+01    0.1913087    0.1592486  42.17 0.0005543654    1.174    0.148
       132 -10.9100     50.0986     19.3672   3.4710443529e+01   6.8046797547e+01    0.3455147    0.2094085  30.03   0.00133565    1.575    0.365
       133  -9.1769    159.3939     20.4851   6.5242404255e+00   4.1788801604e+01    0.1359047    0.1201175 -82.31 0.0001244988    1.040    0.039
       134  -9.0699     66.6914     20.7159   2.8129249044e+01   6.4597001567e+01     0.140261   0.09459473  22.94 0.0003332507    1.567    0.362
       135 -10.0437      6.7563    159.7039   8.5866729452e+01   4.0181563745e+01    0.3175354    0.1556882 -52.22 0.0008764768    2.253    0.556
       136  -8.9760    208.3278     19.6907   1.2149324621e+00   3.0161011548e+01    0.1360693   0.07730017 -62.60 0.0007039735    1.660    0.398
       137 -10.0902    244.3132    148.6855   2.5387315515e+01   5.3273465471e+00    0.1135069   0.09141496 -53.78  0.000309248    1.639    0.390
       138 -10.2563     70.8346     18.3678   2.5405378568e+01   6.4008213614e+01    0.2419173    0.2112839  18.79 0.0006690274    1.085    0.078
       139  -9.8581     23.5270     16.5269   4.8446031757e+01   7.2600436803e+01    0.1653303    0.1174762 -49.60  2.39979e-05    1.694    0.410
       140  -9.4032     39.8730    147.7850   7.4936378315e+01   4.0190584257e+01    0.1962435    0.1470818  68.55 0.0005148829    1.341    0.254
       141 -10.0715     25.3999    146.3552   7.9279815590e+01   4.1977724424e+01    0.2452573    0.1544353  28.82 0.0007751561    1.617    0.381
       142 -10.5769    238.0000    142.9894   2.5196802331e+01   7.1214405801e+00    0.2098293   0.06156845 -36.08 0.0008010128    2.933    0.659
       143 -10.0760     85.6837     15.9079   1.9355393446e+01   6.0913461460e+01    0.3202578    0.1626914  55.98  0.001454306    1.716    0.417
       144  -8.8661     74.9957    144.0000   6.3351973386e+01   3.6598901616e+01    0.2218479   0.08241782  31.58  -0.03019764    2.632    0.620
       145  -9.8831     35.0186     13.9511   3.9802474218e+01   7.1390586787e+01    0.1970761    0.1656999   7.13 0.0006032363    1.021    0.021
       146  -9.7383      6.7459    143.0121   8.4721706625e+01   4.4272875785e+01    0.1870437    0.1476109 -80.48  0.001136805    1.137    0.120
       147 -10.1190    120.5487     12.9308   1.0002882989e+01   5.2536926197e+01    0.2772221    0.1573097  53.56 0.0007316729    1.563    0.360
       148 -11.4465    245.8851    137.8888   2.3031805525e+01   6.6496173531e+00    0.1963505    0.1767773  39.45  0.001365305    1.362    0.266
       149  -9.9804     28.7888    138.1769   7.7317258150e+01   4.3742833446e+01    0.1960534    0.1679915  73.21 0.0003572355    1.114    0.102
       150  -9.2705     51.5744    136.5101   6.9619503124e+01   4.1715000492e+01     0.142428    0.1337644  81.95 0.0001091043    1.024    0.024
       151  -9.9134     10.7971    133.8491   8.2704098354e+01   4.6292951082e+01    0.1884294    0.1577877 -81.47  0.001152155    1.070    0.065
       152 -11.8362    235.8471    130.1925   2.2915046521e+01   9.3767979235e+00     0.445489    0.1592621 -30.65  0.001770001    2.800    0.643
       153  -9.9228     17.6448    132.1534   8.0305489784e+01   4.6223789781e+01    0.2082372    0.1669051  51.85 0.0003794884    1.246    0.197
       154 -10.8197    134.9406    124.8258   4.1708822628e+01   3.0070070063e+01    0.2673052    0.2231036 -41.36 0.0004283118    1.224    0.183
       155  -9.2429     32.4891     10.4901   3.9302311892e+01   7.2286152186e+01    0.1281779    0.1057065   7.47  0.000810513    1.002    0.002
       156 -12.7036    246.0935    121.5547   1.9715203109e+01   8.9835881228e+00    0.4124911     0.255191 -38.68  0.002351478    1.381    0.276
       157  -9.8283    103.2585    119.9956   4.9514919325e+01   3.7587021784e+01    0.2102274      0.20263 -51.10 0.0001869708    1.066    0.062
       158  -9.5327     13.4799    117.4874   8.0157111267e+01   5.0268245207e+01    0.1326799    0.1187665 -77.32 0.0001081781    1.009    0.008
       159  -9.8192     91.7844    116.1690   5.2211253705e+01   4.0657620164e+01    0.2223028    0.2081398  68.82 0.0004009978    1.124    0.110
       160  -9.8604     96.0457    111.9483   4.9799578114e+01   4.0866957203e+01    0.2350945    0.2201709 -20.57 0.0005368663    1.110    0.099
       161  -9.0981     79.5129    110.5228   5.4962070850e+01   4.4199557458e+01    0.1503634    0.1490496  14.63 0.0001236224    1.001    0.001
       162 -10.6426      1.7098    105.4809   8.3175559171e+01   5.4001749159e+01    0.4645958    0.1259722 -68.12  0.001771396    2.776    0.640
       163  -9.7419     13.0561    105.9977   7.8941770605e+01   5.3229476528e+01    0.1941995    0.1788526 -82.02 0.0003701435    1.045    0.043
       164 -10.9383    118.7341    102.9257   4.0500908742e+01   3.8274285360e+01    0.3983106    0.3042292  74.78  0.001777897    1.711    0.416
       165 -11.9957    246.2234    101.7776   1.5626268991e+01   1.1809491426e+01    0.2426397    0.1770359 -28.12 0.0007600346    1.225    0.184
       166 -11.4020    249.8147     99.1922   1.4661897465e+01   1.1568376255e+01    0.2537935    0.1730449 -12.85  0.001159602    1.760    0.432
       167  -9.5928     49.7827    101.3852   6.3802747897e+01   5.0918304179e+01    0.2015373    0.1396345   9.58  0.000380393    1.686    0.407
       168 -11.2172     64.8373     96.3308   5.6783096381e+01   5.0056713317e+01     0.405858    0.3242422  66.47 0.0008258705    1.503    0.335
       169 -10.9257    236.8099     95.5980   1.5482722694e+01   1.4348999219e+01    0.2362276    0.1445949 -25.59  0.001256698    1.637    0.389
       170  -9.5895    143.1476     96.3370   3.2222274852e+01   3.4147553466e+01    0.2143485    0.1909286  52.72 0.0006509051    1.116    0.104
       171 -10.7422      5.1841     95.7204   8.0740247645e+01   5.6289239709e+01    0.4341416    0.2280084  14.30  0.002144659    2.138    0.532
       172 -10.1052     43.0186     95.4829   6.5210040155e+01   5.3223912120e+01    0.2072252    0.1192246 -10.95 0.0008104358    2.633    0.620
       173 -11.2571     16.5996     94.3851   7.5894224481e+01   5.5943014312e+01    0.4499745    0.2299114  15.29  0.002095967    2.175    0.540
