#   1 NUMBER                 Running object number                                     
#   2 MAG_AUTO               Kron-like elliptical aperture magnitude                    [mag]
#   3 X_IMAGE                Object position along x                                    [pixel]
#   4 Y_IMAGE                Object position along y                                    [pixel]
#   5 X_WORLD                Barycenter position along world x axis                     [deg]
#   6 Y_WORLD                Barycenter position along world y axis                     [deg]
#   7 A_WORLD                Profile RMS along major axis (world units)                 [deg]
#   8 B_WORLD                Profile RMS along minor axis (world units)                 [deg]
#   9 THETA_WORLD            Position angle (CCW/world-x)                               [deg]
#  10 FWHM_WORLD             FWHM assuming a gaussian core                              [deg]
#  11 ELONGATION             A_IMAGE/B_IMAGE                                           
#  12 ELLIPTICITY            1 - B_IMAGE/A_IMAGE                                       
         1 -13.3258    213.4014     50.9913   1.9239778810e+01   2.6993696840e+01     1.236131    0.9927399  30.62  0.007958346    1.827    0.453
         2 -13.1298    227.6569     40.6968   1.5823869151e+01   2.5630700683e+01    0.7753279    0.6880258  26.87  0.005674785    1.643    0.391
         3 -12.4530      3.1723     10.0427   7.4336074960e+01   7.9012286000e+01     1.032409    0.5630424 -50.32  0.005430685    1.716    0.417
         4  -9.7833    250.5411     18.2564   9.9198298260e+00   2.4166564365e+01    0.4313331   0.07960214 -30.69  0.001689006    4.187    0.761
         5 -10.5878    157.8560      9.1272   1.3299985876e+01   4.3976882371e+01    0.2325477    0.2024149  55.67 0.0008484889    1.391    0.281
         6  -9.7231     32.4998      4.0168   4.1641277248e+01   7.5746582935e+01    0.1908643    0.1298107 -31.10  0.001040645    1.613    0.380
         7 -11.8574      3.1434     22.8097   8.0224631264e+01   7.6229491561e+01    0.4995373    0.3646046 -67.85  0.002880077    1.428    0.300
         8  -9.6945    130.9996    207.4704   6.5661965628e+01   1.4432465902e+01    0.2182925    0.1863455 -42.12 0.0005384223    1.334    0.250
         9 -10.9713     73.1555    243.9814   8.2999183220e+01   1.4723046584e+01     0.566709    0.3609356  64.01  0.003356083    1.924    0.480
        10 -15.5783     27.2026    186.0334   9.0823275061e+01   3.1584805901e+01     9.598371     3.218728  80.66   0.03110195    4.375    0.771
        11 -12.5556      6.1042    215.8079   9.7802443867e+01   2.6639455222e+01    0.3378935    0.2790577  41.91 0.0005500765    1.073    0.068
        12 -11.4501     74.0904    197.0988   7.8536207803e+01   2.3872706228e+01    0.4654781    0.2924738  80.55 0.0005163496    2.152    0.535
        13  -9.9493     71.5345    190.4689   7.8514327875e+01   2.5660971161e+01    0.2466995    0.2201816  -2.57 0.0008803393    1.232    0.188
        14 -14.8167      9.2302    207.0811   9.6749580790e+01   2.8280489952e+01      1.55715     1.201048  28.19  0.007114829    1.190    0.160
        15 -14.0536      6.4821    246.1048   9.8427599073e+01   2.0588236612e+01    0.5361484     0.399621  18.19  0.002479971    1.345    0.257
        16 -10.9309     81.9012    194.7981   7.6178521233e+01   2.3388671423e+01    0.5839103    0.4466431 -78.15  0.003077403    1.560    0.359
        17  -9.7167    193.7584    196.2193   5.1263139478e+01   8.3127225027e+00    0.3929395    0.2167249 -60.01  0.001516547    5.520    0.819
        18 -10.7507    113.7133    195.4235   6.8067185631e+01   1.9010740385e+01    0.3367453    0.1751653 -28.41  0.001385819    2.871    0.652
        19 -10.0740    134.4001    196.7218   6.3350447001e+01   1.5930316195e+01    0.2214802    0.1585262 -33.89 0.0009054444    1.469    0.319
        20 -13.5931      3.9320    237.6339   9.8830249067e+01   2.2390997551e+01    0.5019759    0.4299731 -41.82  0.003630771    1.611    0.379
        21  -8.9589     76.9907    230.9921   8.1050324750e+01   1.6666255573e+01    0.1934143    0.1392086 -10.94  0.001109001    1.700    0.412
        22  -9.7974     76.1898    182.4586   7.6278097221e+01   2.6886178698e+01    0.4809707     0.253765  60.22  0.001611639    2.486    0.598
        23 -10.3259     79.1971    180.1204   7.5134146982e+01   2.7023973582e+01    0.3538404    0.2615711  84.41  0.001816671    1.647    0.393
        24 -10.2283     99.0321    180.9506   6.9779424471e+01   2.4080480812e+01    0.2924685    0.2698621  17.16 0.0006581746    1.051    0.048
        25  -9.0513    172.6488    178.0658   5.2180274371e+01   1.3905926633e+01    0.1785499    0.1449722 -25.79 0.0005958686    1.147    0.128
        26  -9.9490    180.7438    173.1903   4.9775171644e+01   1.3583188718e+01     0.339399    0.2007287 -16.60   0.00171619    2.047    0.511
        27  -9.7938     79.2332    170.6605   7.3868102549e+01   2.9228490710e+01    0.3785125     0.263504  70.05  0.001307568    1.739    0.425
        28 -13.2931     59.8200    132.2441   7.4338630206e+01   4.1689371744e+01     2.852068     1.336398 -80.74  0.009671707    3.026    0.670
        29 -12.5662     58.8115    148.6472   7.7196337999e+01   3.7506856477e+01    0.4957485    0.3943389  14.06 0.0007138901    1.351    0.260
        30 -11.6664     80.2584    147.9426   7.0095723174e+01   3.4613794307e+01    0.7339515    0.5659027 -13.85  0.001501044    1.637    0.389
        31 -11.9839     82.9760    135.1436   6.6933939646e+01   3.7389593136e+01    0.8083887    0.3843354 -48.05  0.001629742    2.254    0.556
        32 -11.1915     73.0735    164.7803   7.4893055350e+01   3.1498281524e+01     1.000063    0.5429225 -40.89  0.001268894    2.304    0.566
        33 -11.6429     69.5804    158.7570   7.5129289179e+01   3.3468670633e+01    0.9562355    0.4711825  58.60  0.003527162    2.664    0.625
        34 -11.7383     72.2983    153.2434   7.3463624266e+01   3.4467679892e+01    0.6168719    0.3977399  57.86 0.0004512891    1.700    0.412
        35 -13.3806     68.5865    144.5310   7.3314196939e+01   3.7219766430e+01      2.49518     1.194669  66.89  0.006571805    3.956    0.747
        36  -9.5363    179.8756    167.2959   4.8885716366e+01   1.4682946072e+01    0.1907362     0.159979  46.03  0.001197266    1.474    0.322
        37  -9.5080     95.0074    167.5056   6.8869943441e+01   2.7679692477e+01    0.2324483    0.1333174  31.58   0.00103574    1.599    0.374
        38  -8.5203    142.4242    217.1853   6.4473772900e+01   1.1319611289e+01    0.1427759    0.1220433 -60.87 0.0005687593    1.611    0.379
        39 -10.5772    246.9494    163.6024   3.7704042453e+01   6.6102264394e+00    0.2719688    0.1548998 -38.70 0.0007303875    1.540    0.351
        40 -10.0369    245.1233    157.7801   3.6950136005e+01   7.5711948440e+00    0.2594704     0.124792 -40.34  0.001140456    1.812    0.448
        41  -8.0922    132.3144    213.2714   6.6154570781e+01   1.3241487583e+01    0.1258734   0.08657955  -2.60 0.0002461841    1.555    0.357
        42 -14.0533     12.8162    243.7577   9.6940992815e+01   2.0513507213e+01    0.9967994    0.7237303  77.57  0.006913389    1.474    0.322
        43 -15.9208      8.4457    225.4318   9.7478572825e+01   2.4453711805e+01     7.237168     2.192558  14.75   0.01626774    3.830    0.739
        44 -10.3961    129.1370    201.3792   6.5234497835e+01   1.5783091919e+01    0.2403573    0.2174394 -33.52 0.0003406514    1.227    0.185
        45  -9.6910    134.0749    146.6445   5.4756357235e+01   2.5890726687e+01    0.6578431    0.1864244 -54.10  0.001847891    4.788    0.791
        46 -10.4482    127.9586    196.9889   6.4876320361e+01   1.6759164238e+01    0.2410862      0.22097  85.53 0.0003685843    1.440    0.305
        47  -8.9914     40.4838    144.9371   8.3032700510e+01   4.0722799967e+01    0.2240671    0.1441716 -76.46 0.0006476742    1.592    0.372
        48  -8.6178     91.2225    144.1673   6.6028454692e+01   3.3802954873e+01    0.2171086    0.1720135  65.33  0.001060315    1.404    0.288
        49 -10.0896     96.6057    135.5158   6.2723023410e+01   3.4990348493e+01    0.5594529    0.3803671   1.09  0.002305894    2.225    0.551
        50 -11.4260     56.4198    165.2869   8.0108058493e+01   3.3554932297e+01    0.4825002    0.3368558 -11.66  0.001340834    1.903    0.475
        51 -10.0676    106.6972    129.0413   5.8364541619e+01   3.4719073404e+01    0.5644488    0.3581405 -29.00  0.002314458    2.137    0.532
        52  -8.2576    147.2816    126.6294   4.7406466680e+01   2.7579658359e+01    0.1433856     0.112627 -79.44 0.0007014095    1.697    0.411
        53 -11.0283     14.7922    122.7940   9.0452506614e+01   4.9175025387e+01     0.652908    0.2484978  53.79  0.001801577    2.745    0.636
        54 -10.3307     12.0378    118.0319   9.1168236107e+01   5.0688224835e+01    0.3651732    0.2062722  50.21  0.001375336    1.716    0.417
        55 -11.8148     61.4702    161.0496   7.7995043484e+01   3.3980856867e+01    0.5146328    0.3856329  37.97 0.0008653562    1.208    0.172
        56  -9.7714     95.2306    122.5227   6.0399380299e+01   3.8382785666e+01    0.3438188    0.2567192   8.13  0.001537035    1.758    0.431
        57 -10.2587    230.4100    167.7989   4.0662193726e+01   7.9555854652e+00    0.1659231   0.08441126 -27.51 0.0009562178    1.706    0.414
        58  -9.6882     32.2703    118.1273   8.2789522449e+01   4.8932752029e+01    0.2723481    0.2004156  37.66 0.0004688569    1.302    0.232
        59  -9.0334    105.2026    116.9056   5.6051957372e+01   3.7837597574e+01    0.2150436    0.1985696  73.73 0.0003891952    1.115    0.103
        60 -13.9340     38.8245    178.2330   8.6819112607e+01   3.2334427274e+01      2.23162     1.237782  81.36  0.009150527    2.055    0.513
        61  -9.4046     43.1199    113.8088   7.7656178908e+01   4.8898029249e+01     0.243167    0.1946139  56.89 0.0007622983    1.243    0.195
        62  -9.1524    156.0171    112.3525   4.2239135137e+01   2.8668553811e+01    0.2989996    0.1689695 -64.29  0.001149255    2.822    0.646
        63  -9.6937    205.1659    110.4669   3.3364176101e+01   1.9972069744e+01    0.2442976    0.2175344  12.93 0.0008391281    1.293    0.226
        64  -8.9664    137.5447    110.7031   4.5915530482e+01   3.2701366017e+01    0.3844293    0.2464787  85.11  0.001316505    3.069    0.674
        65  -9.1544     41.5457    109.7524   7.7616655126e+01   5.0205038586e+01    0.2091054    0.1438347  89.25 0.0009332572    1.604    0.376
        66  -9.6185     23.9973    105.0428   8.4554449601e+01   5.3368681487e+01    0.2281699     0.216101  74.07 0.0006222486    1.012    0.012
        67  -8.8621    131.2491    102.0345   4.5243704946e+01   3.5784909712e+01    0.2482555    0.1698215 -73.53  0.001063519    2.006    0.502
        68  -8.4555     75.2709     97.3500   6.1211220248e+01   4.8294978549e+01    0.1575021    0.1223922 -23.80 0.0006995635    1.627    0.385
        69 -10.8271     53.8488     95.9287   6.9526926972e+01   5.2267396359e+01    0.4319714    0.3578749 -82.76   0.00159824    1.275    0.216
        70  -9.8398     41.1143     87.9135   7.3453505874e+01   5.6197347360e+01    0.3258885     0.217399  46.76 0.0006239932    1.525    0.344
        71  -8.8734     27.5542     69.9882   7.6257717978e+01   6.2565513713e+01    0.2151061    0.1666114  23.02  0.001094862    1.297    0.229
        72 -12.0345    203.5969     57.0478   2.1579533813e+01   2.8086245300e+01    0.4634359    0.3882801  -9.09   0.00157657    1.547    0.354
        73  -9.3833    212.5950    248.7837   5.5632362301e+01  -4.5465301068e-01    0.1235662   0.08608412 -34.12 0.0009532223    1.690    0.408
        74 -11.0666     13.4620     60.4426   8.2565071025e+01   6.6336650757e+01    0.3395447    0.3098825 -78.72 0.0006843499    1.113    0.101
        75 -11.6177      7.5263     59.0278   8.6146628653e+01   6.7088547480e+01    0.7318052     0.255047  30.24  0.002789351    2.726    0.633
        76 -10.2003     80.1794     59.1342   4.7289168984e+01   5.6083077702e+01    0.6152593    0.3726759  87.00  0.001983968    3.753    0.734
        77  -9.2725     53.0596     51.1893   5.6010954384e+01   6.3349177332e+01    0.3286445    0.2132961  68.28  0.001354445    2.297    0.565
        78  -9.9814     43.3467    248.2702   9.0131191949e+01   1.6958777331e+01    0.2928589    0.2320728  55.08 0.0009612757    1.240    0.193
        79  -9.9107    111.9390    243.8628   7.4256692872e+01   1.0513623315e+01    0.1757011    0.1710542 -22.71 0.0003649704    1.325    0.245
        80  -8.5436     90.0124    240.5142   7.8840491353e+01   1.3506386961e+01    0.1813846   0.09698769  26.02 0.0002010212    1.464    0.317
        81  -9.2311     60.3887     21.1496   3.8013309701e+01   6.7309288009e+01    0.2371835    0.1734431  45.88 0.0004142435    1.270    0.213
        82  -9.4308    189.4940     15.0242   1.2514464593e+01   3.6117057910e+01    0.1820831    0.1065396 -35.02 0.0005377766    1.550    0.355
        83  -9.1823     62.3100    234.8967   8.4873380987e+01   1.7524690162e+01    0.2922202    0.1473332  65.38  0.001408868    2.635    0.621
        84 -12.4027    126.9411    229.4525   6.9385021697e+01   1.1152823539e+01    0.8363646    0.3285995  28.96  0.003975275    2.053    0.513
