#   1 NUMBER                 Running object number                                     
#   2 MAG_AUTO               Kron-like elliptical aperture magnitude                    [mag]
#   3 X_IMAGE                Object position along x                                    [pixel]
#   4 Y_IMAGE                Object position along y                                    [pixel]
#   5 X_WORLD                Barycenter position along world x axis                     [deg]
#   6 Y_WORLD                Barycenter position along world y axis                     [deg]
#   7 A_WORLD                Profile RMS along major axis (world units)                 [deg]
#   8 B_WORLD                Profile RMS along minor axis (world units)                 [deg]
#   9 THETA_WORLD            Position angle (CCW/world-x)                               [deg]
#  10 FWHM_WORLD             FWHM assuming a gaussian core                              [deg]
#  11 ELONGATION             A_IMAGE/B_IMAGE                                           
#  12 ELLIPTICITY            1 - B_IMAGE/A_IMAGE                                       
         1 -14.4460    157.8159     56.8537   7.7931272512e+01   3.8562434575e+01     1.277885     1.070429  75.00 0.0009791992    1.179    0.152
         2 -14.9328    170.4998     41.7380   7.1436771691e+01   3.7642932549e+01     1.218236     1.059894  -0.70  0.004162499    1.458    0.314
         3 -13.9497    189.2275     13.7474   6.1635854100e+01   3.6483530545e+01    0.6572002    0.4442711  45.21  0.002559314    1.755    0.430
         4 -14.7702    185.7487      9.2115   6.0942158000e+01   3.7769773429e+01     2.973127    0.6113434  62.74  0.008443219    3.468    0.712
         5 -10.5328    150.7985    245.3965   1.2152107438e+02   1.5182088607e+00    0.1794631    0.1667092  75.86 0.0004336419    1.172    0.146
         6 -18.7942     71.3641    231.6002   1.3568467421e+02   1.7109530275e+01     9.349239     6.803527 -80.84   0.05734715    1.292    0.226
         7 -10.1093    133.5235    229.1544   1.2268936424e+02   7.5375782784e+00    0.1859931    0.1344898 -58.55  0.001008623    1.522    0.343
         8 -12.2873    103.4125    195.4102   1.2415692858e+02   2.0068904507e+01    0.4181127    0.3110757  76.81  0.001231174    1.410    0.291
         9 -11.6389    106.2627    206.3917   1.2518888500e+02   1.7082653840e+01    0.4570112    0.2945091 -44.93  0.001507488    1.874    0.466
        10 -11.8157    103.9712    201.9436   1.2503443068e+02   1.8475845794e+01    0.3584018    0.2800561  25.82 0.0007526297    1.595    0.373
        11 -10.7987     30.5646    205.0661   1.4121532710e+02   2.8209570791e+01    0.1582723    0.1342087  66.40 0.0006374193    1.218    0.179
        12 -11.6120    169.0340    201.1621   1.1045784952e+02   6.6282382405e+00    0.2517481    0.2108652 -47.29 0.0009894306    1.251    0.201
        13 -10.8889     23.9005    228.9069   1.4442522830e+02   2.3797846708e+01    0.1390256   0.08380249 -81.38 0.0008576597    1.386    0.278
        14 -10.1710    121.3003    197.9230   1.2047927454e+02   1.6333159169e+01    0.1934025    0.1693947 -65.95 0.0003145526    1.160    0.138
        15 -11.0290    112.9182    196.0967   1.2208973893e+02   1.8252857639e+01    0.4893582    0.3333023  -6.03    0.0018975    3.291    0.696
        16 -11.0783      8.7288    195.2602   1.4474002523e+02   3.2655609891e+01    0.1694938     0.121785  87.16  0.001133591    1.049    0.047
        17 -11.8583    180.4765    193.2910   1.0651154783e+02   6.0150573158e+00    0.2846339    0.2512614 -85.35  0.001271097    1.357    0.263
        18 -14.8101    137.3289    171.4366   1.1187170938e+02   1.9362044497e+01     1.518782     1.134684  38.74  0.007273982    1.381    0.276
        19 -12.3589    155.1512    187.6656   1.1095081451e+02   1.2163081369e+01    0.3721473    0.3152149  59.86  0.001154911    1.205    0.170
        20 -12.3850    151.5960    183.7446   1.1099347201e+02   1.3726922396e+01    0.4532819    0.3392145  85.38  0.001551347    1.756    0.431
        21 -12.2569    146.5006    178.9902   1.1122783000e+02   1.5803377933e+01    0.4045599    0.3328398  40.64  0.001091019    1.220    0.180
        22 -13.7591    144.5307    173.8399   1.1065710847e+02   1.7367272941e+01    0.7758033    0.5492144 -67.32  0.003535577    1.604    0.376
        23 -12.5641    172.3549    189.0073   1.0741355299e+02   8.4785574244e+00    0.4560004    0.2732381  46.54  0.001308817    1.656    0.396
        24 -13.3338    176.1752    186.6867   1.0612686900e+02   8.2057671079e+00    0.7501396    0.4801026 -70.68  0.003057959    2.443    0.591
        25 -12.6979    168.5314    177.0527   1.0584266333e+02   1.1779287754e+01    0.6427798    0.4054652 -75.39  0.001990323    2.715    0.632
        26 -12.0658    166.2785    173.6142   1.0563091083e+02   1.2986115481e+01    0.4545861    0.2817601 -67.55 0.0006633925    2.266    0.559
        27 -10.6736    210.3247    187.6525   9.9270597610e+01   1.4281833430e+00    0.1396978     0.114739 -83.86 0.0007049673    1.747    0.427
        28 -11.5183    164.6005    183.2805   1.0797900290e+02   1.1231612460e+01    0.3454788     0.179878 -55.23 0.0007072022    2.157    0.536
        29 -11.0315    107.1507    183.8629   1.2139558921e+02   2.2122471579e+01    0.2442453     0.203083  53.39  0.000376859    1.172    0.147
        30 -10.5125    139.4909    249.7397   1.2436340533e+02   2.6642943981e+00    0.2572378    0.2130927  56.84  0.001467211    1.106    0.096
        31 -12.5372    204.5810    176.0772   9.8025149214e+01   4.7467984438e+00    0.4899409    0.4374151 -64.03  0.001170704    1.268    0.211
        32 -11.4646    197.0103    175.9116   9.9523545865e+01   6.2689502468e+00    0.8275741    0.4367686 -65.80  0.002499786    4.522    0.779
        33 -12.3807    193.4338    165.8275   9.8108305610e+01   9.0433315130e+00    0.4206221    0.3362324 -46.24 0.0008252337    1.230    0.187
        34 -11.9755    190.1153    160.9398   9.7730765341e+01   1.0745548398e+01    0.4086576    0.3529107  85.26  0.001070374    1.373    0.272
        35 -12.3230    189.5913    155.5399   9.6640786158e+01   1.1988318066e+01    0.4961509    0.4744872  11.24  0.001470961    1.096    0.088
        36 -11.3671    201.9409    167.8490   9.6807579733e+01   6.9043906903e+00     0.549086    0.2865058  35.81  0.002217393    2.176    0.541
        37 -11.3942    229.9928    166.5364   9.1159949067e+01   1.7241038817e+00    0.4001423    0.1681502 -54.41  0.001294354    3.811    0.738
        38 -12.0148    152.1498    191.6745   1.1238744712e+02   1.1881791256e+01    0.4348058    0.3278562  73.90  0.001601486    1.627    0.385
        39 -11.0537    236.8016    158.3931   8.8224294454e+01   1.9708215891e+00    0.1835377     0.131343  31.00 0.0003196117    1.609    0.378
        40 -19.2334     54.1191    100.2436   1.1910889975e+02   5.0337479364e+01     18.10561    0.9675281 -55.76   0.02730206   16.693    0.940
        41 -14.1176    133.9231    145.7736   1.0720700043e+02   2.6078561978e+01     1.701519    0.4876182 -55.92  0.004122047    5.066    0.803
        42 -13.6733    135.8718    128.3380   1.0258343792e+02   2.9723786275e+01     2.447577     0.399148 -50.33  0.004589336    8.122    0.877
        43 -12.1743    166.1488    154.4008   1.0149219482e+02   1.7254987406e+01    0.4960331    0.3346744  74.96    0.0019888    2.185    0.542
        44 -11.4401     14.7774    151.1181   1.3914985670e+02   4.2314948318e+01    0.2540081    0.1803434 -51.61  0.001032049    1.438    0.305
        45 -14.6568    145.0349    144.6647   1.0421766270e+02   2.4002187064e+01      1.58824    0.9432674 -78.52  0.005127654    3.395    0.705
        46 -11.3375    174.3701    148.6722   9.8350579877e+01   1.6737534493e+01    0.3600264    0.2948176 -77.53  0.001146258    1.424    0.298
        47 -11.7860    125.2957    139.8328   1.0802986714e+02   2.9246738997e+01    0.2764195    0.2136866  58.26 0.0007295259    1.376    0.273
        48 -12.3254    160.3605    127.4679   9.6450003222e+01   2.4513069135e+01    0.5350097    0.3678857 -63.12  0.002287946    1.674    0.403
        49 -12.8989    113.9036    118.7036   1.0593472687e+02   3.6466015790e+01    0.4885348    0.3306087 -57.66 0.0008404205    1.522    0.343
        50 -12.0229    134.6391    109.2005   9.7982154344e+01   3.4256553025e+01     1.142691    0.1846911 -44.43  0.002495096    6.092    0.836
        51 -10.9517    168.3031    113.2681   9.1080075514e+01   2.5731623450e+01    0.4115147    0.2829165 -82.75  0.001421875    2.137    0.532
        52 -12.9872    117.4742    109.7282   1.0263638265e+02   3.7771741156e+01    0.4680164    0.3037675  45.77  0.001749763    1.589    0.371
        53 -10.9138    205.2937    110.1163   8.2907769111e+01   1.7795432712e+01    0.3442149    0.2241467  50.52  0.001015728    1.626    0.385
        54  99.0000     15.8413    219.0610   1.4517861340e+02   2.6751341210e+01    0.3291867   0.09800235 -61.77  0.001459281    3.147    0.682
        55  99.0000     14.4633    216.1780   1.4522430790e+02   2.7510868452e+01    0.1326518    0.1188372  88.35 0.0009896094    1.351    0.260
        56 -10.3325     20.3776    218.4374   1.4429435924e+02   2.6401436130e+01    0.1183765   0.08745411  84.58 0.0005091512    1.028    0.027
        57 -11.5483    168.0710    244.6708   1.1798033829e+02  -1.2957176019e+00    0.1962577    0.1800713 -70.65 0.0007129498    1.312    0.238
        58 -10.5889    147.1633     81.1258   8.7147227412e+01   3.7034776584e+01    0.2274222    0.2049935  15.09 0.0005341426    1.252    0.201
        59 -10.7804     92.8260     79.0761   1.0100893150e+02   4.8900628063e+01    0.2223201    0.1988636  29.89  0.000359796    1.136    0.120
        60 -12.8976    196.3445    237.4761   1.1126017190e+02  -4.8632472869e+00     0.315897    0.2378172  40.78  0.001526233    1.263    0.208
        61 -10.6268    133.7283    247.1381   1.2515463434e+02   4.0984390044e+00    0.1550199    0.1483771 -80.54 0.0004088155    1.194    0.162
        62 -10.7985     13.4576     59.6490   1.2306530933e+02   6.2611241601e+01    0.2002054    0.1533006 -40.27 0.0004199287    1.035    0.034
        63 -10.3646    131.2732    237.9309   1.2439998064e+02   6.2267290833e+00    0.1608029    0.1522034  88.30 0.0002245791    1.145    0.127
        64 -12.9743    174.6988     34.5932   6.8856435058e+01   3.7550886752e+01    0.3761228    0.3402699  43.04 0.0009383276    1.253    0.202
        65 -11.4026    125.0749    243.8339   1.2644004480e+02   6.1605662945e+00    0.2844156     0.160354 -56.72  0.001458207    2.004    0.501
