#   1 NUMBER                 Running object number                                     
#   2 MAG_AUTO               Kron-like elliptical aperture magnitude                    [mag]
#   3 X_IMAGE                Object position along x                                    [pixel]
#   4 Y_IMAGE                Object position along y                                    [pixel]
#   5 X_WORLD                Barycenter position along world x axis                     [deg]
#   6 Y_WORLD                Barycenter position along world y axis                     [deg]
#   7 A_WORLD                Profile RMS along major axis (world units)                 [deg]
#   8 B_WORLD                Profile RMS along minor axis (world units)                 [deg]
#   9 THETA_WORLD            Position angle (CCW/world-x)                               [deg]
#  10 FWHM_WORLD             FWHM assuming a gaussian core                              [deg]
#  11 ELONGATION             A_IMAGE/B_IMAGE                                           
#  12 ELLIPTICITY            1 - B_IMAGE/A_IMAGE                                       
         1 -12.0699     79.4516     18.2711   1.8295844192e+01   6.2333585747e+01     0.279375     0.238974 -87.21 0.0009514374    1.261    0.207
         2 -12.2567    135.5485     11.8101   4.8087570438e+00   4.8686116972e+01    0.2365966    0.1946586  86.31  0.000288101    1.074    0.069
         3 -11.2181     80.9419      6.0326   1.1903249509e+01   6.3262731064e+01    0.2080218     0.150163 -70.26 0.0003095524    1.598    0.374
         4 -11.0382     92.4749      8.5082   1.0446742908e+01   6.0082246255e+01    0.1387127    0.1219956  75.01 0.0002817945    1.018    0.018
         5 -10.6912     49.2413      8.3970   2.4010439437e+01   7.0638798316e+01    0.1827167    0.1211374  62.22 0.0008022931    1.542    0.352
         6 -11.7488     44.9518      7.6966   2.5622811438e+01   7.1660059194e+01    0.2103678    0.1924183 -25.97 0.0003427431    1.230    0.187
         7 -11.9422    145.7213      2.2235   6.2690361682e-01   4.7041984009e+01    0.3131831    0.1857492 -44.51  0.001679455    1.577    0.366
         8 -11.6412      7.4492      1.9415   4.9750549392e+01   7.9044608154e+01    0.1858684    0.1507149  20.70  0.001192542    1.172    0.147
         9 -10.4772    129.3011      1.3052   1.9536537786e+00   5.1230801632e+01     0.130228   0.09188647  47.59  0.000255083    1.594    0.373
        10 -10.8712    131.3190    243.6809   5.9331926594e+01   7.7310528305e+00    0.1153201   0.08138218  44.08 0.0004042107    1.662    0.398
        11 -12.0627    139.2995    249.0115   5.8277058348e+01   6.0255911613e+00     0.257001    0.2008301 -26.10  0.001356878    1.393    0.282
        12 -11.5327    124.8916    249.3779   6.1345227002e+01   7.5728833001e+00    0.1994484    0.1545081 -23.75 0.0006726187    1.413    0.292
        13 -11.0573     84.1740    250.4062   7.0379281185e+01   1.1921327805e+01    0.1842574   0.07997092  35.30 0.0009416966    1.749    0.428
        14 -13.7862     72.7770    231.2021   7.1381201331e+01   1.6636826914e+01    0.6429347    0.3159998 -54.91  0.001539585    2.390    0.582
        15 -13.9396     64.8022    246.3432   7.4452653055e+01   1.4701993421e+01    0.7839233    0.3390365  27.48  0.002146477    1.768    0.434
        16 -12.6368     70.4982    243.5337   7.2932156259e+01   1.4601931858e+01    0.2754298    0.2265915 -87.89  0.001316553    1.533    0.348
        17 -15.4771     46.0323    216.6667   7.6849837638e+01   2.2456137829e+01     3.591267     1.283118 -83.99   0.01352071    4.098    0.756
        18 -15.1916     34.3092    227.5328   8.0450771231e+01   2.1376371998e+01     1.897295    0.7839171  79.10  0.008179159    3.313    0.698
        19 -14.2541     10.7395    189.4059   8.4630451510e+01   3.1835471804e+01    0.6777755    0.4886504  20.03  0.003932096    1.385    0.278
        20 -14.3300      6.2070    183.5661   8.5643652431e+01   3.3568151168e+01    0.8403125    0.4656471  17.86  0.003513411    1.808    0.447
        21 -14.4129     36.3392    248.6053   8.1067818349e+01   1.7129638618e+01    0.8420564    0.3595906  33.53  0.003102759    1.666    0.400
        22 -16.2518     17.6686    210.5261   8.3743127706e+01   2.6467449821e+01     1.727663     1.371288  70.90   0.01112695    1.217    0.178
        23 -15.1603      3.4455    223.5136   8.7715595409e+01   2.4871039659e+01    0.8520644    0.5601344 -70.24  0.005302068    1.777    0.437
        24 -13.9471     19.8124    233.3929   8.4188101412e+01   2.1527587365e+01    0.3551678    0.2307436  26.97 0.0009705689    1.308    0.235
        25 -15.9302     15.4024    227.2812   8.4993436434e+01   2.3131348840e+01     1.176652    0.6252248  21.00  0.006003452    1.721    0.419
        26 -14.9996      3.5892    249.3559   8.8332111505e+01   1.9833711803e+01    0.7348588    0.3288614  23.70  0.003285174    1.855    0.461
        27 -16.7158      8.5984    236.9240   8.6899333362e+01   2.1779772396e+01     2.079765    0.6918778  38.41   0.01037811    2.000    0.500
        28 -10.5249    162.6166    242.5158   5.2758338080e+01   4.3980163980e+00    0.1149849   0.08835609   6.15 9.387376e-05    1.032    0.031
        29 -11.5109    126.3297    241.5977   6.0161919530e+01   8.6307418416e+00    0.1637386    0.1527903 -76.09 0.0005678421    1.550    0.355
        30 -11.0449    167.2180    240.2523   5.1559472480e+01   4.2145651224e+00    0.1438324    0.1143755  23.54 0.0002949563    1.317    0.241
        31 -11.1932    109.1691    239.8127   6.3747334066e+01   1.0908762861e+01    0.1724773     0.123902   5.61 0.0005424647    1.340    0.254
        32 -11.1781    149.5197    239.0577   5.4953068412e+01   6.3645617184e+00    0.1577688    0.1106747 -35.86 0.0007986067    1.565    0.361
        33 -12.0012    102.5101    238.5210   6.5116303762e+01   1.1900911465e+01    0.2214414    0.1766853   9.82 0.0005401876    1.152    0.132
        34 -11.7767    102.4904    234.4665   6.4695070779e+01   1.2610395990e+01    0.2524271    0.1491689  52.01  0.001120664    2.074    0.518
        35 -12.6382     48.2591    236.7051   7.7649520032e+01   1.8196962799e+01    0.4131778    0.2085375  59.65  0.001252733    2.150    0.535
        36 -11.1845     53.1528    237.8067   7.6565511296e+01   1.7488288770e+01    0.2363917    0.1460206  17.33 0.0005121413    1.528    0.345
        37 -11.9107    217.4355    237.6014   4.2154727375e+01  -5.7987266282e-01    0.1787748    0.1271895  -4.16 0.0003313579    1.027    0.027
        38 -11.2634     88.4765    237.4359   6.8237191492e+01   1.3706584049e+01    0.1884809    0.1226611 -88.18  0.001034456    2.353    0.575
        39 -11.1832    211.0897    236.3750   4.3037712247e+01   1.7713770113e-01    0.1880959    0.1368773 -42.94  0.001331309    2.014    0.504
        40 -11.1081     79.6263    237.2173   7.0282972636e+01   1.4746786320e+01    0.1790741    0.1256084  31.46 0.0004867322    1.131    0.116
        41 -11.2487     63.5970    236.8756   7.4031515853e+01   1.6567961685e+01    0.1612717    0.1103522  76.25 0.0009486874    1.813    0.448
        42 -11.0391    138.0586    236.2637   5.7001776971e+01   8.1165280027e+00    0.1691489    0.1258721  19.89 0.0001924739    1.085    0.079
        43 -11.0337     58.1206    234.6740   7.5168482353e+01   1.7567960004e+01    0.1831606    0.1287199  27.69 0.0007487518    1.163    0.140
        44 -11.7708    112.1389    233.8202   6.2418743787e+01   1.1582271132e+01    0.3507491   0.08926777  38.98  0.001270472    3.539    0.717
        45 -11.0350    214.9471    232.6988   4.1867036703e+01   2.5525453521e-01    0.1493793    0.1056694   1.98 0.0003985984    1.073    0.068
        46 -11.7966    182.9535    232.3764   4.7473094167e+01   3.5970186864e+00    0.2605537    0.1743716  36.12  0.001678216    1.783    0.439
        47 -12.9884    194.8555    229.0235   4.4810742755e+01   2.7738026362e+00    0.2479928    0.2119368  -2.90 0.0005354489    1.312    0.238
        48 -10.4247    143.2480    231.6749   5.5314172538e+01   8.2318612920e+00    0.1060944   0.08940539  44.69  0.000283702    1.538    0.350
        49 -11.2663     61.3240    229.9303   7.4041057903e+01   1.8142670433e+01    0.3446485    0.1623766 -69.44  0.001711602    2.560    0.609
        50 -10.9886    138.5560    227.8006   5.5814876153e+01   9.4176105233e+00    0.2475131    0.1285568 -61.76  0.001158529    3.253    0.693
        51 -10.9438     85.4989    228.9783   6.8123700052e+01   1.5603067232e+01    0.1615909    0.1297141 -67.01 0.0006188453    1.547    0.354
        52 -11.1522     56.6217    229.7185   7.5165786634e+01   1.8687580424e+01    0.1236255   0.08975103  -8.26 0.0007010532    1.715    0.417
        53 -11.8525    230.4897    228.0085   3.8679315710e+01  -6.5839213051e-01    0.1528707   0.08299863 -30.12 0.0005849904    1.580    0.367
        54 -12.3826    221.9769    232.3823   4.0668594286e+01  -3.8149813482e-01    0.2797782    0.1691727  25.27  0.001442201    1.630    0.386
        55 -15.5507     23.5870    186.5701   8.0865865720e+01   3.1434371518e+01     2.268281     1.515704  45.13   0.01242115    1.292    0.226
        56 -12.5883    124.4732    221.8051   5.8163406661e+01   1.2169175392e+01    0.3791701     0.172737  32.44  0.001831791    1.834    0.455
        57 -12.6189    128.7298    217.7015   5.6656967686e+01   1.2354060943e+01    0.3998318    0.2088825  -8.27  0.001572536    3.466    0.711
        58 -11.8286    116.5072    225.4867   6.0445555720e+01   1.2509008434e+01    0.1562092    0.1290044 -76.37 0.0008348834    1.715    0.417
        59 -12.4743    114.6287    221.8294   6.0432963182e+01   1.3395549913e+01    0.2550257    0.1981595  81.12  0.001029384    1.985    0.496
        60 -11.9717     80.8029    225.3200   6.8900347366e+01   1.6847606470e+01    0.2381444    0.2027066 -66.93  0.001137507    1.431    0.301
        61 -12.9334     77.1658    219.8719   6.9265125494e+01   1.8341815970e+01    0.3440015    0.2427348  48.28  0.000398384    1.376    0.273
        62 -10.2239    182.3012    225.6854   4.6639601192e+01   4.6059837948e+00    0.1000243   0.08838427  33.46 0.0003013817    1.613    0.380
        63 -12.0415    159.7972    223.0850   5.0692511880e+01   7.6068220576e+00    0.3108108     0.253483  30.25  0.002093771    1.358    0.264
        64 -12.4481     93.1262    223.2766   6.5703729028e+01   1.5774508609e+01    0.4030405    0.2555869 -14.30  0.001108801    2.113    0.527
        65 -13.2151     57.8871    220.7723   7.4164651888e+01   2.0344397629e+01     0.393214    0.2978632 -72.13  0.002403959    1.553    0.356
        66 -12.6525     62.5018    216.9853   7.2684712428e+01   2.0613131320e+01    0.3247899    0.2305015  42.47 0.0009507001    1.221    0.181
        67 -12.3376     67.2276    216.3705   7.1430700737e+01   2.0204499189e+01    0.3145179     0.177914  38.43 0.0007436428    1.471    0.320
        68 -11.9658    189.6930    220.8018   4.4542630569e+01   4.4680442615e+00    0.1997998    0.1297069   6.67 0.0007063497    1.333    0.250
        69 -12.5263    173.9906    218.9122   4.7244078082e+01   6.5531246756e+00    0.3656906    0.2049262 -31.66  0.002100329    1.747    0.428
        70 -10.8078    213.2822    220.3112   4.0320674835e+01   1.9899393903e+00    0.1563602   0.08716822 -45.10 0.0009139209    2.367    0.577
        71 -11.8888     73.1274    223.1047   7.0572293870e+01   1.8168918796e+01    0.1851435    0.1614645   5.42 0.0005657278    1.204    0.170
        72 -11.0841    197.0000    218.0570   4.2802166920e+01   4.0370351184e+00    0.2049783    0.1110607 -30.62  0.001180844    1.688    0.408
        73 -10.8160    196.2462    214.6482   4.2417418604e+01   4.5974838006e+00    0.1648193    0.1088255 -11.17 0.0003726801    1.324    0.245
        74 -12.7575    147.1353    216.3204   5.2389408718e+01   1.0255023289e+01    0.4014574    0.2570326  20.42 0.0001473543    1.345    0.257
        75 -12.9074    141.6418    211.7410   5.2931032605e+01   1.1736269389e+01    0.4895447    0.2724684 -61.23  0.002323305    2.832    0.647
        76 -11.1964     94.6921    217.5711   6.4693227793e+01   1.6677856089e+01    0.2287901    0.1348324  34.52 0.0006257654    1.425    0.298
        77 -11.0744    225.6170    216.3320   3.7702920463e+01   1.2423198038e+00    0.1359733    0.1222206 -21.67  0.001075975    1.648    0.393
        78 -11.3401     72.7775    212.3698   6.9634432568e+01   2.0385541313e+01    0.2629481    0.1445338  21.63  0.001278887    1.673    0.402
        79 -12.8747     85.0959    214.8965   6.6774539686e+01   1.8386578648e+01    0.7871435    0.1663555  33.78   0.00269415    3.279    0.695
        80 -11.1278     77.3240    213.6957   6.8608481623e+01   1.9570677641e+01    0.2146965      0.15397  47.83 0.0005344954    1.346    0.257
        81 -12.3553    107.9498    214.5789   6.1116095279e+01   1.5583237408e+01    0.2339506    0.2032406 -45.92 0.0008560516    1.336    0.252
        82 -13.0257    121.4902    216.4039   5.8147269041e+01   1.3510355964e+01    0.4138077    0.2998075  81.24   0.00105241    2.466    0.595
        83 -11.7164    155.4316    212.7001   5.0093323135e+01   9.8054118085e+00    0.2721263    0.2445765 -53.90  0.001820245    1.541    0.351
        84 -13.0921    228.0490    207.6367   3.5973959312e+01   2.1001631875e+00    0.4139956    0.3089391 -50.70  0.001760371    2.340    0.573
        85 -11.2932    230.2560    204.0549   3.5065774647e+01   2.3318943339e+00      0.16635    0.1118548 -10.49 0.0002792025    1.172    0.146
        86 -11.0718    209.4995    211.4466   3.9601177950e+01   3.5676002017e+00    0.1147591   0.08632529  -5.70 0.0001033857    1.007    0.007
        87 -12.5818    169.8320    209.5098   4.6647552671e+01   8.5070894973e+00    0.3528795    0.2629391  57.91 0.0006888769    2.443    0.591
        88 -12.5953     59.3993    210.1606   7.2885642632e+01   2.2396363793e+01    0.3666164    0.2598813 -66.32   0.00169605    1.617    0.381
        89 -12.2376     52.1610    209.6911   7.4735939790e+01   2.3296180734e+01    0.2443949    0.2230291  65.30   0.00043681    1.151    0.131
        90 -12.4661     53.8617    205.2627   7.3916799321e+01   2.4075080995e+01    0.4736524    0.2240725  46.33  0.002176129    1.917    0.478
        91 -10.8155    213.6490    210.6713   3.8780208494e+01   3.2216944138e+00    0.1215908   0.06918775  -6.58 0.0007048005    1.767    0.434
        92 -11.8152     90.6672    209.8682   6.4810743482e+01   1.8708079857e+01    0.2499484    0.1853119  55.68 0.0008513713    1.506    0.336
        93 -12.1948    106.1511    208.8316   6.0826702005e+01   1.6923663836e+01    0.1978324    0.1569915  26.16 0.0004372958    1.077    0.072
        94 -12.0518    104.2876    205.4415   6.0849729157e+01   1.7837775587e+01    0.3370414    0.1972079  21.46  0.001666672    1.583    0.368
        95 -11.7810    180.3061    207.5304   4.4279636910e+01   7.5186027460e+00    0.2019881    0.1698565 -12.04 0.0005830962    1.149    0.129
        96 -10.4848     72.6341    208.3212   6.9264156472e+01   2.1250703750e+01    0.1471437   0.08493658  51.30 0.0007038796    1.787    0.440
        97 -11.3387     96.8663    209.6140   6.3224113646e+01   1.7970625395e+01    0.3611658    0.1830287 -67.41  0.001633256    2.659    0.624
        98 -12.4771    117.0464    204.8683   5.7644127109e+01   1.6249584444e+01    0.3930594    0.1815097  47.48  0.001610485    2.733    0.634
        99 -11.4539    238.9975    204.3318   3.3784352953e+01   1.4073924691e+00    0.1466578    0.1075722  -2.04 0.0004405863    1.124    0.111
       100 -12.0641     90.9597    189.2929   6.2159201145e+01   2.3011415716e+01     0.483805    0.3170711  83.94  0.002213964    2.332    0.571
       101 -11.9546     92.6492    193.3077   6.2244716544e+01   2.1909702487e+01    0.3271567    0.2741528  43.54  0.001187677    1.167    0.143
       102 -12.3895     89.2983    201.3004   6.4140318689e+01   2.0652133387e+01    0.3485313    0.2343242 -54.81  0.001162805    1.671    0.402
       103 -12.4218     91.6736    198.6725   6.3195104011e+01   2.0895473683e+01    0.3510252    0.2685966 -43.72   0.00118532    1.459    0.315
       104 -12.9088    145.2051    200.2559   5.0419667219e+01   1.3282678237e+01    0.4888882    0.3770277 -71.19  0.002730443    2.044    0.511
       105 -12.0860    212.1716    199.7176   3.7282104655e+01   4.8806198292e+00    0.2382205    0.2107461 -61.98  0.001191141    2.079    0.519
       106 -11.5878    137.6698    201.1763   5.2259435122e+01   1.4144262919e+01    0.2179483    0.1574114  33.37 0.0005621411    1.313    0.238
       107 -15.2119      4.3224    168.6547   8.5547206601e+01   3.7358154696e+01     1.562031     1.081252 -83.37  0.007723919    1.412    0.292
       108 -11.3941     49.3173    198.9674   7.4601421711e+01   2.5977341673e+01    0.3943986    0.1714954 -50.18  0.001330414    2.745    0.636
       109 -13.6132    173.0345    195.7346   4.3808479556e+01   1.0309917306e+01    0.4073081    0.2836753  37.42   0.00128075    1.584    0.369
       110 -11.6234     84.5227    199.0264   6.5115229146e+01   2.1753320979e+01    0.1866102     0.139137 -65.98 0.0006006542    1.557    0.358
       111 -11.4073     60.7799    198.3986   7.1423360498e+01   2.4814370911e+01    0.2551948    0.1752658 -82.53  0.001348202    1.698    0.411
       112 -11.5843    224.8680    198.1526   3.4961529162e+01   3.6778811782e+00    0.1584772    0.1313454 -15.20 0.0005010763    1.250    0.200
       113 -10.7427    167.2855    202.6416   4.6088005291e+01   9.9341254680e+00    0.1097565     0.101179  63.72 0.0007021331    1.677    0.404
       114 -12.0441    138.1251    197.0899   5.1527482278e+01   1.4832790652e+01    0.2948705    0.1705381  13.85 0.0006952986    1.893    0.472
       115 -12.2384    192.2538    194.9727   3.9996782415e+01   7.9542032540e+00    0.3132204    0.2244265  -7.07   0.00137546    1.239    0.193
       116 -12.0359    100.8071    195.3363   6.0385623536e+01   2.0369847017e+01    0.4427257    0.2705603  31.68  0.001358275    1.428    0.299
       117 -11.4529    212.6601    193.8004   3.6228323500e+01   5.6536779879e+00    0.1930892     0.129883 -36.63 0.0007797749    1.479    0.324
       118 -11.9354    160.8756    192.7799   4.5818419189e+01   1.2447493225e+01    0.2250932    0.1794818 -34.41 0.0005686777    1.288    0.224
       119 -12.6717    133.7206    190.7199   5.1547905909e+01   1.6655922093e+01    0.3307543    0.2598787   7.40  0.001217395    1.208    0.172
       120 -11.8915     70.9657    187.5250   6.7433700587e+01   2.6047386290e+01    0.4387596    0.1977469  41.87  0.001838917    2.009    0.502
       121 -12.9736     76.3445    185.0542   6.5623281984e+01   2.5922266478e+01    0.5954171    0.3513712 -74.29  0.002325837    2.072    0.517
       122 -12.5731    110.7430    188.1693   5.6801645629e+01   2.0475724172e+01    0.2891839    0.2462952  15.28  0.001201834    1.078    0.072
       123 -13.0644    122.3511    196.5583   5.5167230449e+01   1.7135809068e+01     0.433616    0.3214596  43.33  0.002406634    1.419    0.295
       124 -12.3909    156.6814    185.9902   4.5573214908e+01   1.4230964326e+01    0.2561342    0.1709491  11.41 0.0008787397    1.542    0.352
       125 -13.2864    248.8451    185.5262   2.9349309603e+01   2.7657784853e+00     0.237244    0.1772923 -11.23 0.0006604611    1.076    0.070
       126 -11.0894    207.9968    187.0010   3.5869154192e+01   7.1897539628e+00    0.2144459    0.1120738   7.98  0.001026736    2.660    0.624
       127 -13.0088    127.0029    185.9168   5.2386205972e+01   1.8571628634e+01     0.446916    0.1965255  28.66  0.001852964    2.156    0.536
       128 -11.1139    163.7919    184.8385   4.3861990498e+01   1.3419427739e+01    0.1663362    0.1517938  35.33 0.0004405409    1.329    0.247
       129 -12.6829     93.4160    181.6454   6.0424847451e+01   2.4363580940e+01    0.5945655    0.3366041  46.22  0.002292572    1.809    0.447
       130 -11.2366     55.2484    183.6198   7.1482887386e+01   2.8878208313e+01    0.3704107    0.1694191 -37.39  0.001340023    3.401    0.706
       131 -15.1465      3.3972    204.7628   8.7172779129e+01   2.8882502196e+01     2.177651    0.5743116 -68.87   0.00845072    3.837    0.739
       132 -12.2383    134.0627    182.0157   5.0040465934e+01   1.8298475602e+01    0.2055398    0.1825721   9.73 0.0003177082    1.004    0.004
       133 -10.6344     49.6765    182.7255   7.3011873121e+01   2.9730114057e+01    0.1350655    0.1047665 -20.24 0.0001912515    1.579    0.367
       134 -12.3041    224.7416    177.7688   3.1565466223e+01   6.4819712061e+00    0.3320514    0.1706142 -18.93 0.0008692832    2.072    0.517
       135 -12.5757    191.4562    178.5857   3.7323881711e+01   1.0610852795e+01    0.3446078    0.2315153 -61.87  0.001721593    2.807    0.644
       136 -12.7193    116.4326    178.3790   5.3803921107e+01   2.1694798739e+01    0.3344499    0.2445325  50.56  0.001491517    1.542    0.352
       137 -11.4090     99.8910    179.7748   5.8386991245e+01   2.3849308040e+01    0.2200063    0.1850121   1.97 0.0005902916    1.230    0.187
       138 -13.7983    128.6672    176.3530   5.0385390046e+01   2.0250942433e+01    0.5810108    0.3686967  11.25  0.002708151    1.851    0.460
       139 -13.4722    126.4606    172.4657   5.0258312359e+01   2.1392319982e+01     0.651833    0.2584749 -39.44  0.002383304    2.962    0.662
       140 -11.8977     37.9371    177.7023   7.6011636343e+01   3.2215726775e+01    0.3159358    0.1750842 -27.81  0.001297793    2.733    0.634
       141 -13.3954     20.6373    176.2886   8.1070730780e+01   3.4196192039e+01    0.4674028    0.2883738  25.09  0.002235579    1.522    0.343
       142 -12.0635    137.2635    177.0369   4.8426260430e+01   1.8796031612e+01    0.2363444    0.2348097 -65.41  0.000755024    1.229    0.186
       143 -11.4136    135.5624    173.4822   4.8207457783e+01   1.9765131129e+01    0.1945484    0.1253765  41.16 3.200898e-05    1.579    0.367
       144 -12.6498     50.7867    190.0258   7.3393082368e+01   2.7874116400e+01    0.2987671    0.2080211  41.15 0.0004666575    1.257    0.205
       145 -12.0564     79.6283    173.1601   6.3098230832e+01   2.8256361279e+01    0.3141256    0.2213665   0.37 0.0009404731    1.736    0.424
       146 -11.7335     83.6936    172.0088   6.1754068567e+01   2.7957964527e+01    0.3219552    0.2163017  83.71  0.001314202    2.080    0.519
       147 -11.3905     63.7072    176.8628   6.8251494469e+01   2.9475266654e+01    0.2349201    0.1812515  19.61 0.0003105854    1.278    0.218
       148 -12.0223    247.5486    176.1494   2.7971184277e+01   4.1002994158e+00    0.2119348    0.1389419  14.00 0.0009578659    1.604    0.377
       149 -13.1201    147.1276    174.7962   4.5736598471e+01   1.7720613663e+01    0.4643034    0.2849952  59.70   0.00193466    3.003    0.667
       150 -12.2558    106.6647    175.5774   5.5909066993e+01   2.3771588039e+01    0.2719635    0.2323713  42.33 0.0007389148    1.171    0.146
       151 -12.3337     44.9791    172.1446   7.3358704569e+01   3.2845789146e+01    0.3720361    0.2293355  18.07 0.0009898472    1.661    0.398
       152 -11.7845     36.8200    172.4491   7.5883792980e+01   3.3634612786e+01    0.2393426    0.1913534 -84.49 0.0005626222    1.287    0.223
       153 -12.4559     91.0826    171.0558   5.9492512447e+01   2.7113929977e+01    0.4045301    0.2860587 -17.45  0.001904953    1.798    0.444
       154 -11.5168     95.3101    171.6695   5.8395295994e+01   2.6348133701e+01    0.2605824    0.1582086  48.57 0.0005717129    1.754    0.430
       155 -11.5903    236.9578    171.0312   2.8579937942e+01   5.9685927546e+00    0.1724324    0.1317108 -19.15 0.0004151774    1.029    0.028
       156 -10.8611    208.3182    171.3252   3.3067070414e+01   9.4822376454e+00    0.1263613   0.08065916  -8.27 0.0007045237    1.675    0.403
       157 -12.2850    197.8845    170.5592   3.4720303981e+01   1.1005448502e+01    0.2431716     0.205927  -8.13  0.001118036    1.050    0.048
       158 -13.0432    153.0394    170.0953   4.3551663895e+01   1.7701392259e+01    0.2671387    0.2452421 -13.64 0.0004560558    1.082    0.076
       159 -12.9489    153.5845    166.3870   4.2739800223e+01   1.8318450709e+01    0.4179791    0.2730117  61.79  0.001840553    2.700    0.630
       160 -12.9092    119.0654    168.8606   5.1508036419e+01   2.3316188000e+01    0.6618053    0.3205889  19.09  0.002423265    2.803    0.643
       161 -12.6189    127.3860    166.3706   4.8937692147e+01   2.2517326430e+01    0.3012605    0.2522634  25.04  0.001012991    1.121    0.108
       162 -11.6194     61.9956    170.5939   6.7995078340e+01   3.1218519349e+01    0.3154989    0.1319695  26.35  0.001207132    2.230    0.552
       163 -12.1067    159.6817    168.1595   4.1739145340e+01   1.7031028208e+01    0.2289785    0.1767392  38.44 0.0007619751    1.375    0.272
       164 -11.1644     41.4581    168.2613   7.4054207903e+01   3.4204145019e+01    0.2777692    0.1391322  44.45  0.001198169    1.831    0.454
       165 -11.0131     31.0605    167.5107   7.7230732993e+01   3.5452385936e+01     0.205251    0.1317134  23.12 0.0004975855    1.511    0.338
       166 -11.9041     99.9849    166.0723   5.6176065333e+01   2.6924168640e+01     0.218051    0.1996612  11.88  0.000290334    1.064    0.060
       167 -11.1144    110.7802    165.3638   5.3084850359e+01   2.5393492524e+01    0.2121198    0.1321568  21.97 0.0009473408    1.673    0.402
       168 -10.9474     64.2168    164.8051   6.6566590530e+01   3.2368601189e+01    0.1936809    0.1683758 -18.92 0.0004234933    1.299    0.230
       169 -11.7923     57.9235    164.7794   6.8518120962e+01   3.3176766823e+01    0.3061967    0.1757618  43.22  0.001368918    1.625    0.385
       170 -12.6111     36.1423    162.7796   7.5190891596e+01   3.6159439764e+01    0.5470165    0.1664806 -62.14  0.001930647    3.037    0.671
       171 -11.4301     40.6892    161.4539   7.3598209713e+01   3.6025204081e+01    0.2832088    0.1359318  23.58 0.0007339726    2.004    0.501
       172 -11.8277    230.4011    163.3685   2.8180405146e+01   7.8155677956e+00    0.1979281    0.1584303 -24.19 0.0002607959    1.110    0.099
       173 -11.1696    205.4074    163.8054   3.2181687582e+01   1.1025667619e+01    0.1746743   0.09913333 -28.15 0.0006027825    1.599    0.374
       174 -11.6215    198.4469    164.4717   3.3498991759e+01   1.1891910992e+01    0.1253439    0.1044877 -15.95 4.058518e-05    1.014    0.014
       175 -11.9233     89.8782    163.4844   5.8639154790e+01   2.9070228532e+01    0.3532448    0.1934313 -14.35  0.001099477    4.133    0.758
       176 -12.7072     13.2168    161.3698   8.2402390354e+01   3.8566688432e+01    0.4567717    0.2320412  42.83  0.001537191    1.747    0.428
       177 -12.1108     16.5485    160.4966   8.1282995707e+01   3.8532002478e+01    0.3361085    0.1932433  57.93  0.001149274    1.663    0.399
       178 -12.6925    170.0544    160.1558   3.8040512937e+01   1.6868005365e+01    0.2922011    0.2677056  87.14  0.001023001    1.541    0.351
       179 -12.6326     46.0963    160.1420   7.1712430177e+01   3.5766867605e+01    0.3917491     0.211098  44.19 0.0003906861    1.736    0.424
       180 -10.8266    221.8436    159.7856   2.8809115903e+01   9.4205029037e+00    0.1493884    0.1243258 -36.38 0.0003828689    1.298    0.230
       181 -11.1078    196.4826    160.5016   3.3097646854e+01   1.2808826157e+01    0.1269585    0.1066913 -16.08 4.247148e-05    1.006    0.006
       182 -12.2926    133.8342    157.9963   4.5758252660e+01   2.3209171304e+01    0.3516883    0.2924367  56.12 0.0008832461    1.425    0.298
       183 -11.2966    105.8385    159.1352   5.3332676287e+01   2.7590111468e+01    0.2285489    0.1974134  56.76  0.000500156    1.265    0.210
       184 -11.8638    122.4528    156.9345   4.8438685984e+01   2.5342532183e+01    0.3079138    0.1762292  63.86  0.001018738    3.586    0.721
       185 -11.5491    118.5013    157.4679   4.9578775745e+01   2.5885814425e+01    0.1474818     0.136277   7.19 0.0002178605    1.039    0.038
       186 -11.3364     70.2039    157.6428   6.3684652549e+01   3.3356243105e+01    0.2061109     0.137476  15.85 0.0003243954    1.632    0.387
       187 -12.5826     30.2715    156.5556   7.6501340063e+01   3.8355414374e+01    0.4766108    0.2272012  41.65  0.002032697    1.898    0.473
       188 -11.8180    190.4988    155.3530   3.3177271518e+01   1.4538184988e+01    0.2310639    0.1577633 -35.07 0.0005461061    1.317    0.241
       189 -12.8231     77.0798    155.2890   6.1169110710e+01   3.2965268988e+01    0.4701063    0.2005487  50.65  0.001592493    2.919    0.657
       190 -12.5932     26.3864    125.2009   7.4535926889e+01   4.7156487144e+01    0.3498706    0.2707109 -43.28   0.00174256    1.371    0.271
       191 -14.1438     13.6573    152.9420   8.1706638418e+01   4.0723488053e+01     1.021394     0.380924  63.58  0.003637686    3.080    0.675
       192 -14.5228     11.6106    142.5143   8.1666000853e+01   4.3636265596e+01    0.7664632    0.5818743  73.01  0.004156958    1.251    0.201
       193 -14.7706     14.5570    134.7715   7.9999320321e+01   4.5509372954e+01    0.9144523    0.5502495  28.63  0.002968558    1.612    0.380
       194 -13.4795     20.7404    130.9149   7.7339053698e+01   4.6078931012e+01    0.4548883    0.3714636 -12.46  0.001354036    1.393    0.282
       195 -10.8742    141.4960    155.4805   4.3411800541e+01   2.2437743360e+01    0.1418294     0.132319   1.47 0.0003062596    1.017    0.017
       196 -11.6286     20.8704    154.3824   7.9421061767e+01   3.9770470514e+01    0.2976904    0.2369652 -39.12  0.001227554    1.435    0.303
       197 -12.8042     19.4650    149.3543   7.9485923404e+01   4.1214216425e+01    0.3903662    0.2721995  -4.34   0.00111881    1.715    0.417
       198 -12.6230    172.2117    152.8973   3.6176059152e+01   1.7828777519e+01    0.4173006    0.1950006 -38.43 0.0007535482    2.032    0.508
       199 -12.8895     51.6086    152.1742   6.8924467746e+01   3.7186804219e+01     0.399578     0.247457 -22.60  0.001629094    2.278    0.561
       200 -13.0359     83.5000    150.3852   5.8352297145e+01   3.3218525425e+01    0.4728072    0.3190391  -7.95  0.001396179    2.096    0.523
       201 -11.0683    128.2823    151.0471   4.5781836932e+01   2.5621736833e+01     0.196425    0.1876099 -20.04  0.000388857    1.056    0.053
       202 -12.8277      3.1509    149.9401   8.5010271671e+01   4.2230404817e+01    0.3703028    0.3041507   4.01  0.002142616    1.367    0.268
       203 -12.7905     27.1858    149.4737   7.6865699694e+01   4.0512012184e+01    0.4140673     0.216971   9.61  0.001727506    2.232    0.552
       204 -11.3659    147.0151    148.7085   4.0752343055e+01   2.2857821614e+01    0.1983163    0.1771572  18.27 0.0003882029    1.089    0.081
       205 -11.2033     96.2788    149.0253   5.4225699700e+01   3.1514827662e+01    0.2073767    0.1960594 -61.63 0.0005354817    1.121    0.108
       206 -12.3230     36.9778    149.0029   7.3470750984e+01   3.9676964889e+01    0.1787919    0.1666771  53.95 0.0006097837    1.011    0.011
       207 -11.7003     62.5807    146.0450   6.4379746266e+01   3.7370579786e+01    0.3260379    0.2019021  71.52  0.001339478    2.119    0.528
       208 -12.5191    170.9591    144.9836   3.4819110026e+01   1.9467507194e+01    0.3453674    0.2195069 -26.63  0.001320981    1.643    0.391
       209 -12.4612    102.1736    142.6604   5.1250113258e+01   3.2040865574e+01    0.6091621    0.3814822  81.07   0.00216472    3.187    0.686
       210 -11.6770    182.2361    149.6146   3.3569970411e+01   1.6796512102e+01    0.1818951    0.1195715  26.14 0.0009555803    1.654    0.395
       211 -11.7351    187.1395    143.8981   3.1508536497e+01   1.6992708054e+01    0.1893906    0.1684102 -43.09 0.0003310122    1.222    0.181
       212 -10.8289     85.7972    143.7999   5.6448967608e+01   3.4488925771e+01    0.2022136    0.1722609  64.97 0.0003264042    1.275    0.216
       213 -13.1668     51.6289    142.8104   6.7622657908e+01   3.9648347603e+01    0.4440957     0.291861  29.86  0.001000468    1.454    0.312
       214 -11.2634    211.6823    143.5518   2.7306951429e+01   1.3270787416e+01    0.1379105    0.1214101  47.39 0.0005940786    1.459    0.315
       215 -11.4822    144.2048    143.1389   4.0245516116e+01   2.4474347963e+01    0.2638629    0.1958423   6.78  0.001294591    1.608    0.378
       216 -11.0418    178.3134    142.6679   3.2900034873e+01   1.8651532097e+01    0.1276454    0.1070744 -74.11 0.0006327204    1.680    0.405
       217 -11.9374    108.9068    149.1181   5.0593484885e+01   2.9381505907e+01    0.3159494    0.2924981  81.25 0.0008154985    1.225    0.184
       218 -12.5884     94.3270    140.3654   5.3143709160e+01   3.3928802836e+01    0.3837154    0.3058894   0.75 0.0009782583    1.471    0.320
       219 -12.5217     72.3513    138.2724   5.9796491344e+01   3.7981236881e+01    0.4464058    0.1474108 -61.93  0.001406936    3.192    0.687
       220 -13.1053     40.1577    137.3005   7.0918410425e+01   4.2470668409e+01    0.3818203    0.2473403  62.52 0.0004454226    1.675    0.403
       221 -10.8281    132.3469    135.7027   4.1525524662e+01   2.8180200713e+01    0.2452194    0.1487086  43.10 0.0008288065    1.665    0.399
       222 -12.6474     46.5832    136.4192   6.8477116015e+01   4.1970076278e+01    0.2618133    0.2416315 -51.16  0.000180491    1.132    0.117
       223 -12.6338     43.4246    132.7037   6.9086202899e+01   4.3343724725e+01    0.3941101    0.2211496 -83.69  0.001609791    2.054    0.513
       224 -10.4920     83.3343    136.6673   5.5874378046e+01   3.6666876851e+01    0.1609003    0.1542758   2.10 0.0004095085    1.074    0.069
       225 -12.1485     86.6454    134.8440   5.4446029755e+01   3.6577519781e+01    0.3048814    0.2597017  46.83 0.0008430626    1.161    0.139
       226 -12.3093     66.8455    135.4465   6.1161084700e+01   3.9531485503e+01    0.2973464    0.2117028 -81.82  0.001351211    1.622    0.384
       227 -12.7093    199.6532    133.3221   2.7180366839e+01   1.6739319450e+01    0.4250145    0.2276498  32.31  0.001190666    2.292    0.564
       228 -12.4065    123.0466    134.9881   4.3777561109e+01   3.0059590428e+01     0.224551    0.2171934   1.84 0.0003612358    1.006    0.006
       229 -12.2872    103.1456    134.0627   4.9181341890e+01   3.3907852635e+01      0.34614    0.2152397  40.40   0.00150604    1.560    0.359
       230 -12.8552     59.6376    133.7956   6.3392640357e+01   4.0989707453e+01    0.3874277    0.2007445  35.49    0.0015693    1.804    0.446
       231 -11.1693     77.8146    133.1432   5.7002161130e+01   3.8448556192e+01    0.2110436     0.178912 -28.90 0.0003507423    1.302    0.232
       232 -12.7602    128.5170    136.3522   4.2643978492e+01   2.8749391247e+01    0.4786673    0.2616391 -57.10  0.001935628    2.167    0.539
       233 -11.9921    230.1488    130.5421   2.2100689128e+01   1.2545686406e+01     0.211994    0.1498331 -34.21 0.0003281478    1.143    0.125
       234 -13.2743    130.2165    128.5063   4.0450879342e+01   3.0121572521e+01    0.3307251     0.311694 -29.36 0.0006055625    1.050    0.047
       235 -12.4128    122.0000    128.1621   4.2526454264e+01   3.1766563332e+01    0.3384288    0.2226924 -54.48  0.001356367    1.619    0.382
       236 -12.6687     82.2213    128.3306   5.4559187044e+01   3.8950309928e+01    0.4738124    0.3013322 -17.85  0.001804684    2.484    0.597
       237 -11.0911    196.5542    128.0042   2.6583210419e+01   1.8114431801e+01    0.1763212    0.1011922 -56.16 0.0003803007    2.371    0.578
       238 -13.3703     58.8734    125.7364   6.2240450191e+01   4.3235837228e+01    0.4710867    0.2833458 -25.47  0.001729844    2.399    0.583
       239 -13.7535      9.3743    126.3274   8.1233206182e+01   4.8162064870e+01    0.6479043    0.3158813 -33.19  0.002355551    2.571    0.611
       240 -13.4652     14.3416    119.5406   7.8664061035e+01   4.9685861849e+01      0.73163    0.3952122 -33.33  0.003100299    2.213    0.548
       241 -11.2628    183.3081    127.1859   2.8690103561e+01   2.0511102909e+01    0.1952806    0.1096942 -45.00 0.0009328637    1.699    0.412
       242 -11.8687     35.0255    126.7075   7.1392139309e+01   4.5900976319e+01     0.205823    0.1912726  34.32 0.0005601228    1.078    0.073
       243 -10.7986     64.6649    126.7088   6.0318203274e+01   4.2142933857e+01    0.1576775    0.1183455 -20.93 0.0002985659    1.637    0.389
       244 -10.8491     48.3155    126.6790   6.6332329130e+01   4.4384832720e+01    0.1622453    0.1085533  60.27 0.0007040779    1.659    0.397
       245 -12.1334    169.8875    123.5821   3.0408828793e+01   2.3566046322e+01    0.3770042    0.1814374 -38.86  0.001623602    1.953    0.488
       246 -12.8722     75.3075    124.5609   5.6126694099e+01   4.1049940428e+01    0.3214487    0.2387757 -69.62  0.001490473    1.461    0.315
       247 -13.5579     78.1677    119.7733   5.4106830493e+01   4.1800881684e+01    0.6077021    0.3312319  32.39 0.0006940045    1.812    0.448
       248 -12.1933    186.5044    123.9903   2.7429364602e+01   2.0501259234e+01    0.2203251     0.197064  34.52  0.001366028    1.227    0.185
       249 -11.6509     40.7787    124.6067   6.8872188404e+01   4.5847232071e+01    0.2230265    0.1265883  36.91 0.0009486576    1.683    0.406
       250 -13.3965    104.0483    121.0332   4.5983060022e+01   3.6820518034e+01     0.651292    0.3313053  47.98  0.002412477    2.093    0.522
       251 -11.2648    224.2469    120.4373   2.0900884063e+01   1.4885783236e+01     0.134497    0.1197799  73.16 0.0003983752    1.510    0.338
       252 -11.6233    201.8012    120.5797   2.4172349763e+01   1.8444620128e+01    0.1580072    0.1261424  64.81 0.0007175662    1.638    0.390
       253 -10.7391    231.5277    118.5173   1.9570978422e+01   1.4075402758e+01    0.1197698    0.0951808 -28.85 0.0005445334    1.044    0.042
       254 -13.5744      8.9812    117.4781   8.0625314835e+01   5.0607109221e+01    0.4897168    0.3819911 -34.73  0.001892131    1.388    0.280
       255 -12.6007    114.5005    114.4448   4.1324145782e+01   3.6295161850e+01    0.4276809    0.3133694 -20.51 0.0009815687    1.739    0.425
       256 -12.2242    113.6744    109.0840   4.0202594777e+01   3.7661494967e+01    0.3556777    0.2534209  62.37 0.0009831429    1.678    0.404
       257 -12.2604     82.6752    115.6682   5.1616761468e+01   4.2058816034e+01    0.3597328    0.1497266  35.93  0.001251248    2.322    0.569
       258 -11.1659     82.3512    112.7210   5.1034729103e+01   4.2852910884e+01    0.2462421    0.1635993 -61.30 0.0004288836    1.605    0.377
       259 -12.9705     73.6242    114.6017   5.4564582061e+01   4.3884026139e+01    0.3040845    0.2701666  65.75 0.0008723679    1.185    0.156
       260 -13.2958     11.1369    111.2509   7.9131840425e+01   5.2181967363e+01    0.3358385    0.2814853 -84.46 0.0005871981    1.132    0.116
       261 -12.4361    193.6359    122.0718   2.5801868040e+01   1.9586456878e+01    0.2002676    0.1891746  76.47   0.00129556    1.293    0.227
       262 -13.5240     63.0848    111.7928   5.7862084762e+01   4.6304914193e+01    0.7054134    0.2863607 -63.61  0.002390078    2.685    0.628
       263 -10.4992    242.3149    112.3240   1.7059554403e+01   1.3376679918e+01    0.1128241   0.07958467  -9.61 0.0006942105    1.664    0.399
       264 -12.0628     58.5422    114.0115   6.0081176630e+01   4.6400866451e+01    0.2871797    0.2221972  31.40 0.0001997437    1.273    0.215
       265 -12.4282      5.4692    111.8149   8.1563815264e+01   5.2363785346e+01    0.2507893    0.2040062  14.31 0.0007713329    1.314    0.239
       266 -11.3251     52.5534    110.8824   6.1795966723e+01   4.8084765120e+01    0.2525804    0.2045296  10.60 0.0006196177    1.341    0.254
       267 -11.7415    169.4994    109.4465   2.7214335435e+01   2.6199792220e+01     0.138328    0.1289333 -36.46 0.0001019202    1.008    0.008
       268 -11.4562    160.7829    107.9621   2.8556973845e+01   2.8196355629e+01    0.1929217    0.1102576 -39.93 0.0003128682    1.656    0.396
       269 -12.1327    108.7968    107.8530   4.1300899576e+01   3.8931940035e+01    0.2679436    0.2196524  46.46 0.0003826654    1.212    0.175
       270 -12.1584    109.6954    103.9801   4.0018911393e+01   3.9618690345e+01    0.3333034    0.2747924 -37.62 0.0003694902    1.260    0.206
       271 -12.3534      2.2045    106.6307   8.2501434995e+01   5.3949663992e+01    0.2454127    0.1758127 -55.88 0.0007544362    1.342    0.255
       272 -10.2673    121.6927    106.7197   3.7367119315e+01   3.6523710962e+01    0.1501179    0.1213729   1.86 0.0002218992    1.558    0.358
       273 -11.4102    206.6384    104.9381   2.0091749513e+01   2.0084407249e+01    0.1811438    0.1386509 -37.15 0.0003963937    1.111    0.100
       274 -12.2207     12.0497    104.1604   7.7958210690e+01   5.4073037491e+01    0.3302494    0.2110035  16.70  0.001244583    1.639    0.390
       275 -12.6810     79.1615    102.5391   4.9641754565e+01   4.5958992331e+01    0.3053451    0.2582296 -45.49 0.0007155386    1.211    0.174
       276 -12.0653    153.8494    100.5709   2.8135813620e+01   3.0991931110e+01    0.2975512    0.2183443 -46.24 0.0007495122    1.312    0.238
       277 -11.4161     57.8347     97.4918   5.6650059175e+01   5.0847133947e+01     0.455429    0.2875351  49.90  0.001283401    1.721    0.419
       278 -10.5942    185.4575    101.4439   2.2524159327e+01   2.4498082917e+01    0.1337126    0.1199722 -39.94  8.38734e-05    1.005    0.005
       279 -12.5154     55.9119    101.4031   5.8375421980e+01   5.0118071831e+01    0.3043399    0.2781111 -21.10 0.0004630028    1.159    0.137
       280 -13.5424     95.5413     99.5900   4.3215504597e+01   4.3514571299e+01    0.7724358    0.3399307  49.35  0.001805406    2.486    0.598
       281 -11.7224     85.1618    100.8503   4.7062828411e+01   4.5252642575e+01    0.2298194    0.2135789  69.51  0.000448132    1.121    0.108
       282 -13.2769      5.7933     99.6201   8.0260213817e+01   5.5687194809e+01    0.4280674    0.3237121  42.52  0.002081158    1.363    0.267
       283 -11.6086     11.1804     98.2216   7.7638434252e+01   5.5758771228e+01    0.4271136    0.1626716  28.57  0.001215018    2.499    0.600
       284 -11.1340    162.3256     99.6485   2.6203460431e+01   2.9401938861e+01     0.148093    0.1086103 -71.97 0.0007048068    1.760    0.432
       285 -11.7293    189.1947     98.1956   2.1172139182e+01   2.4320267717e+01    0.2412843    0.1854268  71.47 0.0007322475    1.589    0.371
       286 -11.7579    178.7492     97.0942   2.2607632031e+01   2.6528078917e+01    0.3061238    0.1627046 -47.36  0.001399064    1.811    0.448
       287 -12.4691     83.6016     93.8719   4.5706479991e+01   4.7225441127e+01    0.3068086    0.2247289  46.64 0.0006895264    1.358    0.264
       288 -13.3853     78.2052     92.3869   4.7256874986e+01   4.8615431556e+01    0.4224014    0.3067663  51.79  0.001925871    1.441    0.306
       289 -12.7419     74.1754     90.6301   4.8284496973e+01   4.9793490896e+01    0.2951328    0.2487726  27.00 0.0003946335    1.213    0.175
       290 -11.3455     41.3270     91.9659   6.2540931516e+01   5.4619714683e+01     0.248069    0.2008888  40.60 0.0006296602    1.249    0.199
       291 -10.6478      9.2915     92.6526   7.7827910074e+01   5.7396007402e+01    0.1504551   0.09815722  59.35 0.0006318025    1.665    0.399
       292 -11.3950    125.0104     89.9145   3.1917922790e+01   3.9311938534e+01     0.287183    0.2221235 -63.28  0.001378731    1.434    0.303
       293 -11.9312     58.7671     89.5533   5.4224140090e+01   5.2734374137e+01    0.2239411    0.1891028  37.95 0.0003100275    1.170    0.145
       294 -12.5290     54.7568     85.9749   5.4993293705e+01   5.4276459983e+01    0.5439173    0.5099878  22.50  0.002362433    1.062    0.058
       295 -10.8759     28.0006     90.4258   6.8466645923e+01   5.6532207208e+01    0.2185525    0.1435631  19.69 0.0007494828    1.566    0.361
       296 -12.9798      4.2973     88.1657   7.9705155331e+01   5.8882864285e+01    0.4652524     0.317844 -42.90  0.002382799    1.435    0.303
       297 -12.4024    149.4952     88.0455   2.5760910684e+01   3.4237603992e+01    0.2217791    0.2009313  67.27  0.001230735    1.141    0.124
       298 -11.0600     11.8638     86.9188   7.5783866185e+01   5.8796566348e+01    0.2207542    0.1778064 -44.02 0.0003936008    1.207    0.171
       299 -10.9310    100.5432     86.4573   3.7849014024e+01   4.5425435758e+01    0.1533849    0.1505833  41.09 6.544774e-05    1.028    0.027
       300 -11.2625    170.4253     84.4629   2.0892877025e+01   3.0347147592e+01    0.1381806    0.1260135 -49.79 0.0008047073    1.009    0.008
       301 -11.6866    164.7310     83.6933   2.1685209673e+01   3.1688487899e+01    0.2336005    0.1003464 -47.90 0.0009004424    2.350    0.575
       302 -11.4506    133.8987     84.1221   2.8093634833e+01   3.8447951943e+01    0.3393777    0.2020647  39.03  0.001437686    1.928    0.481
       303 -12.7842     88.3445     80.3370   3.9994821771e+01   4.9371297280e+01    0.5649242    0.2562601 -41.74  0.002036579    2.376    0.579
       304 -12.5334     66.3908     82.7139   4.9084494509e+01   5.3127629192e+01    0.2782493    0.1962811 -42.69 0.0008936388    1.474    0.321
       305 -12.0619    151.7351     81.1194   2.3428656271e+01   3.4979246019e+01    0.2646075    0.2054171  47.52 0.0003534723    1.366    0.268
       306 -11.6270      4.6342     79.9687   7.8507431955e+01   6.1076468989e+01    0.2503164    0.2248311 -15.41 0.0005207279    1.153    0.133
       307 -11.9348      8.6597     78.1140   7.6105279684e+01   6.1360515531e+01    0.2863887    0.2371973 -70.69 0.0006936232    1.144    0.126
       308 -12.0658    112.2347     78.3917   3.1915869018e+01   4.4504513839e+01    0.4457744     0.298927 -88.09  0.001750042    2.434    0.589
       309 -12.1228    117.7487     75.8559   2.9634570154e+01   4.3733303901e+01     0.440582    0.2716568  71.36  0.001241123    2.199    0.545
       310 -11.5268    102.1847     77.0432   3.4429526959e+01   4.7055251337e+01     0.216148    0.2137524  63.39 0.0003492083    1.026    0.026
       311 -11.4478     75.2199     76.4026   4.3569747643e+01   5.2938460052e+01    0.2150407    0.1422735  49.34 0.0005079504    1.543    0.352
       312 -11.6451    105.8947     73.2249   3.2093334703e+01   4.6983897074e+01    0.3741048    0.2360201  65.12  0.001157237    1.894    0.472
       313 -12.1092     68.4936     72.0401   4.4841657265e+01   5.5239722790e+01    0.2178064    0.2023075 -45.26 0.0006929332    1.104    0.094
       314 -11.4581     71.9206     69.0678   4.2430237919e+01   5.5234480996e+01    0.3594278    0.2416977  -4.41 0.0008200824    2.538    0.606
       315 -13.2244     54.7409     68.8119   4.9833976648e+01   5.8474106894e+01    0.3769325    0.3084421 -32.58 0.0005727128    1.284    0.221
       316 -11.7324      2.8725     71.8851   7.8338581838e+01   6.3309524117e+01    0.2277737    0.1697601 -43.64 0.0006765945    1.258    0.205
       317 -12.0110    189.0601     70.4934   1.4571144025e+01   2.8664116579e+01    0.2384533     0.172216 -40.70 0.0003318433    1.227    0.185
       318 -12.1644     60.5326     68.1660   4.6964798177e+01   5.7607948166e+01    0.5443458    0.1979901 -57.25  0.001692898    3.450    0.710
       319 -11.4441    154.4936     68.2058   1.9323846309e+01   3.6537170676e+01    0.2363072    0.1931912  66.18 0.0005514717    1.247    0.198
       320 -11.6078     48.5771     67.5115   5.2367985998e+01   5.9790409244e+01    0.3726493    0.2675786 -21.82  0.001724525    1.674    0.403
       321 -11.2336     12.9208     59.9757   7.0167862703e+01   6.5826000879e+01    0.3547308    0.2003269  35.77   0.00164765    1.868    0.465
       322 -11.6875      8.7000     67.1295   7.4211437093e+01   6.4259631629e+01     0.322027    0.2381789  22.64  0.001722175    1.409    0.290
       323 -11.4975      9.9692     63.3172   7.2708683383e+01   6.5170692439e+01    0.2640184    0.2192088  -5.33 0.0007925815    1.222    0.181
       324 -11.8382    173.2163     62.9048   1.4851520108e+01   3.3154939626e+01    0.2059542     0.183021 -88.87 0.0002901208    1.127    0.113
       325 -10.9890    124.8667     62.3798   2.3610195272e+01   4.4507121939e+01    0.3056242    0.1418889  65.94  0.001086652    2.660    0.624
       326 -12.7319    111.5206     56.5363   2.4934617364e+01   4.8744505101e+01    0.4810708    0.2048052 -41.17  0.001501801    2.377    0.579
       327 -12.8775    115.5388     54.0000   2.3046265166e+01   4.8191774348e+01    0.5721283    0.2868221 -60.58  0.001973338    3.137    0.681
       328 -11.5307    115.0599     48.4600   2.1232377196e+01   4.9206481999e+01    0.2439125    0.2087819 -16.07 0.0003517171    1.383    0.277
       329 -12.5797    103.8375     59.3584   2.8013287285e+01   5.0097283125e+01    0.2601214    0.2536209 -67.51 0.0002739403    1.056    0.053
       330 -12.1466     42.1886     58.7098   5.2663783712e+01   6.2845754070e+01    0.4363187    0.2079032 -53.13  0.001762923    2.093    0.522
       331 -11.0299    180.8305     59.1412   1.2816420777e+01   3.2048058604e+01    0.1668722    0.1573203  30.10 0.0004174552    1.299    0.230
       332 -10.9578    154.3295     57.6937   1.6358120943e+01   3.8229593717e+01     0.148615    0.1009379 -69.42 0.0007037913    1.657    0.397
       333 -12.5546     36.9382     54.8284   5.4180509850e+01   6.4511494138e+01    0.5046391    0.2347593 -49.46  0.001696818    2.089    0.521
       334 -10.9829     40.6610     53.2795   5.1519127391e+01   6.4319253102e+01    0.1445644    0.1114134  60.60 0.0002640455    1.621    0.383
       335 -11.5283     31.5046     56.3427   5.7844353060e+01   6.4881572574e+01    0.2457761    0.1307859  26.28 0.0007967471    1.856    0.461
       336 -12.2202     24.3769     55.1929   6.1757869515e+01   6.5988501887e+01    0.2910083    0.2051763 -22.14 0.0009731732    1.513    0.339
       337 -12.0948     19.7878     53.3752   6.4078402195e+01   6.6895253759e+01    0.2588537    0.1889999 -61.71 0.0005780728    1.367    0.268
       338 -11.3919    120.4824     51.9841   2.1187315786e+01   4.7304704291e+01    0.2207759    0.1925687  68.49 0.0004209534    1.095    0.086
       339 -12.0846    173.9998     50.7909   1.1525331388e+01   3.4724637625e+01    0.3401863     0.210271 -75.16  0.001659465    1.895    0.472
       340 -12.5430    100.1746     49.8835   2.5628429602e+01   5.2634230435e+01    0.3996286     0.278773 -79.63  0.001761782    1.966    0.491
       341 -12.8190     30.2214     49.8376   5.6340270584e+01   6.6568266071e+01    0.3178996    0.2821465  47.10  0.001094815    1.251    0.201
       342 -12.0462     19.4837     47.9908   6.2579782143e+01   6.8219480355e+01    0.3199879     0.107535 -54.96  0.001198936    2.592    0.614
       343 -11.5509    143.0000     44.0287   1.4161514113e+01   4.2947842791e+01    0.2262567   0.07846575 -32.52 0.0005048981    2.921    0.658
       344 -10.7372    194.6556     43.6962   7.3280517860e+00   3.1196966586e+01    0.1176349   0.09738473  28.25 0.0007040521    1.686    0.407
       345 -12.3656    115.7495     42.9706   1.9123628935e+01   4.9877091053e+01    0.3895955     0.274543 -59.33 0.0003733147    1.547    0.354
       346 -11.8695    119.3040     40.2342   1.7370450928e+01   4.9384399623e+01    0.4250622    0.1982595 -40.78  0.001367918    2.143    0.533
       347 -10.4134    155.4003     41.7351   1.1537874251e+01   4.0265558565e+01    0.1476741    0.0942032 -72.25 0.0006972408    1.729    0.422
       348 -11.7979     88.0596     38.9356   2.4926346440e+01   5.7355056360e+01     0.521235    0.2229062 -30.30  0.001910496    2.818    0.645
       349 -12.3138     34.8505     40.0854   4.9550138233e+01   6.8072177349e+01    0.4111817    0.1946897  25.64  0.001658985    2.287    0.563
       350 -11.5758     80.4622     35.8871   2.6094595944e+01   5.9654258442e+01    0.4380186     0.211741 -46.04  0.001756568    2.346    0.574
       351 -12.5242     28.0939     36.2612   5.2209223456e+01   6.9847516641e+01    0.3482203     0.157542 -45.28  0.001469396    2.181    0.541
       352 -11.0472      9.4921     36.5059   6.5882801131e+01   7.1786029866e+01     0.134762    0.1192382 -24.88  8.00872e-06    1.006    0.006
       353 -11.7227     95.4205     33.9304   2.0706309134e+01   5.6294739479e+01    0.2571145    0.1934974  54.31 0.0003848605    1.233    0.189
       354 -11.2384     52.4968     33.9793   3.6773803477e+01   6.6142834984e+01    0.2022341    0.1413389 -39.06 0.0004597513    1.520    0.342
       355 -10.4382      1.2754     34.3175   7.1727831579e+01   7.2816323319e+01    0.1407056   0.08092804 -37.52 0.0002202351    1.569    0.363
       356 -11.5008    218.7371     32.9615   2.7516959676e+00   2.7689200606e+01    0.1808269     0.147567 -72.07 0.0004316045    1.155    0.134
       357 -11.5730    106.8656     32.3382   1.7198682990e+01   5.3632909190e+01    0.2431345    0.1903334 -54.33 0.0006808321    1.340    0.254
       358 -12.4508     31.9432     31.9451   4.7608300382e+01   7.0172541818e+01    0.3237149    0.2891541  26.93  0.001200464    1.109    0.099
       359 -11.0607     14.6684     33.0818   6.0575200422e+01   7.2110875238e+01    0.1868376    0.1598742 -30.89 0.0003958776    1.079    0.073
       360 -12.2545     46.8882     36.2118   4.0773138994e+01   6.6814033766e+01    0.2737512    0.1842698 -46.31 0.0009093717    1.597    0.374
       361 -12.3956     45.8815     26.5267   3.6390304205e+01   6.8731533909e+01    0.3424656    0.2979547 -60.78  0.001591034    1.424    0.298
       362 -11.1670     46.6595     23.3060   3.4206388459e+01   6.9105785800e+01    0.2396888    0.1816035  51.09   0.00111247    1.328    0.247
       363 -12.4098     84.8701     24.1880   1.9470615848e+01   6.0251466624e+01    0.2907164    0.2265469 -41.04  0.000565373    1.393    0.282
       364 -10.8875      1.4829     25.5006   6.8688207581e+01   7.4829061334e+01    0.1296631    0.1130561 -26.03 1.663991e-05    1.013    0.013
       365 -12.2392     70.0585     21.5371   2.2976148930e+01   6.4201949975e+01    0.2495127    0.2090355 -31.28 0.0005102645    1.313    0.238
       366 -10.5594     89.7094     21.6898   1.7009495317e+01   5.9354155356e+01     0.142969    0.1022373  34.08 0.0002044854    1.583    0.368
       367 -10.7934     60.4795     20.4930   2.6128786076e+01   6.6566475036e+01    0.1407262    0.1263915  42.11 0.0002324452    1.004    0.004
       368 -11.2423    116.5279     18.4991   9.9605631715e+00   5.2848536918e+01    0.2318344    0.1961368 -47.06 0.0005801725    1.229    0.186
       369 -11.4909    116.8574     15.1734   8.6553086939e+00   5.3119627286e+01    0.2032162     0.183588  84.41 0.0003067307    1.033    0.032
       370 -10.6885    238.1806    248.4284   4.0379246307e+01  -3.6481300923e+00     0.174191   0.05734431 -32.79  0.000989234    2.601    0.616
       371 -10.7503     92.3165     17.6823   1.4575836552e+01   5.9164987435e+01    0.1447248    0.1022189 -71.05 0.0007039169    1.653    0.395
       372 -10.7910     66.5704     16.4511   2.1600120815e+01   6.5682264320e+01    0.1387939    0.1247127  50.28 7.793047e-05    1.007    0.007
       373 -11.6664    114.5088    248.9870   6.3537215947e+01   8.7963893627e+00    0.2089896    0.1211293 -55.43 0.0009867661    2.216    0.549
       374 -11.3334    248.3350    248.0495   3.8814069583e+01  -4.4323895663e+00    0.1369554    0.0896625 -12.90 0.0005525063    1.117    0.105
       375 -10.4937    214.7230    247.3243   4.3951124857e+01  -1.4785339690e+00    0.0866353   0.07468744   5.17 0.0003045272    1.585    0.369
       376 -11.3494    177.9445    247.5266   5.0464842520e+01   2.0837011585e+00    0.2145027    0.1223103   9.07  0.001336708    1.508    0.337
       377 -11.4727    181.3724    244.1657   4.9382755518e+01   2.1724885083e+00    0.2045875    0.1213471  19.07 0.0006690192    1.355    0.262
       378 -12.2510     98.3932    246.9652   6.6886194635e+01   1.0933562059e+01    0.2943197    0.1433716  24.82  0.001260884    1.627    0.385
       379 -11.0316    205.9674    244.0148   4.4972674069e+01  -2.6417032807e-01    0.1340213   0.09441441   0.55 0.0005617443    1.015    0.015
