#   1 NUMBER                 Running object number                                     
#   2 MAG_AUTO               Kron-like elliptical aperture magnitude                    [mag]
#   3 X_IMAGE                Object position along x                                    [pixel]
#   4 Y_IMAGE                Object position along y                                    [pixel]
#   5 X_WORLD                Barycenter position along world x axis                     [deg]
#   6 Y_WORLD                Barycenter position along world y axis                     [deg]
#   7 A_WORLD                Profile RMS along major axis (world units)                 [deg]
#   8 B_WORLD                Profile RMS along minor axis (world units)                 [deg]
#   9 THETA_WORLD            Position angle (CCW/world-x)                               [deg]
#  10 FWHM_WORLD             FWHM assuming a gaussian core                              [deg]
#  11 ELONGATION             A_IMAGE/B_IMAGE                                           
#  12 ELLIPTICITY            1 - B_IMAGE/A_IMAGE                                       
         1 -12.3466     52.2819     37.5547   1.0576191009e+02   6.1938446807e+01      1.78255    0.9850288 -47.10  0.009512214    2.085    0.520
         2 -13.2987     15.3750    105.0738   1.3597589814e+02   5.2269653629e+01     2.281228     1.206674 -36.70   0.01246105    2.094    0.522
         3 -11.4257     37.5284     27.8804   1.0773987432e+02   6.5161786108e+01    0.3242866    0.2697423  10.49  0.001342814    1.253    0.202
         4 -10.8503     78.4386      7.0937   8.4921865957e+01   6.1624138721e+01    0.6355721    0.4278885   1.35  0.003489454    1.465    0.318
         5 -12.2480     81.3982     79.6345   1.0973583011e+02   5.0333988120e+01     2.813868     1.154293 -55.51  0.004162177    3.230    0.690
         6 -12.1447     57.9714     69.5703   1.1433722353e+02   5.5651304813e+01     1.748151    0.6818109 -55.91  0.006722309    3.188    0.686
         7 -12.3429     19.1380     13.7345   1.0975674031e+02   6.9021994430e+01    0.9859793    0.5650232  -5.98  0.006301845    1.725    0.420
         8 -12.6628     62.9239      4.1889   8.8524372973e+01   6.4535237443e+01      2.76371    0.4311819  49.61  0.008118193    7.102    0.859
         9 -12.0884     41.6114     17.1912   1.0182686834e+02   6.6141690904e+01    0.8528596    0.5163909 -30.81  0.005436104    1.505    0.336
        10 -11.4400     50.7643     10.7844   9.5613922976e+01   6.5694050719e+01    0.4977732    0.3102683  24.89  0.002887769    1.436    0.304
        11 -12.4748     28.8415     27.2155   1.1098812114e+02   6.6175432188e+01     1.295731    0.4751802 -32.54  0.006222874    2.550    0.608
        12 -12.2091      9.0526     26.0312   1.1891452932e+02   6.8027188801e+01     1.160004    0.4022058  14.31  0.005552855    3.783    0.736
        13 -13.3698      6.0011     12.3886   1.1514868414e+02   7.0289702478e+01     1.328447    0.6527921 -34.68  0.006519373    1.537    0.349
        14 -12.7785     19.1180     40.5122   1.1960364221e+02   6.4902258114e+01    0.9728881    0.5534733 -66.44  0.004637999    3.142    0.682
        15 -11.7866     39.7075     64.2086   1.1906885290e+02   5.8765182531e+01     2.230606     1.433338  55.08   0.01171443    2.694    0.629
        16 -12.4573     37.9315     46.7507   1.1433768790e+02   6.2118590126e+01    0.9947233    0.8015926  60.75  0.006294484    2.140    0.533
        17 -11.1040    106.6756     30.1056   8.5851360386e+01   5.3735207099e+01     1.178444    0.5596324  37.40  0.005274224    2.126    0.530
        18 -12.6401    163.0679     15.1189   6.9538672399e+01   4.2514226474e+01     1.722018      1.38605  -9.91  0.005940633    1.506    0.336
        19 -11.0130    147.8871     25.4168   7.5168016026e+01   4.5061833525e+01     0.724705    0.4507808  26.18  0.003454099    2.056    0.514
        20 -11.3610     89.1044     34.0728   9.2186267283e+01   5.6649837752e+01    0.7887475    0.4709947  34.54  0.002890368    1.601    0.375
        21 -12.5021     91.8324     18.0935   8.5425106585e+01   5.8047649592e+01    0.9521759    0.4319255  -8.65  0.003780445    3.543    0.718
        22 -11.9081    130.7222     20.2392   7.6883641067e+01   4.9623495856e+01     1.162412    0.4838456  55.10  0.004826392    2.042    0.510
        23 -11.7325    132.5751      4.6203   7.1445948225e+01   5.0672629563e+01    0.6574768    0.3628281  43.06  0.002184785    1.663    0.399
        24 -12.3409    112.2255     21.6588   8.1477096184e+01   5.3546048827e+01    0.7882576    0.6458795 -83.27  0.001794923    1.700    0.412
        25 -12.2100    122.4941     15.5013   7.7026268464e+01   5.1951669490e+01     1.641594    0.2752734  55.17  0.005206957    4.055    0.753
        26 -11.6140    123.5739      9.9727   7.4934920012e+01   5.2233469794e+01    0.3726964     0.255913  47.28 0.0005494014    1.247    0.198
        27 -11.1462    149.2421     17.1814   7.2410603771e+01   4.5622889477e+01    0.6690712    0.4226052  25.48  0.001706152    1.998    0.499
        28 -12.1865    141.9927      6.7794   7.0473927338e+01   4.8316810947e+01    0.9165388    0.5570882 -74.02  0.003593568    2.443    0.591
        29 -12.3030     77.6112     30.2675   9.4303812121e+01   5.9177148629e+01     1.526976     0.772983  -7.54  0.001387468    3.364    0.703
        30 -13.3443     99.9030      6.7157   7.9043370548e+01   5.7557251227e+01    0.6739141    0.3561603 -32.33  0.001113786    2.122    0.529
        31 -11.9995     93.2104      8.4412   8.1376649714e+01   5.8734055902e+01    0.6401778    0.3175407  40.28  0.002922335    1.746    0.427
        32 -11.1538    202.9628     37.3081   6.9704868451e+01   3.0129773003e+01    0.7632152    0.4748256  44.18  0.002246515    1.905    0.475
        33 -12.3295     66.8615     30.7746   9.8038490901e+01   6.0848944846e+01     1.069053    0.5379425  36.17  0.005564325    1.936    0.483
        34 -10.4588    161.9509     39.4220   7.6767341793e+01   3.9955670313e+01      0.48552    0.2541991 -27.00   0.00179998    2.176    0.541
        35 -10.1424    187.3617     21.4116   6.7752212725e+01   3.5910692242e+01    0.7396177    0.3816532 -61.69  0.003199841    2.453    0.592
        36 -10.2030    186.1966     13.9164   6.5959307599e+01   3.7016085150e+01    0.4053314    0.2270125  58.43  0.001033411    1.599    0.375
        37 -10.3651    189.5053      8.6583   6.4206155958e+01   3.6756649312e+01     1.160292    0.2606441  51.34  0.003622367    4.659    0.785
        38 -10.4454    200.4874      6.4899   6.2421438673e+01   3.4338391589e+01    0.3263277    0.2915365 -46.55  0.001211074    1.260    0.207
        39 -11.4263    204.0530      6.7878   6.2110265956e+01   3.3458148903e+01    0.3726162    0.3130433  51.14 0.0003075154    1.358    0.263
        40 -11.5552    209.2505      3.9160   6.0906142192e+01   3.2522214207e+01    0.8177715     0.359943  78.45  0.001633369    2.124    0.529
        41 -10.8681     54.3593     17.6837   9.7214135262e+01   6.4382045678e+01    0.4222496    0.2687433  -4.10  0.002567819    1.538    0.350
        42 -12.2036    115.0428      7.0017   7.5695109445e+01   5.4364760091e+01     1.627433    0.5214229  48.63  0.005939147    2.475    0.596
        43  -9.2975    222.0755     11.8222   6.1431149353e+01   2.8673582210e+01     0.402409    0.1907101 -59.16  0.001879518    2.201    0.546
        44  -9.6933    217.7538     14.0211   6.2360208904e+01   2.9435410014e+01    0.3844907    0.2702278  50.68  0.002034577    1.635    0.389
        45 -10.5013    215.6456     22.1600   6.4464082871e+01   2.8984735823e+01    0.4491122    0.4344658  56.32  0.002008444    1.278    0.218
        46 -10.5603    212.3144     14.4284   6.3024384930e+01   3.0672873520e+01    0.5116966    0.2452503 -42.29  0.001768313    2.029    0.507
        47 -10.3088    243.3566     12.5372   5.9635011892e+01   2.3762307625e+01     0.362582    0.2715411 -46.75  0.001268847    1.323    0.244
        48  -9.8776    231.3311     19.0204   6.2114208306e+01   2.5701048842e+01    0.5775564     0.322616 -38.89  0.003060752    1.772    0.436
        49 -10.6310    245.6518     19.8449   6.0945815310e+01   2.2379023676e+01     0.519284    0.2819791  81.79  0.002732269    1.758    0.431
        50  -9.7622    239.2776     17.6691   6.1069236944e+01   2.4061766025e+01    0.5748642    0.2100732 -47.00  0.002051388    2.422    0.587
        51 -11.1522    233.0145     11.2796   6.0282463078e+01   2.6223253598e+01     0.375005    0.2525945 -56.11 0.0005942043    1.346    0.257
        52 -10.9626    202.7859     19.6105   6.5338526924e+01   3.2364345258e+01    0.4953787    0.3863951  84.26  0.001851157    1.133    0.117
        53 -10.8026    248.0486      5.6981   5.7864865170e+01   2.3520437311e+01    0.5677138    0.3326119 -60.35   0.00331173    1.484    0.326
        54  -9.2494    226.5836      9.2095   6.0425720084e+01   2.7923656907e+01    0.2457719    0.1573587  80.71  0.001404362    1.369    0.269
        55  -8.7128    171.1804      1.2842   6.4559127477e+01   4.1868644266e+01     0.214897   0.09715457  69.97            0    1.901    0.474
        56  -9.5922    173.8613      8.8020   6.6229714616e+01   4.0527700986e+01    0.2220664    0.1917395 -75.90  0.000817173    1.170    0.145
        57  -9.7209    180.5917      7.3403   6.4963787938e+01   3.9041232519e+01    0.4370619    0.2662828 -17.69   0.00174144    2.119    0.528
        58  -9.7408    175.5597      4.1588   6.4765384526e+01   4.0556905481e+01    0.4573472    0.2539991  73.59  0.001413473    1.596    0.373
        59 -12.6639     85.3670     55.7940   1.0099280769e+02   5.4055361928e+01     1.856605     1.234424 -25.28  0.007793069    1.500    0.334
        60  -9.7101    229.5147      3.9755   5.9036442210e+01   2.7825761096e+01    0.3409297    0.2206775  29.53  0.001727348    2.850    0.649
        61 -10.8793    222.8314      2.0564   5.9211566952e+01   2.9554238328e+01    0.5433012    0.2841634 -88.39  0.001307868    1.868    0.465
        62  -8.8598    241.7664      1.5762   5.7529969455e+01   2.5347772773e+01    0.2138739    0.1283257  89.35  0.001085056    1.455    0.313
        63  -8.3569    189.5011      1.4251   6.2396165567e+01   3.7461017001e+01    0.1285825    0.1066728  77.69 0.0001170558    1.035    0.034
        64 -12.3309     68.5841     20.3399   9.3361574748e+01   6.1904224811e+01     1.262583    0.4937036  29.17  0.005139156    3.302    0.697
        65  -8.3355      3.6763    245.6893   1.5154237783e+02   2.3375358518e+01   0.08813431   0.07078133 -72.06 0.0004851874    1.654    0.395
        66  -8.6415    151.6788    250.3285   1.2638034643e+02   1.6054375748e+00    0.1267658    0.0872804  67.45 0.0007048394    1.690    0.408
        67  -9.6356    211.0073    241.0097   1.1387618950e+02  -7.0203608772e+00    0.2300965    0.1693069 -33.17 0.0009134589    1.522    0.343
        68 -12.1718      9.9653     88.5983   1.3470777038e+02   5.6191050825e+01    0.9276977    0.6117436  -6.97   0.00340829    1.952    0.488
        69 -11.7785      3.6170     80.3078   1.3515396685e+02   5.8296355324e+01    0.6209185    0.3056118 -56.39  0.002891436    1.463    0.317
        70  -9.8330     13.2285    238.1412   1.4965909539e+02   2.3789773481e+01    0.2476101    0.1296427 -61.54  0.001560335    2.244    0.554
        71  -9.0289     24.3158    235.6527   1.4771915425e+02   2.3058222693e+01    0.1208779   0.05950271  70.63            0    1.723    0.420
        72 -11.3419     68.9771     74.2653   1.1209198785e+02   5.3260138194e+01    0.9629943    0.5203453 -39.31   0.00336242    1.695    0.410
        73  -9.5094     12.6429    232.7458   1.4943200093e+02   2.4877363747e+01    0.1983274    0.1059316  87.15  0.001073376    1.472    0.321
        74 -12.6630     30.3049     86.9798   1.2798674282e+02   5.5027493346e+01       2.1914     1.292505  65.25   0.01028183    3.247    0.692
        75  -8.2294    226.6750    231.6475   1.0941165627e+02  -8.2555489010e+00    0.1325839   0.08648176   6.72 0.0007047612    1.761    0.432
        76 -10.2361    123.9982    206.0016   1.2556077327e+02   1.4630194329e+01     0.196771     0.174161  66.10            0    1.002    0.002
        77  -8.1295    244.5034    204.5202   1.0120777815e+02  -7.2099249546e+00     0.130497    0.1104627   1.88 -7.502669e-05    1.023    0.022
        78  -8.9756    234.3092    201.1372   1.0240066673e+02  -4.9739221055e+00    0.2661966    0.1119017 -31.30  0.001093685    2.587    0.613
        79 -10.4357     26.7223    191.8350   1.4390031516e+02   3.1777625179e+01    0.3830279    0.2168289 -74.52  0.002284608    1.447    0.309
        80  -8.8360     27.8938    115.8777   1.3425548476e+02   4.8870614796e+01    0.1852568    0.1305495 -51.88 0.0003416649    1.240    0.193
        81 -10.9196    103.7756    116.4452   1.1306609658e+02   3.8631550332e+01    0.7189476    0.2917095  37.20  0.002588759    2.765    0.638
        82  -8.9531     41.6751    118.3190   1.3085666178e+02   4.7008970225e+01     0.202694    0.1533589  53.72 0.0006215076    1.549    0.354
        83  -9.3812     39.2144    115.4264   1.3101932107e+02   4.7919584452e+01    0.2413721     0.161171 -78.46 0.0009509621    1.541    0.351
        84  -9.9182     97.8014    115.0659   1.1437071065e+02   4.0005979704e+01    0.3113161    0.2773963  25.97  0.001013865    1.237    0.192
        85 -10.1248    132.6250    111.5386   1.0418922288e+02   3.4012926851e+01    0.5210578      0.43611 -45.21  0.001980715    1.171    0.146
        86  -9.9426    133.8562    103.5588   1.0175227467e+02   3.5452684396e+01    0.4680198    0.3187003 -42.38  0.001958768    1.448    0.309
        87  -8.6897     45.8139    113.1996   1.2872791122e+02   4.7744884961e+01    0.1752159    0.1351661 -39.69 0.0005352345    1.306    0.234
        88 -10.0809     42.4156    122.2213   1.3134952388e+02   4.6034661073e+01    0.2573862    0.1594973  23.80  0.001339033    2.043    0.511
        89  -9.6977    105.5416    109.5258   1.1085268903e+02   3.9861416272e+01    0.3259987    0.3046688  30.25  0.001810873    1.136    0.120
        90  -9.4714     75.5962    102.2859   1.1759715550e+02   4.6440452988e+01    0.3833276    0.2086451 -56.15  0.001127105    1.750    0.429
        91 -10.8257     67.5987    107.5745   1.2121195010e+02   4.6385250435e+01     0.693524    0.3733663 -33.13  0.002975879    2.378    0.580
        92 -10.2991     73.9757    108.1553   1.1948459498e+02   4.5364213524e+01    0.3195859     0.272022  16.63 0.0008468158    1.356    0.263
        93  -9.3099     34.8073    108.6269   1.3101850155e+02   4.9884471022e+01    0.2766663    0.2449965  63.57  0.001686687    1.328    0.247
        94  -9.5987    120.3836    108.8829   1.0667319851e+02   3.7132196250e+01     0.250403    0.2138771  61.18 0.0007748998    1.268    0.211
        95 -11.6922     53.3111     87.4189   1.2073676265e+02   5.2599518729e+01     1.175199    0.8980921 -22.51   0.00671629    1.380    0.275
        96  -8.5080     97.5270    103.9861   1.1166495720e+02   4.2528602661e+01    0.3091237    0.1827197  60.12   0.00125805    2.449    0.592
        97  -8.9512    140.7112    101.9720   9.9602309440e+01   3.4278102782e+01    0.2275786    0.2037782 -42.20 0.0009978514    1.106    0.096
        98  -9.4139     81.4900    102.1068   1.1581479805e+02   4.5592390628e+01    0.2853016    0.2081981  29.71   0.00103503    1.534    0.348
        99 -11.2558     18.0187    186.1636   1.4510004984e+02   3.3888905086e+01    0.3949704    0.2915204 -47.85  0.001851844    1.819    0.450
       100  -9.3247    151.2086    100.0992   9.6551713294e+01   3.2281026805e+01    0.3046918    0.2165513 -59.12  0.001352177    1.588    0.370
       101  -9.8419    114.6555     96.2980   1.0481752208e+02   4.0968324413e+01    0.2802564     0.249261  49.58  0.001127312    1.180    0.152
       102  -9.5890    115.3116    100.6730   1.0584127782e+02   3.9916022472e+01     0.287237     0.261692  78.25  0.001539032    1.228    0.186
       103 -10.5197    117.6871     98.3319   1.0455768392e+02   3.9936015560e+01    0.3635421    0.2757147 -51.91 0.0009723866    1.329    0.248
       104 -10.9343      6.2776    185.9554   1.4734748173e+02   3.5019061961e+01    0.4450871    0.1658754  59.06  0.001966594    2.789    0.641
       105  -9.4765     38.5108    175.5142   1.3983419415e+02   3.4122691379e+01    0.2955803    0.1075397 -78.29  0.001157597    3.043    0.671
       106  -9.9673    158.8678     96.7721   9.3866484627e+01   3.1160324281e+01    0.4433211    0.3602053  65.91  0.001869235    1.310    0.237
       107  -8.6016     98.7938     95.2522   1.0897188374e+02   4.4186200821e+01    0.1966667    0.1611385 -20.44 0.0003528993    1.319    0.242
       108  -9.6569    187.8616     92.8471   8.6690091731e+01   2.4947324386e+01    0.4752413    0.2493296 -48.64  0.001870422    1.971    0.493
       109 -10.2486    114.6055     51.3060   9.1046127507e+01   4.9186204533e+01    0.5885746     0.405526 -13.69  0.002932477    1.678    0.404
       110  -9.5899    123.2203     81.2325   9.8174948395e+01   4.2222436620e+01    0.3715323    0.2471065  25.62  0.001056914    1.866    0.464
       111 -11.3898    119.8004     86.4509   1.0062065439e+02   4.1926374676e+01    0.8028174    0.7169963  81.06  0.002746838    1.312    0.238
       112 -11.3573    121.4024     56.2572   9.0895744435e+01   4.6974429580e+01     1.178917    0.7561025  18.84  0.005236513    2.114    0.527
       113 -10.0603     89.7710     78.0215   1.0669653413e+02   4.9272264514e+01    0.5722926    0.2850472  35.09   0.00246816    2.188    0.543
       114 -11.4522    109.3615     66.9379   9.7551851963e+01   4.7694721692e+01     1.283504    0.6297743 -24.36  0.004745499    2.912    0.657
       115  -9.4540    129.6389     46.0970   8.5575995942e+01   4.6681460098e+01    0.3166747    0.2381914  -0.42 0.0008260808    1.574    0.365
       116 -11.4516     97.0918     62.2729   9.9576839622e+01   5.0867693633e+01     1.025805    0.6624189  -9.99  0.003670678    2.076    0.518
       117 -11.0911    105.7630     53.6624   9.4236393402e+01   5.0625371282e+01    0.6207011    0.3424886  36.93  0.002850453    1.850    0.459
       118 -10.6417    102.2428     70.7028   1.0076041532e+02   4.8405737336e+01    0.5639159    0.3770005 -56.11  0.002237361    1.852    0.460
       119 -11.4917    140.8435     40.3679   8.1229324417e+01   4.4893447231e+01     0.843479    0.6323322  63.03  0.004047303    1.321    0.243
       120 -10.8286    148.6040     35.0021   7.7972720077e+01   4.3750504352e+01     1.033997    0.2315923  57.45  0.003187997    3.746    0.733
       121 -10.3569    130.4484     40.3734   8.3531402725e+01   4.7287234878e+01    0.3464631    0.2752661 -19.71  0.000887514    1.346    0.257
       122 -10.7789    135.1217     34.1704   8.0484540357e+01   4.7019560710e+01    0.3914599    0.2673957  43.84 0.0004636534    1.364    0.267
       123 -11.6410    106.4583     86.5468   1.0432771042e+02   4.4563222150e+01    0.9394597    0.6601872 -21.41  0.004447455    1.683    0.406
       124 -11.8498    100.3238     79.0130   1.0386422852e+02   4.7201818603e+01    0.9758636    0.7055322 -43.63  0.005009277    1.345    0.257
       125  -9.2187      1.6641    177.9683   1.4760997221e+02   3.7123187996e+01    0.1690636    0.1094168 -84.30 0.0007668918    1.144    0.126
       126  -8.9104    206.4963     92.0092   8.3020852567e+01   2.0614893974e+01    0.2401638    0.1431076 -40.66  0.001019303    1.617    0.381
       127  -9.0537    194.1666     90.3169   8.4825774841e+01   2.3886063553e+01    0.2687532    0.2118535 -25.92   0.00127405    1.416    0.294
       128  -9.6676     74.4315     89.0387   1.1453290970e+02   4.9472092507e+01    0.3462718    0.2509415  11.20  0.001813885    1.694    0.410
       129  -9.2105     76.3029     83.6757   1.1247634105e+02   5.0306105890e+01    0.3237106    0.2154231 -69.53  0.001514427    2.174    0.540
       130 -11.0221     11.4845     41.4748   1.2295519986e+02   6.5293937196e+01    0.3227191    0.2297324 -16.79 0.0008590702    1.293    0.227
       131  -9.9332    162.0208     87.9718   9.0733749442e+01   3.2109877214e+01    0.2822869    0.2349374 -77.74 0.0005318351    1.376    0.273
       132  -9.9997    152.8966     87.3127   9.2606650154e+01   3.4399467698e+01      0.36315    0.2625582  39.62 0.0009093034    1.453    0.312
       133  -9.1954    237.9886     86.7246   7.6705086422e+01   1.4260249711e+01     0.198543    0.1836132 -85.83 0.0007377624    1.089    0.082
       134  -9.8988    161.2564     82.1545   8.9273363044e+01   3.3373365843e+01    0.5400914    0.3912748 -89.03  0.002373675    1.881    0.468
       135 -10.9512    134.3675     80.9930   9.5236831964e+01   3.9843483228e+01    0.7754282    0.5956008  -1.57  0.003669929    1.670    0.401
       136  -9.0425    155.1548     71.1476   8.7455382876e+01   3.6790543023e+01    0.3249188    0.2155731 -31.14  0.001303528    1.611    0.379
       137 -10.4154    152.1211     67.0796   8.6929360092e+01   3.8205182309e+01    0.8040439    0.2650399  48.81  0.002663279    2.897    0.655
       138 -10.6902    144.1346     77.2140   9.1745187410e+01   3.8319331536e+01    0.4997998    0.3579971   6.83  0.002182598    2.018    0.504
       139 -11.1716    140.5503     68.3411   8.9950290423e+01   4.0708492379e+01     0.704264    0.6289366  65.23  0.003296003    1.166    0.142
       140 -10.2844    132.3174     68.5392   9.2005015963e+01   4.2545255544e+01    0.5328001    0.3555326  76.70   0.00218038    2.283    0.562
       141  -9.5640    216.4976     82.9983   7.9093661690e+01   1.9827887063e+01    0.5594018    0.2803426 -20.86  0.001837234    3.691    0.729
       142  -8.4574    219.3221     76.3501   7.7020030360e+01   2.0286591178e+01    0.3761097    0.2560703  -0.58  0.001554245    2.699    0.629
       143 -10.2955    150.2820     75.2774   8.9749683890e+01   3.7228638064e+01    0.6446738    0.4476966 -17.82  0.002886051    1.813    0.449
       144 -10.0385    126.7789     63.8983   9.1954832575e+01   4.4561543450e+01    0.3954764      0.23289  31.17 0.0008808406    2.047    0.511
       145 -11.5733    124.0705     67.5495   9.3788534627e+01   4.4529529956e+01     1.244606    0.5542094 -44.96  0.004420721    2.410    0.585
       146 -11.1763    117.4470     65.4174   9.4861686205e+01   4.6305366116e+01    0.9466655    0.4946875 -21.84  0.003605794    2.734    0.634
       147 -10.8488     36.7388     75.8711   1.2324250186e+02   5.6754159071e+01    0.2411497    0.1833654 -36.45 0.0003937604    1.131    0.115
       148  -8.2630     24.2816     75.3264   1.2730656623e+02   5.7949249130e+01    0.1256585   0.07119575 -36.97 0.0003919146    1.598    0.374
       149  -9.0547    192.8621     74.1263   8.0826468614e+01   2.7054917710e+01    0.2425214    0.1975194 -66.67 0.0007463351    1.270    0.213
       150  -9.6698    215.0977     71.9096   7.6578913075e+01   2.2024204499e+01    0.3172458    0.2342079 -22.68 0.0008912194    1.639    0.390
       151  -9.2479      5.8306     71.1749   1.3260498740e+02   6.0034730383e+01    0.1729662    0.1495464  52.20 0.0007064698    1.570    0.363
       152  -9.1473      1.7068     70.0251   1.3375579428e+02   6.0488384120e+01    0.4343767    0.1204778 -36.52  0.001749441    4.025    0.752
       153 -10.4692    250.2897     67.1198   7.0625082193e+01   1.4739200494e+01    0.5577064    0.1822601 -33.63  0.001961521    3.305    0.697
       154  -9.5564    171.2058     48.7456   7.7769017056e+01   3.6398063270e+01    0.5615563    0.2290316  48.85  0.001753713    2.418    0.586
       155 -10.3190    188.8061     49.0950   7.4861283478e+01   3.1986919279e+01    0.8710936    0.5778725  14.86  0.003713117    2.606    0.616
       156 -11.8567    164.3381     62.5797   8.3039667485e+01   3.5987806838e+01    0.9395221    0.7310236  18.02  0.004606634    1.629    0.386
       157 -10.5255    164.6484     57.0693   8.1389121046e+01   3.6776709165e+01    0.5118307    0.3660175  -6.68    0.0018898    1.910    0.476
       158  -9.2843    178.0688     60.5127   7.9817026617e+01   3.2932623402e+01    0.9205659    0.3525233  53.62  0.003365565    2.440    0.590
       159 -11.8203    174.4790     56.6135   7.9390031128e+01   3.4424391020e+01     1.074507    0.7878953  24.65  0.001670111    1.786    0.440
       160  -9.0381    189.0968     64.8428   7.9024109191e+01   2.9514715265e+01    0.2311544    0.1890879 -75.40  0.000638807    1.284    0.221
       161  -8.5418    135.5195     63.5038   8.9674228159e+01   4.2673605001e+01    0.1451033    0.1392287  27.78 0.0001597956    1.010    0.010
       162 -10.4178    109.6665     37.6802   8.7726040189e+01   5.2155582781e+01    0.3598979    0.2066989 -36.38 0.0007697018    1.835    0.455
       163  -9.2329     62.9478    168.0051   1.3342729133e+02   3.2866270534e+01    0.2115622    0.1753832 -84.89 0.0007079687    1.030    0.029
       164  -9.1089      9.1672    167.3423   1.4520279128e+02   3.8815038640e+01    0.1694371    0.1576263 -62.18 0.0008302037    1.402    0.287
       165 -10.6417     70.8894     54.4582   1.0521129679e+02   5.6609250658e+01    0.5246078    0.3269307 -21.10 0.0006890108    1.720    0.418
       166  -9.6893     13.4821    165.0155   1.4407760939e+02   3.8962005530e+01    0.2475427    0.1986904  69.70  0.001558882    1.239    0.193
       167 -10.4523      2.5431    159.7687   1.4589570962e+02   4.1014718039e+01    0.5829394     0.202904 -79.51  0.002707006    2.459    0.593
       168  -9.5469     23.6724    133.9399   1.3810842328e+02   4.5120120714e+01    0.1828786    0.1695958 -22.20  0.001304822    1.388    0.280
       169 -10.5052     17.0089    158.6640   1.4266961554e+02   4.0076258450e+01    0.4002072    0.2587624 -42.79  0.002401361    1.978    0.495
       170 -12.0255     19.2784    147.7193   1.4093054484e+02   4.2355524384e+01    0.7037525    0.5172836 -58.79  0.003019383    1.289    0.224
       171 -10.5596     21.7552    138.5516   1.3920149879e+02   4.4231535370e+01    0.3479815    0.2364324 -30.41  0.001826334    2.022    0.505
       172  -8.7447     10.4189    157.3726   1.4397943380e+02   4.0923981440e+01    0.2263302   0.08242104 -67.51 0.0008376465    2.045    0.511
       173  -8.4083     33.6082    155.7344   1.3857780891e+02   3.9170935731e+01      0.11895   0.08719379 -40.77 0.0006980366    1.711    0.415
       174  -8.6832     83.4689    154.5030   1.2636951675e+02   3.3101361422e+01    0.1412202     0.126687 -76.07 9.014639e-05    1.027    0.027
       175 -10.1231     66.8898    148.8429   1.2952112944e+02   3.6845737897e+01      0.36126    0.2308395 -83.55  0.001778426    1.721    0.419
       176 -10.5811     35.0035    150.0482   1.3751541343e+02   4.0341789548e+01    0.2958988    0.2598546  73.46  0.001113086    1.192    0.161
       177 -11.1180     38.9902    146.0281   1.3600149906e+02   4.0862023366e+01    0.4805205    0.3159699 -74.63  0.001549897    1.294    0.227
       178  -9.5604      5.2537    147.1810   1.4408385696e+02   4.3598901113e+01    0.2962173     0.114648 -63.83   0.00152885    1.926    0.481
       179 -11.4937     16.4438     61.9300   1.2675555594e+02   6.1190779494e+01    0.8899494    0.5485876  14.22  0.005665017    1.916    0.478
       180  -9.2242    219.1235     60.8914   7.3283024189e+01   2.2820395502e+01    0.2620991    0.2227537  53.06 0.0004481219    1.292    0.226
       181  -9.8691    222.3951     57.4230   7.1991493354e+01   2.2575472212e+01    0.3721271    0.2949647  83.96  0.001272047    1.226    0.185
       182  -9.9836    158.1618     50.3130   8.0696427002e+01   3.9371104751e+01    0.4874246    0.4525438  60.39  0.002124965    1.016    0.016
       183  -9.4497    149.3719     59.5806   8.5297967438e+01   4.0080475485e+01    0.5134153    0.2759989 -54.66  0.002010514    2.494    0.599
       184 -11.5224    140.2750     51.7901   8.4931240518e+01   4.3418091560e+01    0.9917488    0.3694085  47.94  0.001750841    2.519    0.603
       185  -9.4401    152.8026     56.2193   8.3552450692e+01   3.9783819504e+01    0.3560347    0.3353469  26.89  0.001369148    1.096    0.088
       186 -10.3214    150.4766     51.4061   8.2594391198e+01   4.1065288456e+01    0.5256408    0.3718536   2.60  0.001968414    1.953    0.488
       187 -10.9719    102.3105     45.5914   9.2464201574e+01   5.2535294799e+01     1.355675    0.5350129  41.62  0.005459291    2.486    0.598
       188 -10.2715      3.1905     57.5770   1.3047590798e+02   6.2845206565e+01    0.3216603    0.2346471 -73.26  0.002213115    1.589    0.371
       189  -8.5830    202.2403     68.9828   7.7885659576e+01   2.5611282940e+01     0.196301    0.1209975 -38.25 0.0008841752    1.616    0.381
       190 -10.3410    201.4123     57.5692   7.5085126544e+01   2.7617795987e+01    0.5149505    0.3858464  12.24  0.002460726    2.025    0.506
       191  -9.5310    158.5114     58.6128   8.3072223805e+01   3.8034976848e+01    0.3770541    0.2472936  25.67  0.001498983    2.084    0.520
       192 -10.6183     13.4700     56.7053   1.2648974596e+02   6.2392128310e+01    0.2555612    0.1856658  20.55  0.001790962    1.656    0.396
       193  -8.6991    193.1237     54.1637   7.5510940706e+01   3.0174294213e+01     0.201041    0.1576871 -86.15 0.0003927109    1.329    0.247
       194  -8.9961    238.3397     52.3089   6.8763536998e+01   1.9640515505e+01    0.1282606     0.105878  31.71 0.0007043832    1.687    0.407
       195  -9.3899      7.7032     50.0277   1.2687916524e+02   6.4003013699e+01    0.3477203    0.2805499  64.43  0.002458449    2.012    0.503
       196  -9.9434    220.9147     46.5802   6.9597530932e+01   2.4522272899e+01    0.2565401      0.21056  42.32   0.00143943    1.495    0.331
       197  -8.7739    213.0008     50.4682   7.1595640521e+01   2.5856253211e+01    0.2076579    0.1301161  64.18  0.000482606    1.536    0.349
       198  -8.4096     65.5335     50.4868   1.0566705383e+02   5.8065113926e+01    0.1288985    0.1088334 -13.14 4.322653e-05    1.013    0.013
       199  -9.9772    207.5504     44.6989   7.0923673518e+01   2.8002566519e+01     0.603617    0.3634794  84.07   0.00279238    1.854    0.460
       200  -8.8148    214.9479     42.0951   6.9292267346e+01   2.6577219551e+01    0.3023042     0.222114  21.79  0.001225813    2.130    0.530
       201 -10.1063    194.6358     30.8431   6.9201784537e+01   3.3001733704e+01    0.4071292    0.3103302  -3.65  0.001170527    1.835    0.455
       202  -9.5094    199.7934     31.3055   6.8621059230e+01   3.1681006325e+01    0.4384688    0.2271685  50.77  0.001993835    2.012    0.503
       203  -9.9892    190.8945     40.5805   7.2276333795e+01   3.2657818784e+01    0.3286914    0.2715218   1.08  0.001138532    1.598    0.374
       204  -9.4188    192.5209     36.6624   7.1008066662e+01   3.2777282225e+01    0.3781244    0.2236347  72.94  0.001791813    1.654    0.395
       205 -10.0124      7.0184    142.8194   1.4321758927e+02   4.4441916056e+01    0.3909914    0.2216794  71.94  0.002243114    1.935    0.483
       206 -10.2043    210.3352     32.9348   6.7660898566e+01   2.8913269226e+01    0.3838293    0.3458326 -75.52  0.001419287    1.065    0.061
       207  -8.6891    200.3412     45.4524   7.2139339151e+01   2.9658645323e+01     0.228293    0.1289729 -35.86 0.0005720698    1.820    0.450
       208  -9.1900    152.7357     45.5509   8.0360077582e+01   4.1362485095e+01    0.2524028    0.1965047 -33.18 0.0007334424    1.365    0.268
       209  -9.3855     60.5288    147.8319   1.3094511424e+02   3.7925167593e+01    0.2039112    0.1776251 -40.06 0.0006284136    1.342    0.255
       210  -9.2294    232.0251     43.9717   6.7621333325e+01   2.2287424817e+01    0.2530179    0.1624069  42.70  0.001239724    2.098    0.523
       211 -10.7962    118.4785     41.9509   8.6924607574e+01   4.9718639867e+01    0.4847224    0.3651062 -46.13  0.002046825    1.529    0.346
       212  -9.0880    113.9700     36.9553   8.6366292547e+01   5.1350834906e+01    0.2293795     0.192242 -13.57  0.001338844    1.219    0.180
       213  -9.1339    156.5845     44.2110   7.9195470307e+01   4.0617991383e+01    0.1799469    0.1398297 -12.08 0.0003943863    1.529    0.346
       214  -8.3524      1.5711     44.4301   1.2773648783e+02   6.5370100660e+01    0.1118843   0.07733779 -38.61 0.0001279712    1.068    0.064
       215  -8.9911    249.6520     42.8498   6.5414290599e+01   1.8471444073e+01    0.2529164    0.1235445 -28.23 0.0006573172    2.590    0.614
       216  -9.2255    196.6148     42.1929   7.1846483881e+01   3.1027566980e+01    0.2229718    0.2014935 -89.53 0.0005443514    1.006    0.006
       217  -9.0351    166.1228     43.1535   7.7090709984e+01   3.8432972331e+01    0.2112838    0.1848089  48.56 0.0004961009    1.128    0.114
       218  -9.9376      1.4077    144.1175   1.4463658559e+02   4.4555470520e+01    0.4411109   0.06538393 -69.19  0.001548595    4.077    0.755
       219 -10.2558    180.4229     38.5324   7.3353235428e+01   3.5521443537e+01    0.4650146    0.3376221 -52.71  0.001926936    1.444    0.307
       220  -8.5754      4.7218     41.2057   1.2558173553e+02   6.5767189334e+01   0.08193752    0.0791854 -31.06 0.0006634372    1.410    0.291
       221 -11.6637     26.9046     51.7361   1.2007322033e+02   6.2286926292e+01    0.5615293    0.2463188 -30.31   0.00273293    2.421    0.587
       222  -9.2656    235.0707     39.3008   6.6215337216e+01   2.2234884937e+01    0.2082332    0.1516811  57.01   0.00106573    1.501    0.334
       223  -8.6934    173.0733     38.9605   7.4679744963e+01   3.7282233284e+01    0.2220185    0.1781676 -76.72 0.0008615307    1.340    0.254
       224  -9.5803    168.5749     36.6530   7.4792634900e+01   3.8691141221e+01    0.3263649    0.2489262 -54.07 0.0008887788    1.412    0.292
       225 -10.0474    124.6673     37.4434   8.3913457562e+01   4.8968644466e+01    0.3111569    0.2840155  22.04  0.001238765    1.051    0.049
       226  -9.7371    125.1868     33.0408   8.2327931079e+01   4.9410946021e+01    0.3049402    0.2224739  -6.47  0.001271413    1.568    0.362
       227  -8.6342    221.8346     36.1139   6.7012987258e+01   2.5748580508e+01    0.1767428    0.1609607  43.48  0.001076293    1.363    0.267
       228 -10.1348    246.6083     33.1683   6.3658018079e+01   2.0463470978e+01    0.4966193    0.2246239  55.60  0.001466089    2.437    0.590
       229 -10.8282    237.2045     32.2341   6.4415916890e+01   2.2696669230e+01    0.5006055    0.3781524  66.83  0.002446859    1.340    0.254
       230  -9.3628    242.3402     31.3201   6.3689566843e+01   2.1657780137e+01     0.235866     0.201326  33.65 0.0008530163    1.675    0.403
       231  -9.3878     98.0000    140.9753   1.2011470213e+02   3.3947294220e+01     0.245654   0.07894732 -54.58 0.0005655812    2.925    0.658
       232  -8.9774    246.5128    140.4964   8.7580017138e+01   3.0410909347e+00    0.1408309    0.1272639 -33.68 0.0002350621    1.018    0.018
       233  -9.2035     80.7458    139.4578   1.2428671803e+02   3.7086009682e+01    0.2553132    0.1562992 -41.94  0.000900716    1.805    0.446
       234 -11.1714    176.9528     29.7246   7.1485052101e+01   3.7492541272e+01    0.4519011    0.4274352  -5.62  0.001331228    1.238    0.192
       235 -10.7426    183.4903     27.3873   6.9871855199e+01   3.6164090961e+01    0.3757245    0.3193593  36.57 0.0009736035    1.352    0.261
       236 -10.4608     45.4788    132.6669   1.3231192260e+02   4.3282868701e+01     0.356874    0.2258307 -42.32  0.001909126    1.718    0.418
       237  -9.5630     48.9277    138.3278   1.3234303545e+02   4.1572614315e+01    0.5205677     0.224638  53.13  0.002141259    3.082    0.676
       238 -11.5029     55.6999    129.5684   1.2906274147e+02   4.2830436296e+01    0.8981724    0.2760516 -57.63  0.002685152    2.635    0.621
       239 -10.0117     18.4277    120.6248   1.3756361305e+02   4.8575593664e+01    0.7271176    0.3027755 -51.48  0.002993979    2.035    0.508
       240 -10.7210    226.7148     28.6071   6.4727369858e+01   2.5581941172e+01    0.5579455    0.2793964 -53.56  0.002044801    1.948    0.487
       241  -9.7761     77.1116     41.4642   9.8618163135e+01   5.7698381564e+01    0.2667194    0.2160394  40.33  0.001337398    1.356    0.263
       242  -8.3261    125.7158     28.2956   8.0625620981e+01   4.9862068059e+01    0.1251242    0.1041152 -73.32  0.000294811    1.543    0.352
       243  -9.8275     12.8952    117.4149   1.3856459056e+02   4.9708100937e+01    0.2450224    0.2051879  48.34  0.001005548    1.453    0.312
       244  -8.7690    201.2827     25.9562   6.7087990226e+01   3.1979452395e+01    0.1812857    0.1589025 -59.02 0.0004657989    1.151    0.131
       245  -9.2364    193.1298     24.8387   6.7864790439e+01   3.4101511870e+01    0.3646241    0.2025828  32.30  0.001121438    2.969    0.663
       246 -11.0093     25.1323    127.9140   1.3687886842e+02   4.6371147990e+01    0.5684597    0.3797497  18.61  0.003419421    2.007    0.502
       247  -9.6147     28.1364    120.7527   1.3498577544e+02   4.7742768990e+01    0.3752972    0.1551639 -71.46 0.0007826412    2.302    0.566
       248  -9.2936    219.9115     25.1538   6.4685108423e+01   2.7610763061e+01    0.2275822    0.1557882 -89.82 0.0002857238    1.375    0.273
       249 -10.3746      3.6653    134.9973   1.4313525776e+02   4.6425560811e+01    0.3933396    0.2677786  80.49  0.001773397    1.440    0.306
       250  -9.1817    209.5685     18.5440   6.4294272488e+01   3.0858015128e+01      0.20165    0.1812933 -83.98 0.0001027843    1.083    0.077
       251  -9.6764      9.1127    134.8700   1.4181524805e+02   4.6069088591e+01    0.2138754    0.1851838  70.51 0.0004738787    1.280    0.219
       252 -11.5505     13.9603    130.9884   1.4014389570e+02   4.6580815777e+01    0.7312688    0.4084743 -89.49  0.004003117    1.857    0.461
       253  -9.2411    241.3218     23.8565   6.2191248222e+01   2.2843590058e+01    0.2456951    0.1710192 -62.46 0.0007853091    1.264    0.209
       254 -10.0139     54.6361    137.5856   1.3074733554e+02   4.1076485813e+01    0.3942845    0.2384993 -71.61  0.001481483    1.543    0.352
       255  -8.7243     98.4901    135.4937   1.1883901499e+02   3.5154528818e+01      0.14737    0.1362243 -72.20 0.0001163139    1.016    0.015
       256 -10.8512     72.4817    128.9453   1.2441555387e+02   4.0777432365e+01    0.6330682     0.390476  30.15  0.003093136    1.926    0.481
       257  -9.5109     74.7297    124.9935   1.2299594166e+02   4.1382871274e+01    0.2915531    0.2650582  61.84  0.001385401    1.192    0.161
       258  -9.9649     97.9034     22.1363   8.5285115307e+01   5.6428127383e+01    0.2271101    0.2079472  46.54 0.0006305646    1.217    0.179
       259  -9.2227     95.6268    130.5153   1.1852032257e+02   3.6811353785e+01     0.293927    0.1695943 -51.24 0.0008099775    1.614    0.380
       260  -9.2829    197.8935     16.8391   6.5243724049e+01   3.3860444912e+01    0.2404345    0.1684741  69.69 0.0007573557    1.262    0.208
       261  -9.7334    177.9149     19.8526   6.8650775650e+01   3.8397563001e+01    0.2752868    0.2338721 -53.84  0.001658187    1.242    0.195
       262  -9.0991    178.7894     14.9223   6.7203921369e+01   3.8713654331e+01    0.1989092     0.161712  45.81 0.0005359988    1.307    0.235
       263  -8.7725     61.4976     15.6758   9.3855527428e+01   6.3561265480e+01    0.1155784   0.09304366  15.10 0.0007826528    1.076    0.071
       264 -10.8587     64.9921    130.4374   1.2672766527e+02   4.1450662551e+01    0.3229246    0.2618734  62.65  0.001735998    1.360    0.265
       265  -8.7888    120.8267    129.7674   1.1174685985e+02   3.2358935436e+01    0.2495957     0.168011 -10.65 0.0007467152    2.746    0.636
       266 -10.2436     38.5745    127.0180   1.3320425363e+02   4.5320607240e+01    0.2641381    0.2014859 -22.45  0.001091433    1.712    0.416
       267 -11.1404     67.3165    123.1717   1.2466392179e+02   4.2841810295e+01    0.7641935    0.3270923 -41.34  0.002935378    2.786    0.641
       268  -9.7243     67.6813    115.3377   1.2291752770e+02   4.4606238107e+01    0.2257025    0.1854384 -87.79 0.0006650776    1.366    0.268
       269  -9.9031     64.2715    114.2263   1.2365167034e+02   4.5314776873e+01    0.2796811    0.1908125  42.43 0.0008579678    1.654    0.395
       270 -10.4822     47.5677    125.1867   1.3047054239e+02   4.4794375703e+01    0.3736724     0.198072 -59.27   0.00187175    1.563    0.360
       271 -10.2191     92.1909    119.3374   1.1693500583e+02   3.9985046299e+01    0.6897168    0.1997531 -47.85   0.00220752    3.205    0.688
       272 -10.7852     18.4419     75.4117   1.2928837700e+02   5.8370887184e+01     1.293075    0.3472591 -45.77  0.005484624    2.832    0.647
       273  -8.8984    183.3244    249.6642   1.2037542458e+02  -3.6562208750e+00    0.1212931    0.0918172  66.57 0.0007051144    1.716    0.417
       274 -10.0795    141.8711    244.0891   1.2739712020e+02   4.3073700108e+00    0.3042567    0.1987822  30.33 0.0009723064    1.721    0.419
