#   1 NUMBER                 Running object number                                     
#   2 MAG_AUTO               Kron-like elliptical aperture magnitude                    [mag]
#   3 X_IMAGE                Object position along x                                    [pixel]
#   4 Y_IMAGE                Object position along y                                    [pixel]
#   5 X_WORLD                Barycenter position along world x axis                     [deg]
#   6 Y_WORLD                Barycenter position along world y axis                     [deg]
#   7 A_WORLD                Profile RMS along major axis (world units)                 [deg]
#   8 B_WORLD                Profile RMS along minor axis (world units)                 [deg]
#   9 THETA_WORLD            Position angle (CCW/world-x)                               [deg]
#  10 FWHM_WORLD             FWHM assuming a gaussian core                              [deg]
#  11 ELONGATION             A_IMAGE/B_IMAGE                                           
#  12 ELLIPTICITY            1 - B_IMAGE/A_IMAGE                                       
         1  -8.8856    105.8124     70.9581   9.9341920320e+01   4.7804749421e+01    0.7390259    0.3161727 -51.90  0.002596772    3.195    0.687
         2 -10.9801    242.8581     13.1061   5.9328711838e+01   2.3771092361e+01    0.6964447    0.3602778 -41.01  0.003735821    1.839    0.456
         3 -10.8630    249.5854      8.7626   5.7897896643e+01   2.2802497255e+01     1.189888    0.4240296 -33.12  0.005304882    3.013    0.668
         4  -8.9793    146.3323     15.3310   7.1883216243e+01   4.6570513434e+01    0.1982219      0.11819  72.28 0.0009758177    1.675    0.403
         5  -9.2403     95.1365      7.5174   8.0130037409e+01   5.8581149597e+01    0.4489535    0.2115837 -25.50  0.001703475    2.267    0.559
         6 -10.1589    248.0264     16.7563   5.9627916208e+01   2.2193486324e+01    0.6514602    0.4434975  37.59  0.003529242    2.479    0.597
         7  -9.0771    194.9938     11.7207   6.3846242916e+01   3.5124094669e+01    0.1932063    0.1523525  79.80  0.001128428    1.080    0.074
         8  -9.1457    162.3440      9.6410   6.7620356101e+01   4.3278914202e+01      0.24911    0.1865142  63.72 0.0008530185    1.140    0.123
         9  -8.9444     93.7522     15.0109   8.3330607682e+01   5.8141020435e+01    0.4286086    0.1836961  48.40  0.002039468    2.008    0.502
        10  -9.4849    219.1821     13.2135   6.1558457687e+01   2.9174601401e+01    0.2627006    0.1897045 -40.76  0.001560354    1.467    0.318
        11  -6.7975      8.3450      9.6723   1.1297451671e+02   7.0661031925e+01    0.0853085   0.08182361 -19.21 0.0004141448    1.748    0.428
        12  -8.4249    102.8573      8.1517   7.8447505809e+01   5.6961937010e+01    0.1776373    0.1698582  58.27  0.001229587    1.238    0.192
        13  -8.0296     68.4790      7.5316   8.7820417608e+01   6.3471649280e+01    0.1182736   0.09572832  16.68 0.0004957592    1.028    0.027
        14 -10.5462    216.0201      3.0012   5.9588619374e+01   3.1023709976e+01    0.5135958    0.2744734 -85.62  0.002591926    1.860    0.462
        15  -8.1729    154.0478      5.5341   6.7695250888e+01   4.5652657260e+01    0.1803109    0.1018753 -85.22 0.0008073113    2.391    0.582
        16  -9.3674    184.4148      1.9756   6.2659914843e+01   3.8655602062e+01     0.305477    0.1443983 -89.60  0.001297337    2.551    0.608
        17  -8.4156    118.0852      1.7935   7.2835655539e+01   5.4249517497e+01    0.1814629    0.1609733  76.60 0.0006598273    1.253    0.202
        18  -7.9699    159.2368      2.6540   6.6101546370e+01   4.4664026162e+01    0.1997648    0.1416712  81.39 0.0007218499    1.335    0.251
        19  -9.2825    122.5333    109.7467   1.0579935984e+02   3.6596745133e+01    0.5046153    0.3326527 -46.87  0.002271321    1.484    0.326
        20  -7.7995    176.9656    109.9120   9.2744715258e+01   2.4236432263e+01    0.2466044    0.1884731 -79.89 0.0005581344    1.633    0.388
        21  -8.1949    160.5729    108.0303   9.5896753310e+01   2.8505862985e+01    0.4032682    0.1530283 -42.14  0.001323742    2.632    0.620
        22  -9.4647     23.8300    101.2696   1.3267046646e+02   5.2644706348e+01    0.5355184     0.119979 -60.75  0.002009757    3.171    0.685
        23 -10.5177    125.3878     97.8634   1.0184348413e+02   3.8539320886e+01    0.7170689     0.615575 -81.20  0.003644808    1.363    0.266
        24  -9.3611     67.5692    100.2199   1.1913046457e+02   4.8197411452e+01     0.267992    0.1248914 -57.40  0.001136204    2.070    0.517
        25  -8.1729    105.9739     99.1451   1.0751344726e+02   4.2166184290e+01    0.2487781    0.1761961  72.66  0.001094739    2.066    0.516
        26  -7.8359    159.0385     97.8448   9.3526094859e+01   3.0931731010e+01    0.2643883    0.1853683  85.47  0.001080782    2.044    0.511
        27 -10.0462     32.3144     97.7246   1.2941514537e+02   5.2709794037e+01    0.3356538    0.3050217  78.37  0.002312281    1.296    0.229
        28 -10.4866     72.4299     93.3419   1.1591358922e+02   4.9014735677e+01    0.5001819    0.4234245 -31.05  0.002928081    1.137    0.120
        29  -7.3009     85.6531     93.2710   1.1185624970e+02   4.6999975606e+01    0.1361413    0.1114668  78.75 0.0006994452    1.621    0.383
        30  -7.9019     82.9367     88.7110   1.1143581541e+02   4.8398509225e+01    0.2169118    0.1123215  15.59 0.0007025692    4.170    0.760
        31  -7.3779     92.4538     86.4578   1.0791825409e+02   4.7275215595e+01    0.1428137    0.1306053 -21.37 0.0001679721    1.052    0.049
        32  -7.5580    213.6671     83.9968   7.9193531293e+01   2.0270578888e+01    0.2586765   0.09138373 -53.76 0.0007051981    4.368    0.771
        33  -8.0581     37.2022     80.6073   1.2404545971e+02   5.5918774604e+01    0.1619058    0.1138321  -0.11 0.0009515149    1.706    0.414
        34 -10.2424    248.2677     72.4681   7.1484643227e+01   1.4262121964e+01    0.5934533    0.2469846 -36.99  0.002451006    2.284    0.562
        35  -9.4708    248.4542     64.5420   6.9715131601e+01   1.5468244064e+01    0.3317201    0.1887847 -66.37 0.0009749543    1.981    0.495
        36  -7.7118    115.4039    245.8175   1.3208433486e+02   8.3448757655e+00    0.1538684    0.1162508 -49.69 0.0004884749    1.704    0.413
        37  -8.4368    122.3314     66.1739   9.3301329382e+01   4.5244461823e+01     0.319732    0.1768114 -59.51   0.00117496    3.035    0.670
        38  -8.1204     47.3494     64.6442   1.1626034521e+02   5.8046539003e+01    0.2508301    0.1556523  14.68  0.001377848    1.877    0.467
        39  -9.8221     31.2677     63.2782   1.2162070012e+02   5.9930320328e+01    0.3334765     0.258634  77.61  0.002014311    2.173    0.540
        40  -8.8495     69.7201     60.8969   1.0737160594e+02   5.5831658473e+01    0.3049367    0.2541606  56.98  0.001812137    1.626    0.385
        41  -8.4700    124.5887     52.6906   8.8435403671e+01   4.6935464502e+01    0.3136208    0.2155631 -86.04  0.001337051    2.592    0.614
        42  -8.4183    162.4023     64.1940   8.3340263134e+01   3.6231776833e+01    0.2140347    0.1345895 -47.85 0.0004590297    1.693    0.409
        43  -8.3219     70.0000     47.9693   1.0293508890e+02   5.7986808342e+01    0.3424965   0.09866177 -46.31  0.001138075    4.318    0.768
        44  -8.3709    146.7166     67.9993   8.7865983611e+01   3.9389759352e+01    0.1882937    0.1333217 -36.38 0.0008876212    1.463    0.316
        45  -8.1319     57.3036     45.6997   1.0658139162e+02   6.0171458330e+01    0.2063502    0.1427171  38.99 0.0008978633    1.657    0.397
        46  -8.1225     52.1078     44.3724   1.0800661368e+02   6.1064019248e+01    0.2044126    0.1467605 -23.12 0.0006573547    1.218    0.179
        47  -8.4616     86.0938     43.3795   9.6064290240e+01   5.6040118821e+01    0.2374259     0.173058 -15.02  0.001338213    1.376    0.273
        48  -8.3969    249.9817     41.4670   6.4566294638e+01   1.8534710030e+01    0.3219839    0.1867765 -14.82  0.001310693    3.670    0.728
        49  -9.4363    100.7259     40.6613   9.0751307246e+01   5.3688046992e+01     0.273425    0.1502211  33.85 0.0009432713    1.878    0.468
        50  -8.5434      9.1058     40.0998   1.2345795515e+02   6.5858878640e+01    0.2319927    0.1848683  42.23  0.001696828    1.878    0.467
        51  -8.2737    144.1723     38.8147   7.9536624521e+01   4.4385062129e+01    0.2008181    0.1567244  33.98  0.001074463    1.326    0.246
        52 -10.0101    242.8246     29.8490   6.2827097884e+01   2.1695621536e+01     0.681088    0.4722745   1.46  0.003275429    3.021    0.669
        53  -9.8444    237.2621     33.5271   6.4187477606e+01   2.2467939500e+01    0.7607878    0.3986436  87.06  0.003551533    2.102    0.524
        54  -9.3565    236.2162    242.9032   1.0886799787e+02  -1.1475937242e+01    0.3259016    0.1721303  -3.12  0.001413687    3.299    0.697
        55  -8.6071    231.7350    236.0065   1.0850439618e+02  -9.8653519120e+00     0.173348    0.1463411   4.20  0.001160986    1.079    0.073
        56  -8.7314    176.6071     34.7916   7.2420006774e+01   3.6968945264e+01    0.1996102    0.1216675 -45.62 0.0009551423    1.732    0.423
        57  -9.9229    234.6240     26.9372   6.3024675924e+01   2.3930737581e+01     0.396469    0.2835058 -25.17  0.002233367    1.801    0.445
        58  -8.0888     41.2923     32.9798   1.0799629759e+02   6.4157535119e+01    0.1670865    0.1299361 -20.18  0.001017502    1.062    0.059
        59  -7.9853      4.7022     29.0479   1.2183181593e+02   6.7995884677e+01      0.15428    0.1068178 -36.05 0.0006252091    1.083    0.077
        60  -8.1664    185.0235     26.2574   6.8849340083e+01   3.5934073851e+01    0.2020274    0.1642912  74.83 0.0008607511    1.088    0.081
        61  -9.0700      8.4496     25.6571   1.1903998843e+02   6.8296020553e+01    0.3155924   0.09658428  18.35  0.001489185    3.863    0.741
        62  -9.2418    200.6610     14.6749   6.3904466807e+01   3.3431594995e+01    0.2486738    0.1359819  59.40  0.001053949    1.678    0.404
        63  -8.7466    202.2797     20.2455   6.5065535582e+01   3.2408380897e+01    0.3770143    0.1632047  83.00  0.001456101    2.830    0.647
        64  -7.6146     14.3571     19.2990   1.1407192148e+02   6.8823023282e+01    0.1149102   0.06309236 -17.11 0.0007035935    1.706    0.414
        65  -7.9176    140.3281     18.6780   7.4015476086e+01   4.7650391762e+01    0.1331463    0.0994188 -74.14 0.0004258096    1.691    0.408
        66  -8.1871    171.6170    223.8072   1.1798185252e+02   2.4015502097e+00    0.1778815    0.1292486 -62.10 0.0008530977    1.734    0.423
        67  -8.1423    242.3932    220.7950   1.0388001962e+02  -9.4295318423e+00    0.1714453    0.1073268 -20.46 0.0005343038    1.645    0.392
        68  -8.9013    116.3799     14.0012   7.7397034452e+01   5.3551708781e+01    0.3806667    0.1085739  58.33  0.001398145    3.104    0.678
        69 -10.1817    246.8795    216.3083   1.0225320307e+02  -9.4985358428e+00    0.4300622    0.2562048 -26.55  0.002362299    1.656    0.396
        70  -9.0619    242.2830    207.3728   1.0140263489e+02  -7.4480381783e+00    0.4131165    0.2972536  84.32   0.00176025    3.958    0.747
        71  -7.6324    192.6328    172.8046   1.0411299906e+02   7.8490814322e+00    0.2012767    0.1384777 -51.94  0.000684213    1.586    0.369
        72  -7.8456    228.3544    163.3163   9.5046553674e+01   2.3973546384e+00    0.1491673    0.1085039   4.86 0.0007045915    1.743    0.426
        73  -9.3349     24.3215    158.2122   1.4075774301e+02   3.9654243562e+01    0.2361543     0.146953  49.22  0.001406505    1.710    0.415
        74  -7.7174    122.0000    156.0139   1.1665993656e+02   2.6106920508e+01    0.2505007    0.0843728 -52.39 0.0008021006    2.940    0.660
        75  -9.4366    156.8096    149.7737   1.0698094638e+02   2.0342888078e+01    0.4965545    0.3559775 -48.52  0.002029954    1.406    0.289
        76  -8.1446    236.6704    144.6783   8.9482789580e+01   4.1221567767e+00    0.1460158    0.1100975   2.06 -7.657245e-05    1.693    0.409
        77  -8.3812    119.5327    139.4997   1.1377087122e+02   3.0435751871e+01    0.1521298     0.145141 -78.15 9.945095e-05    1.004    0.004
        78  -7.6060    101.3218    131.6550   1.1678661862e+02   3.5670228107e+01    0.1552508    0.1143324  84.59 0.0007049936    1.732    0.423
        79  -7.2001      1.6803    130.3163   1.4293157346e+02   4.7752163961e+01     0.116219   0.07372615  76.19  0.000704046    1.657    0.397
        80  -8.2136    194.1934    122.3122   9.2268619816e+01   1.7676229948e+01    0.3103628    0.1816706 -51.61  0.001261574    1.804    0.446
