#   1 NUMBER                 Running object number                                     
#   2 MAG_AUTO               Kron-like elliptical aperture magnitude                    [mag]
#   3 X_IMAGE                Object position along x                                    [pixel]
#   4 Y_IMAGE                Object position along y                                    [pixel]
#   5 X_WORLD                Barycenter position along world x axis                     [deg]
#   6 Y_WORLD                Barycenter position along world y axis                     [deg]
#   7 A_WORLD                Profile RMS along major axis (world units)                 [deg]
#   8 B_WORLD                Profile RMS along minor axis (world units)                 [deg]
#   9 THETA_WORLD            Position angle (CCW/world-x)                               [deg]
#  10 FWHM_WORLD             FWHM assuming a gaussian core                              [deg]
#  11 ELONGATION             A_IMAGE/B_IMAGE                                           
#  12 ELLIPTICITY            1 - B_IMAGE/A_IMAGE                                       
         1 -14.0797    168.4871     46.3803   7.3877439352e+01   3.7432897348e+01     1.712081     1.044114  32.32   0.00556539    2.296    0.564
         2 -14.4579    182.1192     32.0056   6.7870376273e+01   3.6024848153e+01    0.8865507    0.8751485  86.49  0.004042611    1.181    0.153
         3 -13.9234    186.3464     25.4341   6.5612723136e+01   3.5804511694e+01    0.6970692    0.5875168 -74.96  0.001054933    1.132    0.116
         4 -13.4472      3.7222     12.5771   1.1264768180e+02   7.0719423314e+01    0.7908059    0.3009712 -39.03  0.004058649    2.052    0.513
         5 -13.4485    189.5934     15.1281   6.2659409184e+01   3.6193301147e+01    0.8626989    0.4037856 -83.07  0.003403722    3.153    0.683
         6 -13.9793    201.7299      4.1506   5.8762687644e+01   3.4505471645e+01    0.9188828    0.5998103  61.67  0.004645117    1.453    0.312
         7 -10.2081     61.6800      1.6455   8.3933448513e+01   6.4920800707e+01    0.1242721   0.06958165  19.76 -5.119154e-05    1.753    0.429
         8 -11.6890    116.2271    212.0307   1.2454226332e+02   1.4137804183e+01    0.3760599    0.2478472  76.48 0.0008740959    1.871    0.466
         9 -13.1190    199.7620    247.4580   1.1295699910e+02  -6.8511980709e+00    0.4896394    0.4247849  24.17  0.003271746    1.058    0.055
        10 -19.6609     38.9305    160.4208   1.3502085339e+02   3.7522417441e+01     20.50978     5.931738 -70.38   0.07168446    3.378    0.704
        11 -11.1070    207.8214    183.8270   9.9749379838e+01   2.6557707254e+00    0.2974136    0.2664833 -81.10  0.001052669    1.409    0.290
        12 -11.1216    211.1252    179.8750   9.8282400030e+01   2.7794829814e+00    0.4560288    0.2883462 -27.99  0.001867467    1.717    0.418
        13 -10.6283     89.6539    183.2669   1.2616280008e+02   2.5137538030e+01    0.3808506    0.2004372  63.13  0.001198232    2.450    0.592
        14 -10.6189     99.2861    180.6113   1.2345232208e+02   2.4179797663e+01    0.2482419    0.2407656  82.46 0.0006314238    1.128    0.113
        15 -10.1213     95.7056    180.2867   1.2425161242e+02   2.4856941783e+01     0.231279    0.2078334  68.05 0.0004988201    1.071    0.066
        16 -10.8590    164.9233    205.9153   1.1296821908e+02   6.5087183065e+00    0.4458173    0.1901718 -57.44  0.001581405    3.244    0.692
        17 -12.2159    197.3420    173.5978   9.9746045537e+01   6.6869076736e+00     0.845549    0.3811596 -52.19  0.003090713    2.640    0.621
        18 -11.7191    118.8890    173.8698   1.1755347220e+02   2.2295264225e+01    0.3546533    0.2013921  54.55  0.001090007    1.915    0.478
        19 -11.0223    137.6406    171.0664   1.1251818724e+02   1.9347568954e+01    0.2595398     0.207836  58.35  0.000507628    1.274    0.215
        20 -10.4238    177.5155    169.5056   1.0307926179e+02   1.1559967915e+01    0.1487121    0.1481357 -12.05  0.000289898    1.009    0.009
        21 -10.9780    145.7044    168.8962   1.1017244811e+02   1.8231348284e+01    0.2226443    0.1971194 -57.04 0.0008403068    1.131    0.116
        22 -11.8853     86.0841    204.5134   1.3004762928e+02   2.0778975261e+01    0.4818456    0.3546961  13.43  0.002430143    2.184    0.542
        23 -12.7219    242.7419    147.2660   8.5556659512e+01   2.8937615651e+00    0.5370767    0.3980794 -71.10  0.001817919    1.834    0.455
        24 -14.8267    248.2008    139.9471   8.3095501251e+01   3.2036283704e+00     2.134958    0.7241451 -43.96   0.00764202    2.631    0.620
        25 -14.2558    247.9254    117.5093   7.8309392121e+01   7.2981549588e+00     1.191047    0.7072466 -45.38  0.005843486    1.475    0.322
        26 -11.8314     99.6941    157.3660   1.1918144065e+02   2.9706236383e+01    0.5262357    0.3912531  -7.19  0.001732529    2.145    0.534
        27 -11.6004    101.3368    153.3112   1.1796463436e+02   3.0405363896e+01    0.3502683    0.3054445  17.70  0.001381521    1.383    0.277
        28 -10.2666    210.9576    202.1650   1.0276942260e+02  -1.2909756026e+00    0.1893838    0.1862944  69.84 0.0003365931    1.234    0.189
        29 -11.6051    133.8208    144.7030   1.0782769711e+02   2.6261915123e+01     1.098746    0.2721803 -54.60  0.002476848    5.838    0.829
        30 -11.3831    174.5510    149.0165   9.9205936364e+01   1.6595575199e+01    0.2911001    0.2711608  83.02 0.0008786292    1.136    0.120
        31 -11.7139    145.3569    145.8503   1.0525031311e+02   2.3591300274e+01    0.3590417    0.3072156  87.51 0.0008362039    1.307    0.235
        32 -11.8765    110.6259    140.2654   1.1279253974e+02   3.1874009105e+01     0.578882    0.3317833 -35.00  0.002265259    2.237    0.553
        33 -12.3935     99.5585    140.7118   1.1583200841e+02   3.3770985726e+01    0.2784893    0.2673339 -44.22 0.0004002167    1.099    0.090
        34 -12.9562    193.7578    194.0180   1.0464639223e+02   3.3748435510e+00    0.9920542    0.5947822 -60.03  0.004234205    2.343    0.573
        35 -11.4739    108.5345    209.6333   1.2586202236e+02   1.5977118208e+01    0.4296907    0.3596274  51.58  0.001888598    1.129    0.114
        36 -11.1387    106.0000    130.9917   1.1193294692e+02   3.4942092588e+01    0.3558124    0.2777926 -50.29  0.001101386    1.222    0.182
        37 -11.1764    105.0152    126.9989   1.1127000060e+02   3.6066286025e+01    0.4046812    0.2179882 -41.98 0.0006916347    1.921    0.480
        38 -11.1563    117.2189    130.5184   1.0881173009e+02   3.2923224920e+01    0.3466212    0.2873378 -18.04   0.00117762    1.461    0.315
        39 -11.4992    135.3883    122.9652   1.0224046709e+02   3.0938013518e+01    0.6686326    0.1452192 -49.28    0.0015977    4.989    0.800
        40 -10.6712    160.6465    127.6456   9.7276944200e+01   2.4343033266e+01    0.3319481    0.2348897 -84.74  0.001347535    2.072    0.517
        41 -10.6629    125.5971    127.6657   1.0592267832e+02   3.1911484313e+01    0.3449972    0.2267804  77.93  0.001079861    2.488    0.598
        42 -10.2044    111.8589    119.6372   1.0761186810e+02   3.6490031532e+01    0.2071735    0.1918832  46.24 0.0005975095    1.122    0.109
        43 -12.5762      5.8563    118.4549   1.3785805717e+02   5.0239200673e+01    0.2635376     0.235876  30.21 0.0006401899    1.426    0.299
        44 -11.6160     75.2707    117.9864   1.1762308692e+02   4.3136154850e+01    0.3256528    0.2128291  39.18 0.0008512683    1.669    0.401
        45 -10.7688    168.5875    113.3797   9.1893834923e+01   2.5574870431e+01    0.3715566    0.2644062 -72.15 0.0009830053    1.807    0.447
        46 -11.7707    107.4421    203.5640   1.2520536479e+02   1.7501535697e+01    0.4282059    0.3310499  -1.91  0.002108093    2.138    0.532
        47 -10.5539    205.4424    110.3210   8.3704664160e+01   1.7675407788e+01    0.2814151    0.2332616  40.92 0.0007360775    1.347    0.258
        48 -10.4097    102.8733    194.9666   1.2492188816e+02   2.0222037156e+01    0.2780257    0.2051765  35.88  0.001018182    1.467    0.318
        49 -14.1534     11.2648    206.4894   1.4559001002e+02   2.9794642969e+01    0.5055635    0.4459517  29.74  0.003258834    1.645    0.392
        50 -10.0514    181.9291     77.6629   7.9847819857e+01   2.9255192741e+01    0.2119832     0.181823  71.21 0.0005960939    1.142    0.124
        51 -10.0135    180.2516    192.8369   1.0724309558e+02   6.1936868114e+00    0.2346496    0.1605017  84.43 0.0009400722    2.732    0.634
        52 -11.0982     92.8998    206.8512   1.2887734159e+02   1.9176503590e+01    0.2896374    0.2048507 -73.90 0.0006609823    1.397    0.284
        53 -11.2394    248.6198     60.6584   6.6022277055e+01   1.6702017817e+01    0.3043936    0.2362657 -39.55  0.001284338    1.351    0.260
        54 -11.2876     13.6344     59.9125   1.2393572925e+02   6.2180619741e+01     0.181601    0.1614342  -1.77  0.000444598    1.286    0.223
        55 -12.5820    177.0567    243.7094   1.1677435310e+02  -2.5273378434e+00    0.2650551    0.2190361  60.38  0.001048937    1.395    0.283
        56 -12.7218    182.0535    241.1667   1.1539205603e+02  -2.9528542674e+00    0.3069375    0.2566653 -21.32  0.001914178    1.327    0.247
        57 -12.1305    182.4958    234.1769   1.1417821953e+02  -1.8665163391e+00    0.2859708     0.195931   7.23  0.001454337    1.931    0.482
        58 -10.9179     12.0380     36.9775   1.1780298155e+02   6.6391083884e+01    0.1998637    0.1362653   3.12 0.0006190984    1.459    0.315
        59 -11.2956    201.0400    222.5184   1.0849936576e+02  -3.0853827578e+00    0.2071666    0.1210919  37.74 0.0007498533    1.583    0.368
        60 -11.2897    186.5113    221.0090   1.1114209744e+02  -2.8817050176e-01    0.1985592    0.1336143 -40.95  0.001033473    1.597    0.374
        61 -10.2248     10.1602    213.9556   1.4632997204e+02   2.8306812557e+01    0.1960636    0.1558112  14.50   0.00110221    2.113    0.527
