#   1 NUMBER                 Running object number                                     
#   2 MAG_AUTO               Kron-like elliptical aperture magnitude                    [mag]
#   3 X_IMAGE                Object position along x                                    [pixel]
#   4 Y_IMAGE                Object position along y                                    [pixel]
#   5 X_WORLD                Barycenter position along world x axis                     [deg]
#   6 Y_WORLD                Barycenter position along world y axis                     [deg]
#   7 A_WORLD                Profile RMS along major axis (world units)                 [deg]
#   8 B_WORLD                Profile RMS along minor axis (world units)                 [deg]
#   9 THETA_WORLD            Position angle (CCW/world-x)                               [deg]
#  10 FWHM_WORLD             FWHM assuming a gaussian core                              [deg]
#  11 ELONGATION             A_IMAGE/B_IMAGE                                           
#  12 ELLIPTICITY            1 - B_IMAGE/A_IMAGE                                       
         1 -12.0617     76.8426     24.9749   8.7958613464e+01   6.0141078689e+01    0.4853232    0.3036021  -0.40  0.001476913    1.846    0.458
         2 -11.5391     92.3354      8.7298   7.7398313102e+01   5.8868018336e+01     0.406168    0.2922072  -7.52  0.002564197    1.492    0.330
         3 -11.0794     90.1085     16.0257   8.0699633827e+01   5.8631305685e+01    0.2794265    0.2020607  -4.73 0.0004323736    1.455    0.313
         4 -10.6173     87.6359     11.8767   7.9805837565e+01   5.9505342380e+01    0.2631142     0.227849  17.41  0.001122798    1.091    0.083
         5 -11.1383     40.1876     18.9940   9.8598821720e+01   6.6452640165e+01    0.4780302    0.2845989  32.22  0.003015366    1.623    0.384
         6 -10.8909     22.2608      9.2352   1.0200987119e+02   6.9737333272e+01    0.3683182    0.1860355  16.36  0.002206966    1.998    0.499
         7 -11.6821     30.3267      7.4512   9.7669653945e+01   6.9031060749e+01    0.3634534    0.2657625  11.84  0.001246032    1.127    0.113
         8 -12.3466     40.1106      8.5898   9.4145181481e+01   6.7664418435e+01    0.5388135    0.2953191 -25.76   0.00144483    1.719    0.418
         9 -10.7991    100.1891     18.8448   7.9106748624e+01   5.6340429028e+01     0.348725    0.2331097 -52.42    0.0017142    2.152    0.535
        10 -11.4388    156.1063     13.8621   6.6497595714e+01   4.4283310938e+01    0.4151809    0.2556388  40.82  0.002188089    1.778    0.437
        11 -10.2786     68.8584     13.5633   8.5984036634e+01   6.2762190390e+01    0.1808061    0.1771577  17.35 0.0006900347    1.400    0.286
        12 -10.0545    119.4385     12.1966   7.2452132848e+01   5.2874108014e+01    0.2325117    0.1528591  57.69 0.0005432994    1.308    0.236
        13 -11.5322     10.9704      7.0212   1.0628191447e+02   7.1115410537e+01    0.4788841    0.3795699  29.59  0.003758153    1.779    0.438
        14  -9.8447     10.4642      1.5023   1.0400770067e+02   7.1826847096e+01    0.1484051    0.1028324 -11.08  0.001019635    1.056    0.053
        15 -10.0558      2.5581      2.7135   1.0849948888e+02   7.2363854276e+01    0.1833605    0.1145157   4.21 0.0009863717    1.367    0.268
        16 -11.1401      4.2970      9.8720   1.1077186058e+02   7.1304700764e+01    0.1972563    0.1462019 -10.48 0.0002565846    1.092    0.084
        17 -10.7670      2.5154      6.4610   1.1018814438e+02   7.1890821515e+01    0.1836907    0.1326551  -6.59  0.000583442    1.111    0.100
        18 -11.4049    151.3923      6.9698   6.5273117870e+01   4.6034875051e+01    0.2872328    0.2592411 -31.01  0.001013782    1.310    0.237
        19 -12.3302     56.1154      5.8781   8.7007659583e+01   6.5599988567e+01    0.5494257    0.3878539  14.31  0.003053891    1.197    0.165
        20  -9.9932     50.2377      2.0005   8.7380003984e+01   6.6866427205e+01    0.2162039    0.1393169  35.98 0.0005087442    1.352    0.260
        21 -10.1127    210.4147      7.7262   5.8411220745e+01   3.2111439339e+01    0.1447791    0.1227714 -23.96 0.0009448775    1.575    0.365
        22 -11.5299     69.4512      6.6792   8.2992236468e+01   6.3314360125e+01    0.7312238    0.2032988  47.05  0.003154603    2.897    0.655
        23 -11.5959    193.7475      4.5444   5.9359000402e+01   3.6289239477e+01     0.354006    0.2968463   7.77  0.002280467    1.735    0.424
        24 -10.8271    120.5355      4.3881   6.9681966691e+01   5.3296476235e+01    0.2976851    0.1631061  46.65 0.0001674744    1.561    0.359
        25 -10.0919    235.3863      4.3701   5.5560599649e+01   2.6912772835e+01    0.1614478    0.1328147  55.48  0.000837623    1.591    0.372
        26 -11.0926    159.8515      2.4204   6.2829483941e+01   4.4447049937e+01    0.3461795    0.2357783 -82.71  0.001992863    1.543    0.352
        27 -11.3710    130.2160      3.5794   6.7670361197e+01   5.1199797569e+01    0.2491471    0.1945791  65.00  0.001045493    1.114    0.102
        28 -10.1717     16.5596      3.4987   1.0202353704e+02   7.1002754535e+01    0.1750957    0.1199056 -12.57 4.458365e-05    1.121    0.108
        29 -10.6055     19.5530      2.5171   1.0017738564e+02   7.0802044615e+01    0.1967146    0.1340081  -7.62 0.0007670309    1.125    0.111
        30 -10.4811    176.2932      2.1442   6.0708218945e+01   4.0606236828e+01    0.2808897    0.1587204  46.47  0.001478355    1.952    0.488
        31 -11.8901     80.3720      1.9049   7.7917492596e+01   6.1739991942e+01    0.3456627    0.1679065  51.93  0.001371158    1.765    0.433
        32  -9.5566    100.0153      1.6834   7.2993375260e+01   5.7887846673e+01    0.1691218    0.1369042  47.02 0.0005236809    1.050    0.048
        33 -11.6113     35.1478     12.8841   9.8048424810e+01   6.7822459415e+01     0.301765    0.2327111 -21.65  0.001278615    1.302    0.232
        34 -11.1245      4.6253    167.4548   1.4353424644e+02   3.9421599611e+01    0.3341013    0.2140459  61.13  0.001643311    1.562    0.360
        35 -11.8168     17.2705    249.2965   1.4718796218e+02   2.0701324471e+01    0.2685098      0.22451   8.29  0.001893634    2.400    0.583
        36 -10.9833     12.8499    248.7340   1.4787714834e+02   2.1294398789e+01    0.2213646     0.127818  87.41  0.001486259    1.359    0.264
        37 -12.1837      5.3009    240.7430   1.4865762685e+02   2.3639989057e+01    0.4604346    0.2186253  56.55  0.002882405    1.681    0.405
        38 -11.1783      1.8242    248.7521   1.4964442153e+02   2.2449376238e+01     0.395417    0.2475718  73.14  0.002893012    1.125    0.111
        39 -12.6121      9.0577    245.3305   1.4830085517e+02   2.2356246934e+01    0.4497137    0.3291506  20.48  0.003039402    2.493    0.599
        40  -8.8643     41.6665    158.3040   1.3380238168e+02   3.8042256087e+01    0.1366688   0.08943342  73.48 0.0007037541    1.661    0.398
        41  -8.9935    247.4787    155.5307   8.6202781044e+01   5.4734486898e-01       0.1377    0.1214456 -30.70 0.0001147225    1.009    0.009
        42 -10.1955      2.2443    153.5621   1.4273915276e+02   4.2782626745e+01    0.1946295    0.1060393  35.98  0.001136712    2.128    0.530
        43 -10.3560     23.8886    150.8458   1.3723044259e+02   4.1637126759e+01    0.1848255    0.1484407 -61.90 0.0004060172    1.176    0.150
        44 -10.3090     21.9049    143.2986   1.3675389731e+02   4.3598517992e+01    0.2290616    0.1477122 -80.76  0.001307976    1.367    0.268
        45 -11.2568      3.1104    138.6996   1.4094196904e+02   4.6132642791e+01      0.26063    0.1598909  27.67  0.001598592    2.048    0.512
        46 -11.0354     12.3143    130.0480   1.3748848355e+02   4.7472631939e+01    0.4189612    0.2108433  64.60  0.001755511    2.803    0.643
        47  -9.0453     35.3161    130.3655   1.3125506980e+02   4.5409232891e+01    0.1392097   0.08378468 -41.57 0.0001786743    1.772    0.436
        48 -10.2494    247.3383    128.6752   8.0511451964e+01   5.3990923709e+00    0.1430355    0.1023309 -69.18  0.000705129    1.723    0.420
        49 -11.7648     23.3611    121.0453   1.3310334710e+02   4.8688438739e+01    0.5571612    0.2869068 -89.02 0.0009642609    2.738    0.635
        50 -10.5142      3.5075    118.9662   1.3837393197e+02   5.0608814279e+01    0.2016628    0.1492293 -35.74 0.0006992024    1.500    0.333
        51 -10.6632     65.5459    111.2096   1.1860870436e+02   4.6364928875e+01    0.3750897    0.1586446 -52.72  0.001322733    2.068    0.517
        52  -9.5209      5.5083    113.4498   1.3703230082e+02   5.1728159068e+01     0.120944   0.09366214 -64.11 4.023533e-05    1.009    0.009
        53 -10.1368    249.1883    111.8069   7.6600075169e+01   8.0477431848e+00    0.1832442    0.1618648 -17.47  0.001070428    1.329    0.247
        54 -11.1811     58.2092    108.0206   1.2012607133e+02   4.8062776111e+01    0.3286428    0.2204932 -15.32  0.001336411    2.044    0.511
        55 -11.4769      4.6435    108.7378   1.3657983975e+02   5.2836829060e+01    0.3349573    0.2205707   6.06  0.002102448    2.012    0.503
        56  -9.6974     79.2710    106.9867   1.1342688302e+02   4.5315118450e+01    0.2030057    0.1754793 -48.86 0.0003917909    1.069    0.065
        57 -10.2549     89.1801    105.1579   1.0998802244e+02   4.4107125286e+01    0.1986976    0.1756561  89.16 0.0007736805    1.324    0.244
        58  -9.6519     93.6430    104.6788   1.0854280310e+02   4.3440832110e+01    0.1531004     0.113681 -11.67 0.0007045247    1.763    0.433
        59  -9.8128    113.5099    102.5177   1.0228191488e+02   4.0161781715e+01    0.1492783    0.1458444 -44.74 0.0002379183    1.013    0.013
        60 -11.3980     57.5849    101.6097   1.1882481031e+02   4.9588204276e+01    0.2785833    0.2417047 -35.83  0.001265487    1.087    0.080
        61  -9.5076     81.3306     99.6783   1.1092212963e+02   4.6610687225e+01    0.1413895    0.1131378  84.70  0.000576309    1.696    0.410
        62  -9.9258     66.5399    101.5014   1.1597815616e+02   4.8423550332e+01    0.1385047    0.1245822 -45.32 5.983955e-05    1.017    0.016
        63 -11.8342     18.2964     95.2492   1.3005035749e+02   5.4906625261e+01    0.3716964    0.2857513 -88.56  0.002352672    1.531    0.347
        64  -9.4377    129.5012     97.5055   9.6608510201e+01   3.7860038245e+01    0.1502581    0.1494545 -50.35 0.0008106721    1.000    0.000
        65  -9.7198    101.0817     96.1835   1.0406214137e+02   4.3922026588e+01    0.3485598    0.2028532 -62.61  0.001390442    2.359    0.576
        66 -10.7350     78.9392     94.9758   1.1040485779e+02   4.8007818640e+01    0.2101811    0.1894299 -30.94 0.0003261242    1.040    0.038
        67  -9.7515     83.9767     94.2175   1.0863891401e+02   4.7356238927e+01    0.1898309    0.1161734  37.50 0.0008830021    1.729    0.422
        68 -11.0409     27.2028     90.9672   1.2625089580e+02   5.5130562694e+01    0.4710005     0.318629  46.06  0.002756122    1.912    0.477
        69 -10.2219     25.3730     85.1728   1.2557583616e+02   5.6521419004e+01    0.2242742    0.1810077 -80.20 0.0007963031    1.472    0.321
        70 -10.6979     58.6735     91.2148   1.1588315704e+02   5.1721226285e+01    0.2927342    0.2121547 -31.43 0.0003732568    1.354    0.262
        71 -10.8675      1.8521     89.9549   1.3436008079e+02   5.7098771695e+01    0.2407261    0.1273818 -65.59 0.0002564911    1.516    0.340
        72 -11.2621     11.2041     87.7872   1.3089976620e+02   5.7006729671e+01    0.5614564    0.1943152 -60.97  0.002611693    2.214    0.548
        73 -10.3701     17.6863     88.5864   1.2890824815e+02   5.6391436543e+01     0.370828    0.2043519 -21.49  0.001700553    2.267    0.559
        74 -11.5460     76.3712     89.3149   1.0965825365e+02   4.9606113505e+01    0.2662476    0.2285643 -39.08 0.0003485263    1.074    0.069
        75 -11.4455     98.1803     89.1320   1.0291441998e+02   4.5922843748e+01    0.3199973    0.2039827  43.15  0.001501643    1.624    0.384
        76  -9.6993     43.7955     89.5625   1.2038974878e+02   5.3836322760e+01    0.2243545    0.1240891  34.88  0.001124706    2.061    0.515
        77  -9.2110     40.3309     87.1565   1.2096310513e+02   5.4714146178e+01    0.1686795    0.1079523 -64.78            0    1.656    0.396
        78 -10.4645     54.4429     84.7008   1.1556587921e+02   5.3629422189e+01     0.319459    0.1932552 -46.63  0.001327896    1.445    0.308
        79  -9.3572    124.2115     86.5972   9.4890719302e+01   4.1185210170e+01    0.2105091    0.1384324  36.46 0.0008929536    1.621    0.383
        80  -9.7053     72.0729     84.4181   1.0965695013e+02   5.1272302738e+01    0.3242437    0.1506014 -33.77  0.001280533    2.544    0.607
        81  -9.4576    129.2139     83.7927   9.2775673498e+01   4.0630243336e+01    0.1918055    0.1667649  17.91  0.000227398    1.263    0.208
        82 -10.6658     77.6688     83.3364   1.0754485285e+02   5.0628155243e+01    0.2671485    0.2097294  33.90 0.0005243192    1.341    0.254
        83 -10.3055      4.0873     82.6722   1.3227372378e+02   5.8514576841e+01    0.2014008    0.1379975 -68.24 0.0008128282    1.331    0.249
        84 -10.1658      2.6740     78.6081   1.3195278523e+02   5.9436032932e+01    0.1943019    0.1030298 -50.16 0.0005533302    1.405    0.288
        85 -11.5183     63.9898     80.2648   1.1112988814e+02   5.3281628610e+01    0.4175695    0.3316767 -46.66  0.001950328    1.199    0.166
        86 -11.8440     56.3253     75.4129   1.1233091378e+02   5.5273159980e+01    0.4837334    0.2817804  22.70  0.001427282    1.952    0.488
        87 -10.2426     89.2661     80.3558   1.0302380077e+02   4.9280153056e+01    0.2738429    0.1868057 -52.51 0.0007846621    1.583    0.368
        88  -9.4889    250.4741     80.5441   6.9729699269e+01   1.3124065632e+01    0.1353952    0.1145406 -62.11 0.0001670617    1.009    0.009
        89  -9.5688    124.3964     79.1493   9.2653324579e+01   4.2555357297e+01    0.2005571    0.1362384 -52.17 0.0003850033    1.629    0.386
        90 -10.3614    176.7434     77.2200   8.0338628774e+01   3.0626029180e+01    0.3328421    0.2366035  48.26  0.001594665    1.446    0.308
        91 -10.3669     15.3343     75.8252   1.2692856423e+02   5.9226701514e+01    0.1759869    0.1588568  28.10 0.0009526635    1.394    0.283
        92  -8.9488     74.7328     75.6595   1.0621796903e+02   5.2602543250e+01    0.1391338   0.09801482 -17.06  0.000227805    1.600    0.375
        93 -10.9755     36.3025     72.2893   1.1851438434e+02   5.8172659888e+01    0.4025375    0.2394578 -53.59  0.000729855    1.535    0.348
        94  -9.7338     32.3749     73.1271   1.2015436247e+02   5.8384919212e+01    0.1708113    0.1674606 -68.44 0.0003406676    1.293    0.226
        95 -10.8179      4.0154     73.8441   1.3050216669e+02   6.0337128499e+01     0.315923    0.2032751  18.75  0.001556705    1.884    0.469
        96  -9.1640    224.0334     74.2326   7.1826374429e+01   1.9903348895e+01    0.1702252    0.1130441  64.49 0.0003586005    1.530    0.346
        97  -9.5121    136.4839     74.4802   8.8233044875e+01   4.0697362786e+01    0.1463694     0.142324  47.44 0.0008101403    1.002    0.002
        98  -9.5595     95.9573     73.2336   9.8812766988e+01   4.9415511586e+01    0.2629476    0.1092151  45.98 0.0004003698    2.507    0.601
        99 -10.6989    105.9379     71.4697   9.5345472776e+01   4.7806891321e+01     0.260451    0.2192118 -21.53  0.000607611    1.204    0.169
       100  -9.5957     80.9842     72.4741   1.0321829850e+02   5.2199117170e+01    0.1788281    0.1199993  63.30 0.0006205121    2.411    0.585
       101  -9.7228     45.8577     68.6591   1.1404135659e+02   5.7858914551e+01    0.2354801    0.1775776  82.14  0.001241187    2.490    0.598
       102  -9.4771     10.1698     69.3259   1.2727506092e+02   6.0879779364e+01    0.1868876    0.1215532 -27.74  0.001194094    1.454    0.312
       103 -10.4024    114.2881     66.7188   9.1540834944e+01   4.6923333855e+01    0.2360316     0.209041  79.88 0.0003138447    1.354    0.262
       104 -11.3329     34.2816     64.9430   1.1718991438e+02   5.9799309919e+01    0.2856937    0.2014465 -32.29 0.0004859588    1.208    0.172
       105 -11.3329     39.6089     62.3333   1.1443824712e+02   5.9744884912e+01     0.744702    0.2501584 -36.14   0.00265292    3.289    0.696
       106 -10.5669    130.5087     64.0331   8.6544180253e+01   4.3829031981e+01    0.2634045    0.2225711 -29.26  0.001294482    1.241    0.194
       107 -10.0125     72.8776     63.2386   1.0293146359e+02   5.5186055052e+01    0.2411659    0.1768129 -36.66 0.0008404453    1.292    0.226
       108 -11.0934      3.8088     61.3838   1.2774767515e+02   6.2813942691e+01    0.4205314    0.2544358  55.51  0.001611213    3.088    0.676
       109 -10.8308      9.9302     60.0285   1.2506891855e+02   6.2706216425e+01    0.2643405    0.1582618 -39.57 0.0003357368    1.310    0.237
       110 -10.7775     62.5967     62.1389   1.0607941177e+02   5.6919526670e+01    0.3001031    0.1910717 -33.90  0.001158042    1.450    0.310
       111  -9.5040    100.8405     61.8016   9.3733155602e+01   5.0480441411e+01    0.1845109    0.1687259 -78.19 0.0007181856    1.377    0.274
       112 -10.2138     14.3337     64.1412   1.2445327609e+02   6.1621488903e+01     0.232687    0.1915762  80.12  0.001567925    1.826    0.452
       113 -11.0238     55.1127     59.1893   1.0776979612e+02   5.8467452952e+01    0.3803437    0.2863746 -47.47  0.002289241    1.407    0.289
       114  -9.8192     51.3055     57.6803   1.0865762890e+02   5.9224747304e+01    0.1789801    0.1222701  30.59 0.0004279838    1.554    0.356
       115 -11.3441      4.1850     52.5440   1.2535077087e+02   6.4459937654e+01    0.6368895    0.1823373 -33.46  0.001288093    3.920    0.745
       116 -10.1313     25.4790     57.9057   1.1847628622e+02   6.1933204057e+01    0.3673006    0.1792574 -45.89  0.001371607    1.653    0.395
       117 -11.7925     14.5905     46.1049   1.1926719078e+02   6.4931448671e+01    0.6894349    0.4084879  -5.22  0.003849002    1.814    0.449
       118 -12.8393     20.5387     56.7874   1.2006911067e+02   6.2551789157e+01    0.3799022    0.2385497 -55.31  0.002329117    1.546    0.353
       119 -10.6497     20.3599     51.1023   1.1845610094e+02   6.3599598914e+01     0.329136    0.1561248 -41.62  0.001019462    1.670    0.401
       120 -10.2339     60.4818     58.0966   1.0549849895e+02   5.7928788187e+01    0.2846246    0.2095083 -43.65 0.0009704476    1.377    0.274
       121 -10.7279     83.6140     56.9550   9.7351638139e+01   5.4473014677e+01    0.2286663     0.211123  21.94  0.000641455    1.119    0.106
       122 -11.9640     87.8837     53.9367   9.4994590211e+01   5.4198228503e+01    0.4279524    0.2895592  38.31  0.001221255    1.433    0.302
       123 -10.2682    224.9340     55.4671   6.7434045025e+01   2.2648398629e+01    0.3394451    0.2690751 -16.65  0.001866974    1.777    0.437
       124 -10.4792     99.8234     56.1786   9.2181320918e+01   5.1590203227e+01    0.1882187    0.1808476 -24.95  0.000421909    1.137    0.121
       125  -9.2646     67.6695     56.7774   1.0255625988e+02   5.7105483619e+01    0.1261804   0.09033375   4.76 0.0002988047    1.514    0.340
       126 -12.2691     66.0182     52.6078   1.0170696121e+02   5.8047853557e+01    0.4670439    0.2197293  33.25  0.001535081    2.188    0.543
       127 -11.5963    114.5109     53.9732   8.7414583597e+01   4.8924214747e+01     0.342061    0.2699847  35.70 0.0009291171    1.215    0.177
       128 -10.0010     34.4381     53.3737   1.1361607080e+02   6.1907885994e+01    0.2693256    0.1420906 -25.72 0.0009849604    1.987    0.497
       129 -10.2250    105.8688     52.9204   8.9393075864e+01   5.0885082088e+01    0.2381316    0.1891134  43.57 0.0007233217    1.206    0.171
       130  -9.2991    169.5661     52.5509   7.5000067659e+01   3.6324626323e+01    0.1413964    0.1303858  76.69 3.976357e-05    1.012    0.012
       131  -9.8966     75.9104     49.5728   9.7308348974e+01   5.6962978235e+01     0.384987    0.2322167  -9.29 0.0009629303    2.222    0.550
       132 -10.2272     78.6234     45.8068   9.5096446658e+01   5.7076423867e+01    0.2857414     0.149242  41.59 0.0006419619    1.869    0.465
       133  -9.0384    211.9695     48.9786   6.7602103987e+01   2.6603630148e+01    0.1615998    0.1383535 -87.28 -0.003769674    1.033    0.032
       134  -9.6700     38.0486     49.1009   1.1081553258e+02   6.2266861366e+01    0.1804589    0.1299448 -18.00 0.0004801886    1.236    0.191
       135 -10.5111    102.8520     47.4724   8.8403903687e+01   5.2301533151e+01    0.3451712    0.1611078  34.73     0.001074    2.442    0.591
       136  -8.8918     71.5032     57.4768   1.0148821105e+02   5.6395813079e+01    0.1315733    0.1152531  -7.05 0.0008102257    1.005    0.005
       137 -10.0273     53.7532     48.3204   1.0459845840e+02   6.0489672977e+01    0.2040215    0.1475123  10.40 0.0006062048    1.367    0.269
       138  -9.2409     47.3071     47.3029   1.0664747185e+02   6.1486460910e+01    0.1258183   0.08207354 -11.42 0.0003226062    1.601    0.375
       139  -9.3404     65.1270     46.1807   9.9764314900e+01   5.9203056356e+01    0.1523132     0.142296  28.74 0.0002624005    1.296    0.228
       140 -10.2913     30.8991     45.7574   1.1251416913e+02   6.3576065143e+01    0.2063697    0.1726042 -39.39 0.0003646663    1.280    0.219
       141 -10.5930     25.7935     43.9390   1.1396879197e+02   6.4370282533e+01     0.339426      0.27914 -67.66  0.001700946    1.863    0.463
       142  -9.4675     30.4766     30.5358   1.0722692637e+02   6.6021159473e+01    0.1623808    0.1060389 -12.76  5.98619e-05    1.382    0.276
       143 -10.4524     22.7203     38.5934   1.1341914401e+02   6.5531979278e+01    0.1833065    0.1603401  36.89 0.0006824298    1.645    0.392
       144 -11.2448     26.5076     35.3759   1.1069028233e+02   6.5690190003e+01    0.4431114    0.2119167 -30.56  0.001896848    1.884    0.469
       145  -9.4303     91.2161     44.5998   9.0761340873e+01   5.4983857464e+01     0.176698     0.113375  34.57 0.0003256848    1.491    0.329
       146 -10.4548     69.9303     41.8538   9.6551833612e+01   5.9100590354e+01    0.2688259    0.2071411 -19.85  0.001658085    1.213    0.176
       147  -9.5185      2.4609     42.3286   1.2319039394e+02   6.6393865854e+01    0.1634379   0.09402265  10.98 0.0009445159    1.906    0.475
       148  -9.5712    181.3168     40.9153   6.9944559755e+01   3.5081035914e+01    0.2498174    0.1754093 -83.25 0.0006437981    1.538    0.350
       149 -11.0255    139.1262     40.3789   7.7335493355e+01   4.5304158865e+01    0.2978984    0.2256108  75.08  0.001598159    1.416    0.294
       150 -10.1695     36.2596     41.0929   1.0875388570e+02   6.3779814011e+01     0.236981    0.1583585  -6.98  0.001267061    1.467    0.318
       151  -9.5469    159.9331     40.4791   7.3358834221e+01   4.0335131087e+01     0.208361    0.1260366  62.27 0.0003700203    1.505    0.336
       152 -11.1638    134.1208     34.0670   7.6429549319e+01   4.7255477620e+01    0.2108437    0.1763553  43.40 0.0002870937    1.119    0.107
       153  -9.4879    134.0369     39.7717   7.8224119355e+01   4.6563358989e+01    0.2013925    0.1639326  55.89  0.001141187    1.125    0.111
       154  -9.8378    131.0001     37.7028   7.8233499060e+01   4.7523644236e+01    0.2113311    0.2033541  53.52  0.001318429    1.066    0.062
       155  -9.4807     42.9744     40.5668   1.0591631862e+02   6.3089743100e+01    0.1607955     0.107502  23.84 0.0004637761    1.489    0.328
       156 -10.2624     12.5179     38.0400   1.1756015735e+02   6.6459831714e+01     0.370186    0.1324877 -55.32  0.001678849    3.231    0.690
       157 -12.2044    121.7206     36.7340   8.0010708051e+01   4.9734831602e+01    0.4823994     0.447128  41.79  0.003017825    1.032    0.031
       158  -9.5479    101.7765     39.2060   8.5870426311e+01   5.3656787330e+01    0.1844628    0.1399464  21.17 0.0004898938    1.330    0.248
       159  -9.3987      5.7753     39.3659   1.2087971231e+02   6.6702654537e+01    0.1341213   0.08651329  -9.24 0.0009076335    1.498    0.332
       160 -10.5455      1.8291     35.8579   1.2148876240e+02   6.7538531421e+01    0.1997864    0.1102205 -39.23  0.001314647    1.343    0.255
       161  -9.5869     54.6756     34.6469   9.9264530258e+01   6.2435153225e+01    0.2139661    0.1053591  26.97  0.001070458    2.131    0.531
       162 -10.2167     50.4253     33.8782   1.0055916802e+02   6.3131477557e+01    0.1855756    0.1736229  20.18 0.0005373685    1.390    0.281
       163 -10.3747    145.0278     32.9796   7.3925082031e+01   4.4839210102e+01    0.1963465    0.1753579  59.65  0.001186417    1.005    0.005
       164 -11.0144     19.8410     31.8307   1.1224016846e+02   6.6860073891e+01    0.3785426    0.1928707  -0.30  0.001874133    2.466    0.594
       165 -10.2336    126.9514     30.8907   7.6948081669e+01   4.9268271274e+01    0.2793456    0.1896061  31.03  0.001262424    1.592    0.372
       166  -9.4369    166.4483     31.0436   6.9634376339e+01   3.9939531100e+01    0.1825519    0.1348937 -32.13 0.0003825155    1.521    0.343
       167 -11.6169     43.8383     29.2619   1.0130924387e+02   6.4642368069e+01    0.4322995    0.3085069  -9.34  0.002208767    1.224    0.183
       168 -10.0117    205.0040     30.4793   6.4144053974e+01   3.0740842990e+01    0.2048443    0.1169955  71.58 0.0008546566    1.586    0.370
       169 -10.2915    149.2098     28.7678   7.1906814831e+01   4.4342172158e+01    0.4655626    0.2641894 -80.91  0.001885025    2.992    0.666
       170 -10.0707    140.6023     27.2887   7.3054649063e+01   4.6538073336e+01    0.2882218    0.2516177 -84.39  0.001467694    1.247    0.198
       171 -10.8028     69.5759     27.6249   9.1323092966e+01   6.1069157484e+01    0.3708863    0.1815233 -38.34  0.001874872    2.260    0.558
       172 -10.2813      7.4143     27.9763   1.1635109607e+02   6.8451061170e+01    0.1920853    0.1645438  20.97  0.001521249    1.554    0.357
       173  -9.3078    229.6008    247.7865   1.0707185102e+02  -1.1419963666e+01    0.1477962    0.1112705 -38.84 0.0009392714    1.574    0.365
       174 -11.0508     74.8448     21.1980   8.7123145877e+01   6.0920425831e+01    0.2800868    0.2270074  13.11 0.0009139289    1.065    0.061
       175  -9.3251    156.6713     26.3306   6.9915892898e+01   4.2839718999e+01    0.1408092    0.1223531  60.46 0.0004500563    1.060    0.056
       176  -9.5758    153.5186     25.5052   7.0210000935e+01   4.3685075251e+01    0.2068998    0.1201963  75.74 0.0009832573    1.801    0.445
       177 -10.2128    113.8075     25.1796   7.8017414293e+01   5.2815431242e+01    0.2150738    0.2012255  40.72 0.0007737122    1.083    0.076
       178  -9.9757    100.8672     25.6620   8.1362987857e+01   5.5481500868e+01    0.2254333    0.1584152 -46.88  0.001008148    1.817    0.450
       179  -9.4137     18.3311     26.3263   1.1084709689e+02   6.7826814567e+01    0.1185397   0.06640926 -16.64  0.000705105    1.708    0.415
       180 -10.1458     59.1098     24.3784   9.3644780026e+01   6.3135291050e+01    0.2232157    0.1445907  -9.03 0.0009869324    1.544    0.352
       181  -9.7448     52.4844     24.9857   9.6299471522e+01   6.4039057915e+01    0.1507315   0.09863333 -51.58  0.000810464    2.592    0.614
       182  -9.3671     94.1741     23.6510   8.2413052869e+01   5.7045235611e+01    0.1682172   0.09996498  41.99 0.0002470344    1.473    0.321
       183  -9.5253     89.2952     22.9674   8.3507504206e+01   5.8069671163e+01    0.2997779    0.1480885 -26.56   0.00149933    2.151    0.535
       184 -10.4103     34.1443    247.1237   1.4420770316e+02   1.9163881881e+01    0.1653061    0.1000428  68.07 0.0004546079    1.300    0.231
       185  -9.7359    217.4347    245.0000   1.0885537969e+02  -9.1969813970e+00    0.2755646   0.06211477  39.38 0.0009390982    3.970    0.748
       186  -9.3704     74.5276    243.7919   1.3662225591e+02   1.4426716435e+01    0.1551189    0.1029275  86.89 0.0003200193    1.453    0.312
       187 -10.4336      2.1013     22.1725   1.1669827894e+02   6.9707350691e+01    0.2422404    0.1148288 -41.72 0.0009652573    1.639    0.390
       188 -11.3188     13.2445     20.6199   1.1092345629e+02   6.9097713294e+01    0.2318506     0.184313 -31.50 0.0008179767    1.325    0.245
       189 -10.6976     19.9030     16.7594   1.0632072453e+02   6.9025148785e+01    0.1733278    0.1307451   5.75 0.0004074666    1.189    0.159
       190 -10.6467     13.7255     15.9556   1.0881530981e+02   6.9706499729e+01    0.3416638    0.1555923  21.81  0.002039796    2.198    0.545
       191  -9.4657    124.7258     21.3381   7.4345456539e+01   5.0815935205e+01    0.1237077   0.09770899 -69.50 0.0002787507    1.608    0.378
       192  -9.8532     84.9914     21.0352   8.4009392516e+01   5.9095698643e+01     0.205035    0.1245505  25.03 0.0006540372    1.676    0.403
       193 -11.0212     37.6074    241.9493   1.4322650381e+02   1.9763323291e+01    0.3342644    0.1158746  59.33  0.001502089    2.784    0.641
       194  -9.4618    202.4444    240.3287   1.1092424726e+02  -6.1198481940e+00    0.2118873    0.1211363 -34.99 0.0008514027    1.924    0.480
       195 -12.8337     25.6233    236.0799   1.4491421576e+02   2.2366407678e+01    0.4171372    0.3359779  60.78  0.002394364    1.274    0.215
       196 -12.3507      2.2906    220.0558   1.4795598551e+02   2.8107016850e+01    0.8409089    0.1291143 -75.20  0.002900114    5.095    0.804
       197 -10.7691     31.0150     20.6325   1.0306832333e+02   6.7345235575e+01    0.2124542    0.1375043 -29.72 0.0001474613    1.381    0.276
       198 -10.4664     26.2749     16.4353   1.0335457742e+02   6.8413772133e+01    0.2153244     0.183206  30.50  0.001632908    1.641    0.391
       199  -9.7682    175.3024     20.6645   6.5549762557e+01   3.8993599232e+01    0.1366895   0.09043366 -70.76 0.0003116414    1.662    0.398
       200  -9.7093    132.1725     20.3258   7.2528833212e+01   4.9232189645e+01    0.2149695    0.1381364  45.46 0.0009387878    1.421    0.296
       201  -9.3612     54.3046    236.3133   1.3972595181e+02   1.8761056701e+01    0.1045897   0.09379658 -52.56 0.0005197584    1.618    0.382
       202 -10.0083    249.0495    234.4231   1.0127718543e+02  -1.2389161517e+01    0.2209772    0.1444792 -12.02  0.001151591    1.500    0.333
       203 -10.5765    190.4667     13.8498   6.1920347218e+01   3.6109892678e+01    0.2325781    0.1581686  74.82 0.0005833276    1.255    0.203
       204  -9.5215    144.2844     14.3420   6.8522984153e+01   4.7019741502e+01     0.131469   0.08773472  36.07 0.0007016151    1.637    0.389
       205  -9.2061     60.6267    241.0000   1.3896624799e+02   1.6953870333e+01    0.2540985   0.06087189  38.63 0.0009301569    3.898    0.743
       206 -10.0384     62.5438     13.7377   8.8127386616e+01   6.3796104978e+01     0.145666    0.1044709 -29.36 0.0003847004    1.542    0.351
       207  -8.9910    209.6622    229.6728   1.0771884025e+02  -5.6350505703e+00    0.1362991   0.09306245   4.76 0.0007051728    1.728    0.421
       208 -10.1475    199.9357     17.0983   6.1608512730e+01   3.3523026276e+01    0.1976892    0.1633487 -86.45 0.0005192133    1.025    0.025
       209  -9.5751    140.0470    227.0526   1.2138174291e+02   7.0331550264e+00    0.2254223    0.1543494  68.33  0.001129587    1.735    0.424
       210  -9.5056    109.7292    226.6331   1.2764777396e+02   1.2373803620e+01    0.1233947    0.1063384 -22.80 0.0006998438    1.664    0.399
       211 -10.2678     32.9913    225.1552   1.4276167100e+02   2.3764350331e+01    0.2743563    0.1489005  44.34  0.001595754    1.755    0.430
       212 -10.1964     25.5307    225.0217   1.4412872485e+02   2.4652726124e+01    0.1765396   0.09470911 -77.76 0.0008910667    1.587    0.370
       213 -11.9418      7.8421    217.7253   1.4682149463e+02   2.8053082068e+01    0.3423071    0.2267487  76.06  0.001952909    1.155    0.134
       214 -13.3542     10.1135    230.4144   1.4723880975e+02   2.5204416954e+01    0.7087255    0.3559347 -88.43  0.003252715    1.623    0.384
       215  -9.4531    246.6340    216.6886   9.8497799769e+01  -9.4829645212e+00    0.1337881   0.08641427   1.94 0.0007038396    1.760    0.432
       216 -10.8667     15.8650    212.5864   1.4498813403e+02   2.8333531275e+01    0.2707621    0.1796855 -47.35   0.00164046    2.227    0.551
       217  -9.4130    209.5141    211.5109   1.0446876409e+02  -2.6038842756e+00    0.1352448    0.1217977   8.91  0.000810425    1.003    0.003
       218  -9.9356     20.5958    209.7487   1.4387344598e+02   2.8451692252e+01    0.1655368   0.08949065  89.98 0.0003515416    1.580    0.367
       219  -9.7308    246.5878    207.0470   9.6696727562e+01  -7.9982531017e+00    0.1953197    0.1128904 -35.14  0.001024746    1.615    0.381
       220 -11.8984      4.1657    232.4869   1.4837681052e+02   2.5390592306e+01    0.3995796    0.1850284  73.89 0.0003661652    1.829    0.453
       221  -9.6949    197.2307    204.0135   1.0550430950e+02   9.2998475231e-01    0.1790169    0.1145971 -41.09 0.0005719478    1.610    0.379
       222 -11.5600      9.2964    203.4699   1.4555219992e+02   3.0956369265e+01     0.231176    0.1831166  79.94 0.0008655772    1.112    0.100
       223  -9.6710    180.8419    199.3302   1.0800048841e+02   4.8941948054e+00    0.3084156    0.1221928  48.18  0.001111446    2.665    0.625
       224  -9.4520     23.0364    197.4834   1.4236426634e+02   3.0901064200e+01    0.1621197    0.1130275  43.18 0.0004867359    1.563    0.360
       225 -10.3677      6.8886    192.0539   1.4515022963e+02   3.3686917632e+01    0.3322876    0.1427699  72.46  0.001363639    2.498    0.600
       226  -9.6694     15.4379    185.0333   1.4281772466e+02   3.4469274369e+01    0.1844684   0.09587799 -79.15 0.0009350193    1.560    0.359
       227  -9.3509      1.2034    183.0449   1.4558286044e+02   3.6182629835e+01    0.1563737   0.07194531 -76.27 0.0004967954    1.672    0.402
       228  -9.8085    249.6586    169.3134   8.8695013353e+01  -2.2568270846e+00    0.1294871    0.1052345 -70.83  0.000352093    1.702    0.412
