#   1 NUMBER                 Running object number                                     
#   2 MAG_AUTO               Kron-like elliptical aperture magnitude                    [mag]
#   3 X_IMAGE                Object position along x                                    [pixel]
#   4 Y_IMAGE                Object position along y                                    [pixel]
#   5 X_WORLD                Barycenter position along world x axis                     [deg]
#   6 Y_WORLD                Barycenter position along world y axis                     [deg]
#   7 A_WORLD                Profile RMS along major axis (world units)                 [deg]
#   8 B_WORLD                Profile RMS along minor axis (world units)                 [deg]
#   9 THETA_WORLD            Position angle (CCW/world-x)                               [deg]
#  10 FWHM_WORLD             FWHM assuming a gaussian core                              [deg]
#  11 ELONGATION             A_IMAGE/B_IMAGE                                           
#  12 ELLIPTICITY            1 - B_IMAGE/A_IMAGE                                       
         1  -8.9834    224.6843      1.8886   2.8925776433e+02   6.3850928693e+00   0.02253294   0.01004665  37.17  0.001118286    2.122    0.529
         2 -11.6415    250.0288     42.8397   2.8920983673e+02   5.7606862499e+00     0.061795   0.03284344 -66.92  0.000647113    2.057    0.514
         3 -11.3027    249.7772     20.1014   2.8907357167e+02   6.0223536590e+00   0.07497361   0.01944564 -56.03  0.005152958    3.426    0.708
         4 -13.2688    243.7978      9.2210   2.8907737671e+02   6.1835958079e+00    0.1665779   0.07673407  14.15  0.008142453    3.080    0.675
         5 -11.2443    241.6792     22.7491   2.8918520466e+02   6.0419179054e+00   0.05567084   0.03144375 -80.89  0.004465486    2.480    0.597
         6  -8.7744    135.7522     47.3340   2.9058552945e+02   6.4109664951e+00   0.01361275   0.01080915  52.09   0.00111487    1.327    0.246
         7  -8.6062    236.6008    237.7535   2.9055758130e+02   3.6102184490e+00  0.009400072  0.006565611 -77.37 0.0009551444    1.654    0.395
         8  -8.3181      2.4945    234.7199   2.9329795702e+02   5.0740197714e+00   0.01218948   0.01029646  -5.58 0.0007615999    1.282    0.220
         9  -7.1734    134.5268    231.4731   2.9172142564e+02   4.3067547862e+00  0.006643656  0.006444829  40.14 7.579029e-05    1.029    0.028
        10  -8.3585     45.6329    224.2001   2.9272549595e+02   4.9324436291e+00   0.01088716  0.008971584  26.41 0.0003129271    1.190    0.159
        11  -7.4653     56.1375    214.8425   2.9254490279e+02   4.9758879837e+00  0.008761585  0.007432599  -9.62            0    1.279    0.218
        12  -7.1528     42.6939    211.6792   2.9268434674e+02   5.0940696519e+00  0.006996492   0.00499966 -26.37 0.0007031664    1.637    0.389
        13 -10.6331     18.4277    200.7434   2.9290448361e+02   5.3672579485e+00   0.03488629   0.02478137   7.33  0.003633095    1.602    0.376
        14 -10.2606     12.7855    196.1358   2.9294318413e+02   5.4544595747e+00   0.03270518   0.01411423 -43.89  0.002628234    2.596    0.615
        15  -9.4662     18.0016    195.6991   2.9287897169e+02   5.4277591704e+00   0.01667166   0.01288791  11.42  0.001625332    1.376    0.273
        16  -7.0843    154.7448    202.6244   2.9130786576e+02   4.5141251682e+00  0.007040067  0.004834361 -33.26 0.0005035178    1.652    0.394
        17  -7.0794     64.3474    200.7637   2.9236270295e+02   5.0874699116e+00  0.006866411  0.004781721  51.99 0.0003419188    1.563    0.360
        18  -7.2229    139.1606    199.1595   2.9147051826e+02   4.6491741963e+00  0.008543869  0.007396778  60.26            0    1.232    0.188
        19  -7.6447    133.0910    198.9190   2.9154062239e+02   4.6890374497e+00  0.008511654  0.007352205 -29.88   0.00098286    1.216    0.178
        20  -9.9965    188.1768    191.4400   2.9084583630e+02   4.4377910702e+00   0.01140752   0.01093996 -74.27 0.0002525956    1.079    0.073
        21  -7.9685    223.0999    188.1158   2.9041425494e+02   4.2619269845e+00  0.009399473  0.008548742 -15.13  0.001120175    1.145    0.127
        22  -9.5643     46.4265    176.1431   2.9242489470e+02   5.4792631178e+00   0.01986971   0.01422921 -22.17  0.001435373    1.670    0.401
        23  -7.2427    188.3665    176.7297   2.9075403041e+02   4.6053198959e+00  0.007099324  0.004842137  55.17 0.0006997563    1.662    0.398
        24  -9.6094     53.8530    171.3205   2.9230795521e+02   5.4893764278e+00   0.01772688   0.01014926 -32.16  0.001576203    2.231    0.552
        25  -8.8022     57.7422    166.0197   2.9222986212e+02   5.5265158792e+00  0.009187972  0.009062628 -37.39 0.0005182442    1.029    0.028
        26  -7.5426     63.0024    160.0485   2.9213149612e+02   5.5629825306e+00  0.008034765  0.007506962  24.88 0.0003885323    1.048    0.046
        27  -7.8680     16.0966    152.2139   2.9263793834e+02   5.9385194328e+00  0.009978383  0.008749667  -6.27 0.0004264074    1.208    0.172
        28  -7.4951     17.8546    146.3492   2.9258159288e+02   5.9951404341e+00  0.009132183  0.006243143  11.93 0.0009161825    1.628    0.386
        29  -7.1287    201.7978    140.0025   2.9037189532e+02   4.9440891294e+00  0.008532175  0.005321837 -61.92 0.0003754616    1.638    0.389
        30  -8.6474    132.8539    138.5604   2.9117621101e+02   5.3829283324e+00     0.010748   0.01004161  78.12 0.0003071365    1.134    0.118
        31  -8.2905    197.3118    127.5552   2.9034883988e+02   5.1142810327e+00    0.0108763  0.009918658 -42.90 0.0001988049    1.114    0.102
        32  -8.4311    129.8734    123.6616   2.9112063155e+02   5.5720405480e+00   0.01089899  0.009496357 -77.19  0.000327891    1.224    0.183
        33 -10.4874    243.0810    118.8136   2.8975621015e+02   4.9335315159e+00    0.0137693   0.01184776  25.88 0.0004272278    1.140    0.123
        34  -7.2734    168.3576    114.6691   2.9061167154e+02   5.4395085734e+00  0.007303068  0.004910518  60.02 0.0007043146    1.792    0.442
        35  -7.1795    192.3418    113.6860   2.9032280263e+02   5.3037320002e+00  0.007150682  0.004947374  59.59 0.0003842849    1.704    0.413
        36  -7.4432    172.0321    111.9963   2.9055201989e+02   5.4476282101e+00  0.007765725  0.007658563  15.12 0.0003204281    1.008    0.008
        37  -7.1441     53.6803    111.7632   2.9194814855e+02   6.1738606607e+00   0.00656991  0.005041807 -14.76   0.00038333    1.512    0.339
        38  -7.0666     31.5567    108.5254   2.9218995599e+02   6.3457841326e+00  0.006652423  0.006392479  50.60 -9.808375e-06    1.055    0.052
        39  -8.2696    189.1229    105.1999   2.9030896137e+02   5.4207350728e+00  0.009850816  0.008774681 -11.22  0.000359799    1.183    0.155
        40  -9.5250    245.8035     99.6423   2.8960702353e+02   5.1363998503e+00   0.01671536   0.01157732  60.42  0.001232374    1.715    0.417
        41  -7.3760    192.7749    100.0700   2.9023457471e+02   5.4571210098e+00   0.00835187  0.005582624 -64.43 0.0003775933    1.555    0.357
        42  -8.8979    189.1641     89.5404   2.9021285825e+02   5.5999322574e+00    0.0142785  0.008096212 -43.67  0.001239121    1.881    0.468
        43  -8.7422    249.6799     86.6530   2.8948197421e+02   5.2613237843e+00   0.01347197  0.007636342  48.88  0.001238084    1.950    0.487
        44  -9.6975    240.8386     85.8381   2.8958112744e+02   5.3250033939e+00   0.01761074  0.008320231 -56.26 0.0007508165    2.066    0.516
        45  -8.6470    153.9848     81.5508   2.9057917968e+02   5.9071997922e+00   0.01378217  0.009486504 -59.06 0.0006332046    1.466    0.318
        46  -8.9087    247.9828     79.7382   2.8945968266e+02   5.3509316526e+00  0.009753851   0.00895507  24.65 0.0008310287    1.068    0.064
        47  -7.5756    213.1150     78.8335   2.8986501591e+02   5.5755631144e+00  0.009022717  0.007600741 -23.55 0.0004239306    1.281    0.219
        48  -7.6634    172.6573     79.7113   2.9034756621e+02   5.8138120983e+00  0.006973139  0.005053443 -20.93 0.0005934146    1.648    0.393
        49  -8.5531    178.2752     75.3487   2.9025462912e+02   5.8293393700e+00   0.01192979  0.008117625  12.49 0.0006431618    1.634    0.388
        50  -8.0318    186.8942     68.8597   2.9011329116e+02   5.8507922772e+00   0.01070456   0.00877843 -24.13   0.00101992    1.332    0.249
        51  -9.4217    169.5814     65.3427   2.9029609422e+02   5.9973008750e+00   0.02007397   0.01243157 -39.33  0.001885756    1.784    0.440
        52 -10.3739    246.7471     65.6095   2.8938782637e+02   5.5202812001e+00   0.02432021   0.01187701  30.73  0.002173742    1.949    0.487
        53  -6.7565     44.7228     66.7097   2.9177982580e+02   6.7451569718e+00  0.006689732  0.005004831 -26.24 0.0002138654    1.521    0.342
        54  -8.0238    191.7330     65.2660   2.9003424341e+02   5.8622559533e+00   0.01394504   0.01035535 -11.00  0.001463475    1.610    0.379
        55  -7.9125    157.8901     61.8886   2.9041300121e+02   6.1085633200e+00  0.009702491  0.008688862 -19.54            0    1.171    0.146
        56  -8.8034    195.7425     57.0656   2.8993681482e+02   5.9315560577e+00   0.01109908  0.009386005  17.92 0.0002459939    1.189    0.159
        57  -8.0975    248.9688    250.0000   2.9048661189e+02   3.3941183368e+00   0.01142063  0.003743688  27.51 0.0008089566    2.988    0.665
        58  -7.9094    250.3365    245.9936   2.9044615101e+02   3.4316500817e+00   0.01178094  0.003584617 -43.46 0.0007052067    4.397    0.773
        59  -9.1784     67.9475    245.3889   2.9259062613e+02   4.5533103397e+00   0.01189113  0.009854172 -47.24 0.0001490231    1.224    0.183
        60  -9.8533    237.8087    244.1712   2.9058241636e+02   3.5292651464e+00   0.01941486  0.009778908  58.99  0.001484268    3.094    0.677
        61  -8.9698    231.3966    244.7492   2.9066136836e+02   3.5619082410e+00  0.009849975  0.005939691 -50.54 0.0009564156    1.662    0.398
        62  -8.6776    186.8156     45.8071   2.8997329290e+02   6.1152904246e+00   0.02009185   0.01154353 -88.98   0.00166495    2.769    0.639
        63  -8.4480    208.8332     37.4101   2.8966218221e+02   6.0761738512e+00   0.01553384  0.008281824 -80.95  0.001252835    2.810    0.644
        64  -7.4628    171.9697     49.9719   2.9017396775e+02   6.1587146227e+00  0.007635733  0.007369168 -55.83  0.000934502    1.057    0.054
        65  -9.0288    223.0013     30.8195   2.8945477545e+02   6.0644979506e+00   0.01292177  0.009640528   0.22  0.001366625    1.553    0.356
        66  -7.6124    191.2171     30.7691   2.8982936850e+02   6.2604230119e+00  0.009046019   0.00741724 -27.79 0.0003520763    1.319    0.242
        67  -9.7261    228.7562     32.7391   2.8939868108e+02   6.0071379547e+00   0.01709199  0.009223782  25.06  0.001573926    1.865    0.464
        68  -9.3348    177.7637     27.5118   2.8996822116e+02   6.3803213656e+00   0.01845895   0.01310941 -79.20  0.001180975    1.642    0.391
        69  -7.9725    163.2316     24.0045   2.9011834453e+02   6.5096601793e+00     0.015021    0.0065052 -39.42  0.001129005    2.988    0.665
        70 -10.2848    144.8137     23.5791   2.9033328660e+02   6.6274865114e+00   0.01192491     0.011014 -54.24 0.0002531836    1.100    0.091
        71 -10.2420    218.5194     45.6821   2.8959857461e+02   5.9219532084e+00    0.0221002   0.01614457  -3.64  0.001593759    1.637    0.389
        72  -7.2336    155.4476     18.5286   2.9017677965e+02   6.6200971726e+00  0.006591693  0.006460587  29.26 1.191969e-05    1.012    0.012
        73  -7.5413     15.1833     17.6392   2.9183037751e+02   7.4873821347e+00   0.00879216  0.006275077  12.47 0.0009081631    1.522    0.343
