#   1 NUMBER                 Running object number                                     
#   2 MAG_AUTO               Kron-like elliptical aperture magnitude                    [mag]
#   3 X_IMAGE                Object position along x                                    [pixel]
#   4 Y_IMAGE                Object position along y                                    [pixel]
#   5 X_WORLD                Barycenter position along world x axis                     [deg]
#   6 Y_WORLD                Barycenter position along world y axis                     [deg]
#   7 A_WORLD                Profile RMS along major axis (world units)                 [deg]
#   8 B_WORLD                Profile RMS along minor axis (world units)                 [deg]
#   9 THETA_WORLD            Position angle (CCW/world-x)                               [deg]
#  10 FWHM_WORLD             FWHM assuming a gaussian core                              [deg]
#  11 ELONGATION             A_IMAGE/B_IMAGE                                           
#  12 ELLIPTICITY            1 - B_IMAGE/A_IMAGE                                       
         1 -11.8515     57.5468     17.3948   9.3635611166e+01   6.4118399870e+01    0.2981812    0.2303826  -4.64  0.000995884    1.129    0.114
         2 -10.6004      6.6605     17.3798   1.1536275426e+02   6.9812117717e+01    0.2288819    0.1573985 -50.26  0.001209212    1.817    0.450
         3 -11.3786    115.0788     15.7125   7.6140356508e+01   5.3415542138e+01    0.4584223    0.2446238  58.52  0.002293808    1.678    0.404
         4 -12.6139     10.5482      4.2932   1.0804350200e+02   7.1284719008e+01    0.6633354    0.3360401 -43.69  0.002635698    2.315    0.568
         5 -12.0806     23.6749     11.5143   1.0501814252e+02   6.9139461939e+01    0.3730659     0.275356  45.88   0.00246528    2.476    0.596
         6 -11.7847     24.8323      7.2548   1.0262469080e+02   6.9541726391e+01    0.2498803    0.1570258 -32.50 0.0004559881    1.588    0.370
         7 -12.1306     19.2696      7.4601   1.0527433006e+02   7.0087931975e+01    0.4125979    0.1885493  19.55 0.0009081151    2.160    0.537
         8 -11.9073    220.2999     13.8188   5.9664195017e+01   2.8544784404e+01    0.3303803    0.2283463   2.73  0.001568129    2.801    0.643
         9 -12.0717     65.3241     13.2530   8.9173878395e+01   6.3341970248e+01    0.3695991    0.2522368  17.96   0.00166246    1.281    0.220
        10 -11.0299    173.4285     13.5780   6.5085224938e+01   3.9826501646e+01    0.3437738    0.2101311  34.49  0.001187229    2.146    0.534
        11 -12.3303     76.0590     11.3796   8.4918522091e+01   6.1680262642e+01    0.5220641    0.3761486 -65.71  0.002578518    3.054    0.673
        12 -12.3544    211.5807      9.1508   5.9512109689e+01   3.1093930631e+01    0.3936721    0.2891937  -7.21  0.001637694    2.148    0.534
        13 -11.8907    208.9532      5.1428   5.8887926290e+01   3.2131488409e+01    0.2818494    0.1957786 -75.36 0.0003695928    1.306    0.234
        14 -10.9801    149.4733     11.8352   6.8227971964e+01   4.5814140240e+01    0.3027082    0.1745397  37.65 0.0007990859    1.917    0.478
        15 -10.2145     50.7629     12.0245   9.3912745198e+01   6.5727104342e+01    0.2010237    0.1466398  59.49  0.001082052    2.572    0.611
        16 -11.3394     46.9323      9.0192   9.4090449372e+01   6.6599713672e+01    0.3261862    0.1668132  30.69   0.00109452    1.725    0.420
        17 -10.1789     32.1809     12.2332   1.0156246126e+02   6.8122810570e+01    0.2005387    0.1154372  30.31  0.001276704    1.692    0.409
        18 -11.0659     86.7880      8.9267   8.0798824741e+01   5.9906968462e+01    0.3054568    0.1879269   6.27  0.001706681    1.813    0.449
        19 -11.3169    248.3772      7.5803   5.5948911461e+01   2.2987912153e+01    0.2123173    0.1709816 -87.96 0.0005547851    1.128    0.114
        20 -11.6700    107.4187      7.5636   7.5066922457e+01   5.5814747107e+01    0.2520068    0.2063347  53.28 0.0007350955    1.130    0.115
        21 -11.1500    231.2013      5.8714   5.7004875150e+01   2.6943225541e+01    0.2750396    0.2163216  -0.49  0.001378901    2.174    0.540
        22 -10.7335    176.0303      7.0611   6.3049963299e+01   3.9831717173e+01    0.1950632    0.1624928  78.53 0.0003749281    1.016    0.016
        23 -10.8343    191.1672      5.8920   6.0937879970e+01   3.6285535083e+01    0.1964258    0.1498978 -79.99 0.0004178369    1.211    0.174
        24 -12.3513    217.6278      3.6393   5.7738609499e+01   3.0268782465e+01    0.3557217    0.2504996 -89.26  0.002112313    1.168    0.144
        25 -11.4296     76.7895      4.3657   8.1877644013e+01   6.2188735281e+01    0.5550596    0.1572985  35.21  0.001969056    4.158    0.759
        26 -11.5367     73.3426      1.9292   8.1919704279e+01   6.3019673326e+01    0.2809408    0.2561351  21.52  0.001619576    1.255    0.203
        27 -11.5836    160.5865      2.5986   6.3938178603e+01   4.3969503948e+01    0.3097972      0.24816  82.22  0.001939633    1.137    0.120
        28 -11.1620     37.0375      2.8027   9.5296691890e+01   6.8590856236e+01    0.2989127    0.1480719  20.65  0.001144898    1.960    0.490
        29 -11.1674     30.9244      3.6561   9.8289148926e+01   6.9261620531e+01    0.2007387    0.1321728 -16.24 0.0006713635    1.289    0.224
        30 -10.6043    195.4877      3.5175   5.9902464979e+01   3.5483009166e+01    0.1289135    0.1042212  83.86 0.0001842565    1.008    0.008
        31 -11.8363    180.3073      1.7175   6.1177519905e+01   3.9294243394e+01    0.2871958    0.1778941  74.70            0    1.340    0.254
        32  -9.6964    123.5986      3.5023   7.0282653101e+01   5.2580594340e+01    0.1262629    0.1049231  50.02 9.535674e-05    1.021    0.020
        33 -10.9717     90.2729      2.2148   7.7289953628e+01   5.9791092652e+01    0.3467083    0.1737184  56.09 0.0009477824    1.799    0.444
        34 -10.6501      1.3887      3.2057   1.1215558969e+02   7.2147169533e+01     0.282155   0.07849185 -42.82 0.0009962007    3.085    0.676
        35 -10.2281    138.1437      1.3920   6.7013818480e+01   4.9400485983e+01    0.1898043    0.1026375  63.31 0.0004179302    1.507    0.336
        36 -11.6696    124.2352    224.9411   1.2597930033e+02   1.0364014930e+01    0.4820987    0.2583122  52.01  0.002261706    1.723    0.420
        37 -10.9385    158.2147    250.0287   1.2260523844e+02  -1.6244637929e-01     0.341034    0.1955547  60.46    0.0016276    2.233    0.552
        38 -10.8236    160.2754    246.9381   1.2175505522e+02  -1.1092926366e-02      0.22894    0.1943918 -45.75   0.00070989    1.418    0.295
        39 -11.0622    164.6230    244.3062   1.2050239646e+02  -3.3418437155e-01    0.3606884    0.2046565  31.52  0.001061083    1.729    0.421
        40 -12.4533    139.9112    242.9887   1.2526994223e+02   4.2183235588e+00    0.3574996    0.3273053 -47.69  0.002330542    1.327    0.246
        41 -10.7824    143.6028    251.0000   1.2561815064e+02   2.1923946336e+00    0.3821364    0.1292723  42.27  0.001560424    2.407    0.584
        42 -11.4433    129.7392    247.8990   1.2794340872e+02   5.0999160940e+00    0.3294262    0.2870014 -33.37  0.002020916    1.531    0.347
        43 -10.1751    131.3002    233.0244   1.2564422048e+02   7.5529457441e+00    0.1993894     0.192582  89.22  0.000304255    1.181    0.154
        44 -11.5680    128.7109    241.0955   1.2726563596e+02   6.5015711486e+00    0.3968019    0.2373068 -62.18   0.00207674    1.987    0.497
        45 -10.1440    130.5310    236.4882   1.2627943571e+02   7.0374273614e+00    0.1339628     0.114032  50.95 6.839977e-05    1.033    0.032
        46 -11.6595    105.8527    247.0928   1.3251788803e+02   9.2245625648e+00    0.3627895    0.2094855 -45.12 0.0006789254    2.486    0.598
        47 -11.5541    108.9646    244.1260   1.3156808764e+02   9.2684078694e+00    0.2343637    0.1890564  50.84 0.0004495934    1.103    0.094
        48 -12.0872     94.5458    223.2357   1.3195879332e+02   1.5741246482e+01     0.997501    0.6332827  23.38  0.004758903    2.425    0.588
        49 -10.9058     88.0794    231.1373   1.3420555220e+02   1.5151365388e+01    0.4768926    0.1867041  49.06  0.001092857    2.201    0.546
        50  -9.5490     83.9534    244.8361   1.3647345255e+02   1.3092154520e+01    0.3365913    0.2593068   6.38  0.001862153    2.545    0.607
        51 -10.8043     89.1541    243.8816   1.3538400982e+02   1.2478243097e+01    0.2625001    0.2249665  45.10  0.001743211    1.306    0.234
        52 -12.9725     76.5364    241.8550   1.3758028336e+02   1.4778193426e+01    0.5712985    0.3103517  82.76  0.002866961    2.165    0.538
        53 -12.8572     84.0881    238.7932   1.3582434207e+02   1.4243119846e+01    0.3920688    0.3047622  49.57 0.0007341029    1.215    0.177
        54 -12.1126     96.1202    247.8572   1.3447393886e+02   1.0638599959e+01    0.4205803    0.3993369  38.56   0.00204989    1.394    0.282
        55 -12.2545    102.0080    234.2160   1.3177158817e+02   1.2310579341e+01    0.2758966    0.2310181  56.90  0.000344374    1.075    0.070
        56 -13.1805    101.6592    239.4289   1.3245702181e+02   1.1352360797e+01    0.4116866    0.3262483 -77.69  0.001532419    1.333    0.250
        57 -13.4998     93.9188    237.0852   1.3371716893e+02   1.3049057289e+01    0.6314692    0.3664169  67.78  0.003256498    1.809    0.447
        58 -11.4238    105.9052    235.8046   1.3118025260e+02   1.1359486419e+01    0.2318387    0.2302905  48.44 0.0006064585    1.326    0.246
        59 -10.0149     51.8775    250.5894   1.4283680730e+02   1.6549001903e+01    0.1437939   0.08277907  57.84 0.0006811426    1.370    0.270
        60 -12.7285     56.2241    211.5536   1.3851646270e+02   2.3909098643e+01     1.247134     0.571727  54.85  0.006041881    2.046    0.511
        61 -13.6998     30.8753    202.5361   1.4276053811e+02   2.8984458366e+01      1.08981    0.4251235  62.95  0.004034767    2.958    0.662
        62 -13.6040     15.8687    194.0629   1.4502100265e+02   3.2402503183e+01     1.481211    0.6129194 -76.78  0.007580765    2.002    0.501
        63 -12.7021     47.1967    244.4513   1.4318220100e+02   1.8335163288e+01    0.3330956     0.187832  43.38  0.001576367    1.673    0.402
        64 -13.6395     30.7457    213.6502   1.4373701370e+02   2.6607000693e+01     1.104146    0.5931926  62.36  0.006336392    1.658    0.397
        65 -14.1586      9.9958    207.3051   1.4715164711e+02   3.0131836254e+01     1.001192    0.7499824  53.89  0.005718203    1.359    0.264
        66 -13.5504      3.3029    195.5311   1.4757377365e+02   3.3249137992e+01     1.853105    0.1961849 -70.94  0.006123639    5.235    0.809
        67 -13.8031     21.7049    221.5055   1.4602121543e+02   2.5971491600e+01    0.9917296    0.4385035 -84.76  0.005299036    2.031    0.508
        68 -13.9457     38.4063    247.7405   1.4495633466e+02   1.8813442630e+01    0.6984706    0.4375916  63.03  0.004669855    1.229    0.186
        69 -13.0251     41.4127    230.7692   1.4313892331e+02   2.1780921649e+01    0.8780947    0.2972849  38.22  0.004061832    2.880    0.653
        70 -13.6625     38.9341    223.1996   1.4297837707e+02   2.3638778531e+01    0.8031308    0.4027939  61.54  0.003652726    1.783    0.439
        71 -14.3673     27.7661    241.7231   1.4635958314e+02   2.1247349305e+01     1.181824    0.5009744 -77.35  0.006559195    2.120    0.528
        72 -14.6827     11.8238    217.8371   1.4754164333e+02   2.7760732847e+01    0.7638444      0.64953 -16.36  0.004971019    2.187    0.543
        73 -15.0140      6.2660    237.8918   1.4971142542e+02   2.4331193810e+01    0.9254674    0.4766129 -83.02  0.006025841    1.577    0.366
        74 -14.2375     11.0528    234.5668   1.4872982025e+02   2.4483957544e+01     0.811887    0.3610875 -87.20   0.00469118    1.916    0.478
        75 -13.6795     13.5703    226.9109   1.4782832424e+02   2.5738852837e+01    0.8399274    0.2932546  71.47   0.00229454    3.420    0.708
        76 -14.4792     18.9091    249.4971   1.4831905241e+02   2.0773187735e+01    0.4464092    0.3670472  32.10  0.003238678    1.876    0.467
        77 -14.8273      9.0785    249.8456   1.4990919891e+02   2.1776116313e+01    0.7872578    0.2508773  54.62  0.004250632    2.375    0.579
        78 -14.6108     14.6145    246.3638   1.4883281968e+02   2.1835892078e+01    0.6923512     0.326487 -56.40  0.003655221    3.032    0.670
        79  -9.9692    125.5173    221.0363   1.2514764211e+02   1.0915958513e+01    0.1900794    0.1359007 -64.68 0.0005316297    1.552    0.355
        80 -11.0495    100.6175    226.1870   1.3107076931e+02   1.4146182187e+01    0.3351572    0.2220067  75.79  0.001436652    1.629    0.386
        81 -11.2297    249.1086    226.0950   1.0106304355e+02  -1.1604967763e+01     0.352259    0.1437856 -31.14 0.0008143839    2.486    0.598
        82 -10.0933    202.6809    226.3520   1.0994289626e+02  -4.0885054769e+00    0.2158047    0.1473936 -14.50 0.0005087971    1.763    0.433
        83 -10.1461    173.9976    227.5023   1.1595996436e+02   8.5198278459e-01     0.282392    0.1547842  30.61  0.001244572    1.883    0.469
        84 -10.0068    171.2813    225.5930   1.1620545776e+02   1.6844405634e+00    0.2205988    0.1434082 -61.26 0.0007938924    2.084    0.520
        85  -9.9000    111.3801    227.4926   1.2901278694e+02   1.2082823040e+01    0.1901724    0.1398468  75.20 0.0001104365    1.397    0.284
        86 -11.4675    106.2282    223.8904   1.2961284129e+02   1.3681705421e+01    0.3986335    0.2501628  60.40  0.001639668    1.529    0.346
        87 -10.6680    111.8955    223.8929   1.2842716500e+02   1.2719924908e+01    0.2616645    0.1778297  44.42 0.0005937912    1.323    0.244
        88 -11.9489    225.0876    225.1253   1.0535023057e+02  -7.6991149551e+00    0.2146153    0.1923528  15.31 0.0002616858    1.135    0.119
        89  -9.7457    240.0000    225.0065   1.0252726404e+02  -1.0064852682e+01    0.1948269   0.06752287 -37.24 0.0008008219    2.931    0.659
        90 -10.3583    164.2256    225.0235   1.1758026119e+02   3.0830919208e+00    0.2134066    0.1877247  35.02 0.0004848615    1.044    0.042
        91 -10.0419    162.4126    221.5630   1.1739265172e+02   4.0524608919e+00     0.201805    0.1393295 -51.58 0.0002381475    1.662    0.398
        92 -10.5925     71.5089    225.1200   1.3685402560e+02   1.8886669021e+01    0.2134372    0.1546971  51.93 0.0008226756    1.240    0.194
        93 -10.9440    216.7528    223.2527   1.0661892069e+02  -6.0203820200e+00    0.2577739    0.1781438  22.22 0.0002777605    1.370    0.270
        94 -10.6290    147.9358    223.4539   1.2075315642e+02   6.3746329664e+00     0.223015    0.1926925 -19.27 0.0005332561    1.445    0.308
        95 -11.0596    132.0148    220.4954   1.2368263895e+02   9.8572292429e+00    0.4397309    0.3014093   9.07  0.001707671    2.620    0.618
        96 -12.4496     85.9369    218.4169   1.3315884980e+02   1.8118216374e+01    0.6719419    0.5005891 -68.53  0.003951266    1.373    0.272
        97  99.0000     63.7472    199.8235   1.3564641179e+02   2.5475693197e+01    0.4711489    0.1504504 -64.96  0.001841155    2.915    0.657
        98 -12.4251     80.4769    208.9197   1.3315077852e+02   2.1009782732e+01    0.4554695    0.2599604 -76.46    0.0016057    1.839    0.456
        99 -11.8242     69.8769    201.6863   1.3454454151e+02   2.4189348310e+01     0.789663    0.3173895  60.97  0.001971195    3.440    0.709
       100 -11.6027     67.9662    184.8213   1.3281940956e+02   2.8318061092e+01    0.3367847    0.2378507 -65.58   0.00100827    1.333    0.250
       101 -12.3843     66.0293    190.6739   1.3402430932e+02   2.7237167987e+01    0.3065934    0.2613762 -52.62 0.0009452392    1.390    0.280
       102 -12.5160     71.5112    194.9868   1.3335078496e+02   2.5465880517e+01    0.2701873    0.2311531  88.02 0.0003330848    1.041    0.039
       103 -12.2693     69.3566    191.1098   1.3333281384e+02   2.6664660008e+01    0.4234913    0.2087773 -56.51  0.001412994    2.017    0.504
       104 -10.6369     78.2725    221.8108   1.3513237798e+02   1.8577348033e+01     0.255321    0.1801999  34.76  0.001029874    1.629    0.386
       105  -9.9460    169.0639    220.7470   1.1585786213e+02   2.9660377597e+00    0.1836935    0.1625811  31.73 0.0002227711    1.049    0.047
       106  -9.8944     54.1625    221.0624   1.3987016311e+02   2.2150779514e+01    0.2056289    0.1134021  81.97  0.000950249    1.861    0.463
       107 -11.4806    196.2094    219.3457   1.1000143170e+02  -1.7806747891e+00    0.2530113    0.2418195  62.09 0.0002057663    1.265    0.210
       108 -11.5466    193.1453    214.1593   1.0969109640e+02  -3.2785888116e-01    0.3831967    0.2266164 -47.52 0.0008391633    1.941    0.485
       109  -9.6263    151.4791    220.4265   1.1952190036e+02   6.2975238250e+00    0.1402692    0.1230907  41.22 0.0001862667    1.045    0.043
       110 -11.2610     62.5349    219.8921   1.3810021942e+02   2.1260861053e+01    0.2068632    0.1479894  58.46 0.0003297177    1.206    0.171
       111 -11.0274    217.6006    217.4704   1.0539764920e+02  -5.2511951113e+00    0.2694022    0.2044001   1.73 0.0009838488    1.350    0.259
       112 -10.7745    217.0292    212.9163   1.0466242447e+02  -4.4162610133e+00     0.218122    0.1990674 -29.57 0.0004521031    1.229    0.187
       113 -11.2631    176.6161    216.4572   1.1353557793e+02   2.3381188137e+00    0.3502752    0.2460088  33.10 0.0005336564    1.327    0.246
       114 -11.1667    162.6082    217.2825   1.1663697746e+02   4.8150116573e+00    0.2939079    0.2160653  37.15  0.001254884    1.238    0.192
       115 -12.4113    108.5539    214.8875   1.2790416522e+02   1.5154475624e+01     0.817831    0.5110537  27.56  0.003155574    2.081    0.519
       116 -10.7524    100.0159    215.1923   1.2977775251e+02   1.6532242034e+01    0.3277872    0.1992946  53.55  0.001659576    1.490    0.329
       117 -11.4368     95.1595    212.1830   1.3041933180e+02   1.7976167023e+01    0.3264248    0.2427109  42.69 0.0009812295    1.326    0.246
       118 -10.7087     77.2674    217.0125   1.3479246798e+02   1.9744814062e+01    0.2523319     0.176214  40.75  0.001197287    1.470    0.320
       119 -10.6540     72.4788    217.5093   1.3583441149e+02   2.0348631927e+01    0.2657087    0.1143493  40.67  0.001214496    2.181    0.541
       120 -13.2582     41.1971    199.4086   1.4037016229e+02   2.8481581666e+01      1.20013    0.6716216 -69.56  0.006668235    1.586    0.369
       121 -11.5264     41.5402    237.1304   1.4361986542e+02   2.0488790491e+01    0.8972813    0.2906773  38.50  0.004120755    2.973    0.664
       122 -11.5151    146.2052    215.1411   1.1979771878e+02   8.3072904309e+00    0.2592451    0.2255687 -42.62 0.0004965219    1.314    0.239
       123 -10.7145    125.8452    215.8590   1.2431236631e+02   1.1907789470e+01    0.2345788    0.1775678  46.48 0.0005015193    1.184    0.155
       124 -10.8902    230.6027    212.2946   1.0192712683e+02  -6.6378908228e+00     0.320898    0.2192284 -57.72  0.001604652    2.342    0.573
       125 -11.5771     70.3338    211.6391   1.3561709860e+02   2.1926057959e+01    0.4702248    0.2573713  83.59  0.001879037    2.190    0.543
       126 -12.2599    105.5943    208.0847   1.2758640353e+02   1.7114360501e+01    0.5758505    0.4421088  82.42  0.002339591    1.331    0.249
       127 -10.3716    117.0577    211.6610   1.2559593595e+02   1.4351513945e+01    0.2012367     0.162108  49.72  0.000525055    1.125    0.111
       128 -10.7864    207.7738    211.0136   1.0614013401e+02  -2.4565985445e+00     0.193423    0.1485354  56.41  0.000550243    1.605    0.377
       129 -11.5676    237.4170    208.6149   9.9946342445e+01  -7.1930320315e+00    0.3345262    0.2095125 -20.56  0.001270309    1.667    0.400
       130 -11.4464    184.2252    209.9807   1.1078048619e+02   2.0864696693e+00    0.2333663    0.1844335  33.08 0.0004136534    1.158    0.137
       131 -12.5268    183.3303    204.2496   1.0991009332e+02   3.3171529599e+00    0.3049016    0.2659988 -31.32 0.0003457567    1.224    0.183
       132 -11.0944    128.6000    208.6649   1.2260290837e+02   1.2896843867e+01    0.4862151    0.3372464 -26.08  0.002248101    2.272    0.560
       133 -10.3870    215.1636    209.1642   1.0432199791e+02  -3.4684058124e+00    0.2082995     0.168742  10.71 0.0004623418    1.181    0.153
       134 -10.7647    210.6666    207.1300   1.0482798212e+02  -2.3190587426e+00    0.2644934    0.1845483  29.41 0.0006949787    1.356    0.262
       135 -10.7771    188.8809    207.0008   1.0925638718e+02   1.7484956782e+00    0.2153494    0.1927021  26.87 0.0004557238    1.014    0.014
       136 -11.3115    144.9187    205.8016   1.1852701475e+02   1.0430736447e+01    0.3473504     0.207692 -47.11 0.0007007141    1.850    0.459
       137 -11.4151    200.0556    204.7503   1.0652050258e+02   4.8426197216e-02    0.2595516    0.2004729 -41.28 0.0006171927    1.395    0.283
       138 -11.6913    116.4440    205.1512   1.2475064105e+02   1.5849320779e+01    0.2829404    0.2213063  50.17 0.0002538592    1.164    0.141
       139 -11.0333    112.5297    205.4305   1.2566391493e+02   1.6483715377e+01    0.2141823    0.1851797 -53.57 0.0006050349    1.307    0.235
       140 -12.1933    108.7695    196.4921   1.2514157401e+02   1.9113002122e+01    0.5840093     0.379352  70.40  0.001467585    1.795    0.443
       141 -11.4088     89.3067    202.3794   1.3038032321e+02   2.1072291732e+01    0.4171502    0.3030001 -83.14  0.001949061    1.374    0.272
       142 -10.2914     91.7093    199.7102   1.2947713167e+02   2.1280987324e+01     0.212361    0.1309229 -57.98 0.0002570997    1.662    0.398
       143 -10.3469    137.1423    203.5747   1.1987798989e+02   1.2370611218e+01    0.2163421    0.1884828 -89.87 0.0004285297    1.225    0.183
       144 -10.9553    121.3013    203.1026   1.2334594383e+02   1.5415181449e+01    0.2805855    0.2466535  88.04 0.0004808957    1.137    0.121
       145 -10.9374    121.4932    199.4473   1.2271724583e+02   1.6173157424e+01    0.2592102     0.230873  68.89 0.0006338671    1.041    0.039
       146 -10.8667    122.9929    195.9848   1.2180780344e+02   1.6655325802e+01    0.2246621    0.2012534 -77.69  0.001257949    1.138    0.122
       147  -9.2668    235.2949    203.2772   9.9314903759e+01  -5.9957775215e+00    0.1326961   0.09369498   3.63 0.0002185022    1.529    0.346
       148 -10.0774     52.0614    172.0204   1.3482623369e+02   3.3442116546e+01    0.2031496    0.1516469  78.41 0.0003822688    1.279    0.218
       149 -12.4275     54.4463    166.6779   1.3353267834e+02   3.4407860934e+01    0.8388224    0.4107995  60.77  0.003583575    2.564    0.610
       150 -12.1420     52.1299    202.3656   1.3839990881e+02   2.6465134219e+01    0.2406977    0.2100187  65.22 0.0003665061    1.183    0.154
       151 -12.4322     55.5818    180.3892   1.3508781438e+02   3.1031520303e+01    0.7687117    0.3936235 -80.85  0.001738982    2.083    0.520
       152 -13.0285     52.9974    192.8424   1.3716593785e+02   2.8494322021e+01    0.6381679    0.3339379  56.70  0.001010978    1.890    0.471
       153 -11.5460     60.3593    187.0451   1.3484087577e+02   2.8854077101e+01     0.354792    0.1991115 -62.32  0.001335523    1.659    0.397
       154 -11.3822     62.4336    180.3261   1.3349677115e+02   3.0137020632e+01    0.4363709    0.2467719 -69.57  0.000899472    1.629    0.386
       155 -12.4135    205.5727    197.6007   1.0401208839e+02   2.8946917344e-01    0.5537803    0.4312412  79.85  0.001713717    2.047    0.511
       156 -10.8681    170.1011    197.3032   1.1145202978e+02   7.2421356103e+00    0.4552495    0.2322797 -43.68  0.001905105    2.118    0.528
       157 -11.6996    100.7412    199.3887   1.2740256760e+02   1.9853010647e+01     0.439054    0.3268264  38.98  0.002205751    1.384    0.277
       158 -12.0949    241.9592    200.0733   9.7454708140e+01  -6.5990158777e+00    0.4124738    0.3192312  62.12  0.002267505    1.973    0.493
       159 -11.3760    246.3251    198.7200   9.6394331145e+01  -7.1034050038e+00    0.2083499    0.1709525  36.25 0.0001962409    1.321    0.243
       160 -11.0631    190.4681    200.4974   1.0769536531e+02   2.6423302684e+00    0.2371277    0.2276278  16.85 0.0001203247    1.065    0.061
       161 -12.8729    188.4324    196.1701   1.0728891636e+02   3.8500282746e+00    0.6936356    0.2874787 -41.95 0.0003917184    2.564    0.610
       162  -9.5387    166.7106    201.7394   1.1301718834e+02   7.0296941975e+00    0.1384585    0.1105469  10.59 0.0001659977    1.492    0.330
       163  -9.3448     83.2810    201.2841   1.3156412198e+02   2.2268930477e+01    0.1193348    0.1072733 -32.62            0    1.516    0.341
       164  -9.7451    232.4703    200.0372   9.9214665884e+01  -4.9899460859e+00    0.1860435    0.1250913 -33.93 0.0003788284    1.457    0.313
       165 -10.2283    161.0926    199.1316   1.1377133366e+02   8.6531025280e+00    0.3842176    0.1600367 -43.59  0.001067051    2.670    0.625
       166 -10.7348     76.1535    198.9120   1.3282668870e+02   2.3890317402e+01    0.2290965     0.163449  87.98 0.0004586805    1.363    0.266
       167 -11.7831    139.6212    195.7088   1.1796700924e+02   1.3564435110e+01    0.5609964    0.2398601 -42.89  0.001773985    2.827    0.646
       168 -11.0422    178.5812    193.9017   1.0895670697e+02   6.2319514936e+00    0.3736192    0.1804804 -52.29  0.001058812    2.461    0.594
       169 -10.4326    233.6521    193.5606   9.7712283687e+01  -4.1249952577e+00    0.2076703    0.1572987 -52.37  0.001117694    1.660    0.397
       170 -10.3180    116.7692    198.1392   1.2357896863e+02   1.7320072105e+01    0.2130139    0.1760231  75.05   0.00035723    1.198    0.165
       171 -10.1764    193.8794    194.0655   1.0572981472e+02   3.1832609967e+00    0.2071901    0.1985823  78.50  0.000545112    1.219    0.180
       172 -11.0437    113.6151    194.0533   1.2364320319e+02   1.8796325792e+01    0.2670042    0.1986093  46.64 0.0003153269    1.265    0.209
       173 -11.2309    210.3611    192.4495   1.0202273678e+02   3.1062161580e-01    0.2357923    0.1765996 -42.29 0.0009959555    1.406    0.289
       174 -11.9896    214.5985    190.4875   1.0078113553e+02  -1.3654569670e-01    0.4113387    0.3155664 -17.84  0.001468361    1.360    0.264
       175 -10.6067    163.7687    192.4593   1.1193099768e+02   9.4809470766e+00    0.4262045    0.2441348  25.81  0.001240233    2.322    0.569
       176 -11.3534    163.6179    188.7429   1.1125112487e+02   1.0277628022e+01    0.4615892    0.2831896  37.54  0.001774378    1.591    0.372
       177 -11.9562    154.7099    192.2746   1.1392529873e+02   1.1328810864e+01    0.2745169    0.2699974  50.22 0.0003379358    1.057    0.054
       178 -10.9140     86.9380    192.1895   1.2948935834e+02   2.3753981389e+01    0.4165403    0.2574496  72.59  0.001950021    1.881    0.468
       179 -10.8138     32.9696    191.4057   1.4129359354e+02   3.1215069726e+01    0.4135002    0.1785554 -56.33  0.001988758    2.368    0.578
       180 -10.9747    149.3814    191.2767   1.1494586837e+02   1.2598663172e+01    0.2587405    0.2395288  63.89 0.0005054333    1.062    0.058
       181 -12.2903     96.3348    202.5950   1.2885184125e+02   1.9878354766e+01    0.5043257    0.3102723  75.52  0.001957956    1.977    0.494
       182 -10.4522    130.5193    183.5489   1.1788775799e+02   1.7995534277e+01    0.2596461    0.1826675 -24.83   0.00104524    2.105    0.525
       183 -11.1151    130.9782    189.0330   1.1877015344e+02   1.6684246919e+01    0.3936366    0.2552007  73.57 0.0003769713    2.125    0.529
       184 -10.8990    127.5282    187.5206   1.1930533887e+02   1.7680377069e+01    0.5921169    0.1834285 -46.96  0.001861499    3.628    0.724
       185 -10.6159    120.2923    189.6149   1.2135859777e+02   1.8571698106e+01    0.2724229    0.1770348 -69.61  0.001248415    1.747    0.428
       186 -10.1828     91.6752    189.8009   1.2804958329e+02   2.3537825378e+01    0.2251751    0.1670584 -62.09 0.0006748348    1.344    0.256
       187 -11.8004    224.4061    197.1356   1.0018470313e+02  -3.0920029110e+00    0.3503743    0.2287655 -24.16 0.0008917624    1.608    0.378
       188 -10.8591     80.0532    189.2628   1.3065139762e+02   2.5503325046e+01    0.4322811    0.1392187  46.44  0.001572941    2.974    0.664
       189 -11.4053     67.1033    174.5033   1.3159043445e+02   3.0864078702e+01    0.4880301    0.2619064 -65.86  0.002312601    1.720    0.418
       190 -11.5656     62.5483    169.9442   1.3203178306e+02   3.2573374952e+01    0.5302249    0.2660513 -78.88  0.002253175    2.294    0.564
       191 -12.1567     71.9185    169.6436   1.2970492367e+02   3.1333641625e+01     0.318632    0.2881693  87.13 0.0004532054    1.041    0.040
       192 -11.2804     76.9610    174.0407   1.2914942423e+02   2.9542191580e+01    0.2686502    0.2031834 -70.44 0.0003850398    1.230    0.187
       193 -10.1373    193.6983    185.6608   1.0408511899e+02   4.8198881984e+00    0.2313121    0.1485512 -37.07 0.0005388941    1.625    0.385
       194 -10.3594    195.4878    188.4940   1.0428244414e+02   3.9213964366e+00    0.2125049    0.1858259  87.42 7.230623e-06    1.481    0.325
       195 -10.2203    198.1618    185.8654   1.0319123808e+02   3.8924044442e+00    0.2968729    0.1853519  18.54 0.0008949602    2.181    0.541
       196 -11.7403    105.0509    187.5357   1.2457795084e+02   2.1793686839e+01    0.2970378    0.2711245  60.18  0.001232225    1.076    0.070
       197 -11.9771    103.4866    182.0881   1.2405339202e+02   2.3324676768e+01     0.417913    0.3627199 -61.79    0.0023211    1.182    0.154
       198 -11.0748    107.5327    180.5034   1.2281795283e+02   2.2978677588e+01    0.3426119    0.2507906 -45.59 0.0006810398    1.528    0.345
       199 -11.5442    104.0135    178.0969   1.2325342044e+02   2.4162860851e+01    0.2976981    0.2474007 -79.87 0.0004422165    1.188    0.158
       200 -10.8228    249.4877    185.0039   9.3103684873e+01  -5.4265038429e+00     0.293366    0.2267741 -42.88  0.001193728    1.386    0.278
       201 -13.1952    246.2295    191.0534   9.4897565976e+01  -5.8637638060e+00    0.4802553     0.371332  30.93 0.0007642249    1.300    0.231
       202 -11.2199     32.8317    184.9235   1.4067356529e+02   3.2692760852e+01    0.3207584    0.2183168  27.31  0.001758457    1.915    0.478
       203  -9.8269    140.3115    184.3188   1.1573553896e+02   1.5905240857e+01    0.1477527    0.1208356  -3.39 0.0007035621    1.645    0.392
       204 -11.3323    122.8272    183.5358   1.1970223448e+02   1.9469949147e+01    0.2863292    0.2292904  86.94 0.0005457671    1.370    0.270
       205 -10.6273    118.8696    180.6779   1.2013315283e+02   2.0866280216e+01    0.3010401    0.1366168  33.81   0.00109168    2.579    0.612
       206 -10.7414     88.3334    183.3204   1.2785031106e+02   2.5582701211e+01    0.3641206    0.1945836  67.84  0.001125976    2.607    0.616
       207 -12.3085     92.9080    180.3515   1.2629798914e+02   2.5530432151e+01     0.472421    0.2882528 -42.10  0.000758482    2.062    0.515
       208 -11.3810     47.1546    182.3635   1.3724284167e+02   3.1629856604e+01    0.3969858    0.2528253 -43.57   0.00179316    2.081    0.519
       209 -10.4142     48.4902    178.4703   1.3647386368e+02   3.2370683124e+01    0.2556398    0.1776084  67.80  0.001453716    1.398    0.284
       210 -11.4511      1.7868    182.9427   1.4694065582e+02   3.6097027560e+01    0.2933431    0.2203819  62.74  0.001290029    1.291    0.225
       211 -10.6878      1.2722    179.3229   1.4676412312e+02   3.6929901938e+01    0.1636848    0.1175883 -76.58 0.0002827546    1.161    0.138
       212 -10.0473    238.1657    183.3697   9.4817361141e+01  -3.2033390704e+00    0.1784775    0.1273439  49.48  0.000408704    1.631    0.387
       213  -9.7517    225.6322    183.6872   9.7239687100e+01  -9.8898830762e-01    0.1488705    0.1037893   4.88 3.549887e-05    1.769    0.435
       214 -10.2310    190.5626    180.6449   1.0372156545e+02   6.4306428481e+00    0.2540192    0.1781631  61.57 0.0007569711    1.774    0.436
       215 -10.3252    155.8509    181.4859   1.1159285382e+02   1.3389975370e+01    0.4220287    0.1441969  42.19  0.001378093    2.794    0.642
       216 -11.8335     42.4184    179.0300   1.3791864617e+02   3.2964650190e+01    0.3782874    0.2512469  62.61  0.002052503    1.470    0.320
       217 -11.5473     26.9283    179.0225   1.4134913428e+02   3.4657109262e+01     0.291322    0.2482026  76.50  0.001244294    1.138    0.122
       218 -11.3127     31.2215    175.4512   1.4002879908e+02   3.5029793533e+01    0.2877187    0.2218826  60.32  0.001255666    1.280    0.219
       219 -10.6512    130.5665    176.9612   1.1664810164e+02   1.9475343951e+01     0.499797    0.2640258 -70.40  0.001298434    2.974    0.664
       220 -10.3886    247.4224    178.4966   9.2149792991e+01  -3.9998254265e+00    0.1354428    0.1176703 -14.24 7.527272e-05    1.018    0.017
       221 -11.1943     10.6302    177.8967   1.4472138196e+02   3.6456176385e+01     0.266533    0.1476708  48.59  0.001587389    1.822    0.451
       222 -12.1708      3.5420    174.4492   1.4590606623e+02   3.7819068884e+01     0.515671    0.2302436  63.63   0.00218382    2.392    0.582
       223 -11.6380      3.2205    167.7058   1.4540021335e+02   3.9341944477e+01    0.2563612    0.1754279 -59.47  0.001171804    1.444    0.307
       224 -10.8184    221.8678    176.3524   9.6445644401e+01   1.0325211794e+00    0.2386966     0.217484 -68.11 0.0001151663    1.354    0.262
       225  -9.8505    170.3419    177.2576   1.0744802737e+02   1.1294114549e+01    0.1514547     0.117896  12.25 0.0002532796    1.586    0.369
       226 -11.1369    136.4546    176.3758   1.1512982419e+02   1.8443941187e+01    0.2562959    0.2406753 -70.92 0.0005140828    1.087    0.080
       227 -10.2221    119.6897    177.3241   1.1932974682e+02   2.1484079778e+01    0.1556174    0.1126451  77.28 0.0003540211    1.654    0.395
       228 -10.2508    203.9188    174.6893   9.9678115493e+01   4.8794918620e+00    0.2001126    0.1807292  32.75 0.0003457387    1.088    0.081
       229 -10.9700    194.1931    174.4007   1.0164457061e+02   6.9207356647e+00    0.3499733    0.2469006  49.22  0.001013028    1.451    0.311
       230 -11.0553    167.0155    174.7254   1.0767561278e+02   1.2523318548e+01    0.2191828    0.1986333  40.36 0.0006671067    1.064    0.060
       231 -10.4502     16.1992    174.6942   1.4324786027e+02   3.6675539339e+01    0.2161693    0.1300714 -86.34 0.0008147286    1.391    0.281
       232  -9.5102    188.2983    174.3308   1.0288722428e+02   8.1541312932e+00    0.1532365    0.1176645   0.06  0.000702975    1.642    0.391
       233 -11.3852    172.2958    173.6788   1.0626674621e+02   1.1636547366e+01    0.2494321    0.2292371 -81.07 0.0002468524    1.209    0.173
       234 -11.7719    174.6883    171.6942   1.0531370916e+02   1.1549106885e+01    0.2966386    0.2728161  42.71 0.0007838078    1.054    0.052
       235 -10.5028    237.9815    173.2861   9.2772180645e+01  -1.4350686064e+00    0.1902354    0.1716305  10.81 0.0003381868    1.087    0.080
       236 -11.6853    156.0087    172.2573   1.0969432404e+02   1.5359657519e+01    0.3596195    0.2633048  48.56 0.0008166389    1.326    0.246
       237 -10.2043    144.2129    173.6205   1.1274314671e+02   1.7496533296e+01    0.2182905    0.1422019  33.21 0.0005469415    1.661    0.398
       238 -12.4529     87.6632    171.7053   1.2616626958e+02   2.8431468508e+01    0.4674449    0.3212021  85.33  0.002139003    1.685    0.406
       239 -11.5814     24.2796    171.7687   1.4118546879e+02   3.6577917807e+01    0.3753674    0.2682452 -16.33  0.001919618    2.405    0.584
       240 -11.1469     19.7444    170.0865   1.4202114664e+02   3.7394249508e+01    0.2321393     0.205286  86.64  0.001159973    1.163    0.140
       241 -11.0038     25.0801    167.2162   1.4051916215e+02   3.7546092317e+01    0.3231667    0.2493268  12.78  0.001704109    1.867    0.464
       242 -10.7807     36.7100    172.5618   1.3846458334e+02   3.5109514575e+01    0.1987375    0.1280693  28.07 0.0009444273    1.945    0.486
       243  -9.5888    208.9427    171.2853   9.7931240188e+01   4.5178933331e+00    0.2286628    0.1164971  62.99  0.000701787    4.100    0.756
       244 -11.3145    135.6975    169.0984   1.1387597107e+02   2.0248366074e+01    0.3241662    0.2574524  47.27 0.0008971541    1.218    0.179
       245 -10.3166    100.7976    170.3743   1.2269621902e+02   2.6545514846e+01    0.1928212    0.1401634  30.89  0.000541766    1.571    0.364
       246 -10.1671    108.6488    168.9581   1.2049366286e+02   2.5484360833e+01    0.2051718    0.1790391 -70.97 0.0003792873    1.121    0.108
       247 -10.7153     54.0005    197.9948   1.3752982835e+02   2.7199267792e+01    0.2180698    0.1577113 -77.24 0.0004561733    1.232    0.188
       248  -9.9472    194.1928    168.3344   1.0034814641e+02   8.1284457142e+00    0.2189851    0.1367725  52.04 0.0009457513    1.711    0.416
       249 -12.7508      9.3378    165.0372   1.4382823011e+02   3.9450568588e+01     0.372962    0.1827248 -59.10 0.0009534331    1.814    0.449
       250 -10.2755    186.3914    166.2217   1.0156233567e+02   1.0202995791e+01    0.2203402    0.1434453 -54.11 0.0009523721    1.728    0.421
       251 -10.2441     36.0415    165.6421   1.3779826529e+02   3.6795120689e+01    0.1666777    0.1445205  86.61 0.0005823047    1.084    0.078
       252 -10.0391    196.4590    164.9613   9.9138117268e+01   8.3277160775e+00    0.3095508    0.1980893  81.53  0.001048031    3.573    0.720
       253 -10.1479    179.3506    164.7957   1.0279538245e+02   1.2002406304e+01    0.3176872    0.1398565 -52.39   0.00108842    2.693    0.629
       254 -10.6943    104.7005    164.0991   1.2057830853e+02   2.7348902677e+01    0.2747617    0.2454846  40.65 0.0005400477    1.182    0.154
       255 -11.0025    100.8066    163.0502   1.2136689403e+02   2.8288429488e+01    0.3417782    0.2249609 -88.58  0.001472992    2.014    0.503
       256 -13.1271     74.7568    180.7767   1.3067571026e+02   2.8279554119e+01    0.6263347    0.3748475 -78.75 0.0006856447    1.758    0.431
       257 -10.3512    203.2568    163.2956   9.7362066505e+01   7.2332524460e+00    0.3723604    0.1705671 -50.01  0.001364789    2.489    0.598
       258 -10.0577    123.9102    163.6549   1.1567603101e+02   2.3851559144e+01    0.2120406    0.1932454  57.26 0.0005127469    1.066    0.062
       259 -10.4513     12.4016    170.2157   1.4364706288e+02   3.8023753582e+01    0.2843497    0.1962056  10.82  0.001745189    2.255    0.557
       260 -11.0883     31.4929    169.5601   1.3931457078e+02   3.6361625785e+01    0.3255865    0.2040458 -55.84   0.00125075    1.580    0.367
       261 -10.1391    139.4384    162.4672   1.1160562045e+02   2.1001132208e+01    0.1540979    0.1483131  73.38 2.558793e-05    1.009    0.009
       262 -12.0491     41.1066    166.2525   1.3667692289e+02   3.6096974820e+01     0.291142    0.2484769 -50.87  0.001233188    1.340    0.254
       263 -10.2717    242.7311    160.9983   8.9335880388e+01  -1.5321216054e-01    0.1952947    0.1668466 -27.08 0.0003438933    1.066    0.062
       264 -10.9327    224.2947    161.0786   9.2723556839e+01   3.3689587716e+00    0.2567162    0.2102008  57.30 0.0007911377    1.405    0.288
       265 -10.6554     18.5138    160.7503   1.4132407293e+02   3.9643345405e+01    0.1741471    0.1621808  74.03 0.0004863458    1.243    0.196
       266 -12.2836     34.1925    158.2150   1.3731853724e+02   3.8730288730e+01    0.3585961    0.2334959  69.04 0.0003950901    1.629    0.386
       267  -9.6942    196.3005    159.6511   9.8003463270e+01   9.4273474277e+00    0.1531433    0.1220833 -81.58 0.0004287365    1.689    0.408
       268 -12.2361    107.1515    157.8768   1.1876211183e+02   2.8390543224e+01    0.3635858    0.2610351 -68.87 0.0004130754    1.459    0.315
       269 -11.2752    136.4127    151.7894   1.1005913969e+02   2.4084650965e+01    0.3897036    0.2313022  40.32  0.001059329    1.701    0.412
       270 -11.4036    140.1532    157.0840   1.1028585501e+02   2.2085497743e+01    0.4432406    0.2585506  65.02  0.001244285    2.483    0.597
       271  -9.9915     66.1645    158.1663   1.2934565497e+02   3.4899905115e+01    0.1900796    0.1489694  80.32 0.0003733411    1.293    0.226
       272 -10.5081    209.8282    157.1374   9.4674691289e+01   7.0660541303e+00    0.2129108    0.2021658 -83.30  0.000369829    1.186    0.157
       273  -9.7044     24.6074    157.2044   1.3949739211e+02   3.9907633064e+01    0.1630277   0.09523944 -64.04 0.0003744563    1.427    0.299
       274 -10.1109      1.5299    157.0547   1.4481145018e+02   4.1850142363e+01    0.1757154   0.08966231 -74.41 0.0003539009    1.499    0.333
       275 -10.1545    183.7327    155.2926   9.9723890037e+01   1.3041562789e+01     0.262104    0.1849656   1.98  0.001064316    2.176    0.540
       276 -10.1665    176.1280    155.0907   1.0136381561e+02   1.4752763696e+01    0.2248449    0.2047432  -0.57            0    1.200    0.167
       277 -10.6797    114.0596    154.8218   1.1637631867e+02   2.7833588518e+01    0.2767888    0.2289843  67.12 0.0008783577    1.262    0.208
       278 -11.0117     85.2738    154.8678   1.2385164810e+02   3.2857715725e+01    0.3772568    0.2347705  34.77  0.001172095    1.754    0.430
       279 -12.2797     18.7966    153.9982   1.4051010937e+02   4.1172873043e+01    0.2290975    0.2244212 -38.87 0.0004531815    1.329    0.248
       280 -10.3014     44.5977    154.3274   1.3422817436e+02   3.8524281732e+01    0.1778027    0.1060606 -60.02 0.0005468099    1.466    0.318
       281 -10.2846     36.9691    153.7852   1.3605998435e+02   3.9484327244e+01    0.2192173    0.1249702  64.31  0.001082971    2.063    0.515
       282 -11.1556    234.8458    153.0066   8.9023032283e+01   2.7779851044e+00    0.4277121    0.2070535  44.41  0.001804786    2.196    0.545
       283 -11.2441    249.2330    151.3229   8.6161111644e+01   3.4404128815e-01    0.2404396    0.1864038 -37.99  0.000619745    1.171    0.146
       284 -10.5041    224.7021    150.5938   9.0350771697e+01   5.2470988593e+00    0.3486548    0.2268785 -62.80 0.0008386048    2.148    0.535
       285  -9.6053    156.6956    151.7032   1.0509085908e+02   1.9761203169e+01    0.1558146    0.1267719   1.33 0.0004773205    1.584    0.369
       286 -10.9427    187.9290    150.1046   9.7634102094e+01   1.3198823744e+01    0.2628635    0.2238829  30.32 0.0007902349    1.226    0.184
       287 -10.2410    123.2898    150.0862   1.1300981226e+02   2.7159170413e+01    0.2113267    0.1906147 -69.81 0.0003140997    1.108    0.097
       288 -10.2227    104.4013    149.7700   1.1785220921e+02   3.0829365618e+01    0.2120734    0.1358034 -45.54 0.0003800421    1.615    0.381
       289 -10.8444    154.9101    147.4044   1.0453774912e+02   2.1111518018e+01     0.333064    0.2083119 -30.64  0.001319795    2.009    0.502
       290  -9.9207     98.7264    148.3307   1.1905720434e+02   3.2184791544e+01    0.1510423     0.113425  84.62  0.000614045    1.592    0.372
       291 -10.6914     92.2354    146.8543   1.2048837157e+02   3.3652896250e+01    0.2545832    0.1960407  -8.20 0.0008388197    1.883    0.469
       292 -10.3229     36.1536    147.1610   1.3535640934e+02   4.1132778335e+01    0.2005633    0.1583466 -55.04  0.001234161    1.236    0.191
       293 -11.9119     52.6477    143.9405   1.3056364938e+02   4.0064536038e+01     0.418589    0.2222154  49.11 0.0005190172    2.114    0.527
       294 -12.0897     47.2066    142.3949   1.3176162165e+02   4.1070646149e+01    0.3768407    0.3067872  80.11  0.001138653    1.257    0.204
       295 -11.4396     15.2533    144.0500   1.4021019722e+02   4.3760890399e+01    0.3229238     0.242984  68.79  0.001100775    1.383    0.277
       296 -10.4187    225.6732    142.8636   8.8451020758e+01   6.5015930497e+00    0.2240684    0.1964786  28.15 0.0003906823    1.219    0.180
       297 -11.8332    164.8290    147.2168   1.0214929578e+02   1.8956579228e+01    0.4898998    0.3766813  76.42  0.001258937    1.633    0.387
       298 -10.2883     99.3124    143.3044   1.1786856891e+02   3.3288197412e+01    0.1478069    0.1181928 -19.64 0.0002384655    1.616    0.381
       299  -9.6932    123.5364    142.5549   1.1128695069e+02   2.8878316214e+01    0.1544525    0.1492171  86.38 0.0001955008    1.013    0.013
       300  -9.8334     92.4514    142.5299   1.1955882921e+02   3.4657270362e+01    0.1469886    0.1382888 -68.12 -1.942793e-05    1.022    0.022
       301 -11.0688    132.3192    140.1235   1.0846280544e+02   2.7638475142e+01    0.3291608    0.2599821 -65.42  0.001550228    1.361    0.265
       302 -11.1321     62.6810    140.8896   1.2734415299e+02   3.9530354454e+01    0.2203706    0.2160256  76.46 0.0002553894    1.133    0.117
       303 -10.3221     85.1286    143.9337   1.2182114319e+02   3.5520760643e+01    0.2160786    0.1801526  85.07            0    1.271    0.213
       304  -9.3678     19.2983    140.3564   1.3874030463e+02   4.4283396819e+01    0.1284492   0.07608995 -47.84 0.0007035437    1.702    0.413
       305 -11.2188     54.8286    139.0706   1.2916182198e+02   4.0965188910e+01    0.2150849    0.1703415  85.71  0.001217803    1.323    0.244
       306 -11.5659     23.0740    144.7169   1.3834372376e+02   4.2949650088e+01    0.3314672    0.2029044  36.05  0.001168692    1.875    0.467
       307 -11.4754     35.8481    138.4467   1.3417055775e+02   4.3219797745e+01    0.2358977    0.1809908 -66.83 0.0003132034    1.091    0.084
       308 -11.1154     24.1618    138.9712   1.3731081985e+02   4.4190743604e+01     0.193175     0.184549  47.75  0.001370397    1.272    0.214
       309 -10.4659    181.0148    137.1950   9.6122632087e+01   1.7451706604e+01    0.2977072    0.2221425  67.16 0.0008576362    1.567    0.362
       310 -10.1850    156.9989    136.7193   1.0152580813e+02   2.3022505397e+01    0.2251479    0.2076115  52.46 0.0003703973    1.074    0.069
       311 -10.6988    122.0017    134.9523   1.0994763397e+02   3.0964551500e+01     0.293479    0.2151821 -52.66 0.0007602405    1.355    0.262
       312 -11.0178     77.2365    135.1422   1.2224125454e+02   3.8857972462e+01    0.2499807    0.2291722 -53.19  0.000622498    1.071    0.066
       313 -11.6547     76.5616    129.7236   1.2132249499e+02   4.0253237449e+01    0.3605499    0.2482878 -42.59 0.0009345757    1.473    0.321
       314  -9.6545    171.6609    135.6818   9.7850853287e+01   1.9913401841e+01    0.1631254    0.1277309   6.13 0.0007049215    1.708    0.415
       315 -10.4792     29.9923    134.7558   1.3518148733e+02   4.4649583598e+01     0.161929    0.1504581 -86.55 0.0003290178    1.142    0.124
       316 -10.8655     23.6202    133.4018   1.3668335627e+02   4.5531268207e+01    0.3321932     0.185857 -86.70   0.00105447    1.943    0.485
       317 -10.8917    195.9597    133.7673   9.2126811457e+01   1.4752418775e+01    0.2547563    0.2156632 -38.70 0.0005574467    1.172    0.147
       318 -10.4365    147.2767    129.9189   1.0224355478e+02   2.6714365644e+01    0.2649616    0.2196209  46.47 0.0001956466    1.199    0.166
       319 -11.6009     45.3075    131.2585   1.3044250405e+02   4.3927023151e+01    0.3674087    0.2045052  11.00  0.001652623    2.856    0.650
       320 -10.1613      8.8746    132.4760   1.4041416362e+02   4.6887670468e+01    0.1445962    0.1201223  28.66 0.0006057376    1.521    0.343
       321  -9.6555    199.6715    130.7402   9.0651895019e+01   1.4519314709e+01    0.1511974    0.1210914  14.67 0.0003289946    1.563    0.360
       322 -10.9447    122.5829    128.9480   1.0836876234e+02   3.2237315826e+01     0.244655     0.215785  25.66 0.0004144037    1.230    0.187
       323  -9.5054     86.4705    129.5637   1.1847846833e+02   3.8746997307e+01    0.1447978    0.1366068 -63.22 7.051006e-05    1.007    0.007
       324 -10.8267     68.2538    128.8776   1.2351576252e+02   4.1650405559e+01    0.2800472    0.2068605  19.02  0.001456907    1.660    0.398
       325 -11.1806     62.4152    128.9689   1.2519891084e+02   4.2415158422e+01    0.2574771    0.2248269  68.86  0.000878289    1.246    0.197
       326 -10.4429     35.2673    128.5041   1.3277617907e+02   4.5611803867e+01    0.2458002    0.1283386 -40.61  0.001172815    2.148    0.535
       327 -10.3033     29.6329    126.3717   1.3400059241e+02   4.6636039414e+01    0.2274642    0.1117391  33.88  0.001142682    2.312    0.567
       328 -10.7286    206.2289    124.6057   8.7898047429e+01   1.4244664463e+01    0.2607852    0.2058381 -42.88  0.000401762    1.229    0.186
       329 -10.9422    143.6641    132.8394   1.0385711926e+02   2.6861710313e+01    0.2963271    0.2438913  66.64 0.0004027466    1.323    0.244
       330  -9.5555    140.9884    125.0294   1.0260836382e+02   2.9201746364e+01     0.188349    0.1838183  60.59 0.0003094378    1.017    0.017
       331 -10.0878     55.0153    124.6889   1.2649381878e+02   4.4359645566e+01    0.1774282    0.1674284 -53.61 0.0004283431    1.087    0.080
       332 -10.5776     19.9714    124.8670   1.3644015169e+02   4.7800180575e+01    0.2238819    0.1460314 -69.29 0.0006463344    1.255    0.203
       333 -10.2251    127.5959    123.7219   1.0575496307e+02   3.2390517927e+01     0.217872    0.1487107 -58.17  0.000604078    1.580    0.367
       334 -12.0496     69.6004    123.4062   1.2200121980e+02   4.2757619854e+01    0.4293352    0.3381938  58.25  0.001284579    1.447    0.309
       335  -9.8475      3.2337    124.0809   1.4084072658e+02   4.9155992896e+01    0.2081638    0.1139723  78.93 0.0009105369    2.230    0.552
       336 -10.1807    178.5331    123.1738   9.3253981314e+01   2.0958098341e+01    0.2295849    0.1548292 -43.74 0.0007424692    1.480    0.324
       337  -9.4158     90.6937    123.7224   1.1597009898e+02   3.9426823566e+01    0.1438705    0.1140389 -17.87 0.0002296166    1.551    0.355
       338 -11.7142     31.7767    119.5499   1.3227605666e+02   4.8020339820e+01    0.3303522    0.2097641 -70.55 0.0005265751    1.417    0.295
       339 -11.7018     27.8385    117.1839   1.3301324116e+02   4.8913257655e+01    0.2632839    0.2090933 -40.23   0.00168141    1.274    0.215
       340 -11.3799     14.0078    122.4861   1.3773162451e+02   4.8794565844e+01    0.2156734    0.1535216 -68.08 0.0003254716    1.117    0.105
       341 -11.7531     18.9424    118.7776   1.3581311918e+02   4.9271709554e+01    0.5141504    0.2545166   7.53  0.002475869    3.140    0.681
       342 -10.9460     14.8636    115.7083   1.3649975375e+02   5.0268279521e+01    0.2176467    0.2009102 -52.28  0.001158986    1.179    0.152
       343 -10.2254    138.8954    121.6323   1.0228614827e+02   3.0419100112e+01    0.2214304    0.1995003  48.76 0.0005297755    1.106    0.096
       344 -10.6848     63.1561    122.5694   1.2370672149e+02   4.3830609901e+01    0.2525139    0.1296182  38.09  0.001138557    2.113    0.527
       345 -10.6097    173.3250    120.2500   9.3674788041e+01   2.2791149043e+01    0.2758661      0.20093 -53.64 0.0005816297    1.436    0.303
       346 -11.3689     83.8241    119.8534   1.1706666142e+02   4.1457818769e+01    0.3711697     0.298832  65.63  0.001464851    1.457    0.314
       347 -10.8584     58.2790    119.1709   1.2444380154e+02   4.5252563952e+01     0.499911    0.1640008 -47.15  0.001812321    2.876    0.652
       348 -11.3976     62.3577    114.0990   1.2215333241e+02   4.5909515794e+01    0.3418712    0.3000895   3.50  0.001720099    1.297    0.229
       349 -11.1310     93.3198    118.5815   1.1400877269e+02   4.0175623769e+01    0.3478314    0.3065878 -64.59  0.001596786    1.142    0.124
       350  -9.7945    105.7798    119.4827   1.1066982440e+02   3.7719821788e+01    0.1957457    0.1483437  24.22 0.0004446881    1.521    0.343
       351  -9.8247     46.0361    119.4966   1.2811706610e+02   4.6607478906e+01    0.1655663    0.1329498  28.66 -0.0002647677    1.442    0.306
       352 -10.2224      3.1913    117.9468   1.4006447916e+02   5.0530397112e+01    0.2218985    0.1132086  53.83  0.001115786    2.573    0.611
       353 -10.9032     87.8562    113.7121   1.1443095912e+02   4.2219657796e+01    0.2453918    0.1830043 -42.12 0.0003923395    1.297    0.229
       354  -9.5621     54.6726    117.6808   1.2520940310e+02   4.6041621704e+01    0.1405382   0.09476884 -32.27 0.0007046891    1.682    0.406
       355  -9.7640    156.1527    116.1347   9.6597337822e+01   2.7689886625e+01    0.2113209    0.1848349 -85.40 0.0002500209    1.275    0.216
       356  -9.3543    140.3066    116.3007   1.0055878074e+02   3.1277321137e+01    0.1574355    0.1270798   2.67 0.0007009375    1.596    0.373
       357  -9.3965    115.4812    116.4464   1.0720114199e+02   3.6525429467e+01    0.1516743    0.1489102 -77.58 0.0008077299    1.031    0.030
       358  -9.5989    126.1319    114.3785   1.0376774152e+02   3.4790241932e+01    0.2106351    0.1448462  56.07 9.839023e-05    1.593    0.372
       359 -10.4077     32.3775    113.8063   1.3109619084e+02   4.9284272326e+01    0.2764949    0.1214678  43.31   0.00125449    2.795    0.642
       360 -11.8997     21.4245    110.0570   1.3368887860e+02   5.1055598410e+01     0.398589    0.2128928 -49.41  0.001754564    1.581    0.368
       361 -10.5187     95.4381    111.4969   1.1165349217e+02   4.1425118820e+01     0.378569    0.1437269 -55.23   0.00126576    2.908    0.656
       362 -10.8794     48.8532    111.8830   1.2577516616e+02   4.8055946110e+01    0.2143982    0.1857082 -49.13 0.0003063713    1.041    0.039
       363  -9.4142     72.2808    111.3097   1.1852168769e+02   4.5187164078e+01     0.141609    0.1024636 -27.83 0.0003625275    1.563    0.360
       364 -10.0268      5.3082    110.6898   1.3847387680e+02   5.2016935207e+01    0.1133512   0.08049145  78.19 0.0002775724    1.619    0.382
       365  -9.9901     85.1765    109.2514   1.1413403329e+02   4.3673936110e+01    0.1875889    0.1659395  76.47 0.0004124891    1.319    0.242
       366 -10.7841     27.0207    107.6965   1.3159759073e+02   5.1137132697e+01    0.2011188    0.1355022 -60.34  0.000198619    1.215    0.177
       367 -10.7068     29.0192    103.9280   1.3028424802e+02   5.1813238598e+01    0.1905388    0.1529365 -50.24 0.0003311163    1.060    0.057
       368 -10.4697     74.2416    107.3258   1.1697844948e+02   4.5806305794e+01    0.3850823    0.1637512  41.65  0.001529665    2.574    0.612
       369 -10.3603     92.1401    105.7555   1.1116440222e+02   4.3287239474e+01    0.2341147    0.1577341  81.31 0.0005644421    2.722    0.633
       370 -10.1626     43.9847    107.0000   1.2626146145e+02   4.9697108660e+01    0.1902266   0.07581492  27.37  0.000670234    2.909    0.656
       371  -9.7772    229.1395    104.6190   7.9127821554e+01   1.2849747497e+01    0.1880237    0.1342687  44.77 0.0002449993    1.572    0.364
       372 -11.9951    233.9967    102.3594   7.7838024492e+01   1.2185639989e+01    0.2541498    0.2363241 -69.37 0.0003382626    1.039    0.037
       373 -10.7743    167.0575    102.4635   9.0484701492e+01   2.7916285459e+01    0.3532014    0.2472487  30.00   0.00151224    1.758    0.431
       374  -9.6282    116.2197    102.9637   1.0344595171e+02   3.9340060055e+01    0.1956102    0.1232787 -45.93 0.0003509254    1.576    0.366
       375 -11.0311    135.5817    101.2905   9.7768411819e+01   3.5531380201e+01     0.278154    0.2624559  22.44  0.000521913    1.090    0.082
       376 -11.0742     76.6476    101.6824   1.1483862140e+02   4.6707089103e+01    0.2720929    0.2404625  -9.16  0.001482587    1.191    0.161
       377 -11.4981     46.6648    101.2820   1.2419803671e+02   5.0695139174e+01    0.3367069    0.2163374  43.44  0.001612757    1.860    0.462
       378 -10.4643      2.1660    101.8792   1.3808298361e+02   5.4132005986e+01    0.1692051    0.1376406 -77.81 0.0006798304    1.188    0.158
       379 -10.7401     67.4846    100.3250   1.1736730581e+02   4.8337058232e+01     0.347208    0.1680477 -53.84  0.001347401    1.917    0.478
       380 -11.0271     25.4565    100.2738   1.3069490935e+02   5.2921081915e+01    0.2250831    0.1882967 -46.76 0.0006288545    1.075    0.069
       381 -11.1144     85.1653     99.7393   1.1170513545e+02   4.5787280053e+01    0.3545182    0.2393364 -43.82 0.0004963052    1.396    0.284
       382 -10.5168     88.1941     95.5661   1.0965562186e+02   4.6181396737e+01    0.2415687    0.1687968  -3.86 0.0009853774    1.980    0.495
       383 -11.6921      9.8914     99.2257   1.3533298229e+02   5.4259996598e+01    0.2792003       0.2447   0.53  0.002040258    1.393    0.282
       384 -10.0583     36.2154     99.5923   1.2715773266e+02   5.2131159725e+01    0.1579381    0.1182481  -5.64 0.0005544454    1.591    0.372
       385 -10.6637     16.1348     98.7876   1.3333037241e+02   5.3945858548e+01    0.1692902    0.1426045 -71.22 0.0004662637    1.164    0.141
       386 -10.4142    124.8610     97.8925   9.9668205183e+01   3.8593099133e+01    0.2255305     0.203416  -5.31   0.00116263    1.195    0.163
       387 -11.4936     55.2358     97.0448   1.2047710590e+02   5.0648827447e+01    0.2506288     0.210531 -80.19 0.0002532016    1.413    0.292
       388 -10.0718    118.5896     96.7255   1.0106211151e+02   4.0164565343e+01    0.2031782    0.1447839 -52.88 0.0003938477    1.496    0.332
       389 -10.8389     47.4442     96.4000   1.2284485299e+02   5.1689388324e+01    0.2281087    0.1849521 -50.66 0.0005613166    1.079    0.073
       390 -11.0297     32.6618     96.5898   1.2766644471e+02   5.3119813539e+01    0.2458919    0.1354965 -61.57  0.000545312    1.599    0.375
       391 -10.6080    106.3567     98.6170   1.0506367833e+02   4.2230583545e+01     0.222386    0.1815694  86.28 0.0007037193    1.623    0.384
       392 -10.7923    147.9909     96.0277   9.3195967100e+01   3.3746650933e+01    0.2245687    0.2204722  45.67  0.001192983    1.015    0.015
       393 -10.7518     22.6793     94.4974   1.3045252035e+02   5.4405603154e+01    0.3815945    0.1770097 -74.13 0.0008641048    2.701    0.630
       394 -10.9365     25.3666     91.7440   1.2902403908e+02   5.4791941903e+01     0.176453    0.1669902  -7.06 0.0006934462    1.225    0.183
       395 -10.5040     59.8635     95.1596   1.1852109778e+02   5.0484791411e+01    0.2536317    0.1455849  44.60  0.001161077    2.096    0.523
       396 -10.6504     19.0083     95.4831   1.3181718532e+02   5.4464211589e+01    0.1524496    0.1205032  13.01 0.0006475674    1.524    0.344
       397  -9.8993    181.7004     94.0067   8.5130058974e+01   2.5988905719e+01    0.2093786    0.2016605 -84.74 0.0008331038    1.011    0.011
       398 -10.7000    135.9740     92.0290   9.5082825873e+01   3.7318752601e+01    0.2340344    0.2255819  24.27 0.0003990199    1.039    0.038
       399 -11.1590    113.5079     90.7646   1.0079702897e+02   4.2434806773e+01    0.4123917    0.3032583 -85.68 0.0005047401    2.165    0.538
       400  -9.7741    106.9594     92.5490   1.0318938883e+02   4.3381641964e+01    0.2071979    0.1284525  17.53 0.0008062293    2.416    0.586
       401 -11.4104     18.9503     89.2623   1.3062065811e+02   5.5810479703e+01    0.2664387    0.1407567 -52.68            0    1.464    0.317
       402 -11.4352     85.5163     82.6879   1.0685170831e+02   4.9295715394e+01     0.267704    0.2321383  58.04 0.0005133659    1.396    0.284
       403 -10.0946     86.6854     89.7145   1.0850212314e+02   4.7667635645e+01    0.2410218    0.1980191 -23.78 0.0005580019    1.219    0.180
       404 -11.0896     89.3295     87.6082   1.0708090926e+02   4.7650003455e+01    0.3710994    0.2554713 -48.75 0.0007583849    1.451    0.311
       405 -11.2339     63.9408     87.6368   1.1524425667e+02   5.1556986524e+01    0.3836876     0.270962  57.11  0.001589732    1.983    0.496
       406 -10.4588      6.4972     89.4411   1.3469823016e+02   5.6569755126e+01     0.182426    0.1070819  25.80 0.0005329691    2.093    0.522
       407 -10.3704     77.7401     87.9942   1.1084957602e+02   4.9475697410e+01    0.2148302    0.1734461 -22.61  0.000344126    1.239    0.193
       408 -10.3849     80.8485     84.8161   1.0895478015e+02   4.9636224500e+01    0.2072063    0.1747917 -12.23 -0.000430966    1.196    0.164
       409 -10.3236    180.8343     86.9883   8.3461296773e+01   2.7499799602e+01    0.2338477    0.1956606 -76.24 0.0004821105    1.288    0.224
       410  -9.8511    131.0163     86.7984   9.4869916492e+01   3.9460083520e+01    0.2140211    0.1904934  44.75 0.0003747208    1.099    0.090
       411 -11.1243    127.5190     85.9236   9.5538504508e+01   4.0407374723e+01    0.3004448    0.2294061  43.77 0.0007489296    1.282    0.220
       412 -12.1286    118.7233     83.0082   9.7068421961e+01   4.2874971766e+01    0.6938459    0.3026161 -54.69  0.002214533    3.581    0.721
       413 -10.9001     28.2137     85.8204   1.2680233466e+02   5.5826296456e+01     0.275753    0.1744874  32.27  0.001610032    1.873    0.466
       414 -10.6624     11.4844     84.9746   1.3223389548e+02   5.7218880882e+01    0.3991182    0.1749863 -39.70   0.00206032    2.074    0.518
       415 -10.7876    154.9969     85.3277   8.8552984363e+01   3.4135452529e+01    0.2749011    0.1907607  55.33 0.0004820812    1.414    0.293
       416 -10.4732    104.1250     84.0405   1.0155254632e+02   4.5646829053e+01    0.4585676    0.3284881 -37.75  0.002265991    1.382    0.277
       417 -10.8923     53.7933     83.2844   1.1747993727e+02   5.3760786420e+01    0.3164659    0.2322285  72.62  0.001249027    2.277    0.561
       418 -11.0873     20.2243     82.1164   1.2869839484e+02   5.7229617904e+01    0.1955464    0.1714321 -40.62 0.0003098255    1.105    0.095
       419  -9.6963      2.5484     83.4943   1.3490483055e+02   5.8036659340e+01    0.1168179    0.0881334 -53.70 1.107912e-05    1.006    0.006
       420  -9.9943    148.4339     81.5552   8.9015323183e+01   3.6406944078e+01    0.2210491    0.1834836  10.66 -2.363374e-06    1.447    0.309
       421 -10.4999    148.4966     78.4636   8.8112874150e+01   3.6952244148e+01    0.2966015    0.2255545 -57.46 0.0007265199    1.485    0.327
       422 -11.4326    130.6569     80.2880   9.3058386000e+01   4.0773132494e+01    0.3888179    0.3017226 -83.27  0.001319049    1.786    0.440
       423 -11.0465     44.6497     81.0211   1.2001763018e+02   5.5268869784e+01    0.2252967    0.1845679  17.39 0.0005727166    1.340    0.254
       424 -10.9922     94.7464     79.0434   1.0288512979e+02   4.8389095926e+01    0.3792601    0.2600155  -8.59  0.001346212    1.932    0.482
       425 -10.6641    154.2670     79.0094   8.6936080816e+01   3.5464744542e+01    0.2103023    0.2020368 -59.74 0.0005561099    1.076    0.071
       426  -9.4090     51.7129     87.3035   1.1922769646e+02   5.3166246136e+01    0.1203459    0.1023869  87.53 0.0002739987    1.563    0.360
       427 -11.0610     86.2730     78.0406   1.0523124669e+02   5.0082011728e+01    0.2289119    0.1974036  36.40 0.0002760463    1.216    0.178
       428 -10.6539      4.2951     67.6825   1.3114158585e+02   6.1168082283e+01    0.2525342    0.1742918 -21.03  0.001730056    1.456    0.313
       429 -10.9896      3.6559     77.7271   1.3344456749e+02   5.9173434755e+01    0.2030051    0.1486941 -47.79 0.0006756216    1.062    0.058
       430 -11.6700      1.5722     74.4418   1.3351170005e+02   5.9950531950e+01    0.3289154    0.1429193 -62.02 0.0006496744    1.805    0.446
       431  -9.9173    107.5343     77.4698   9.8579537014e+01   4.6235919078e+01    0.1443014    0.1380606   5.57 0.0006132482    1.022    0.022
       432 -12.0754     58.7105     74.4455   1.1333666358e+02   5.4932594505e+01    0.3659984    0.2946093  52.26 0.0005482098    1.641    0.390
       433 -10.9475     52.3777     75.2934   1.1578305688e+02   5.5554807280e+01    0.3791819    0.2442749  37.94  0.002070315    1.789    0.441
       434 -10.1585     29.1003     74.2758   1.2376130740e+02   5.8141672921e+01    0.1624873    0.1398292 -36.04 0.0007468276    1.071    0.066
       435 -10.1943    115.9376     73.1954   9.4877087213e+01   4.5288176036e+01    0.2452469    0.1615034  21.57  0.001072302    1.923    0.480
       436 -10.3442     37.7811     72.4111   1.2016647025e+02   5.7719208301e+01    0.2296664    0.1224761  22.76 0.0008386635    2.103    0.524
       437 -10.3973    106.7150     70.5379   9.6675905621e+01   4.7668551238e+01    0.2749011    0.1325858  39.16  0.001113042    2.088    0.521
       438  -9.7422    205.0162     69.5123   7.4634172707e+01   2.4558194621e+01    0.2044928    0.1377631  63.45 3.883201e-05    1.440    0.306
       439 -11.5378    129.8585     67.7453   8.9488229416e+01   4.3179274885e+01    0.4842503    0.2837591  65.36  0.001141708    2.235    0.552
       440 -11.6346     88.3683     69.0439   1.0178575190e+02   5.1407301785e+01    0.3700808    0.1889437  28.71  0.001469648    2.309    0.567
       441 -10.7217     26.5303     67.9137   1.2306544462e+02   5.9625294234e+01    0.2041354    0.1368112 -42.70 0.0006637451    1.197    0.164
       442  -9.9184     11.8424     62.8366   1.2723565858e+02   6.1682996699e+01    0.1586016    0.1352612  75.05 0.0006373405    1.720    0.419
       443  -9.6821     68.9664     73.9565   1.0968010179e+02   5.3615120738e+01    0.1588394    0.1387927 -23.15 0.0003649045    1.020    0.020
       444 -11.3214     78.3808     60.9059   1.0240348596e+02   5.4552805662e+01    0.3363566    0.2229365 -20.90  0.001319663    1.600    0.375
       445 -10.7293     69.6522     61.3639   1.0551038089e+02   5.5847564780e+01      0.31141    0.1898865  14.58 0.0008873606    1.994    0.499
       446 -11.2812      5.8191     60.3520   1.2889916676e+02   6.2518365542e+01    0.3195894    0.2116282 -61.43 0.0009540907    1.425    0.298
       447 -10.7516      1.5640     61.2281   1.3070245426e+02   6.2572512114e+01     0.336041     0.111889 -46.53  0.001723486    2.077    0.519
       448  -9.5512     53.9169     62.0000   1.1128461169e+02   5.7908810634e+01    0.1926047   0.07046378  31.99 0.0007953094    2.893    0.654
       449  -9.5851     39.4135     61.5141   1.1648420119e+02   5.9658781346e+01    0.1246599    0.1006144 -28.61 3.765837e-05    1.016    0.016
       450 -11.0201     16.2874     60.5766   1.2498237665e+02   6.1824544674e+01    0.2164491    0.1508803 -63.77  0.001305906    1.567    0.362
       451 -10.3801     14.3243     56.8067   1.2474126906e+02   6.2673104647e+01    0.1746377     0.117806 -45.15 0.0004927685    1.167    0.143
       452 -10.9235    107.0616     57.4403   9.2371657531e+01   4.9812485407e+01    0.3177766    0.2374112  58.44  0.001643746    1.534    0.348
       453 -10.5959     53.9963     58.0175   1.0998952930e+02   5.8617310190e+01    0.2077773    0.1759704 -44.80 0.0004611752    1.314    0.239
       454 -10.6504     53.7735     53.6406   1.0863696970e+02   5.9411495736e+01    0.3359372    0.1742912  23.81  0.001674361    2.094    0.522
       455 -12.0490     19.6791     57.1367   1.2275393700e+02   6.2231123431e+01    0.2260637    0.2137414   3.90 0.0007379884    1.330    0.248
       456 -11.8931     42.5066     52.9958   1.1266626314e+02   6.0871761165e+01    0.4971278    0.3512748 -75.11  0.002521961    2.956    0.662
       457 -10.3393     37.6702     57.1625   1.1582806220e+02   6.0640568870e+01    0.1789126    0.1540753  13.44 0.0003635479    1.276    0.216
       458 -10.7164     25.0308     56.5428   1.2051007665e+02   6.1920235591e+01    0.1982913    0.1776743  77.53  0.001175086    1.711    0.415
       459 -10.9818     27.5539     54.0253   1.1878640372e+02   6.2167670748e+01    0.2982627    0.2300659  -1.00  0.002036412    1.282    0.220
       460 -10.8059    118.8325     55.5763   8.8527968408e+01   4.7608509922e+01    0.2343734    0.1853459 -15.49 0.0003519288    1.371    0.271
       461 -11.3193     94.1468     54.3157   9.5152492737e+01   5.2856323304e+01    0.4410432    0.2334456  39.01  0.001441063    1.818    0.450
       462 -11.3669      4.4433     52.2480   1.2741279666e+02   6.4125235264e+01    0.3588846    0.1322658 -34.43  0.001430328    2.428    0.588
       463 -11.1993     60.6039     52.0823   1.0561372631e+02   5.8759020586e+01    0.2190458    0.1669341  13.02 0.0005776912    1.259    0.206
       464 -10.4769     33.0697     51.1021   1.1572093168e+02   6.2184113198e+01    0.1809861    0.1457494 -24.08 0.0004619567    1.020    0.020
       465 -11.6020     11.1482     50.5171   1.2427830957e+02   6.4046366506e+01    0.4992099    0.1594085 -49.03   0.00245751    2.235    0.552
       466 -10.7597     19.2395     49.6259   1.2077152645e+02   6.3640731038e+01    0.2291637    0.1644097   4.59  0.001562589    1.437    0.304
       467 -11.9432     16.6300     47.2937   1.2113140467e+02   6.4251320904e+01    0.3526436    0.2367271  -5.58  0.002353399    1.482    0.325
       468 -11.4444    196.0570     48.0508   7.0671754988e+01   3.0031496673e+01    0.2194666    0.1957265  87.22 0.0003013928    1.005    0.005
       469  -9.9221    151.4688     49.4796   7.8960940907e+01   4.0901167456e+01    0.1447294    0.1323294  56.16 8.911009e-05    1.008    0.008
       470  -9.8590     46.6149     48.7811   1.0969686549e+02   6.1124082854e+01    0.1590509    0.1076183 -47.12 0.0003787848    1.580    0.367
       471 -11.3635     75.2580     53.1482   1.0084700270e+02   5.6367626261e+01    0.3959655    0.2440971  56.99  0.001498874    2.610    0.617
       472 -12.4498     61.8478     44.7311   1.0259761554e+02   5.9769979465e+01    0.3323698     0.219642 -26.96 0.0002939909    1.402    0.287
       473  -9.7383    115.0438     44.9879   8.6058004638e+01   4.9987266057e+01    0.1640984    0.1499065  24.75 0.0003212988    1.027    0.026
       474 -11.7134     34.7201     44.7261   1.1298283120e+02   6.3118210159e+01    0.2286267    0.2017115  30.40 0.0006502615    1.491    0.329
       475 -10.9810     37.2552     40.1222   1.1037555450e+02   6.3608393340e+01    0.2179809    0.1627454 -13.73 0.0003765547    1.118    0.105
       476 -10.8875     25.9822     44.1963   1.1634318570e+02   6.4037865686e+01     0.185031    0.1384124 -32.15 0.0004407643    1.094    0.086
       477 -10.2107    199.2419     43.8039   6.9144774093e+01   2.9840820119e+01    0.2033062    0.1681822 -83.89  0.000455559    1.127    0.112
       478 -11.0322    139.2641     44.1765   7.9964567060e+01   4.4577924811e+01    0.2546508    0.1953774  55.10  0.000943309    1.186    0.157
       479  -9.6571     80.2853     44.3223   9.6080073673e+01   5.6897484627e+01    0.1342105   0.09249974   4.17 0.0003434199    1.597    0.374
       480 -10.6059    164.3383     42.9954   7.4582112109e+01   3.8625040085e+01    0.1941192    0.1836373  64.40 0.0005661216    1.064    0.060
       481  -9.9236     69.2909     42.3122   9.9078900327e+01   5.9013286745e+01    0.1307238   0.08850437   0.57 0.0002250504    1.588    0.370
       482 -10.2284     20.4683     41.4463   1.1772413568e+02   6.4971586869e+01    0.1183155   0.08579644 -24.89 0.0006044116    1.082    0.075
       483 -10.9239     23.1635     38.4712   1.1560839417e+02   6.5243749175e+01    0.2665205    0.2040398  25.67  0.001875708    1.559    0.359
       484 -11.7002      9.8171     39.5349   1.2160206155e+02   6.6075644110e+01    0.2885367    0.2095032  -0.71  0.001011117    1.367    0.269
       485  -9.9805    186.6565     38.8037   6.9734868851e+01   3.3625248984e+01    0.1860028    0.1197691 -47.37 0.0002357817    1.615    0.381
       486 -10.6609    175.5165     38.9847   7.1539381282e+01   3.6373662823e+01    0.2064156    0.1744243  72.20 0.0003604002    1.057    0.054
       487  -9.9532    103.6437     38.3077   8.6864024860e+01   5.3299019181e+01    0.1283343     0.108041 -86.22 0.0007041984    1.725    0.420
       488 -11.8924      3.2629     35.8517   1.2327984434e+02   6.7105003202e+01    0.3715907    0.1752455 -50.79  0.001639122    1.733    0.423
       489 -10.5870    129.2870     36.6824   7.9842298521e+01   4.7891445392e+01    0.2376397    0.1586943  57.89 0.0006464571    1.394    0.283
       490 -10.1210    110.9872     37.2272   8.4508302914e+01   5.1898554527e+01     0.191379    0.1574411  42.73 0.0003281682    1.101    0.092
       491 -10.2220     41.3442     36.4965   1.0742608903e+02   6.3719591698e+01    0.1848121    0.1380489 -51.70   0.00115011    1.838    0.456
       492 -10.2303     30.5008     36.4826   1.1184863302e+02   6.4886950624e+01     0.257029    0.2038982 -85.21  0.001469323    3.011    0.668
       493 -11.3552     60.7293     34.2642   9.9151362168e+01   6.1485491888e+01    0.2645151    0.1832037 -28.63 0.0006692362    1.376    0.274
       494 -10.7171     56.0550     34.3711   1.0092098490e+02   6.2144862009e+01    0.2099379    0.1444338 -18.56 0.0006151141    1.322    0.243
       495 -10.1417     17.5092     34.5580   1.1668284622e+02   6.6351075358e+01    0.2153115   0.09084214 -46.43   0.00106281    2.007    0.502
       496 -10.2781     92.1450     33.6707   8.8522026194e+01   5.6189210021e+01    0.1986517    0.1711824 -25.88  0.000271763    1.273    0.215
       497 -11.1342     78.0603     33.6322   9.2906756655e+01   5.8779040176e+01     0.310232    0.2518189  67.77  0.001814543    1.905    0.475
       498 -10.6941     81.3024     31.6647   9.1123163280e+01   5.8461840288e+01    0.1900589    0.1836481   4.59  0.001069303    1.288    0.223
       499 -10.2327    134.9786     32.7636   7.7336502991e+01   4.7045725030e+01    0.1914797    0.1572447  56.35 0.0002262605    1.097    0.089
       500 -10.4920    117.9247     33.0102   8.1323197653e+01   5.0913086765e+01    0.2058818    0.1807099  40.19 0.0003657584    1.017    0.017
       501 -11.0447    142.3463     31.4674   7.5405582443e+01   4.5452292527e+01    0.3007468    0.2301835 -10.74 0.0009586778    1.567    0.362
       502 -11.1651    106.2596     31.7811   8.3877688062e+01   5.3578216462e+01    0.2450346    0.1779042  -7.30 0.0006934752    1.518    0.341
       503  -9.9180    222.6077     31.4855   6.3287389698e+01   2.5867970420e+01    0.1314811    0.1106358 -80.25 2.971256e-05    1.024    0.023
       504 -10.0506    183.4144     31.4864   6.8327136600e+01   3.5359594425e+01    0.1365719    0.1207859  69.81 0.0002097529    1.073    0.068
       505  -9.5443     46.5423     30.4318   1.0307144601e+02   6.3981200448e+01     0.119493   0.09556611  -4.31 0.0002091631    1.021    0.021
       506 -11.4842     32.6599     27.8251   1.0773435732e+02   6.5982521040e+01    0.3480963    0.1887187 -43.91  0.001746316    1.947    0.486
       507  -9.9231     24.2450     30.6261   1.1238149370e+02   6.6398036298e+01    0.1474346   0.09051664   4.39 0.0003453148    1.604    0.376
       508 -10.2405     70.4845     28.8779   9.3638241721e+01   6.0679264106e+01    0.2153598    0.1499117  16.17    0.0012755    1.341    0.254
       509 -11.6326    187.1291     27.2694   6.6714399916e+01   3.4951647355e+01    0.2754479    0.2109438  69.07 0.0004425648    1.144    0.126
       510 -10.9871     75.8980     27.3390   9.1233830946e+01   5.9955559846e+01    0.1925132    0.1625765 -20.35 0.0004736786    1.263    0.208
       511 -11.0241     38.5071     27.1119   1.0501892184e+02   6.5431647853e+01    0.2558627    0.1747298  48.23   0.00150409    2.448    0.592
       512 -10.3698    100.8150     25.6545   8.3168432955e+01   5.5422201136e+01    0.2862018    0.1493091  -7.28  0.001235168    2.793    0.642
       513 -10.7864      1.8444     25.6332   1.2060793683e+02   6.8865802657e+01    0.1834712    0.1330001 -28.45 0.0004243533    1.032    0.031
       514 -11.6789      6.7119     23.4418   1.1759704675e+02   6.8899592896e+01    0.3313895    0.1546778  17.52  0.002025152    2.224    0.550
       515  -9.9729     90.4614     24.4753   8.5641543850e+01   5.7618895757e+01    0.1292204    0.1084297  24.14 0.0002478212    1.002    0.002
       516 -10.3074     65.6077     23.8213   9.3349174084e+01   6.2101632696e+01     0.222296    0.1082397 -25.55   0.00110782    2.084    0.520
       517 -10.8772     46.0364     23.9641   1.0072091748e+02   6.4931471251e+01    0.2023664    0.1199951   0.68  0.001134902    1.827    0.453
       518 -11.3353     17.7546     22.8541   1.1233044303e+02   6.8142010748e+01    0.2636604    0.1918661  22.08   0.00137571    1.545    0.353
       519 -10.0702    188.9913     23.0298   6.5394276886e+01   3.4989528717e+01    0.1694694    0.1363417  76.86 0.0007448164    1.065    0.061
       520  -9.9135    138.0058     21.9790   7.3345119632e+01   4.7542746770e+01    0.2189444    0.1408096  33.95  0.000774384    1.672    0.402
       521  -9.9035    132.5261     22.5013   7.4607055459e+01   4.8774185657e+01     0.134358    0.1173749  54.19 -3.175225e-05    1.031    0.030
       522 -10.0172    114.1342     21.0820   7.8194036537e+01   5.3087173154e+01    0.1642445    0.1534957 -82.89 0.0004725213    1.319    0.242
       523 -11.1362     73.9688     20.4789   8.9198975705e+01   6.1096596875e+01    0.2186395    0.1645918 -11.38 0.0005362734    1.283    0.220
       524 -10.1888     39.0401     21.2680   1.0246135228e+02   6.6165851118e+01    0.1659589    0.1267355   5.25  0.001162657    1.090    0.083
       525 -10.2965    182.4460     18.8008   6.5203368121e+01   3.7068668989e+01    0.1575393    0.1332263  -0.90 0.0003732188    1.582    0.368
       526  -9.9706     61.3324     18.3152   9.2645160248e+01   6.3429117930e+01    0.1248016    0.1001711  10.68 0.0008370103    1.021    0.020
       527 -10.8626    113.0023    232.6427   1.2934774048e+02   1.0789648302e+01    0.4072175    0.3357108  15.88  0.002370103    1.680    0.405
       528 -11.1842     33.6723     17.7897   1.0328078216e+02   6.7252001018e+01    0.2441932     0.179068 -19.34 0.0009174497    1.175    0.149
       529 -10.7193    157.9320     17.2096   6.8389664162e+01   4.3243341883e+01     0.193551    0.1882477 -85.78 0.0003680041    1.155    0.134
       530 -10.0657    139.8638     18.0962   7.1792590242e+01   4.7501274564e+01    0.1784741    0.1417865  31.06 0.0005148007    1.323    0.244
       531 -11.9266    121.5404    247.5421   1.2951141946e+02   6.5502603049e+00    0.3981228    0.2300895  52.52 0.0001048973    1.487    0.327
       532 -10.1677    200.4741     17.4802   6.2616457273e+01   3.2825269722e+01    0.1325519    0.1105097  85.49 0.0001940268    1.012    0.012
       533 -10.9474    132.0330     16.3577   7.2758883267e+01   4.9511018977e+01    0.2999896    0.1528036  45.66  0.001259397    1.745    0.427
       534 -11.2183    115.7751    244.3321   1.3025293715e+02   8.1017599298e+00    0.2661868    0.1749026 -87.65 0.0006594671    1.913    0.477
       535 -11.4982    115.1109    238.9669   1.2972281449e+02   9.2169279805e+00    0.3632807    0.2990254   2.13  0.001665135    1.890    0.471
       536 -10.3190     25.5456     16.5654   1.0631507894e+02   6.8292417350e+01     0.184663     0.137201 -11.42 4.241535e-05    1.032    0.031
       537 -11.4562    118.9511    233.6680   1.2826578534e+02   9.5770421957e+00     0.330219    0.2354789  89.24  0.001583572    1.647    0.393
       538 -10.7916    121.0242    242.0008   1.2892201677e+02   7.6493698784e+00    0.3218436    0.1910093  87.66  0.001256288    2.654    0.623
       539 -10.6480    124.1488    240.5995   1.2811723904e+02   7.3764594702e+00    0.2857267    0.1956853 -51.73  0.001016309    1.741    0.426
       540 -10.8915    192.7963    230.6536   1.1266278472e+02  -3.0512177195e+00    0.5658811    0.3565726  69.96  0.002277896    3.580    0.721
       541 -11.8483    189.3717    242.5695   1.1531036060e+02  -4.3512291103e+00    0.8340231    0.4486999   8.78  0.002777689    5.025    0.801
       542 -11.3549    190.8051    235.1870   1.1382239253e+02  -3.4345286299e+00    0.3112575    0.1835073  26.73 0.0008261465    1.724    0.420
       543 -10.9144     86.0091     13.9946   8.2970009299e+01   5.9580583260e+01    0.1895849    0.1504621  24.34 0.0003572083    1.060    0.056
       544 -11.9064    181.0067    244.9026   1.1733245397e+02  -3.2785065882e+00    0.4059278    0.3032366 -15.49  0.002290532    1.663    0.399
       545 -13.5170    184.5748    239.9999   1.1585038798e+02  -3.1191484785e+00    0.4079746    0.3177047  -2.22 0.0009968502    1.496    0.332
       546 -11.3692    174.8744    243.3031   1.1830352131e+02  -1.9607536314e+00    0.3041565    0.1909467 -52.28  0.001620981    2.007    0.502
       547 -10.0319    179.5186     13.5077   6.4243771183e+01   3.8345385956e+01    0.1335856    0.1114912  80.33  1.44332e-05    1.023    0.023
       548 -11.9220    203.2587    240.6562   1.1227204817e+02  -6.4121435471e+00    0.3225052    0.2421053  42.53  0.001013592    1.300    0.231
       549 -10.7630    197.2580    241.5504   1.1359309391e+02  -5.5374138566e+00    0.3292881    0.1922002   6.21  0.001422744    2.902    0.655
       550 -11.4976    147.6969    241.1910   1.2345101376e+02   3.1719973518e+00    0.2772968    0.2361495  25.73 0.0008274799    1.255    0.203
       551 -10.2754    233.7578    239.3721   1.0623942974e+02  -1.1122584513e+01     0.175751    0.1530783 -16.62  0.000371559    1.264    0.209
       552 -10.3341     96.7701     16.0444   8.0761352663e+01   5.7260530227e+01    0.1742899    0.1679939  42.53 0.0005452603    1.246    0.197
       553 -10.7022    168.5784    239.0869   1.1891728993e+02  -1.6003433683e-01    0.2498084    0.2067463 -70.31 0.0008603624    1.571    0.363
       554 -11.2544    143.7535    238.0427   1.2380178671e+02   4.4275906502e+00    0.2953249    0.1875216  51.75  0.001017508    1.423    0.297
       555 -10.8223     66.9462    238.7953   1.3909502903e+02   1.6767769340e+01    0.2051251    0.1669365  46.66  0.001322322    1.345    0.257
       556  -9.9185    181.1745    235.8810   1.1586844920e+02  -1.8560979311e+00     0.177244    0.1433765   5.98 0.0005249826    1.362    0.266
       557 -11.6893    219.0409    232.9917   1.0790769868e+02  -7.8839996065e+00    0.3070214    0.2265398  -7.59 0.0007204263    1.400    0.286
       558 -10.1973     42.0154     15.4927   9.8837153221e+01   6.6523884237e+01    0.1593283   0.09784516  28.99  0.000360749    1.503    0.335
       559 -11.7391    153.6634    232.5910   1.2096659521e+02   3.6393542082e+00     0.370364    0.2387627  56.41  0.001026432    1.603    0.376
       560 -11.6318    142.4593    232.3267   1.2324129661e+02   5.7016916196e+00    0.3609991    0.2408386  48.63  0.001931041    1.304    0.233
       561 -10.5307    178.4185    232.4225   1.1586374724e+02  -7.9029751987e-01    0.3600798    0.1780299  28.40  0.001411451    2.352    0.575
       562  -9.9366    230.6782    232.6819   1.0564274677e+02  -9.7083627260e+00    0.1320702   0.08601487   6.07 0.0007043259    1.666    0.400
       563 -11.2062    161.3383    231.8204   1.1926525878e+02   2.3906759394e+00    0.2591546     0.191695  27.19 0.0006061006    1.375    0.273
       564 -12.2007     74.3861    229.7645   1.3677155182e+02   1.7508032068e+01     0.338894     0.307587 -26.03 0.0009132628    1.722    0.419
       565 -10.5132     77.7906    231.9673   1.3633354680e+02   1.6555056766e+01    0.1702354    0.1159209 -78.78            0    1.450    0.311
       566 -10.4351     81.0102    230.7327   1.3556711905e+02   1.6320801349e+01    0.2596145    0.1642542  31.94  0.001110301    1.932    0.482
       567 -11.6134     58.9196    231.2359   1.3990846479e+02   1.9403219869e+01    0.2348149    0.1485257 -87.19 0.0006020198    1.471    0.320
       568 -10.8637     95.0789    229.9844   1.3266462163e+02   1.4276297986e+01     0.194298    0.1568593  66.05 0.0003084998    1.037    0.036
       569  -9.7230    212.2532    229.5775   1.0862315450e+02  -6.2400592049e+00    0.1179811    0.1042454 -84.00 0.0005215779    1.755    0.430
       570 -10.2628    242.1582    228.1662   1.0270334826e+02  -1.0847305511e+01    0.1555733    0.1452914  14.93  0.000604693    1.327    0.246
