#   1 NUMBER                 Running object number                                     
#   2 MAG_AUTO               Kron-like elliptical aperture magnitude                    [mag]
#   3 X_IMAGE                Object position along x                                    [pixel]
#   4 Y_IMAGE                Object position along y                                    [pixel]
#   5 X_WORLD                Barycenter position along world x axis                     [deg]
#   6 Y_WORLD                Barycenter position along world y axis                     [deg]
#   7 A_WORLD                Profile RMS along major axis (world units)                 [deg]
#   8 B_WORLD                Profile RMS along minor axis (world units)                 [deg]
#   9 THETA_WORLD            Position angle (CCW/world-x)                               [deg]
#  10 FWHM_WORLD             FWHM assuming a gaussian core                              [deg]
#  11 ELONGATION             A_IMAGE/B_IMAGE                                           
#  12 ELLIPTICITY            1 - B_IMAGE/A_IMAGE                                       
         1 -10.4419    138.6346     26.9670   7.8068608143e+01   4.7502509647e+01    0.4650169    0.2183628  61.73  0.001868529    2.017    0.504
         2 -12.1473     76.5927     24.3733   9.4319094338e+01   6.1716946594e+01    0.4674699    0.3368264 -36.88  0.001195201    1.507    0.337
         3 -10.5217     12.8479     16.0351   1.1941225694e+02   7.1257684455e+01    0.3217172    0.2003311  29.77  0.002090323    1.979    0.495
         4 -10.5051     26.8064     16.3364   1.1222031636e+02   7.0003044486e+01    0.2554454    0.1958021 -27.26  0.001008436    1.097    0.088
         5 -10.2657    100.4177     19.0613   8.4370158077e+01   5.7564767936e+01    0.3944328    0.1986736 -50.01  0.001518091    3.336    0.700
         6 -11.3314     41.6486     19.0002   1.0621374697e+02   6.7913521025e+01    0.3958538    0.2870791   4.79  0.002180439    1.287    0.223
         7  -9.8484    109.5667     12.9938   7.9393022961e+01   5.6149493963e+01    0.3103831    0.1974716  -0.25  0.001159026    1.805    0.446
         8 -11.2419     90.2971     15.9365   8.6012605878e+01   6.0091719667e+01    0.3256989    0.2134339  -7.09 0.0004900523    1.617    0.382
         9 -10.9695     87.5591     10.4338   8.4386605960e+01   6.1264398719e+01     0.571102    0.2243203 -16.33  0.002206963    3.174    0.685
        10 -11.1375     38.4774      2.4447   9.9422896067e+01   7.0632913203e+01    0.4557841    0.3412464  21.48   0.00311664    1.267    0.211
        11 -11.6759     30.1330      7.1305   1.0606903779e+02   7.1042331066e+01    0.3246102     0.266507  -5.74  0.001219213    1.142    0.124
        12 -11.6348     34.8378     12.9959   1.0662714664e+02   6.9646578442e+01    0.4022697      0.25739 -38.51  0.001597902    1.513    0.339
        13 -11.3980     39.7048     10.5589   1.0306683470e+02   6.9396960109e+01    0.2699351    0.1931017 -32.80 0.0002633183    1.380    0.275
        14 -10.7574    212.2297     12.2207   6.2555461105e+01   2.9823861247e+01    0.2631272    0.1964829 -54.36 0.0007016047    1.292    0.226
        15 -10.0848     68.6061     12.1179   9.1591844267e+01   6.4736882921e+01    0.3096925    0.2262566 -53.15  0.001652388    2.194    0.544
        16 -10.2087    119.0161     11.9784   7.6731168553e+01   5.4006481931e+01     0.208244    0.1841327  42.07 0.0003347456    1.020    0.019
        17 -11.1520     92.9128      8.2107   8.1797980494e+01   6.0359946479e+01    0.4771046    0.2183374 -28.51  0.000556779    2.261    0.558
        18 -10.9541     22.2335      9.3150   1.1131799990e+02   7.1551467706e+01    0.3073972    0.1867927  -9.76  0.001432535    1.604    0.376
        19 -10.1433     10.0145      1.4927   1.1433179745e+02   7.3815371156e+01    0.1918761    0.1336379  -9.03  0.000861284    1.216    0.177
        20 -11.7875      4.2745      9.0051   1.2121925665e+02   7.3021687005e+01    0.3395355    0.3004591  42.40  0.001464972    1.783    0.439
        21 -10.3382      1.8918      2.9055   1.1990741795e+02   7.4168319995e+01    0.1739531    0.1051056 -25.39  0.001196979    1.300    0.231
        22 -10.6117     12.9852      7.7507   1.1566947064e+02   7.2610176305e+01    0.3614514    0.2991121  29.46  0.002707606    1.674    0.402
        23 -10.1850      7.8159      4.8517   1.1728027122e+02   7.3461496611e+01    0.1947472    0.1441263 -17.36 0.0009037702    1.095    0.086
        24 -11.8983    150.9590      7.4936   6.8966962296e+01   4.6327965492e+01    0.4011647    0.3036499  41.89  0.001447247    1.285    0.222
        25 -11.2666     70.8585      6.9941   8.8281967419e+01   6.4910731527e+01    0.3528273     0.281939  42.83 0.0004334515    1.309    0.236
        26 -11.2284     65.9900      6.4949   8.9811062494e+01   6.5849477381e+01    0.6514489    0.2551636  31.40  0.002654778    2.944    0.660
        27 -10.3983     55.2668      7.9160   9.4764061839e+01   6.7494864849e+01    0.2201436    0.1818945  17.88 0.0003914435    1.141    0.124
        28 -11.7057     57.2638      4.2774   9.2074453728e+01   6.7595564726e+01    0.6810665     0.318902  45.81  0.003429908    2.161    0.537
        29 -10.4414    210.1638      7.4096   6.1513011601e+01   3.0838529906e+01     0.217818    0.1555182 -41.39   0.00119548    1.404    0.288
        30 -10.9725    218.1844      7.2129   6.0705169562e+01   2.8843750101e+01    0.2994174    0.1413026  69.32 0.0008766874    1.907    0.476
        31 -10.8674    146.5211      3.3869   6.8275157202e+01   4.7840289204e+01    0.4386504    0.2104899  26.96  0.001426711    2.880    0.653
        32 -11.0867    119.4659      4.6523   7.3736200858e+01   5.4567778681e+01    0.4571353    0.1930329  52.13  0.000656929    1.929    0.481
        33 -11.3005    130.1147      3.6400   7.1219143579e+01   5.2016607113e+01    0.3183566    0.2635997 -88.07  0.001157804    1.371    0.270
        34  -9.6100    235.3047      4.6843   5.8642257545e+01   2.4940783930e+01     0.138542    0.0807232 -62.19 0.0003096292    1.623    0.384
        35  -9.5711    183.3295      7.4390   6.4435224732e+01   3.7790791490e+01    0.2969171   0.06697929  56.36 0.0009458634    3.427    0.708
        36 -10.6693    199.1401      2.8612   6.1404210801e+01   3.4095934571e+01    0.2144218    0.1681748 -74.94 0.0006712986    1.203    0.169
        37  -9.3987    160.6478      3.6918   6.6250421269e+01   4.4117002156e+01    0.1520057   0.09008932  42.48 0.0007043323    1.716    0.417
        38 -11.7517     80.4133      1.8115   8.2567193979e+01   6.3577283119e+01    0.4161902    0.1645171  48.01  0.001208653    2.134    0.531
        39 -10.9974     18.8771      2.7001   1.0982822437e+02   7.2859084651e+01    0.3268198     0.177717   8.50  0.001929332    1.978    0.494
        40  -9.8372     76.5300      8.0257   8.6813285121e+01   6.3727324173e+01    0.1855808    0.1176641 -13.95 0.0005870572    1.566    0.362
        41 -10.7755     41.5177      6.5338   1.0014784947e+02   6.9700135248e+01    0.4084458    0.1796563  24.93  0.001930298    2.615    0.618
        42 -10.3413      3.5388    118.9822   1.4472991373e+02   5.0248879644e+01     0.161223    0.1411743  85.37 0.0004980197    1.157    0.135
        43 -10.3338    195.0059    249.9930   1.1914901969e+02  -2.4468258920e+00    0.1477801    0.1101013  31.56 0.0006261591    1.005    0.005
        44 -12.0995      2.3941    220.1674   1.5144200181e+02   2.9510859282e+01    0.6973307    0.1231429 -80.56  0.002756823    5.169    0.807
        45 -13.2075      9.4056    229.8217   1.5068958472e+02   2.7129507641e+01     0.594629     0.327465  84.00  0.002878154    1.446    0.308
        46 -11.7125      4.2087    232.6183   1.5164705477e+02   2.7134440000e+01    0.2788613    0.1457023  66.79 0.0006736156    1.370    0.270
        47 -10.3734     65.5569    111.8401   1.2577253755e+02   4.6058401691e+01     0.428444    0.1380084 -52.66  0.001571129    2.719    0.632
        48 -10.2672    249.2872    111.9777   8.2665753483e+01   7.3707591844e+00    0.2035263    0.1699432 -26.12  0.001159469    1.094    0.086
        49 -11.7883      5.0818    108.7479   1.4323540611e+02   5.2441904331e+01    0.2752409    0.2100508  -0.51  0.001823534    1.779    0.438
        50 -11.0174     58.2770    107.6604   1.2714667154e+02   4.7962834592e+01    0.3064613    0.2156819 -23.79  0.001218824    1.874    0.466
        51  -9.4143     40.6688    104.6719   1.3202463268e+02   5.0609268774e+01    0.1336737   0.08594044 -38.63 0.0007051518    1.713    0.416
        52  -9.9462     66.8541    102.1466   1.2331206373e+02   4.8128485851e+01    0.2529321    0.1532013 -65.30 0.0007790678    1.666    0.400
        53  -9.8584    113.4957    102.5038   1.0932226826e+02   4.0153002474e+01    0.1493571    0.1477262 -21.36 1.830205e-05    1.012    0.012
        54 -10.5296     57.9475    101.4797   1.2597695491e+02   4.9433807377e+01    0.2268038    0.1673184 -59.47   0.00126467    1.212    0.175
        55 -10.4524     62.2965     99.3775   1.2413759257e+02   4.9368975588e+01    0.2360595     0.174848  46.58  0.001293717    1.496    0.331
        56  -9.3533    129.5055     97.5114   1.0351140847e+02   3.7832327352e+01    0.1535667    0.1517495  31.84 0.0008105479    1.008    0.008
        57 -10.3627     37.5684     96.0401   1.3142271927e+02   5.2893672169e+01    0.3837614     0.242755  34.51  0.002160879    1.795    0.443
        58  -8.9956     38.3085     92.2915   1.3045368519e+02   5.3679163236e+01     0.128712   0.08508192 -37.58 0.0002153788    1.581    0.368
        59 -11.3346     17.7739     94.7279   1.3756512369e+02   5.4797056781e+01    0.2873005    0.2415754 -52.68  0.001499569    1.149    0.129
        60 -10.0265     20.5166     91.4921   1.3616342159e+02   5.5335746912e+01    0.1790471    0.1150524  -6.36 0.0008411608    2.129    0.530
        61 -10.6353     78.8116     94.8026   1.1777178589e+02   4.8062915502e+01    0.2099143    0.1820692 -29.47 0.0003876915    1.189    0.159
        62  -9.6373      3.4387     95.4951   1.4214895779e+02   5.5490787550e+01    0.1164003    0.0904969 -74.53 0.0001638036    1.036    0.034
        63 -10.8989     84.2868     93.6881   1.1574795857e+02   4.7440327035e+01    0.3177325    0.2525001   6.46  0.001649113    1.531    0.347
        64 -11.1676     27.4855     90.7169   1.3373948452e+02   5.4983529047e+01    0.4851394    0.2770588  53.01   0.00255674    2.242    0.554
        65  -9.8954     25.4702     84.9489   1.3334951360e+02   5.6441233202e+01    0.2485208    0.1770143 -82.41 0.0008276181    1.450    0.310
        66  -9.7856     16.0272     89.3033   1.3727301202e+02   5.6134943944e+01    0.2383842    0.1675935 -18.14  0.001107664    1.775    0.436
        67  -9.8128     18.9775     86.9606   1.3590712270e+02   5.6462495110e+01     0.177022    0.1366564 -64.08  0.000817317    1.049    0.047
        68  -9.6832    118.6465     90.3242   1.0445762431e+02   4.1679851133e+01     0.157756    0.1234814  88.98 0.0007047118    1.761    0.432
        69 -10.4710     76.4483     89.2525   1.1709563428e+02   4.9664802614e+01     0.246672    0.2352427 -37.29 0.0005114436    1.030    0.029
        70 -10.0110     44.0676     89.6131   1.2797692690e+02   5.3717307534e+01    0.2631673    0.1402927  41.07  0.001305182    2.154    0.536
        71 -10.3784      1.7438     89.7070   1.4193219504e+02   5.6860714781e+01     0.206652    0.1198315 -69.97 0.0002389174    1.323    0.244
        72 -11.0614    105.1635     88.4787   1.0785756652e+02   4.4819652999e+01    0.5047918    0.2455472  58.91  0.001657812    3.464    0.711
        73  -9.8148    124.0819     86.8733   1.0191557600e+02   4.1210570019e+01    0.2332215    0.2136185 -89.83  0.000688698    1.243    0.195
        74  -9.2137    113.5953     86.4566   1.0477207324e+02   4.3540858998e+01    0.1526059    0.1410536  -6.85 0.0001313613    1.113    0.102
        75 -10.6963     54.6015     84.1612   1.2312968061e+02   5.3772031455e+01    0.2687108    0.2107011 -59.15 0.0007973879    1.180    0.152
        76 -10.5345      3.9173     82.9290   1.4028729606e+02   5.8249162589e+01    0.2497452    0.1301435 -63.06  0.001114992    1.440    0.305
        77 -10.1221     89.3717     80.5977   1.1046225832e+02   4.9418760424e+01    0.3222229     0.167816 -47.15   0.00125724    1.842    0.457
        78 -11.6711     63.8289     80.7303   1.1906078905e+02   5.3357090401e+01    0.4559519    0.4138958 -62.30  0.002612854    1.137    0.121
        79  -9.7707    250.3715     80.8183   7.5182363007e+01   1.1788343011e+01    0.1951086    0.1245373 -21.94 0.0006954609    1.664    0.399
        80  -9.7310     65.8419     75.1661   1.1681553765e+02   5.4284647916e+01    0.1826569    0.1716596  -8.95  0.001121758    1.092    0.084
        81  -8.8707    124.4405     79.4416   9.9555439626e+01   4.2606229689e+01    0.1508721     0.148375  87.01 0.0002316085    1.090    0.083
        82 -11.3838     11.1346     88.0643   1.3867983840e+02   5.6717076208e+01     0.554072    0.1932151 -67.49  0.002434445    2.196    0.545
        83  -9.9299    176.8486     77.1502   8.6300989760e+01   3.0184022015e+01    0.2450374    0.2212852 -84.62  0.001241388    1.203    0.168
        84  -9.6783     74.9776     75.6972   1.1379791472e+02   5.2829018769e+01    0.1808469    0.1702087   4.77 0.0001942875    1.096    0.087
        85 -10.9982     55.6301     75.6500   1.2057551224e+02   5.5519606696e+01    0.3005369    0.2409286  -3.88 0.0005307329    1.410    0.291
        86 -10.3998     15.7154     75.9877   1.3506486505e+02   5.9114237688e+01    0.1698495    0.1328372 -61.15 0.0006460235    1.034    0.033
        87 -10.2693    150.9725     75.0117   9.1351017442e+01   3.7128134122e+01    0.1870712    0.1821003  34.84 0.0003623748    1.007    0.007
        88 -10.7447     32.1589     72.9256   1.2844426282e+02   5.8561986345e+01    0.2137113    0.1915898  48.36 0.0002485521    1.350    0.259
        89 -11.0771     35.7642     72.2488   1.2695053025e+02   5.8388487414e+01    0.4774907     0.293238 -62.43  0.001680807    1.484    0.326
        90 -11.2471      4.0168     73.8067   1.3883482075e+02   6.0241555769e+01    0.3296103    0.2080978  22.34  0.001238372    1.968    0.492
        91  -8.9165    224.3095     74.2870   7.7215974672e+01   1.8718754243e+01    0.1435624    0.1117838  23.13 0.0002820443    1.575    0.365
        92 -10.0476    136.6341     74.1723   9.4638295169e+01   4.0781202544e+01    0.2454408    0.2102302  58.12 0.0004532064    1.201    0.168
        93  -9.6747    216.9457     72.4265   7.7850115104e+01   2.0789211764e+01    0.2284702    0.1889737 -32.23 0.0005492572    1.199    0.166
        94  -9.3723     92.4751     72.4605   1.0695706209e+02   5.0539028091e+01    0.2064676    0.1976891 -12.57  0.001062844    1.030    0.029
        95  -9.4818     90.6016     69.4590   1.0660511699e+02   5.1481731275e+01    0.2041231    0.1732319 -70.44 0.0001026483    1.471    0.320
        96 -10.2094     80.9962     72.0242   1.1062949065e+02   5.2632158114e+01     0.303925    0.1948855 -69.83   0.00128894    2.495    0.599
        97  -9.2592     48.9659     74.0000   1.2254144255e+02   5.6660791984e+01     0.191691   0.07501047  28.79 0.0007947728    2.890    0.654
        98 -10.2805    105.8787     71.4567   1.0241658793e+02   4.8139068753e+01    0.2435782    0.2051167 -36.82 0.0004652035    1.172    0.147
        99 -10.5606     47.6156     69.1188   1.2172716205e+02   5.7862187071e+01    0.4613107    0.2104018  14.23   0.00167149    3.560    0.719
       100 -11.0289     10.5032     68.8314   1.3560105434e+02   6.0984727348e+01    0.2480423    0.1653982 -60.91  0.001597475    1.174    0.148
       101  -9.4418    114.7599     66.7627   9.8224912499e+01   4.7155197652e+01    0.2421047    0.1798942 -81.69  0.001051534    2.144    0.534
       102 -11.3175     34.2872     65.0211   1.2569527704e+02   6.0079620914e+01    0.2735488    0.2025633 -41.78 0.0004583216    1.155    0.134
       103 -11.1355     39.2528     62.8527   1.2318583499e+02   6.0067993437e+01    0.5131168    0.2378213 -33.87  0.002126242    2.431    0.589
       104 -10.6910     40.7098     59.3302   1.2161039303e+02   6.0655547281e+01    0.2544178    0.1858352 -28.19 0.0006080731    1.309    0.236
       105 -11.4369     17.0348     64.2375   1.3218208354e+02   6.1581383240e+01    0.2830542    0.2609086 -27.64  0.002097141    1.197    0.165
       106  -9.2555      1.6624     66.3023   1.3841255682e+02   6.1970733692e+01    0.1076596   0.07925802  72.95 0.0007037483    1.667    0.400
       107 -10.7944    130.3623     63.6064   9.2848178090e+01   4.4165967944e+01    0.6590743    0.3921882  72.77  0.002404921    2.781    0.640
       108 -10.5257     72.4732     63.0074   1.1072217638e+02   5.5822315136e+01    0.3160892    0.2004205 -67.46  0.001381082    2.517    0.603
       109 -11.5288      2.2810     59.6755   1.3695978401e+02   6.3353884416e+01    0.3594276    0.2101829  62.77  0.002010969    2.592    0.614
       110  -9.7010    100.8322     61.8029   1.0075209511e+02   5.0990783615e+01    0.1963647    0.1758153 -66.95 0.0006493114    1.357    0.263
       111 -10.3726     62.8284     61.9248   1.1389426059e+02   5.7457578417e+01    0.2125225    0.1646605 -24.61 0.0006880125    1.251    0.201
       112 -10.4187     60.5582     57.9714   1.1346178586e+02   5.8560943726e+01    0.2308125    0.2143667  -4.15 0.0005918281    1.109    0.098
       113 -11.7681     17.6065     45.2886   1.2718410891e+02   6.5477682775e+01     1.601046    0.6553031 -12.08  0.006000233    4.987    0.799
       114 -12.9862     20.6486     57.6494   1.2920445996e+02   6.2733608475e+01    0.3873255    0.3372105  45.10 0.0007231202    1.466    0.318
       115 -10.7358     20.2845     51.4431   1.2774136062e+02   6.4045219236e+01     0.362067    0.1640335 -42.54 0.0009394402    1.825    0.452
       116 -10.8569     54.6613     58.3053   1.1582965553e+02   5.9270225083e+01    0.4111791    0.2888202  51.92  0.002215971    1.947    0.486
       117  -9.6723     54.2771     55.3050   1.1500310389e+02   5.9916775529e+01    0.1618764    0.1501922 -68.30 0.0001744739    1.331    0.249
       118  -9.8226    178.9744     56.0318   7.9638353121e+01   3.3014275928e+01    0.1793097    0.1712575  67.12 0.0009591519    1.006    0.006
       119  -9.7842     71.4302     57.6929   1.0931788258e+02   5.7025909025e+01    0.1794674    0.1196225 -33.60 0.0003050784    1.419    0.295
       120  -9.5811    158.1719     57.0602   8.4079083124e+01   3.8304812435e+01    0.2536276    0.1686639 -57.91  0.001073467    1.874    0.466
       121 -11.8296     86.8505     54.3540   1.0269774541e+02   5.5038388782e+01     0.565032    0.3731244  21.48  0.002713936    1.747    0.427
       122 -10.3493     99.9279     56.0850   9.9033533445e+01   5.2207462724e+01    0.2155065    0.1973938  -5.05 0.0004653064    1.030    0.029
       123 -11.0242      7.6463     55.6630   1.3400273711e+02   6.3941009607e+01    0.2006942    0.1734761 -66.50 0.0007650974    1.186    0.157
       124 -11.0610    115.0814     53.8988   9.3699301323e+01   4.9349601252e+01    0.3528205    0.2798203  38.25   0.00129134    1.215    0.177
       125 -10.2585    106.4103     53.5767   9.6132467176e+01   5.1297892230e+01    0.3504418    0.2551847 -73.89   0.00155277    2.285    0.562
       126  -9.4712    162.4704     54.4933   8.2363983336e+01   3.7581214517e+01    0.1540008    0.1460454  47.73 0.0008098299    1.019    0.019
       127  -8.8923     76.6964     54.7230   1.0637668262e+02   5.6742753750e+01     0.137522    0.1010797  -4.78  0.000241842    1.545    0.353
       128 -11.9824     66.0920     52.4909   1.0948892147e+02   5.8831575178e+01    0.6164665    0.2522364  34.64  0.002419798    2.617    0.618
       129  -9.9480     34.6139     53.1996   1.2225970528e+02   6.2508099866e+01    0.2525167    0.1411399 -33.71 0.0009348239    1.712    0.416
       130  -9.8965    169.7956     52.8675   8.0398846821e+01   3.5902657793e+01    0.2167241    0.1983617  35.83 0.0002974579    1.114    0.102
       131  -9.2555    176.1943     52.3590   7.9039504437e+01   3.4289960721e+01    0.2082571    0.1414011  72.37 0.0003532377    1.565    0.361
       132 -10.0726     46.3254     49.7437   1.1633267651e+02   6.1970974521e+01     0.456019    0.1293121 -38.93  0.001535651    3.897    0.743
       133  -9.1988     59.6546     49.2895   1.1082682541e+02   6.0361397978e+01    0.1202019    0.1065134  81.09 0.0002003145    1.656    0.396
       134  -9.8022     38.1665     49.0432   1.1948506506e+02   6.2992539074e+01    0.1956777    0.1387772 -29.31 0.0008937446    1.273    0.215
       135  -9.0336    211.7218     48.7279   7.2307383443e+01   2.5539696835e+01    0.1380675    0.1098693  31.82 0.0001924946    1.491    0.329
       136 -10.1306    106.3286     47.4058   9.3900132441e+01   5.2338878228e+01    0.3534778    0.1420533  54.31  0.001203684    2.853    0.650
       137 -10.5718     77.9973     46.0617   1.0272413959e+02   5.8082378958e+01    0.3355683    0.2199264  32.03 0.0009177516    1.548    0.354
       138 -10.6831     68.0042     46.7465   1.0667496277e+02   5.9600030848e+01    0.3604211    0.1947075  38.23  0.001402577    1.946    0.486
       139  -9.9579     31.4736     46.7751   1.2160061182e+02   6.4082790796e+01    0.2697605    0.1722822 -59.37  0.001181831    1.596    0.373
       140 -10.9419     25.6341     43.5113   1.2311287037e+02   6.5228732176e+01    0.2760622    0.2433705 -79.99  0.001514315    1.499    0.333
       141 -11.0744     19.8090     31.6614   1.2184810453e+02   6.7953179136e+01    0.5395336    0.2555753  -6.75   0.00250194    3.139    0.681
       142 -10.2764     22.6713     38.9333   1.2297379440e+02   6.6355794488e+01    0.2219295    0.1955892 -79.26  0.001208268    1.530    0.347
       143 -11.1586     26.6287     35.0519   1.1983166755e+02   6.6763188968e+01    0.4029296    0.1846432 -41.95   0.00162197    1.756    0.430
       144  -9.3812     91.4226     44.5392   9.7508485556e+01   5.5867910141e+01    0.1408204    0.1267499   0.93 0.0001092845    1.010    0.010
       145  -9.5098    195.2361     42.5768   7.2984071304e+01   3.0630629863e+01    0.2022618    0.1299645  54.67 0.0004413105    1.501    0.334
       146 -11.0167    139.7099     40.5269   8.2630717723e+01   4.5484563866e+01    0.3520285    0.2327597 -37.79   0.00101031    1.606    0.377
       147 -10.2636     70.4003     41.1833   1.0363579793e+02   6.0193347220e+01    0.3200427    0.1920816 -27.84  0.001173759    1.645    0.392
       148 -10.4672      2.8735     41.6566   1.3273907007e+02   6.7042516808e+01    0.3543135    0.1521187 -26.00  0.001838893    2.579    0.612
       149 -10.0026    182.4763     40.9632   7.4509331501e+01   3.4213284904e+01    0.2929069    0.2072934  87.59  0.001362633    1.587    0.370
       150 -10.3097     36.0283     40.7168   1.1759270536e+02   6.4815460284e+01    0.3018961    0.1632062 -36.33  0.001624126    1.612    0.380
       151  -9.0962     43.2660     40.6951   1.1443802375e+02   6.4039446680e+01    0.1089329   0.09796371 -70.54 0.0002203689    1.528    0.346
       152 -10.5092     13.0459     38.4532   1.2723790582e+02   6.7127426722e+01    0.3125026    0.1310068 -56.35  0.001635869    1.906    0.475
       153 -11.9285    121.4079     36.5108   8.5612170792e+01   5.0540293914e+01    0.5121017    0.4497975  81.01  0.002786589    1.356    0.262
       154 -10.1479     70.1729     35.1406   1.0129155672e+02   6.1229954528e+01     0.359645    0.1575127 -28.67  0.001479629    2.519    0.603
       155 -11.5637     50.2934     33.7778   1.0875196040e+02   6.4409299292e+01     0.259537    0.2101166 -10.78 0.0003389713    1.081    0.075
       156  -9.3966     54.6834     34.6374   1.0724991146e+02   6.3671019439e+01    0.1894804    0.1057619   8.92 0.0008406825    2.593    0.614
       157 -11.0265      1.6632     35.9344   1.3180163965e+02   6.8232048633e+01    0.2393107    0.1444896 -46.28  0.001301436    1.227    0.185
       158 -11.4671    145.0256     32.9137   7.8821606744e+01   4.5134680168e+01    0.2584841    0.2421066  69.50  0.001443054    1.088    0.081
       159 -10.2100    141.2332     30.0024   7.8598325519e+01   4.6472284182e+01    0.2846546    0.2265492 -15.06 0.0009582764    1.371    0.271
       160 -11.2690     33.3229    247.5434   1.4762470993e+02   2.1583421574e+01    0.2364192    0.1426596  29.57  0.001412658    2.333    0.571
       161  -9.8622    166.6015     31.6435   7.4297514981e+01   3.9624991044e+01      0.34992    0.1248323 -33.09  0.001243523    2.777    0.640
       162  -9.1980     33.8836     32.8836   1.1568182172e+02   6.6475525885e+01    0.2177037    0.1526185  76.66 0.0009663757    4.194    0.762
       163 -11.2344     43.4930     30.1936   1.1025566597e+02   6.5877089839e+01     0.357509     0.264971   2.01  0.000973443    1.315    0.240
       164 -10.5621     43.5179     26.5059   1.0869563951e+02   6.6489906094e+01    0.4290423    0.1886279  35.24  0.002096401    2.448    0.592
       165  -9.6278    187.5002     29.9870   7.0482026780e+01   3.4266380454e+01     0.214938    0.1447673 -28.62  0.001031817    1.586    0.370
       166 -10.1623    130.8271     37.8575   8.3759421168e+01   4.8072225021e+01    0.2676015    0.2057014  50.85  0.001052893    1.212    0.175
       167 -10.3073    150.5172     29.4101   7.6511638498e+01   4.4141261941e+01     0.380954    0.1459269  67.44  0.001276333    2.891    0.654
       168  -9.8036    104.3101     29.3705   8.7505633716e+01   5.5429546423e+01    0.2399193    0.1536464  23.08  0.001126083    1.738    0.425
       169 -10.0209     69.6596     28.1760   9.8543581511e+01   6.2393816400e+01    0.2296678    0.1915916 -45.43  0.001154984    1.497    0.332
       170  -9.9692      7.3390     28.1920   1.2676294667e+02   6.9431823102e+01    0.1918224    0.1425109  19.40  0.000901344    1.618    0.382
       171  -9.2385    229.6416    247.7234   1.1273633934e+02  -7.5267910901e+00    0.1213228   0.06845862  18.86 0.0007008103    1.657    0.397
       172 -10.2392    200.9760     25.9840   6.7521392771e+01   3.1197933854e+01    0.2091803    0.1915705 -87.97            0    1.010    0.010
       173  -9.9827    153.4201     25.7943   7.4736322788e+01   4.3807116155e+01    0.2579747     0.186899  74.51 0.0007544717    1.404    0.288
       174 -10.3517    114.0012     25.0850   8.3139503317e+01   5.3767951307e+01    0.2703747    0.2043766  -8.89  0.001088146    1.401    0.286
       175  -9.5381    218.1763     25.1482   6.5273515048e+01   2.6894358127e+01    0.2040045    0.1477026 -66.65 0.0007820143    1.365    0.268
       176 -10.1590     59.0300     24.4292   1.0109139987e+02   6.4667091427e+01    0.2460638    0.1566918 -17.73 0.0009859594    1.543    0.352
       177 -10.0843     51.7263     23.0325   1.0353933562e+02   6.5953301730e+01    0.3191188    0.1834919 -22.98  0.001693719    1.696    0.411
       178  -9.6362     89.3928     22.8121   8.9300228336e+01   5.9446867473e+01    0.2726702    0.1303181 -27.33  0.001005618    2.124    0.529
       179 -10.1201     85.0898     21.1720   8.9983348690e+01   6.0519436465e+01    0.4791559    0.1370839  38.25  0.001511668    4.119    0.757
       180 -11.1639     13.3265     20.5417   1.2097247658e+02   7.0442808533e+01    0.2918753    0.2653088  29.86   0.00122328    1.537    0.349
       181  -9.6718    217.4296    245.0000   1.1444841638e+02  -5.3792912195e+00    0.2616908   0.05268951  40.91 0.0009285699    3.885    0.743
       182 -10.5916     30.9269     19.8102   1.1171225657e+02   6.9020871229e+01    0.2432645    0.1812031 -47.93  0.001339284    1.551    0.355
       183 -10.8296     37.0648    241.2591   1.4667016653e+02   2.2223927769e+01    0.2621403   0.09202461  56.26  0.001437441    2.183    0.542
       184  -9.7963    175.7968     20.1960   6.9251998299e+01   3.8495477047e+01    0.1992038    0.1565316  42.85 0.0004122402    1.316    0.240
       185 -11.0618    134.4010     33.9734   8.1518058798e+01   4.7702354189e+01    0.2555415    0.1850736  44.21 0.0003842072    1.283    0.220
       186  -9.6719    202.4921    240.0889   1.1637941681e+02  -2.4434831112e+00    0.1495705    0.1170476 -24.21  0.000698139    1.525    0.344
       187  -9.2884     60.4751    241.0000   1.4264622509e+02   1.9440942168e+01    0.2337845   0.05052216  38.62 0.0009267633    3.871    0.742
       188  -9.6463    148.2850     18.6459   7.3241964537e+01   4.5940527082e+01    0.2069276     0.117129  55.66 0.0006340508    1.542    0.351
       189  -9.9538    199.8644     17.1515   6.5218734944e+01   3.2475598219e+01    0.2163401    0.1727511 -67.59 0.0005307537    1.230    0.187
       190 -10.6286    107.3348     16.5740   8.1442018202e+01   5.6288912281e+01     0.401062    0.2099243  66.62  0.001523967    2.339    0.572
       191 -11.7656     15.3618    239.3000   1.5013408898e+02   2.4893271654e+01    0.2869114   0.07529771  58.79  0.001428467    2.954    0.661
       192 -12.3737     26.2648    235.8422   1.4818413418e+02   2.4355156516e+01    0.3090391    0.2410754 -89.44  0.001800327    1.325    0.245
       193  -9.0769    210.6395    235.7180   1.1424565110e+02  -3.2233088819e+00     0.127143   0.07641134  19.14 0.0003599641    1.674    0.403
       194 -10.6471     20.0787     16.8293   1.1591250418e+02   7.0547662316e+01    0.1982692    0.1438422   9.07 0.0004056221    1.396    0.284
       195  -8.8788    155.5592    235.5069   1.2446415552e+02   5.9611041704e+00    0.1253979   0.09856771  42.06 2.297323e-05    1.008    0.008
       196  -9.8658    249.2860    234.1372   1.0724559919e+02  -8.9831893849e+00    0.1973006    0.1192427  25.14 0.0005771599    1.292    0.226
       197  -8.9495     80.2961    231.6475   1.3832724790e+02   1.8409727590e+01    0.1239814   0.06985745  66.44 0.0007033803    1.687    0.407
       198  -9.7418    140.0552    227.0263   1.2634392803e+02   9.8821660396e+00    0.2012164    0.1322939  63.65 0.0006429496    1.710    0.415
       199  -9.9648    240.2532     15.0037   6.0642949034e+01   2.2679756036e+01    0.1635055    0.1052073 -33.36 0.0008788583    1.541    0.351
       200  -9.0305     64.3253     15.3257   9.4758863137e+01   6.5081755940e+01    0.1356607   0.08608753   9.26 0.0007049169    1.693    0.409
       201  -8.7066      1.2808     15.3023   1.2543463527e+02   7.2108552748e+01    0.1146281   0.05850767 -33.59 0.0002498851    1.549    0.354
       202 -10.2694    190.4812     14.0253   6.5464528640e+01   3.5257952232e+01    0.1985127    0.1402221 -26.53  0.000955063    1.559    0.358
       203 -10.5056    156.1498     14.1076   7.0345699912e+01   4.4340382106e+01    0.3130514    0.1711067  52.54   0.00119343    1.624    0.384
       204  -9.8868    144.2355     14.4063   7.2505270591e+01   4.7427275105e+01    0.1938704    0.1300321  74.72 0.0004295352    1.517    0.341
       205  -9.5459    214.0184     25.9925   6.5959245035e+01   2.7844476723e+01    0.1683518    0.1530222 -78.67   0.00038807    1.014    0.014
       206 -10.0406     32.8321    225.1911   1.4646963529e+02   2.5538107302e+01    0.2456289   0.09818164  48.95  0.001419475    1.897    0.473
       207 -10.0008     25.5357    224.9957   1.4773319852e+02   2.6362714831e+01    0.1514526   0.08589163 -84.89 0.0007141545    1.569    0.363
       208 -11.4249      7.7092    217.6220   1.5043307580e+02   2.9485444906e+01    0.2733547    0.1745972  79.94  0.001554758    1.173    0.148
       209 -10.7867      1.7023    248.7406   1.5262523221e+02   2.4648191511e+01    0.3262745    0.1328563 -86.98  0.002164209    2.128    0.530
       210  -9.4263    246.6517    216.6729   1.0473304058e+02  -6.6612706137e+00    0.1305788   0.07598059  12.17 0.0007049375    1.755    0.430
       211  -9.8345    209.4717    212.0021   1.1059567580e+02   3.2567846690e-02     0.173304    0.1237604 -27.49  0.001020277    1.560    0.359
       212 -10.6485     15.8936    211.8771   1.4872053070e+02   2.9771640464e+01    0.1524146    0.1254176  80.28   0.00072505    1.228    0.186
       213  -9.7527    246.8427    206.9263   1.0296364958e+02  -5.5375305130e+00    0.1934128    0.1369968   5.08   0.00101986    1.255    0.203
       214 -13.1586      7.2298    244.0661   1.5161262958e+02   2.4892398367e+01    0.9737498     0.359724  57.75  0.006199445    1.884    0.469
       215  -9.6237    197.2627    203.9892   1.1153501305e+02   3.3412767348e+00    0.1511912    0.1149804 -31.60 0.0005428228    1.489    0.328
       216 -11.0410      9.4235    203.2079   1.4942978719e+02   3.2034478287e+01    0.2229811    0.1392096  76.21  0.000775095    1.208    0.172
       217  -9.0861    181.5191    199.4939   1.1386540476e+02   6.9348361846e+00    0.1369469    0.1167885  35.68 2.457914e-06    1.040    0.039
       218  -9.5393     23.4873    197.5011   1.4646731779e+02   3.1800588760e+01    0.1127425   0.08419986  75.26 -0.000108253    1.002    0.002
       219  -9.2971      6.5196    191.5020   1.4934735397e+02   3.4578741284e+01      0.11101   0.07782685  75.12 8.307891e-05    1.056    0.053
       220 -10.1069     15.4069    185.5588   1.4727382448e+02   3.4979171673e+01    0.2057025   0.08746606 -85.66  0.001105097    2.066    0.516
       221  -9.4468      1.3156    183.2407   1.4989692798e+02   3.6663389281e+01    0.1477871   0.07490143  88.29 0.0004931116    1.576    0.365
       222  -9.1180    250.3141    183.3364   9.7910011947e+01  -3.1228616472e+00     0.135936    0.0857054   7.73 0.0007046708    1.692    0.409
       223 -10.6242      4.7016    167.4485   1.4829257730e+02   3.9634131711e+01    0.2716635    0.1399268  60.72  0.001663072    1.723    0.420
       224  -9.2466     41.6394    158.2357   1.3924309545e+02   3.8206175142e+01    0.1704385   0.09808181 -65.82 0.0009403756    1.571    0.363
       225  -9.1833    247.4751    155.5334   9.2694007661e+01   1.2218368194e+00    0.1353066    0.1165443   0.28   7.9157e-05    1.001    0.001
       226 -10.4764      8.9706    148.7218   1.4601339160e+02   4.3309669356e+01    0.1542984    0.1257524  86.40 0.0004462104    1.068    0.064
       227 -10.2947     22.0362    143.2308   1.4240585790e+02   4.3469785072e+01    0.2187189    0.1450216 -79.91  0.001116037    1.240    0.194
       228 -10.7773     12.9524    130.7873   1.4343982645e+02   4.6981415577e+01    0.3650882    0.1712785  63.57  0.001320885    2.422    0.587
       229  -9.8081     29.1914    129.0064   1.3898126389e+02   4.6066842627e+01    0.2507176    0.1459253  87.19  0.001160279    1.762    0.432
       230  -9.5978     21.1933    126.1582   1.4078161928e+02   4.7394792183e+01    0.1690556    0.1311049 -79.32 0.0004277183    1.049    0.047
       231 -11.0323     24.1512    122.2809   1.3951109992e+02   4.8038644904e+01    0.2397481    0.1813747  88.96 0.0003477941    1.195    0.163
       232 -10.7268     22.0000    117.9927   1.3956724986e+02   4.9191817258e+01    0.2831798    0.1493713 -76.52  0.001240499    1.636    0.389
