#   1 NUMBER                 Running object number                                     
#   2 MAG_AUTO               Kron-like elliptical aperture magnitude                    [mag]
#   3 X_IMAGE                Object position along x                                    [pixel]
#   4 Y_IMAGE                Object position along y                                    [pixel]
#   5 X_WORLD                Barycenter position along world x axis                     [deg]
#   6 Y_WORLD                Barycenter position along world y axis                     [deg]
#   7 A_WORLD                Profile RMS along major axis (world units)                 [deg]
#   8 B_WORLD                Profile RMS along minor axis (world units)                 [deg]
#   9 THETA_WORLD            Position angle (CCW/world-x)                               [deg]
#  10 FWHM_WORLD             FWHM assuming a gaussian core                              [deg]
#  11 ELONGATION             A_IMAGE/B_IMAGE                                           
#  12 ELLIPTICITY            1 - B_IMAGE/A_IMAGE                                       
         1 -15.8876    128.1863    136.2104   9.1012513636e+01   2.9078687222e+01     3.102358     1.354782 -56.58   0.01078447    2.638    0.621
         2 -19.3472    169.3104    151.4559   8.4584140365e+01   1.7258420303e+01     6.974463      6.26021  52.21   0.03718488    1.144    0.126
         3 -12.7912    248.1893     11.2028   3.7204809246e+01   2.2339715089e+01     0.549696    0.4061271 -23.45  0.002995503    1.614    0.381
         4 -12.8870    243.7906      6.8532   3.6580697478e+01   2.3788932408e+01    0.4256285    0.3517603 -37.98  0.002800645    1.291    0.226
         5 -12.2325    227.7115     12.0405   3.9061101059e+01   2.6868137154e+01    0.3941357    0.2417893  -3.74  0.001845384    2.774    0.640
         6 -12.6504    210.0729      7.9103   3.9667650297e+01   3.1510874164e+01    0.3836922    0.2617067  28.89  0.001981935    2.128    0.530
         7 -13.4725    194.2208      7.5792   4.1189839874e+01   3.5447018503e+01    0.5719227    0.5018374  45.80  0.003045277    1.289    0.224
         8 -12.8791    179.1041      6.5961   4.2638884679e+01   3.9344246741e+01    0.3932348    0.3141402 -81.48   0.00184807    1.208    0.172
         9 -12.8067    183.4272      2.9575   4.1103580362e+01   3.8598698395e+01    0.6996863    0.2873002  89.83  0.002499872    3.355    0.702
        10 -13.3715    171.1913      6.8299   4.3695332864e+01   4.1327990331e+01    0.5636234    0.3613836  36.26  0.001450511    1.831    0.454
        11 -12.3028    165.2756      8.1955   4.4899392526e+01   4.2701331201e+01    0.3028853    0.2228625 -18.08  0.000882529    1.562    0.360
        12 -13.4006    160.2368      3.4498   4.4121067797e+01   4.4415963791e+01    0.5392148    0.4962887 -86.39  0.003368339    1.087    0.080
        13 -10.2581     26.7964      6.8453   8.4242588443e+01   7.1167146353e+01    0.1409736     0.121437 -12.49 0.0003599436    1.293    0.227
        14 -13.1130    220.9244      4.3294   3.7811918848e+01   2.9286338956e+01     0.558746    0.3836213  75.34  0.003237169    1.349    0.259
        15 -11.5844    238.2545      2.4919   3.6023869983e+01   2.5489107049e+01     0.265424    0.2183397  -2.49   0.00167045    1.721    0.419
        16 -12.6083    238.4818     13.7129   3.8531321010e+01   2.4209948225e+01    0.4663021    0.3642744  82.64  0.002408962    1.223    0.183
        17 -12.2800    203.3271      3.6744   3.9235509914e+01   3.3585651135e+01    0.2878249     0.217442 -86.64  0.001385589    1.193    0.162
        18 -11.8287    205.7914      1.3789   3.8418771591e+01   3.3209400319e+01     0.427413    0.1442954  65.21  0.001173429    2.533    0.605
        19 -11.1471    100.7098      2.5224   5.4715077276e+01   5.8875672264e+01    0.2637289    0.2037652 -74.96  0.001473527    1.862    0.463
        20 -12.4426     99.9705    169.4821   1.0449995785e+02   2.6562523587e+01    0.4783664    0.3331465 -58.72   0.00146855    1.439    0.305
        21 -12.7934    244.7496    237.8767   8.6291183503e+01  -9.7637029097e+00    0.3187603    0.2465018   6.83 0.0009081481    1.066    0.062
        22 -13.1773    235.9907    250.0901   8.9731399791e+01  -9.9258823547e+00    0.7408775    0.2474467  35.92  0.003593335    2.448    0.592
        23 -10.8808    220.7327    250.4469   9.2428960075e+01  -7.8211854475e+00    0.1652879   0.08645473  27.73 0.0009437865    1.593    0.372
        24 -13.5983    191.0316    248.8657   9.7511990994e+01  -3.2039939291e+00    0.4432434    0.2225244  33.37   0.00168066    1.635    0.389
        25 -10.3434    183.3037    248.5504   9.8881215087e+01  -1.9699198255e+00    0.2348004   0.09499928  36.40  0.001133219    2.014    0.504
        26 -11.4629    135.3937    250.6176   1.0801132076e+02   5.2099963667e+00    0.2402834   0.08947884  42.65  0.001134187    2.086    0.521
        27 -12.7648    233.6892    226.9950   8.6398619192e+01  -6.8791908943e+00       0.3259    0.2107445  12.08 0.0008623399    1.445    0.308
        28 -13.5477    173.7236    228.6273   9.7815135173e+01   2.4286657681e+00    0.4014665    0.3550537 -39.63 0.0006252249    1.354    0.261
        29 -12.0485    164.5379    230.7843   9.9912972250e+01   3.6166703581e+00    0.2471339    0.2109948  57.61 0.0008125728    1.285    0.222
        30 -11.8099    142.6806    230.4682   1.0413975819e+02   7.2724871723e+00    0.3611633    0.2465387  69.41   0.00059363    1.885    0.469
        31 -10.3819     96.4843    231.0372   1.1323618129e+02   1.4431146553e+01    0.1863264    0.1347098  49.18 -4.312101e-05    1.150    0.130
        32 -10.6543    160.0228    230.0214   1.0068261378e+02   4.4843074666e+00    0.1872559    0.1581196  37.27   0.00042158    1.017    0.017
        33 -13.8947    242.6278    222.7794   8.4114412491e+01  -7.6668145055e+00    0.3917118    0.2669773  17.67  0.001056989    1.232    0.188
        34 -11.1824    198.4763    226.3571   9.2726445200e+01  -1.3073710952e+00    0.4286046    0.1245053  36.03  0.001598412    3.191    0.687
        35 -12.5406    211.1515    223.8716   8.9949744685e+01  -2.9985282180e+00    0.2653918    0.2116211  20.70 0.0004842573    1.025    0.024
        36 -11.9656    184.0140    221.1319   9.4657070035e+01   1.8595080034e+00     0.474597    0.2564262  47.70  0.001779467    1.850    0.460
        37 -12.7144    143.5461    219.6758   1.0248680934e+02   8.9706760426e+00    0.8262942    0.5948718   3.57  0.003719762    2.117    0.528
        38 -11.4586    129.0378    222.5278   1.0580512583e+02   1.0880890110e+01    0.5018612    0.2900419  29.14  0.002507358    1.962    0.490
        39 -12.3023    135.5880    218.6920   1.0396376136e+02   1.0482432269e+01     0.545909    0.3207547 -44.57  0.001514826    2.071    0.517
        40 -12.1325    138.6116    214.4862   1.0275347046e+02   1.0730485022e+01    0.4774762    0.2867443 -58.70  0.001287636    1.984    0.496
        41 -13.2275    123.7071    215.1241   1.0591136971e+02   1.3110248226e+01    0.9543089    0.6845388 -41.27  0.004935863    1.769    0.435
        42 -12.8918    128.4955    211.2540   1.0439000262e+02   1.3038486709e+01    0.4610964    0.3554111 -41.17 0.0005412405    1.587    0.370
        43 -10.8670    198.3873    221.2128   9.1905360112e+01  -5.4985409241e-01    0.4183509    0.1736012  25.94  0.001557261    3.447    0.710
        44 -10.7327     74.0469    218.9908   1.1640877962e+02   1.9922672097e+01    0.1864403    0.1455308  66.12 0.0004374904    1.037    0.035
        45 -14.7118    236.4870    143.8220   6.9542474612e+01   4.9651422986e+00     1.830204    0.8190334  56.41  0.006900799    3.286    0.696
        46 -15.7636    181.4603     99.4369   6.9052711391e+01   2.4978963460e+01     3.056627     1.682308  29.74    0.0107346    2.781    0.640
        47  -9.9440    125.2795    249.6563   1.0977551270e+02   6.9127462196e+00    0.1183067   0.07821844  65.08 0.0003453657    1.631    0.387
        48 -15.8362    139.3539    111.8693   8.2182914796e+01   3.2199892469e+01     2.755838     1.415701 -40.77   0.01055502    1.968    0.492
        49 -15.9547    161.8782    109.6345   7.6098133649e+01   2.7576902192e+01     2.309198     1.151927  48.71  0.008626964    2.031    0.508
        50 -16.0297    144.6754    189.2801   9.7514453426e+01   1.4442948763e+01     2.724088     1.374324  39.82   0.01197906    1.836    0.455
        51 -15.8522    215.1097    125.1436   6.9030817705e+01   1.2515255936e+01     1.904688     1.615839  64.81   0.01009979    1.379    0.275
        52 -15.6282    200.5180    146.7447   7.6899500722e+01   1.1636241662e+01     1.471934     1.026776 -72.94  0.004234578    2.475    0.596
        53 -11.0653      1.4368    247.0575   1.3095447520e+02   2.3077495584e+01    0.1422608   0.07531342 -88.04 0.0005464252    1.574    0.365
        54 -11.7489     93.8346    172.1845   1.0639169729e+02   2.6941482731e+01    0.2995482    0.2477673  27.54  0.000927108    1.421    0.296
        55 -11.3473     94.5851    168.2190   1.0559605745e+02   2.7725852916e+01    0.3033523    0.2115276 -41.71  0.001314098    1.742    0.426
        56 -10.0923      3.0711    168.6631   1.2676766143e+02   3.8411657526e+01    0.1557776    0.1225724  81.16 0.0007285418    1.082    0.075
        57 -10.0906     23.2177    167.4137   1.2229989272e+02   3.6965464760e+01    0.1539218   0.09748313  51.86  0.000317774    1.521    0.343
        58 -10.1839    229.5438    209.9256   8.4159744144e+01  -3.9981849802e+00    0.1684437    0.1149361 -27.42 0.0003924403    1.471    0.320
        59 -11.3236     91.0279    165.1608   1.0597684551e+02   2.8995310043e+01    0.2536337    0.1876616 -71.21 0.0003075483    1.322    0.244
        60 -11.1204     91.8736    161.1870   1.0512891082e+02   2.9783972888e+01     0.278939    0.2211322  -1.61  0.001305846    1.878    0.467
        61 -10.3420     88.0001    161.4224   1.0612709073e+02   3.0338155892e+01    0.2114853    0.1738431  72.65 2.782149e-05    1.182    0.154
        62 -10.1123     65.4988    165.8943   1.1228660359e+02   3.2538363292e+01     0.201314    0.1197017 -68.55  0.001020743    1.554    0.356
        63 -12.5066    216.6528    215.2634   8.7464251500e+01  -2.6804789311e+00    0.5022391    0.3238079   7.09   0.00199177    1.732    0.423
        64 -10.6130      2.9464    209.5055   1.2911383130e+02   2.9897061349e+01    0.1401148   0.09182443  45.61 0.0004116438    1.508    0.337
        65 -10.3661     12.9268    216.8019   1.2771780045e+02   2.7534655758e+01    0.1505864    0.1234719  86.60 0.0005973293    1.255    0.203
        66 -11.8675    218.3151    203.3447   8.5024957099e+01  -1.2324080232e+00    0.3367891     0.226819 -27.58 0.0002439221    1.508    0.337
        67 -13.0801     58.0442    205.2652   1.1831223007e+02   2.4815896510e+01    0.3202538    0.1994544  51.35 0.0008404316    1.394    0.283
        68 -10.9907    250.6917    151.4082   6.8815704714e+01   1.1504148415e+00     0.197212     0.109556 -31.58 0.0002551083    1.610    0.379
        69 -11.1794     89.1888    151.5596   1.0418347181e+02   3.2474893319e+01    0.2503772    0.1911382 -65.74 0.0005351164    1.249    0.199
        70 -10.1714     81.7897    151.2639   1.0603792337e+02   3.3686227000e+01     0.188356    0.1539793 -45.01 0.0006093601    1.363    0.266
        71 -10.9703     11.2967    204.3572   1.2733236606e+02   3.0160699782e+01    0.1742962     0.139544 -85.79 0.0005207816    1.254    0.203
        72 -11.8297     92.4746    145.8061   1.0229995760e+02   3.3317005951e+01    0.5439389    0.2167544  48.61  0.001338929    2.762    0.638
        73 -11.5225     90.9872    141.0003   1.0179345439e+02   3.4706908469e+01    0.3375729    0.2677025 -19.53 0.0009554187    1.707    0.414
        74 -10.8769     73.9446    144.6022   1.0697354739e+02   3.6431042012e+01    0.2150206    0.1812057 -59.50 0.0004562626    1.160    0.138
        75 -12.7780     84.7456    139.0228   1.0309709525e+02   3.6170980066e+01    0.4534383     0.360602  14.88 0.0006589242    1.622    0.384
        76  -9.8119     89.2871    133.6465   1.0082177610e+02   3.6748048643e+01    0.2875184    0.2021704 -78.06 0.0009198419    1.584    0.369
        77 -11.8016     95.9824    189.4764   1.0839345693e+02   2.2775655749e+01    0.4326941    0.2959161  33.22  0.001885419    1.589    0.371
        78 -13.0056     99.6196    195.9898   1.0846810935e+02   2.0818686039e+01    0.4046366    0.3414914  38.46  0.001453811    1.254    0.203
        79 -12.1717     64.8670    130.9402   1.0709570572e+02   4.0985037137e+01       0.3292    0.2832752   0.93  0.000894736    1.494    0.331
        80 -12.9962     77.5036    126.9156   1.0277536839e+02   4.0196350516e+01    0.3760002    0.3160005 -59.51 0.0004927244    1.101    0.091
        81 -12.8939     80.1996    123.6195   1.0133899897e+02   4.0590568542e+01    0.3165209    0.2845005 -84.17 0.0006469921    1.096    0.087
        82  -9.9917     92.1488    196.1648   1.1012178823e+02   2.1944572095e+01    0.1835793    0.1366029  77.34  0.001042744    1.330    0.248
        83 -10.0400     44.4203    125.4922   1.1195089455e+02   4.4743577234e+01    0.1336727    0.1119443 -70.94   0.00012227    1.022    0.022
        84 -10.3354     47.7164    123.0988   1.1062186765e+02   4.4965959575e+01    0.1875285    0.1464682 -65.45 0.0002127074    1.102    0.092
        85 -10.9133    235.3243    118.0832   6.3850238345e+01   9.5102382965e+00    0.2432114    0.2149749 -62.54 0.0006658973    1.290    0.225
        86 -12.0268    104.3175    115.7819   9.2664151422e+01   3.8416723064e+01    0.4028815    0.3285251 -76.25  0.001035131    1.361    0.265
        87 -10.4545    102.4510    109.8964   9.1745881230e+01   4.0132695865e+01    0.2148506    0.1808689 -52.21 0.0004054855    1.134    0.118
        88 -15.7039    175.4270    127.7582   7.7679267489e+01   2.0771133119e+01     1.428952    0.6760828  44.67   0.00536466    2.133    0.531
        89  -9.6985    238.2960    114.2689   6.2476947657e+01   9.5430400478e+00    0.1361382    0.1065547   5.79 0.0002428544    1.517    0.341
        90 -11.1828     73.4633    111.0389   1.0063901694e+02   4.4619008807e+01    0.2594256     0.232255 -39.81 0.0005598789    1.140    0.122
        91 -10.9279    239.8042    193.9466   7.9353806702e+01  -3.3951137525e+00    0.4690434    0.1687823 -30.34 0.0007342836    2.911    0.657
        92 -11.5827      3.4785    110.1433   1.2153556465e+02   5.1720420110e+01    0.2869081   0.07192054 -66.37 0.0007395331    2.635    0.621
        93 -11.5867     87.8084    108.3291   9.5675828305e+01   4.3048029555e+01    0.2779194     0.215979 -37.27 0.0001811599    1.325    0.245
        94 -12.1756    126.9640    102.9557   8.3036114734e+01   3.6831971956e+01    0.6572583     0.294527 -49.16  0.002009699    2.276    0.561
        95 -10.9408     73.3861    105.8780   9.9494879287e+01   4.5862316985e+01    0.2284047    0.2089319  16.34 0.0004133292    1.232    0.189
        96 -11.3038    230.0391    193.5625   8.1028963935e+01  -1.7424801701e+00    0.3413135    0.2372004  50.37  0.001682722    1.818    0.450
        97 -11.7724    217.8284    102.0907   6.2897598468e+01   1.6014921254e+01    0.3901576    0.2915734 -41.00  0.001940408    1.253    0.202
        98 -11.6751    121.4667    100.0211   8.3727012889e+01   3.8635338776e+01    0.2970473    0.2305488  47.25 0.0003241887    1.330    0.248
        99 -11.3361    109.8711    103.7855   8.8022609237e+01   4.0135048031e+01    0.2549378    0.2352394 -37.33  0.000400361    1.064    0.060
       100 -12.6996    112.4869     99.2726   8.6047074306e+01   4.0633765632e+01    0.6075301    0.3798235 -54.92  0.000880607    1.678    0.404
       101 -10.7348    123.9788     89.3034   7.9958199963e+01   4.0401997675e+01    0.2265189    0.2010147  -6.86  0.000407898    1.220    0.180
       102 -11.1524    117.4355     97.4343   8.4128951761e+01   4.0038067371e+01    0.2775558    0.2462775  86.74 9.126814e-05    1.304    0.233
       103 -13.3152    120.6460     93.8342   8.2204311834e+01   4.0151395905e+01     0.423194    0.3658255 -67.26  0.001655287    1.281    0.220
       104 -12.1326     66.5122    102.5341   1.0087545215e+02   4.7621096571e+01    0.4386199    0.2349228 -67.01  0.001881465    2.042    0.510
       105 -10.4254    213.1478    102.8429   6.3896297002e+01   1.6937841488e+01    0.2247813    0.1954653 -59.30 0.0005518215    1.211    0.175
       106 -11.4732    244.8431    192.2142   7.8138965596e+01  -3.9543458646e+00    0.2467585    0.2010625  23.25 0.0005362219    1.192    0.161
       107 -11.2719    237.6324     99.8980   5.9175367579e+01   1.2068146152e+01     0.441892    0.2246517 -25.03 0.0008327999    2.252    0.556
       108 -10.6843    223.9850    100.8389   6.1556444254e+01   1.4861053496e+01    0.2401252    0.1976635  63.37 0.0003636074    1.351    0.260
       109 -11.6506    211.4061    213.1382   8.8071947561e+01  -1.5208001839e+00     0.268913    0.1825696 -25.38 0.0007658119    1.546    0.353
       110 -11.7794    204.8068     94.5835   6.3258422972e+01   2.0326711381e+01     0.685432    0.3263952 -24.68  0.001879205    2.806    0.644
       111 -10.9289    210.2183     92.0992   6.1663518143e+01   1.9497486130e+01    0.4706715    0.2707201  74.63  0.001802937    2.628    0.619
       112 -12.3436    246.0807     96.4293   5.7112969642e+01   1.0868557091e+01    0.2859706    0.2581532  79.13 0.0004968917    1.268    0.211
       113 -10.6733     84.5627     96.3972   9.3660851208e+01   4.6361416085e+01    0.2587654     0.223649 -30.23  0.001405145    1.173    0.148
       114 -10.8118    112.0919    191.5776   1.0509751970e+02   1.9712974285e+01    0.2513189    0.1816081 -86.46 0.0007176783    1.597    0.374
       115 -10.2729    221.7771     94.0622   6.0232091148e+01   1.6509799749e+01    0.2298617    0.1839287 -59.73 0.0005032984    1.329    0.248
       116 -10.7634    218.1204     92.9157   6.0541267566e+01   1.7534216474e+01     0.266691    0.2188441  74.15 0.0004933812    1.379    0.275
       117 -10.8405     66.9864     89.7832   9.7615932006e+01   5.0534379454e+01    0.4066294     0.162981 -49.89 0.0009399796    2.172    0.540
       118 -11.6723    227.6145     90.3897   5.8394428878e+01   1.5818363379e+01    0.2979741     0.247774 -82.43  0.001590749    1.388    0.280
       119 -12.0060    171.2151     89.6699   6.8514102334e+01   2.9308186561e+01    0.5184915    0.3146363  68.51  0.001214426    2.149    0.535
       120 -10.1252    136.9712     84.9320   7.5190006557e+01   3.8396959634e+01    0.2091301    0.2030469 -11.02  0.000318251    1.025    0.025
       121 -10.9641    133.5782     87.7657   7.6920047031e+01   3.8598055763e+01    0.3051149    0.2567249 -16.03  0.001046945    1.307    0.235
       122 -12.8502    143.6644     88.7392   7.4626893006e+01   3.6085808531e+01    0.7406604    0.4515176  33.97   0.00298438    1.929    0.482
       123 -11.0583    148.3869     83.2841   7.1849603397e+01   3.6046510602e+01    0.2981341    0.2447916  14.68  0.001414163    1.431    0.301
       124 -12.6683    248.4933     88.4130   5.4899752056e+01   1.1643811434e+01    0.2731848    0.2386228 -34.58 0.0007315284    1.056    0.053
       125 -12.1223     56.7786    189.3684   1.1702510529e+02   2.8361797575e+01    0.2266531    0.1763402  75.45 0.0002852948    1.085    0.079
       126 -10.8124    239.9544     85.9824   5.5501472619e+01   1.3832355122e+01    0.2145147     0.190733 -48.24 0.0005040175    1.040    0.038
       127 -10.7192    221.0181     86.2381   5.8384650541e+01   1.7999307351e+01    0.1948864    0.1887387  70.26 0.0006830415    1.101    0.092
       128 -10.1154     90.5095     86.1166   8.8940810173e+01   4.7670031973e+01    0.2348878    0.1378103 -47.35   0.00103576    1.599    0.374
       129  -9.9170    112.5127     85.5185   8.2072246744e+01   4.3611649680e+01    0.1536288    0.1444542 -14.64 0.0008095643    1.059    0.056
       130 -10.4010    174.1067     84.4884   6.6433733390e+01   2.9567476461e+01    0.2343545    0.1541659  54.07 0.0007800921    1.538    0.350
       131 -11.7825    156.7276     83.5984   6.9978507950e+01   3.3981649472e+01    0.2792651    0.2650214  -9.33   0.00026916    1.089    0.082
       132 -11.7446     71.3023     82.4471   9.4188886666e+01   5.1576920041e+01    0.2599383    0.2243143 -34.31 0.0003287879    1.080    0.074
       133 -11.0489    239.3908     81.4258   5.4484935759e+01   1.4677619040e+01    0.2384554    0.2116953 -45.62 0.0001738194    1.009    0.009
       134 -12.2206     81.9933    188.3323   1.1136751336e+02   2.5149724168e+01    0.2473391    0.2033548  74.75  0.000390186    1.081    0.075
       135 -12.4574    111.0248    184.6055   1.0429099237e+02   2.1370990789e+01    0.5788772    0.3568024  72.19  0.002476391    2.153    0.535
       136 -10.0840     92.4889    183.5400   1.0836322716e+02   2.4614144943e+01    0.2213819    0.1279211 -62.82 0.0003038137    1.743    0.426
       137 -12.9856    177.8117     76.9274   6.3518225566e+01   3.0011757611e+01    0.4653345    0.2930316 -41.11  0.001013404    1.558    0.358
       138 -11.1548    119.8802     79.5239   7.8129699270e+01   4.3296446477e+01    0.2792036    0.2555735 -82.12 0.0007479719    1.258    0.205
       139 -10.3011     84.5130     79.8449   8.9024302612e+01   5.0064260629e+01    0.2087926    0.1350306 -47.98 0.0003642044    1.453    0.312
       140 -10.7872    106.9354     78.6691   8.1617906884e+01   4.6167791461e+01    0.2067772    0.1848335  37.89 0.0004148419    1.153    0.133
       141 -10.7548    248.4772     78.0603   5.2476935247e+01   1.3257058093e+01    0.2011797    0.1867549  82.12 0.0007215373    1.181    0.153
       142 -11.2406    222.6079     77.1550   5.5840510113e+01   1.9123591847e+01    0.2650059     0.233153 -89.78 0.0007673014    1.206    0.171
       143 -10.8809    191.4610     76.7611   6.0878505216e+01   2.6658487522e+01    0.4835243    0.1942013  51.82  0.001721358    2.480    0.597
       144 -11.8051    111.3385     75.8772   7.9432883839e+01   4.5836493365e+01    0.3422161    0.2806633 -61.68 0.0009086467    1.408    0.290
       145  -9.6689     66.5168    185.4974   1.1447102577e+02   2.7946926970e+01    0.1301949    0.1093128  77.89 -9.064401e-05    1.002    0.002
       146 -10.2873     91.5283    186.5165   1.0899090983e+02   2.4110884691e+01    0.1865896    0.1232727 -78.57  0.000105229    1.606    0.377
       147 -11.1847    102.9759    200.9671   1.0839886022e+02   1.9254762289e+01    0.3223344    0.2104766  62.71 0.0009706974    1.539    0.350
       148 -10.5727    204.5435     73.1186   5.7621739975e+01   2.4065597365e+01    0.2505033    0.2113673  63.85  0.000414421    1.220    0.181
       149 -10.0293    186.1092     72.4686   6.0657486545e+01   2.8715242182e+01    0.2052946    0.1500766  59.64 -2.88337e-05    1.388    0.279
       150 -10.4976    170.9518     70.4946   6.3018401547e+01   3.2842954540e+01    0.2617173    0.2522883  38.56 0.0009001115    1.063    0.059
       151 -12.6384    174.2423     65.6830   6.0942811456e+01   3.2828858545e+01    0.5540293    0.3548666  28.62  0.002271638    2.127    0.530
       152 -10.8320    163.6538     70.4605   6.4521372558e+01   3.4672794201e+01    0.3705063     0.251822   6.18  0.001478589    2.293    0.564
       153 -10.7568    132.9109     70.8830   7.1875310638e+01   4.2045477194e+01    0.4227891    0.2078925  62.37  0.001411673    2.860    0.650
       154 -11.9940    245.8449     68.0341   5.0449318138e+01   1.5339928747e+01     0.531774     0.331492 -73.41  0.002335352    2.079    0.519
       155 -10.7269    122.9171     69.3636   7.4043365959e+01   4.4605681742e+01    0.2427411    0.2057821 -50.45 0.0007317347    1.252    0.201
       156 -11.0842     84.4330    180.5851   1.0980265610e+02   2.6499122522e+01     0.228183    0.2143604  69.46  0.000639783    1.138    0.121
       157 -11.7109    214.8116     66.7253   5.4323491305e+01   2.2616181356e+01    0.2418736    0.2254636 -57.18 0.0002708434    1.005    0.005
       158  -9.9999     61.8103    181.2113   1.1503154543e+02   2.9522758969e+01    0.1508718    0.1426785 -74.70            0    1.263    0.208
       159 -11.8036    222.7502    216.8010   8.6611350672e+01  -3.8684299169e+00    0.2191458    0.1774545  19.87 0.0002775282    1.063    0.060
       160  -9.9467     64.1865     66.6258   9.1980628155e+01   5.6011902710e+01    0.1771582    0.1272019  14.38   0.00043261    1.594    0.373
       161 -10.1092    168.5891     64.8252   6.1803828858e+01   3.4395884253e+01    0.2214471    0.1365512 -46.39 0.0006794023    1.678    0.404
       162  -9.5319    133.2809     65.2568   6.9958937281e+01   4.2982539070e+01    0.1475756    0.1162437  17.08 0.0001962018    1.472    0.321
       163 -11.7403    161.9230     62.9238   6.2590878129e+01   3.6388766880e+01    0.2515536    0.2397238  61.98 0.0003195356    1.038    0.037
       164 -10.9390    164.9494     59.5260   6.0926598507e+01   3.6182881038e+01    0.4651125    0.2891087 -87.47 0.0008186193    2.662    0.624
       165 -11.6999     94.6491    178.0289   1.0707555210e+02   2.5496509160e+01    0.3175185    0.2577326 -17.85 0.0006121391    1.817    0.450
       166 -11.2440    154.7173     61.6717   6.3739440518e+01   3.8399470783e+01    0.3611407      0.29118 -15.11  0.001769494    1.385    0.278
       167 -11.6047    146.9842     61.4928   6.5415586968e+01   4.0341953461e+01    0.2635357    0.2204378 -30.97 0.0002214589    1.216    0.178
       168  -9.4348    181.2598     61.2943   5.8338258623e+01   3.1770965271e+01    0.1444233    0.1174234  18.65 0.0002052575    1.499    0.333
       169 -11.5590      9.4484     59.5125   1.1126161702e+02   6.2842486710e+01    0.3585093    0.1510614 -70.93  0.001671718    2.441    0.590
       170 -10.9876    132.6508     59.8487   6.8332346400e+01   4.4075300121e+01    0.2415105    0.1936335  37.34  0.000371733    1.251    0.201
       171 -10.9992    177.3406     58.7981   5.8321896673e+01   3.3159458570e+01    0.2780922    0.1949803 -24.99 0.0008738567    1.554    0.357
       172 -10.1567    241.0525     56.5142   4.8292644804e+01   1.8084993716e+01    0.1901737    0.1330889  69.79 0.0005370399    1.525    0.344
       173 -11.6028    249.9627     50.6879   4.5929650253e+01   1.6958288620e+01    0.3741314    0.1860097 -27.28 0.0009218687    2.173    0.540
       174  -9.6360    141.3474     53.2771   6.4033657007e+01   4.3069925920e+01    0.1566283    0.1122843  26.17 0.0006192718    1.634    0.388
       175 -10.9474    240.4861    177.5821   7.6013249181e+01  -1.1099589894e+00    0.3218318    0.2100368  -7.71  0.001678351    1.657    0.397
       176 -11.1680    222.9840     50.7269   4.9081469175e+01   2.3067073333e+01    0.2888849    0.2634813 -69.31  0.001479954    1.022    0.021
       177 -10.7258    201.3319     51.9371   5.2385543061e+01   2.8155970880e+01    0.2417334    0.2007758  71.24 0.0005250214    1.197    0.164
       178  -9.6796    136.4453     52.4390   6.4909161816e+01   4.4393779996e+01     0.147529    0.1430421  32.67 6.268169e-05    1.012    0.012
       179 -10.8557    118.3789     52.0495   6.9398020206e+01   4.8677830750e+01    0.2271974    0.1891946  33.78 0.0002240737    1.177    0.150
       180 -10.3683     29.0618     48.9153   1.0025033459e+02   6.3659207764e+01     0.190234    0.1466349 -38.74 0.0005786492    1.037    0.036
       181 -11.0920     19.5082     44.9036   1.0315783810e+02   6.5236423124e+01    0.3124161    0.1921649 -82.12  0.001192831    2.985    0.665
       182 -11.1819    244.9096    175.6357   7.4850196781e+01  -1.5607111926e+00    0.2209834    0.1792406 -15.04 0.0003258351    1.084    0.078
       183 -10.6433    166.9436     39.9805   5.4503103428e+01   3.8589271595e+01    0.2134214    0.2035719  70.23   0.00120439    1.006    0.006
       184 -10.4639    114.3366     39.9108   6.6091766497e+01   5.1477634668e+01    0.1962845      0.17368  -9.18 0.0003679279    1.122    0.109
       185 -10.2489    177.4354     37.2853   5.1905674178e+01   3.6262981950e+01      0.19994     0.129536 -44.09 0.0008942212    1.568    0.362
       186 -10.1529    182.9540     33.7678   5.0009390559e+01   3.5309849677e+01    0.1933517     0.172961  77.09 0.0002778026    1.056    0.053
       187 -10.7709    200.8384     32.7337   4.7217487305e+01   3.0916031987e+01    0.2391506    0.1686287  60.09 0.0006466153    1.394    0.283
       188 -10.0590     73.4948    177.0946   1.1186475961e+02   2.8870842244e+01    0.1863467    0.1207962 -67.72 0.0003734016    1.470    0.320
       189 -10.7105     13.9709    175.2113   1.2492905118e+02   3.6070258781e+01    0.1934691     0.133335 -85.76 0.0003898423    1.150    0.131
       190 -10.0879    141.0108     30.6485   5.6416579534e+01   4.6380579863e+01    0.2627319   0.07150847  43.64 0.0007043182    4.574    0.781
       191 -10.2962     68.7617    174.9993   1.1269466031e+02   3.0001342581e+01    0.1769908    0.1493658 -85.40 0.0001975428    1.074    0.069
       192 -10.9746    203.9903     28.6355   4.5716013040e+01   3.0645871115e+01    0.1926968    0.1629613  81.46  0.001099179    1.113    0.102
       193 -10.9390    217.9133     26.8167   4.3634122514e+01   2.7463785124e+01    0.1964951    0.1798394  59.14 0.0004349353    1.224    0.183
       194 -11.4993    209.6338     25.2763   4.4163074669e+01   2.9663562097e+01    0.2380591    0.2132082  72.32 0.0003337333    1.134    0.118
       195 -11.1899    177.5199     25.0071   4.8237687176e+01   3.7779138563e+01    0.2603689    0.1855919  88.89  0.000351168    1.476    0.322
       196 -11.1949    241.4983     24.5196   4.0740393406e+01   2.2256340856e+01    0.2681214    0.1504011 -85.46  0.001181737    1.955    0.488
       197 -11.3692    104.6908    208.5758   1.0901395704e+02   1.7448662916e+01    0.4737826    0.2283546 -65.78   0.00220536    2.380    0.580
       198 -10.4774    199.0381     22.4636   4.4660025601e+01   3.2622894577e+01    0.2020032    0.1268425  71.06 0.0003979461    1.499    0.333
       199 -11.0934    245.4996     17.5120   3.8809308810e+01   2.2204356352e+01    0.2787774    0.1898887 -62.20  0.001150163    1.289    0.224
       200 -13.6865    244.5605    245.5371   8.7559064367e+01  -1.0594265685e+01    0.6636256    0.4811358  17.73  0.003171265    1.057    0.054
       201 -11.9321    176.4216    244.6106   9.9606609544e+01  -3.5258774436e-01    0.3990117    0.2009703  35.06   0.00146092    1.645    0.392
       202 -10.5691    175.2943     16.6790   4.6080961036e+01   3.9286342090e+01    0.1437573   0.09793064 -64.96 0.0002054101    1.613    0.380
       203 -10.5761     90.0520     15.5212   6.3187636368e+01   5.9876667437e+01    0.1984662    0.1620096  -9.76 0.0005501318    1.200    0.167
       204 -10.1124     50.2873     15.0580   7.7301245241e+01   6.7002081366e+01    0.1710411    0.1330587 -12.95 0.0005393873    1.093    0.085
       205 -10.1671    170.6752    244.3061   1.0063714007e+02   6.0026164503e-01    0.1720921    0.1498608  62.87 0.0009632346    1.396    0.283
       206 -11.2211    122.3090    244.1660   1.0972535109e+02   8.2494819106e+00    0.4026733    0.1532647  42.43  0.001911306    2.073    0.518
       207 -11.6966     34.6806    243.5750   1.2544196019e+02   2.0231709717e+01    0.2474847    0.1257746  32.84  0.001466223    2.340    0.573
       208 -11.8565    208.3595    240.7849   9.3166364576e+01  -4.8120463663e+00     0.315647    0.1613919  30.90 0.0009564533    1.656    0.396
       209 -11.8611    192.9313    238.1149   9.5593641212e+01  -2.0630861176e+00    0.3506796    0.2279592   8.17  0.001048091    1.859    0.462
       210 -12.8011    191.3678    231.7197   9.4912658845e+01  -9.2029356887e-01    0.3157437    0.2810151   5.76  0.000495956    1.153    0.133
       211 -11.6580    182.1509    237.6413   9.7540342455e+01  -2.7982749737e-01    0.2974775     0.214471  13.06 0.0006654374    1.485    0.327
       212 -10.5734    185.6746    235.3480   9.6537401203e+01  -5.1917025324e-01    0.2013556     0.168407 -74.03 0.0008924237    1.857    0.461
       213 -10.0185     64.3603    239.2009   1.1997735317e+02   1.7413628766e+01    0.1457849   0.09133529  87.33 0.0003347602    1.557    0.358
       214 -12.3088    125.8383    235.0032   1.0799713238e+02   9.2238479140e+00    0.3252387    0.2172455  59.97  0.001916158    1.478    0.323
       215 -11.0879    102.1473    235.7418   1.1263790312e+02   1.2745534504e+01    0.2892518    0.1693565  65.41  0.001599962    1.799    0.444
       216 -11.7412     68.7647    236.4617   1.1895901228e+02   1.7332948131e+01    0.2008989    0.1572505  73.05 0.0003253381    1.089    0.082
       217 -10.7910    118.4243    235.1568   1.0944851406e+02   1.0361718435e+01    0.2163616    0.1459134  43.97 0.0004482151    1.226    0.184
       218  -9.8293    133.4467    234.5033   1.0646109093e+02   8.0962388034e+00    0.1255548    0.1022618  49.63 4.443198e-05    1.037    0.035
       219 -12.0757    227.5277    232.5173   8.8409138070e+01  -6.6550268415e+00    0.2307041    0.1812831   8.43 0.0003802014    1.067    0.062
