#   1 NUMBER                 Running object number                                     
#   2 MAG_AUTO               Kron-like elliptical aperture magnitude                    [mag]
#   3 X_IMAGE                Object position along x                                    [pixel]
#   4 Y_IMAGE                Object position along y                                    [pixel]
#   5 X_WORLD                Barycenter position along world x axis                     [deg]
#   6 Y_WORLD                Barycenter position along world y axis                     [deg]
#   7 A_WORLD                Profile RMS along major axis (world units)                 [deg]
#   8 B_WORLD                Profile RMS along minor axis (world units)                 [deg]
#   9 THETA_WORLD            Position angle (CCW/world-x)                               [deg]
#  10 FWHM_WORLD             FWHM assuming a gaussian core                              [deg]
#  11 ELONGATION             A_IMAGE/B_IMAGE                                           
#  12 ELLIPTICITY            1 - B_IMAGE/A_IMAGE                                       
         1 -13.7091     90.7179    104.3381   1.0458432441e+02   4.2939572094e+01     1.448674    0.9245572 -79.13  0.005278703    1.968    0.492
         2 -11.4710     59.2681    123.3382   1.1633866841e+02   4.3103947731e+01    0.6128536    0.3023399 -53.44  0.003019104    1.994    0.498
         3 -15.3173    237.1997    237.0186   9.9249852029e+01  -3.8073040853e+00      1.27739    0.9340314  23.55  0.005150496    1.032    0.031
         4 -13.2508    206.8173    248.0593   1.0527282196e+02  -4.6783772337e-01     1.757609    0.2584596  41.63  0.006309687    4.940    0.798
         5 -14.9734    176.4482    248.8904   1.1000033628e+02   3.8483867506e+00       1.5805    0.4984612  36.00  0.006306499    3.170    0.685
         6 -13.9896    180.8909    241.6325   1.0847126271e+02   3.9841105983e+00    0.5008621    0.3129473  43.59  0.002129634    1.218    0.179
         7 -15.6710     18.3111     41.0995   1.1257169528e+02   6.5825927582e+01     6.695974     1.327486 -62.17   0.02263744    4.088    0.755
         8 -16.4857    122.8292    234.5231   1.1697698606e+02   1.3426729153e+01     3.575199     2.807851 -63.15   0.02818345    1.599    0.375
         9 -15.2458     47.7685    226.0624   1.2842045984e+02   2.4418583231e+01     1.344704     1.055843  25.94   0.01048936    2.095    0.523
        10 -17.5145     13.1042    156.7426   1.3030326399e+02   4.0643060153e+01     5.538442     1.492813 -81.67   0.02416961    3.306    0.698
        11 -16.7138     76.4968    243.7861   1.2505313029e+02   1.8311004014e+01     1.334052    0.7051703  51.12  0.007097505    1.364    0.267
        12 -14.6912     51.5744    248.7511   1.2908166421e+02   2.0537997200e+01    0.7489215    0.2066697  48.17  0.003957274    2.339    0.572
        13 -14.4034     22.7015    228.0107   1.3240134704e+02   2.6771600195e+01    0.8842996    0.3189393  51.27  0.005813249    1.902    0.474
        14 -16.4042     27.7209    212.6848   1.3089978774e+02   2.8782994037e+01     1.333955     1.194695  62.72    0.0118526    1.515    0.340
        15 -13.0654     18.5777    244.0422   1.3363865967e+02   2.4708716422e+01     1.321166    0.6194685  52.05   0.01025676    1.469    0.319
        16 -11.6276     79.2025    206.9328   1.2179006679e+02   2.3746699006e+01    0.3185343     0.220713  38.84  0.001434792    1.576    0.365
        17 -14.4677     75.8562    195.7195   1.2137705441e+02   2.6145548160e+01    0.9576501    0.5927032 -85.67  0.004360032    1.598    0.374
        18 -11.9340     66.9998    184.6743   1.2199482314e+02   2.9323074228e+01    0.4802406    0.3273878  70.65  0.001943549    1.231    0.188
        19 -14.5693     38.7450    248.7865   1.3094705839e+02   2.1940473772e+01    0.5293672    0.1904853  50.61  0.002622652    1.843    0.457
        20 -11.4277     90.2335    190.4701   1.1818256243e+02   2.5125711720e+01    0.4482505    0.2188623  60.34  0.002182439    2.039    0.510
        21 -12.6805    245.6598    194.9735   9.1346122154e+01  -1.0493436025e+00    0.5899966    0.3690163  12.60  0.002422143    1.544    0.352
        22 -12.0226    165.6847    163.9351   9.9651140013e+01   1.7256177772e+01    0.6027964    0.3132012 -51.65  0.002789593    2.293    0.564
        23 -10.6037     83.9255    163.4789   1.1627819278e+02   3.1177132495e+01    0.2628177    0.1962325  49.84 0.0008936447    1.290    0.225
        24 -12.3742    227.5289    132.2138   8.1708614428e+01   9.9498794715e+00    0.8356959     0.561948  42.48  0.003300751    1.469    0.319
        25 -13.3324    243.0901    143.7544   8.1753185926e+01   5.3730987753e+00    0.9210433    0.5394492 -16.45  0.003867867    1.719    0.418
        26 -14.1794    246.5768    128.5954   7.7832717337e+01   6.6836457327e+00     1.333214    0.9472873  15.56  0.004144996    1.424    0.298
        27 -10.9682     35.1413    132.8964   1.2345198320e+02   4.3657351812e+01    0.3794227    0.1723717 -79.09  0.001427891    1.928    0.481
        28 -10.9071     83.8822    131.0724   1.1153348703e+02   3.8028640356e+01    0.2992677     0.296048  36.59  0.001774479    1.283    0.220
        29 -12.8674     89.2079    123.6336   1.0891619110e+02   3.8862895296e+01    0.8473557     0.523709  59.88  0.003426126    1.781    0.439
        30 -12.7188     95.4055    116.1257   1.0589636291e+02   3.9539772831e+01    0.7467363    0.3699863 -42.36  0.003119162    2.408    0.585
        31 -12.3327     84.4232    113.5631   1.0819000569e+02   4.1851273053e+01     0.697508    0.4680265 -35.95  0.002933082    1.960    0.490
        32 -11.2237     70.1644    212.6817   1.2383126664e+02   2.3941021559e+01    0.2761252    0.2126344  60.76  0.001332108    1.114    0.102
        33 -10.9960     60.4911    116.0074   1.1486338114e+02   4.4614066525e+01    0.3626852    0.2669601  74.10  0.001420867    1.374    0.272
        34 -12.8682     44.8401    118.4129   1.1927122261e+02   4.5888145090e+01    0.5373818    0.4063989 -64.14  0.002550725    1.231    0.188
        35 -14.3122     46.0584    107.1772   1.1726349295e+02   4.8322955461e+01     1.138363    0.6592398 -67.39  0.004037381    1.420    0.296
        36 -10.4401     77.6092    112.4864   1.0975575566e+02   4.3107683363e+01    0.2723836    0.1524349 -64.17  0.001319265    1.638    0.389
        37 -10.7441    104.6304     92.1451   9.7872142300e+01   4.3246490292e+01    0.2540779    0.2030917  62.43  0.001117836    1.387    0.279
        38 -11.1793     72.9614     83.6358   1.0469662025e+02   5.0354874412e+01    0.3568259    0.2681841 -75.36  0.001389566    1.381    0.276
        39 -15.8223    143.2217    159.6916   1.0335255823e+02   2.2172298133e+01     2.678757     2.044602 -47.62   0.00925388    1.419    0.295
