#   1 NUMBER                 Running object number                                     
#   2 MAG_AUTO               Kron-like elliptical aperture magnitude                    [mag]
#   3 X_IMAGE                Object position along x                                    [pixel]
#   4 Y_IMAGE                Object position along y                                    [pixel]
#   5 X_WORLD                Barycenter position along world x axis                     [deg]
#   6 Y_WORLD                Barycenter position along world y axis                     [deg]
#   7 A_WORLD                Profile RMS along major axis (world units)                 [deg]
#   8 B_WORLD                Profile RMS along minor axis (world units)                 [deg]
#   9 THETA_WORLD            Position angle (CCW/world-x)                               [deg]
#  10 FWHM_WORLD             FWHM assuming a gaussian core                              [deg]
#  11 ELONGATION             A_IMAGE/B_IMAGE                                           
#  12 ELLIPTICITY            1 - B_IMAGE/A_IMAGE                                       
         1 -14.5130     24.8351     92.8069   8.2490499514e+01   5.4513285182e+01     1.241303    0.9622239 -29.59  0.007778999    1.395    0.283
         2 -14.0931     57.6902     63.4711   6.3476075753e+01   5.7575457251e+01     1.792582     0.944069 -23.16  0.007477427    2.724    0.633
         3 -14.8593      6.5790     71.0132   8.4730657571e+01   6.0547605763e+01     1.097247    0.5672895 -52.72  0.006392813    1.454    0.312
         4 -13.1688    120.4526     25.9050   2.9815987086e+01   5.1911631715e+01    0.7212955    0.5072156  31.18  0.003497098    1.445    0.308
         5 -14.3246    122.1970     36.7062   3.3281855001e+01   5.0123941482e+01     1.231352     0.615318  31.61  0.004354886    2.646    0.622
         6 -13.7944    103.2566     50.3551   4.3392244879e+01   5.2240308989e+01     1.013676    0.5281426 -47.14   0.00169789    2.259    0.557
         7 -15.4384    212.3690     40.9617   1.8273047159e+01   2.7080583074e+01     2.386875     1.238278  65.04  0.008910286    1.856    0.461
         8 -15.0968    188.9518     22.9584   1.6585068796e+01   3.5202948326e+01     1.523853     1.083707 -60.14  0.008086894    1.438    0.304
         9 -13.9013    241.4395     35.1238   1.3569790981e+01   2.1038540431e+01    0.9052945    0.5327407 -83.52  0.003467153    1.868    0.465
        10 -12.9499      7.7007      2.6401   6.2861857095e+01   7.3226823115e+01    0.5212938    0.3567952  31.31  0.003703093    1.947    0.486
        11 -15.8712     11.3701     23.2324   6.9664290816e+01   6.9685672619e+01     1.722377    0.7967029 -32.82  0.007518357    1.813    0.449
        12 -14.4996     27.1714     11.6662   5.6818643197e+01   7.0131272677e+01    0.8457958    0.4942848  -8.11  0.005027045    1.751    0.429
        13 -13.4633    140.5633     21.5110   2.3926165971e+01   4.7586718865e+01     1.074989    0.3099324  60.00  0.003163324    2.949    0.661
        14 -14.9678    166.7194     28.4427   2.1447058273e+01   4.0201840205e+01     1.202308    0.9603624  62.02  0.004614032    1.146    0.128
        15 -13.6037     57.8660     26.5876   4.9828562916e+01   6.4039566243e+01    0.9861666    0.3738583  33.73  0.003652237    2.753    0.637
        16 -13.5343     87.4563     15.0297   3.4422830277e+01   6.0314465862e+01    0.8278757     0.573113 -57.45   0.00424924    2.373    0.579
        17 -11.7276     70.9748     16.2955   4.0380155761e+01   6.3275286987e+01      0.27581     0.191627 -17.71 0.0008136955    1.386    0.278
        18 -12.4118     60.1334     15.1801   4.3897002413e+01   6.5240507250e+01    0.5244178    0.2795826  22.09   0.00236611    2.087    0.521
        19 -14.3805    214.9821      9.2770   1.0145706713e+01   3.0319374033e+01    0.7710396    0.6325656  89.30  0.004816934    1.061    0.058
        20 -13.9877    187.9940     11.0783   1.3480796625e+01   3.6756209377e+01    0.6745346    0.5921772 -35.01  0.003354592    1.280    0.219
        21 -11.7886     46.8398     12.8784   4.8267437140e+01   6.7535100074e+01    0.2671738     0.179815  28.34  0.001315539    1.407    0.289
        22 -13.8863     41.9688      4.2807   4.6209989695e+01   6.9280464145e+01    0.6264046    0.4462343   2.16  0.004053109    1.175    0.149
        23 -12.3673    152.8155      8.6828   1.7593004342e+01   4.5850651859e+01    0.2893891    0.2484148  17.38  0.001727877    1.337    0.252
        24 -12.3418     75.3485      8.4327   3.5363510201e+01   6.3361221040e+01    0.3445698    0.2082106 -15.27  0.001907632    1.687    0.407
        25 -15.3610     99.0235     11.4274   2.9642811758e+01   5.8293841998e+01     1.468862    0.8235481  51.47  0.004856814    1.577    0.366
        26 -12.1410    118.7590      2.3700   2.1509300417e+01   5.4681928388e+01    0.3836353    0.2339899  85.36  0.001837376    2.200    0.546
        27 -11.7966     78.1619      2.1134   3.1608174332e+01   6.3440270267e+01    0.8046783          nan  46.92  0.002118018    6.684    0.850
        28 -10.9668     67.5548      3.1404   3.5548436680e+01   6.5320595294e+01    0.2504028    0.1236347  23.04  0.001188624    2.309    0.567
        29 -15.3920    219.1284     15.0956   1.1135287431e+01   2.8683904053e+01     1.788638     1.315949   6.87  0.009622089    2.150    0.535
        30 -14.8486    147.8029     29.5547   2.5180885587e+01   4.4849269162e+01     1.418602    0.7914775  61.39  0.004672804    1.651    0.394
        31 -11.1979     61.2482      1.4528   3.6982403864e+01   6.6590400487e+01    0.3136745    0.1046605  48.10    0.0013736    2.794    0.642
        32 -12.0024    123.1472     10.5358   2.3603420137e+01   5.2926481652e+01    0.3250751    0.2424052 -74.02  0.001027212    1.775    0.437
        33 -11.6194    112.4920    156.8951   6.9327432390e+01   2.7450530679e+01    0.2563944    0.2025107  68.21  0.001294838    1.335    0.251
        34 -12.4704     51.1898    248.4353   9.3459243895e+01   1.7392909498e+01    0.3453034    0.2896841  79.18  0.002686178    1.249    0.199
        35 -12.2337      2.8177    249.4935   1.0144281535e+02   2.2589176466e+01     0.328321    0.1936926  60.42  0.001771252    1.207    0.171
        36 -13.9528      9.8302    245.8630   1.0019204233e+02   2.2533803832e+01    0.7798013    0.3283866  58.41  0.003792837    1.731    0.422
        37 -12.1338     76.8658    156.8312   7.8366628829e+01   3.3327865894e+01    0.3779355    0.3076748  25.16  0.001237959    1.490    0.329
        38 -13.3847     73.5094    153.2123   7.8654515271e+01   3.4678051860e+01    0.6483616    0.4719236  30.05   0.00248855    1.593    0.372
        39 -12.6882    208.8456    154.3952   4.6821381096e+01   8.3700916164e+00    0.6315947    0.4039799  38.82  0.002972238    1.578    0.366
        40 -11.7636     86.1553    152.4659   7.5260511757e+01   3.2963319190e+01    0.5021922    0.2101211 -46.99  0.001886532    2.697    0.629
        41 -11.3166     61.0192    152.2240   8.1719056969e+01   3.6612618382e+01    0.1818483    0.1619098  88.13  0.001109599    1.038    0.036
        42 -11.7706    103.3475    149.8405   7.0321838291e+01   3.0736728340e+01    0.3621387    0.2554128 -38.16   0.00146787    1.680    0.405
        43 -12.3095      8.0178    149.8164   9.4568559443e+01   4.2535730354e+01     0.297791    0.2481296  77.19  0.002144076    1.153    0.132
        44 -12.7560     61.1168    146.9898   8.0911195888e+01   3.7856866074e+01    0.3762026    0.2861165 -25.59  0.002014697    1.840    0.457
        45 -12.2862     42.0969    138.2845   8.4677349402e+01   4.2183622839e+01    0.4148659    0.2139115  59.68  0.001908562    2.352    0.575
        46 -14.4534    231.1220    128.0701   3.6757648914e+01   8.5426379337e+00     1.244996     1.125919 -55.10  0.007130989    1.188    0.158
        47 -12.5351    136.1181    132.1954   5.8059752400e+01   2.8516477459e+01    0.5482608    0.2862127  44.60  0.002149171    1.908    0.476
        48 -12.8900    246.6334    133.4925   3.5398471893e+01   4.5524808442e+00    0.4309903    0.3755261 -48.79  0.002541197    1.218    0.179
        49 -11.2019     43.3193    128.6599   8.2921404493e+01   4.4364631389e+01    0.1375078    0.0914446  74.86 0.0007049667    1.713    0.416
        50 -14.8260    105.3393    120.9558   6.3647197749e+01   3.7225321470e+01     1.700259     1.263435  32.77  0.008217774    1.464    0.317
        51 -15.2127    106.1934    105.2547   5.9505105847e+01   4.0695760901e+01     1.380493     1.242442  59.66  0.006049237    1.183    0.155
        52 -11.8250      6.2600    119.0895   9.1951910709e+01   4.9723025240e+01    0.3180645    0.2275968 -30.11  0.002048572    1.759    0.431
        53 -11.1288      1.5383    119.4877   9.3279731846e+01   4.9916646341e+01    0.2099752    0.1198802 -63.92 0.0007956143    1.380    0.275
        54 -13.1866     84.4600    114.9861   6.8297605545e+01   4.2234833743e+01    0.8340387    0.4625958  25.36  0.003467772    2.340    0.573
        55 -12.5850     78.3903    109.9713   6.8973485854e+01   4.4367353359e+01    0.4186518    0.3055804 -88.38  0.002012192    1.760    0.432
        56 -12.0126     87.9038    109.0656   6.5880789808e+01   4.3071681911e+01    0.4950427    0.2647799 -60.32  0.002051527    1.966    0.491
        57 -12.0967     19.0965     86.2836   8.3204919601e+01   5.6416698223e+01    0.3045551    0.1869722 -44.49 0.0007149853    1.451    0.311
        58 -12.7404    109.2159    248.9202   8.3011599731e+01   9.2014686511e+00    0.4561124    0.2608528  62.73   0.00254896    1.781    0.439
        59 -14.0285     18.4875    110.9129   8.7423940535e+01   5.0794349185e+01     0.821575    0.5817425 -59.57  0.004114661    1.181    0.153
        60 -12.9701    121.7006    112.1837   5.6935934032e+01   3.6052458524e+01    0.2957051     0.284793 -62.43 0.0008844882    1.029    0.028
        61 -11.8318     63.6775    110.9634   7.3694632222e+01   4.6213986282e+01    0.4002146    0.2364935  46.88  0.001907085    1.920    0.479
        62 -12.1558    177.7725    110.1131   4.2635784086e+01   2.3839807448e+01    0.4441466     0.338671  36.52  0.002068021    1.406    0.289
        63 -11.1423     46.0596    110.2195   7.8967968595e+01   4.8488175969e+01    0.2917787    0.1196974 -44.09   0.00117791    2.594    0.615
        64 -14.0266     11.7611    102.3667   8.8216097913e+01   5.3233160287e+01    0.7725062    0.4871503 -68.11  0.004312851    1.247    0.198
        65 -11.1391     42.7463    106.5638   7.9306480277e+01   4.9701221151e+01    0.2124634    0.1347882  17.28  0.001098515    1.996    0.499
        66 -12.6753    136.1677    102.8406   5.0577020700e+01   3.5006354874e+01    0.6695151    0.3306179  47.48  0.002000907    2.043    0.510
        67 -12.6127     28.4690    122.0140   8.6123013096e+01   4.7382904262e+01    0.3071737    0.2058666 -69.73  0.001793361    1.229    0.186
        68 -13.6735    120.8972    101.6833   5.4368953908e+01   3.8555566614e+01    0.4294016    0.4046382 -43.61  0.002281429    1.044    0.042
        69 -12.4704     61.3457     97.7108   7.1486990937e+01   4.9632818271e+01    0.4988957    0.3447981  83.72  0.002263422    2.118    0.528
        70 -12.6384     50.3581     98.5228   7.5246628999e+01   5.0770776801e+01    0.7051951      0.42791   5.46   0.00332767    2.437    0.590
        71 -12.3614     49.0302     93.2379   7.4517112537e+01   5.2142456811e+01    0.3709519    0.3020879  89.48  0.001947814    1.438    0.305
        72 -13.1463    249.1548     96.7887   2.6750253716e+01   1.0131129802e+01    0.6876997    0.1842935 -39.73   0.00232369    3.123    0.680
        73 -11.7205    163.1408     97.1538   4.2412661993e+01   2.9908272328e+01    0.3665921    0.3007792  84.34 0.0009811154    1.442    0.307
        74 -13.6336    136.9952     95.0027   4.8174916103e+01   3.6472566862e+01    0.5919746    0.5158619 -86.33  0.001972226    1.328    0.247
        75 -12.6727     42.2948     90.3983   7.6148978411e+01   5.3508587482e+01    0.3012393    0.2182749 -56.71 0.0003591494    1.176    0.149
        76 -11.2283     81.0305     93.2883   6.4015764671e+01   4.7812712595e+01    0.3087768    0.1621812 -30.72  0.001171547    2.653    0.623
        77 -11.9146    181.2201    120.4165   4.4521471443e+01   2.0972675856e+01    0.2193624    0.1506642  61.06 0.0009460249    1.645    0.392
        78 -12.5361     36.9054     92.8864   7.8493148989e+01   5.3463547737e+01    0.3849476    0.2568304   2.47  0.001358421    1.965    0.491
        79 -13.7539    188.7270     81.5946   3.2801253315e+01   2.6567848260e+01    0.9965841    0.7015052 -22.71  0.004306519    1.661    0.398
        80 -14.0426    199.3754     69.5827   2.7670326565e+01   2.5981892365e+01    0.9637209    0.6562142  44.81  0.003879509    1.610    0.379
        81 -12.6939    199.8580     61.6475   2.5473539902e+01   2.7133875701e+01    0.5001049    0.4341609  80.98  0.002078407    1.133    0.117
        82 -13.6595    212.6980     77.9147   2.7662361803e+01   2.1371134262e+01     1.119561    0.6913385 -87.72  0.004532538    2.442    0.591
        83 -13.2926    216.2424     72.5967   2.5759275746e+01   2.1401546380e+01    0.7589019    0.4999113 -79.12  0.003396208    1.973    0.493
        84 -13.7604    239.5980     81.3217   2.4501073303e+01   1.4658388326e+01    0.8052042    0.4837422 -89.30  0.003424316    2.567    0.610
        85 -14.5327    164.0321     71.4437   3.4876882484e+01   3.4500278491e+01     1.619592     1.052167  55.46  0.007217976    1.509    0.337
        86 -13.5072    161.0548     80.5707   3.8192095330e+01   3.3597917065e+01    0.9378038    0.6055024  18.01  0.003529291    2.569    0.611
        87 -14.7090    169.3829     77.0601   3.5379905161e+01   3.2175957354e+01     1.483471    0.6366808  49.67  0.004131508    2.285    0.562
        88 -11.2810     97.9900     84.0306   5.6055251826e+01   4.6905321011e+01    0.2391005    0.1801718  -5.30  0.001086513    1.687    0.407
        89 -13.5766     28.4668    245.8534   9.7157651587e+01   2.0549026886e+01    0.4438137    0.2657402  76.26  0.002680345    1.314    0.239
        90 -13.4553     66.1183     49.0684   5.5456571876e+01   5.9135054184e+01    0.7960375    0.5802348 -39.19   0.00452749    1.304    0.233
        91 -13.7552     92.0518     57.7071   4.9487226866e+01   5.3186500326e+01    0.5628662    0.4943193 -27.48  0.002510179    1.101    0.092
        92 -12.8880     54.8777     81.2169   6.9587031839e+01   5.4175154031e+01    0.6555641    0.4246109 -47.62  0.003483522    1.343    0.255
        93 -14.0286     61.3198     75.4758   6.5743381948e+01   5.4603650157e+01    0.7712273     0.478092 -35.76  0.001317093    1.572    0.364
        94 -13.8422     87.0863     65.6027   5.3788973605e+01   5.2620246675e+01    0.8942475    0.5912023   4.31   0.00352357    2.159    0.537
        95 -13.2811     71.0988     75.1192   6.2214117147e+01   5.3302847167e+01    0.6258529    0.4090558 -15.37   0.00169959    2.030    0.507
        96 -12.4212     77.2203     73.0935   5.9499303935e+01   5.2783036718e+01    0.7579883     0.312585 -36.55  0.002330309    2.735    0.634
        97 -12.2070    114.0277     80.0315   5.0043180520e+01   4.4555468508e+01    0.4538485    0.3668362 -48.97  0.001722562    1.270    0.213
        98 -12.9975    135.3563     79.1161   4.3928230917e+01   4.0027844867e+01    0.7890371    0.4247325  51.55  0.002914938    1.876    0.467
        99 -11.4272     41.7082     75.9313   7.2927025074e+01   5.6803153821e+01    0.2447166    0.1729476 -56.81 0.0006283383    1.266    0.210
       100 -13.7748    171.4664    242.9254   7.0411313728e+01   1.7953435818e-01    0.7945326    0.4872904  28.06  0.004440296    1.565    0.361
       101 -14.0330      3.6591     63.1622   8.4270457494e+01   6.2371407561e+01    0.6148747    0.4444776 -40.54  0.001219742    1.206    0.170
       102 -11.5142     97.4900     78.5252   5.4551826667e+01   4.8145747986e+01     0.145973    0.1388392 -20.85 1.412888e-05    1.010    0.010
       103 -13.5259      2.2710     97.0080   9.0376752233e+01   5.5000785242e+01    0.8354561     0.334759 -79.72  0.003534393    2.400    0.583
       104 -11.5081    118.0089     72.2152   4.6462647471e+01   4.5237453077e+01    0.2580138    0.2160859 -34.06 0.0005273077    1.191    0.160
       105 -12.6755    241.6992     70.7269   2.1740871124e+01   1.5866794219e+01    0.4364114    0.2735576 -77.38  0.002029099    2.072    0.517
       106 -13.3859    133.7622     65.6721   4.0144859889e+01   4.2877392264e+01    0.9390029    0.7159334   2.38  0.003510664    1.661    0.398
       107 -12.0099     39.3687     68.1514   7.1753525162e+01   5.8711126399e+01    0.3979152    0.1846764  35.58  0.001904642    2.488    0.598
       108 -12.4421     99.8875     64.0143   4.9150635285e+01   5.0527062602e+01    0.4555895    0.3682207 -33.87  0.002429555    1.208    0.172
       109 -13.1213     79.1205     60.2952   5.4711320188e+01   5.5005043771e+01    0.6393893    0.4656061 -37.94  0.003024855    1.294    0.227
       110 -12.5682     83.6714     53.7603   5.0881301689e+01   5.5420613474e+01    0.3814517    0.2354617 -10.96  0.001668277    2.277    0.561
       111 -14.1191    177.8476     56.2066   2.7710035727e+01   3.3520723687e+01     1.068887    0.6538348 -46.55  0.003942029    1.682    0.405
       112 -12.3045     37.1677     53.6021   6.8388464918e+01   6.1908221275e+01    0.4129709    0.1835668 -41.11  0.001991313    1.927    0.481
       113 -11.7551     34.4756     61.0120   7.1667980216e+01   6.0673537751e+01     0.262217    0.1445662 -37.11 0.0008677074    1.638    0.389
       114 -11.7899     24.9064     59.1862   7.4969633588e+01   6.1871739289e+01    0.3781221    0.1725515 -51.11  0.001947907    1.707    0.414
       115 -14.7428    119.7554     54.1428   4.0009772975e+01   4.8058460073e+01     1.135947     0.734126  40.80  0.005325667    1.520    0.342
       116 -13.8691     97.4325    239.1994   8.4243653392e+01   1.2684208474e+01     0.621295    0.4263355  54.91  0.003901973    1.175    0.149
       117 -12.7459    109.9885     41.9088   3.8389425314e+01   5.2131127237e+01     0.543231    0.2066624  46.25 0.0007272367    2.457    0.593
       118 -13.7040     90.8890    231.4657   8.4717093723e+01   1.5086439235e+01    0.5445704    0.2970561  83.58  0.002672082    2.463    0.594
       119 -13.4082    113.4986     37.7969   3.5928077771e+01   5.1951287425e+01    0.3861425    0.3236374  54.49  0.001328736    1.214    0.176
       120 -13.2018    131.6421     33.1640   2.9788988959e+01   4.8363355599e+01    0.5935966    0.4080471   7.90  0.002001873    1.878    0.467
       121 -12.8330    247.7463     53.9977   1.7172117720e+01   1.7038288431e+01     0.601736    0.3542309 -49.32  0.003000475    1.507    0.336
       122 -12.2880    249.2230     48.5814   1.5793824245e+01   1.7485798719e+01    0.3325422    0.2862115 -79.65  0.001775083    1.099    0.090
       123 -12.0420    147.5895    238.8146   7.4467072083e+01   4.7575974688e+00    0.1569624     0.121139 -75.28 0.0009521124    1.702    0.412
       124 -11.4659     17.6362     55.6572   7.6978370091e+01   6.3129773529e+01    0.2763261    0.1497036 -57.54  0.001562549    1.538    0.350
       125 -11.9874    230.7227     54.9475   1.9399335838e+01   2.0725551860e+01    0.4184806    0.2125996  69.22  0.001858374    2.092    0.522
       126 -12.5473    135.4479     50.0574   3.4634827122e+01   4.5056015755e+01    0.5511219    0.3034219  32.90  0.001914115    2.287    0.563
       127 -10.5016     23.7295     49.9351   7.2850795341e+01   6.3833429133e+01    0.1505043   0.08603381 -49.64 0.0004443361    1.413    0.292
       128 -13.4961    157.5727     43.2962   2.7656274661e+01   4.0580513420e+01    0.9468957    0.6130344  30.35  0.004214584    1.943    0.485
       129 -11.3112     38.9487     46.0581   6.5193055679e+01   6.3176317164e+01     0.189832    0.1561154 -29.70 0.0004848835    1.032    0.031
       130 -12.6546     23.9009    216.4602   9.6224008502e+01   2.6645955168e+01    0.6712614     0.244267  55.47   0.00344698    2.296    0.564
       131 -14.0436     26.1839    226.6561   9.6443590494e+01   2.4393408760e+01    0.6870204    0.3359357 -58.48  0.003921024    2.550    0.608
       132 -11.9096     11.6908     43.4831   7.6167731403e+01   6.5944843637e+01    0.3654104    0.1945903  -8.91  0.002048249    2.225    0.551
       133 -12.6031      3.5902     42.8202   7.9561066043e+01   6.6524333936e+01    0.4166612    0.3137625 -15.41  0.003018109    1.351    0.260
       134 -12.1252     40.4699     40.3065   6.2523541383e+01   6.4064696061e+01    0.4224489     0.273502  19.25  0.002487562    1.628    0.386
       135 -12.6707     32.9603     40.3685   6.5785582901e+01   6.4840088532e+01    0.2959749    0.2235757 -18.93 0.0005969611    1.168    0.144
       136 -11.8944    181.8026     38.2025   2.1876033096e+01   3.5108377104e+01    0.3024664     0.246984 -15.33  0.001602965    1.455    0.313
       137 -12.6932     75.8649     36.9488   4.7298825429e+01   5.9578253384e+01    0.4894153    0.3111916  38.80  0.001366124    1.558    0.358
       138 -11.5418     70.9294     36.0000   4.8702835566e+01   6.0560009193e+01    0.2805933    0.1719114  39.16  0.001004101    1.646    0.393
       139 -13.9693     20.5036    224.1607   9.7302044037e+01   2.5484178030e+01    0.6058514    0.4234475  55.52  0.004413683    1.248    0.198
       140 -12.4320    245.5040     29.9590   1.2021790143e+01   2.0802553222e+01    0.3684637    0.2402061 -40.71  0.002073858    1.421    0.296
       141 -13.6825     98.1115     49.9066   4.4802175419e+01   5.3358989294e+01    0.7353444    0.4478208 -44.61  0.002481009    1.786    0.440
       142 -11.8049    238.6660    230.3295   5.5943598588e+01  -8.6811523556e+00    0.1040729   0.09600202  55.16 0.0007052029    1.724    0.420
       143 -13.9270     66.1834    223.1228   8.8725084908e+01   2.0213664438e+01    0.9344583    0.6473327  57.62  0.005963396    1.178    0.151
       144 -12.7415     94.2254    218.2801   8.2627058113e+01   1.7126530333e+01    0.2874413    0.1925751  54.54  0.001400697    1.273    0.214
       145 -12.9888     45.5563     33.2956   5.7686626210e+01   6.4675049822e+01    0.6038792    0.4627918  20.42  0.003885426    1.323    0.244
       146 -10.9576    136.5178    210.9911   7.2828492884e+01   1.1561903028e+01    0.1894872    0.1353645 -57.08  0.001030839    1.588    0.370
       147 -14.0673     64.5805    214.1561   8.8212155434e+01   2.2233990371e+01    0.5714366    0.3414464  53.09   0.00331315    1.421    0.296
       148 -12.2084    135.0443     39.0380   3.1028401129e+01   4.6759605171e+01    0.5236598    0.3053542  65.94  0.001577996    1.875    0.467
       149 -13.0588     59.4869    212.5150   8.9079816685e+01   2.3246198168e+01    0.3948824    0.2425546 -50.87  0.001466438    2.168    0.539
       150 -10.5005     87.7700     27.9177   3.9661666446e+01   5.8684855030e+01    0.1627558    0.1059186 -24.18 0.0005825694    1.548    0.354
       151 -12.4743     30.8319     25.3345   6.1043601152e+01   6.7654094829e+01    0.3575421    0.1773761  15.35  0.001742811    2.344    0.573
       152 -12.0977     36.2481     23.5762   5.7807035647e+01   6.7347084460e+01     0.315111     0.176724 -34.78  0.001820291    1.536    0.349
       153 -12.5711     41.5215    206.1626   9.2112500744e+01   2.6794189698e+01    0.2542582    0.1465166  66.53  0.001478249    1.525    0.344
       154 -11.6836     51.7108     20.4173   4.9655480880e+01   6.5825978856e+01    0.2751139    0.1100037  42.15  0.001252324    2.737    0.635
       155 -12.5346     57.5663    202.1615   8.8492624365e+01   2.5666638731e+01     0.710792    0.2590015 -76.05  0.002944106    3.036    0.671
       156 -13.2460     17.1330    195.5069   9.6133275107e+01   3.1649635092e+01    0.7999702    0.1522125 -63.08  0.003065041    4.280    0.766
       157 -12.8024     40.3363    194.8574   9.1395369141e+01   2.9339665663e+01     0.443648    0.2219418  80.88  0.002227882    2.087    0.521
       158 -12.5210     36.9989    194.4986   9.2054849486e+01   2.9795393051e+01    0.3254279    0.1736854  86.71  0.001756416    1.776    0.437
       159 -12.6687    164.1602    194.2837   6.4192070219e+01   9.7016233377e+00    0.5243997    0.2608663 -61.22  0.001969779    3.246    0.692
       160 -13.5151     29.9690    169.3192   9.1296691095e+01   3.6148090051e+01    0.7860463    0.7232487 -29.86   0.00551171    1.521    0.343
       161 -10.3481     55.4753     11.4315   4.3993297602e+01   6.6438397393e+01    0.1237386     0.097579   6.76 0.0002311471    1.035    0.034
       162 -13.6847     22.2006    180.9780   9.4024563354e+01   3.4299330802e+01    0.7854286    0.3253535 -60.31  0.003951688    2.322    0.569
       163 -15.1425      8.5101    183.1629   9.7016647926e+01   3.5079483138e+01     1.161849     0.886676  82.78  0.008411794    1.032    0.031
       164 -14.8051     15.7550    175.0753   9.4924973916e+01   3.6207402527e+01     1.735935     0.593132  53.99  0.007936006    2.873    0.652
       165 -11.8596     48.9031    181.2899   8.8246119943e+01   3.1336129778e+01    0.3401121    0.2026761 -55.35  0.001841499    1.823    0.451
       166 -13.1054    197.5235    179.8889   5.4458110144e+01   5.9752733298e+00    0.6660421    0.4324947 -72.50  0.002570666    3.400    0.706
       167 -13.1204    124.1805    166.0349   6.8158087401e+01   2.3200003951e+01    0.6095112    0.3788363 -72.74  0.002600699    2.086    0.521
       168 -11.5484     89.9782    170.0000   7.7162308420e+01   2.8227307511e+01    0.2276395   0.07698072  37.37  0.000804496    2.957    0.662
       169 -11.1641    201.1096    191.4898   5.6004509421e+01   3.2735978164e+00    0.2315085    0.1834592   1.94  0.001130452    1.326    0.246
       170 -11.1672      2.1305    159.1349   9.6665053765e+01   4.0871555094e+01    0.1793692    0.1278363 -71.23  0.001222208    1.250    0.200
