#   1 NUMBER                 Running object number                                     
#   2 MAG_AUTO               Kron-like elliptical aperture magnitude                    [mag]
#   3 X_IMAGE                Object position along x                                    [pixel]
#   4 Y_IMAGE                Object position along y                                    [pixel]
#   5 X_WORLD                Barycenter position along world x axis                     [deg]
#   6 Y_WORLD                Barycenter position along world y axis                     [deg]
#   7 A_WORLD                Profile RMS along major axis (world units)                 [deg]
#   8 B_WORLD                Profile RMS along minor axis (world units)                 [deg]
#   9 THETA_WORLD            Position angle (CCW/world-x)                               [deg]
#  10 FWHM_WORLD             FWHM assuming a gaussian core                              [deg]
#  11 ELONGATION             A_IMAGE/B_IMAGE                                           
#  12 ELLIPTICITY            1 - B_IMAGE/A_IMAGE                                       
         1 -15.3576     17.1274    109.7162   1.3596410401e+02   5.1552790438e+01     1.605997     1.238604  89.52  0.005663455    1.382    0.276
         2 -15.3863     25.3504     94.6501   1.3073657545e+02   5.4297048474e+01     1.403504     1.156636 -27.24  0.009442137    1.245    0.197
         3 -15.6256      7.0391     69.9395   1.3194557007e+02   6.0686607730e+01     1.416095      0.69504 -59.61  0.004396183    1.622    0.383
         4 -14.6974     86.4557     66.5151   1.0245964425e+02   5.2502893465e+01     1.874735     1.083224 -10.31  0.007361688    2.950    0.661
         5 -13.4747    118.7038     28.2580   8.0122295160e+01   5.1657680136e+01     2.437798    0.6373673  40.59  0.006880569    5.051    0.802
         6 -15.3056    119.3626     54.6935   8.8754762144e+01   4.7959332677e+01     1.625619    0.9790267  32.16  0.005960539    1.805    0.446
         7 -15.0217    122.3832     36.8190   8.2093841544e+01   4.9796737855e+01      1.54331    0.5893735  42.06  0.004376526    2.584    0.613
         8 -14.4084    101.3612     50.0147   9.2287945138e+01   5.2456707145e+01    0.9295513      0.70171  55.88  0.003520703    1.499    0.333
         9 -12.8883    139.3691     21.6356   7.3436349221e+01   4.7593902061e+01    0.6399549    0.5294483  68.38  0.002302016    1.149    0.130
        10 -14.7342    166.5239     30.0877   7.0985732892e+01   4.0000391413e+01     1.573411    0.8155809  64.43   0.00367851    1.702    0.413
        11 -14.4242    145.6871     30.8204   7.5013085515e+01   4.5049616762e+01     1.113297    0.5662851  56.72  0.003819094    1.682    0.405
        12 -13.3413    187.6139     13.1001   6.3419163636e+01   3.6660045256e+01     0.989813    0.6884184  43.35  0.004779192    1.668    0.400
        13 -14.0495    189.7826     26.8753   6.6584665062e+01   3.4584638746e+01     1.718505    0.6426406 -57.00  0.005562101    4.353    0.770
        14 -13.1008    194.8377     23.4600   6.5058384385e+01   3.3738568720e+01    0.7662377    0.3580702 -31.74  0.003133335    2.406    0.584
        15 -13.8394    222.8376     21.4072   6.1328387828e+01   2.7242590196e+01    0.7860897    0.5530713 -12.93  0.003063177    2.252    0.556
        16 -13.7210    215.0723      9.4563   5.9502374583e+01   3.0432547393e+01    0.7847183    0.4155657  67.05  0.002493958    1.631    0.387
        17 -14.3479    215.3620     20.8063   6.1992815386e+01   2.9077612177e+01     1.180343     0.568825 -28.02  0.005447722    2.608    0.617
        18 -14.1806    218.8003     15.2279   6.0392670959e+01   2.8913902534e+01    0.8333762    0.4842561  61.49  0.003336342    1.631    0.387
        19 -14.6667    217.7889     41.9924   6.6542824028e+01   2.5783251100e+01     1.462663    0.9948078  63.34  0.006323264    1.402    0.287
        20 -15.2505     42.4071      8.4144   9.6784322955e+01   6.7645061543e+01     1.754998     1.118508  -4.54  0.009757144    1.401    0.286
        21 -13.4361      8.3391      3.2104   1.1028321033e+02   7.1886218298e+01    0.6277288      0.48929   7.26   0.00396933    1.364    0.267
        22 -13.8515     24.9518     31.3233   1.1371411614e+02   6.6480117437e+01    0.8148417    0.6404334 -61.26  0.004841203    2.028    0.507
        23 -15.1593      8.3361     29.3731   1.2047626460e+02   6.8062877906e+01    0.8867839    0.7204426  16.14  0.006916482    1.499    0.333
        24 -15.5740     14.7498     18.9856   1.1371670812e+02   6.9211440955e+01     1.312021    0.6706093 -13.05  0.007719802    2.002    0.501
        25 -13.6858    241.9579     35.9622   6.2457966079e+01   2.1003956534e+01    0.9236007    0.5064811 -89.88  0.002920386    1.946    0.486
        26 -15.8564     99.6783     12.8732   7.9476353493e+01   5.7356936072e+01     1.463253    0.6972199  50.58  0.003276502    1.744    0.427
        27 -12.2804    202.4999     11.4458   6.1268384200e+01   3.3213337840e+01    0.3314128    0.2501084 -75.47  0.000550991    1.221    0.181
        28 -11.1534    125.9051      8.8707   7.2046245821e+01   5.1973270461e+01    0.2113716     0.188714  18.30  0.001379189    1.209    0.173
        29 -11.9598    120.7926      3.8786   7.1430458600e+01   5.3554267045e+01    0.5155572    0.2900178 -88.13  0.002167194    3.323    0.699
        30 -11.2314    153.6082      8.1184   6.6871918219e+01   4.5478640919e+01    0.2503621    0.1567938  59.97 0.0004776099    1.308    0.235
        31 -11.5074     67.8817      3.6557   8.5183944534e+01   6.4231998250e+01     0.238966    0.1664246  15.55   0.00130001    1.246    0.197
        32 -11.9615     26.8861      3.7737   1.0148786786e+02   7.0053056898e+01    0.2407873    0.1486423  12.99 0.0006444197    1.371    0.270
        33 -11.3058    243.9935      2.1918   5.5495140754e+01   2.4667003676e+01    0.1999749    0.1564223 -60.52 0.0009291382    1.209    0.173
        34 -12.4001     80.8058      1.9594   8.0467856656e+01   6.2046403823e+01    0.5506833    0.1450065  49.21  0.002284218    2.839    0.648
        35 -13.8023    232.1232      2.5849   5.6513183035e+01   2.7248503828e+01     1.413826    0.3760695  64.14  0.005331679    3.081    0.675
        36 -10.8661     62.4825      1.5153   8.6087393886e+01   6.5333344604e+01    0.1952842    0.1378731  10.03   0.00130239    1.228    0.186
        37 -11.3361     59.4882      1.5271   8.7137949157e+01   6.5822222337e+01     0.238637    0.1431639  32.61  0.001080741    1.355    0.262
        38 -12.3231    110.9627    182.3266   1.2295445998e+02   2.2121063163e+01    0.6015435    0.4056415   2.46  0.002333824    3.097    0.677
        39 -12.5407     78.1367    219.8280   1.3557090803e+02   1.9167983061e+01    0.4141912    0.2342358  52.34  0.002171597    1.547    0.354
        40 -14.5273     96.0452    237.0353   1.3387051990e+02   1.2881115751e+01      1.74514     0.935738  64.26  0.006525173    1.977    0.494
        41 -13.3586     57.1756    246.9471   1.4221503985e+02   1.6674685758e+01     0.913356    0.4866523  31.49  0.004789016    2.525    0.604
        42 -13.9213     27.2823    245.0753   1.4729998206e+02   2.0775086997e+01    0.9519383    0.5550655  87.43  0.006226624    1.422    0.297
        43 -14.3379     23.9744    224.0503   1.4647814563e+02   2.5307302694e+01     1.162161    0.6125754 -83.32   0.00653959    1.611    0.379
        44 -13.7354     29.9567    169.5432   1.4048395974e+02   3.6625506394e+01    0.8184897    0.7426077 -68.85  0.001374937    1.240    0.194
        45 -12.9826     16.6677    196.3255   1.4580306723e+02   3.1920016896e+01    0.9380518    0.2441944 -66.84  0.003818612    2.979    0.664
        46 -13.4652     22.6213    181.3474   1.4329779444e+02   3.4656068620e+01    0.5627489    0.4625043  89.70  0.002505288    1.071    0.067
        47 -14.9071      8.2968    183.4626   1.4646915570e+02   3.5502579318e+01     1.097132    0.8764403  79.51  0.007978465    1.109    0.098
        48 -15.1433     15.4654    175.4167   1.4428926013e+02   3.6661356829e+01     2.360322     1.138198  80.14   0.01102574    2.191    0.544
        49 -11.8597      2.7762    249.9844   1.5154225422e+02   2.2503567739e+01    0.2727675    0.1433067  54.80  0.001893519    1.485    0.327
        50 -14.2550      9.1893    245.7483   1.5031818767e+02   2.2633694031e+01    0.7669147    0.3896003  61.46  0.003165602    1.493    0.330
        51 -12.5881     48.7215    180.7621   1.3746370069e+02   3.1936123985e+01    0.6057484    0.2904755 -62.22  0.002843766    1.870    0.465
        52 -13.0876    194.7837    176.7897   1.0246896576e+02   6.4847155954e+00    0.5768742    0.4517244 -63.23  0.002229514    1.584    0.369
        53 -11.7629    122.3579    181.5391   1.2007431814e+02   2.0196780747e+01    0.5826355    0.3258866  75.23  0.001921074    3.593    0.722
        54 -11.9492    198.6491    182.7760   1.0289235139e+02   4.5370824434e+00    0.3200887    0.2601137  20.50  0.001558701    1.259    0.205
        55 -12.9302    131.5998    173.3387   1.1631020914e+02   2.0287425314e+01    0.6210309    0.5427033 -72.09  0.003249916    1.183    0.155
        56 -13.7065    123.9839    166.3947   1.1683761814e+02   2.3391323250e+01    0.8671229    0.5749909 -65.33   0.00355907    1.662    0.398
        57 -13.3326    122.4689    154.8264   1.1488110365e+02   2.6409345807e+01    0.8130853    0.4837988 -50.06   0.00324811    1.693    0.409
        58 -12.8679    112.0605    156.0135   1.1781394472e+02   2.8125872318e+01    0.7909203    0.4699523  78.52  0.002752835    3.131    0.681
        59 -11.3007    177.0548    167.2732   1.0433346982e+02   1.2148243516e+01    0.2767947    0.2032613 -60.80 0.0009172478    1.598    0.374
        60 -12.9760    201.8912    192.3980   1.0416052022e+02   2.0860959946e+00    0.7309049    0.5128529 -34.45  0.002552837    1.481    0.325
        61 -11.1419    101.8087    161.1365   1.2145693242e+02   2.8758958321e+01    0.3398647    0.2013398  27.47  0.001416241    2.139    0.533
        62 -11.4793     27.6157    158.8183   1.3982852956e+02   3.9345505705e+01     0.334583    0.2011607 -76.91  0.001793865    1.403    0.287
        63 -12.4286     25.4341    155.8452   1.4000792762e+02   4.0242029919e+01    0.4575141    0.3391042 -23.79  0.002751529    1.952    0.488
        64 -12.6745     77.6076    157.2146   1.2702594562e+02   3.3649591084e+01    0.5123345     0.336788  36.76  0.001300714    1.624    0.384
        65 -13.4588     74.5436    153.1308   1.2712949477e+02   3.5090963680e+01    0.8112053     0.652602  39.74  0.003248523    1.333    0.250
        66 -11.7232    154.8849    157.5164   1.0737364736e+02   1.9053156986e+01     0.416325    0.2758028  64.47  0.001713526    1.884    0.469
        67 -13.2859    208.2841    154.1768   9.4742522622e+01   8.1201093069e+00     0.780445    0.6462523  47.53  0.004026854    1.239    0.193
        68 -11.6798     55.7535    155.8530   1.3245476187e+02   3.6970256264e+01    0.4249677    0.2957642 -23.69  0.002038854    2.202    0.546
        69 -11.3377    230.3295    185.6592   9.7118291683e+01  -2.0650316161e+00    0.1325052    0.1133669 -81.71 0.0007051533    1.742    0.426
        70 -12.3215     85.6777    153.3114   1.2422049611e+02   3.3350864045e+01     0.575772    0.3514048 -45.46  0.002631946    1.755    0.430
        71 -11.4719     41.4952    154.2653   1.3584924522e+02   3.9006853314e+01      0.34222    0.1880103  72.28  0.001577627    2.328    0.570
        72 -12.2284    145.9589    151.9523   1.0832169080e+02   2.2232349380e+01     0.332922    0.2653894   0.26  0.001505978    1.687    0.407
        73 -12.2880    103.3778    150.0628   1.1889726221e+02   3.1143229025e+01     0.432812    0.3533389 -27.14  0.001553033    1.497    0.332
        74 -12.2806      6.2971    148.3888   1.4377389196e+02   4.3520845302e+01    0.4851281    0.2962292 -84.98  0.002957016    1.375    0.273
        75 -12.4766    244.1865    146.8807   8.6409171668e+01   2.1961403235e+00    0.4772859    0.2288866 -40.27  0.002048848    1.910    0.476
        76 -11.2644     60.1322    149.3869   1.3031060374e+02   3.7973236480e+01    0.1978802    0.1750263 -57.51 0.0006630002    1.140    0.123
        77 -12.7421     63.4960    146.9752   1.2901761149e+02   3.8116975242e+01    0.3080348    0.2643158 -64.53  0.001473616    1.073    0.068
        78 -12.4638    140.1006    143.3061   1.0783420600e+02   2.5470061022e+01    0.4129054    0.2623244  69.10  0.001569869    2.273    0.560
        79 -11.2556     38.4471    145.9343   1.3547676298e+02   4.1305556678e+01    0.2110956    0.1799218 -23.74 0.0006701012    1.491    0.329
        80 -11.4435     44.7933    145.0539   1.3368791366e+02   4.0840170221e+01    0.2530509    0.2035805 -25.35 0.0005998368    1.591    0.372
        81 -11.3841    162.7268    141.7723   1.0190746847e+02   2.0822501460e+01    0.4334383    0.2164027 -39.71  0.001588479    2.150    0.535
        82 -11.4580    149.3085    140.8318   1.0494748601e+02   2.4030274630e+01     0.465826    0.3253935  65.87  0.001968466    1.739    0.425
        83 -13.3025     44.3179    136.0647   1.3242465196e+02   4.3033139243e+01    0.9912668    0.4118536 -55.84  0.004415003    2.020    0.505
        84 -10.9962     15.0460    139.0353   1.4059347703e+02   4.5011318119e+01    0.1774068    0.1448201 -75.65 0.0003772057    1.030    0.029
        85 -13.6395    132.9623    128.9905   1.0628832290e+02   3.0285821694e+01     1.039234    0.5642056 -39.46   0.00400641    2.008    0.502
        86 -11.7457    137.5310    133.0318   1.0607609713e+02   2.8379864843e+01    0.4057043    0.2585304  28.51   0.00104775    1.941    0.485
        87 -10.9834     56.6736    137.8179   1.2931310812e+02   4.1192553382e+01    0.2177843    0.1951261  -0.61  0.001228204    1.367    0.268
        88 -12.7152    246.5629    133.3689   8.3076725206e+01   4.1473003329e+00    0.5875531    0.4156556 -49.22    0.0027944    1.375    0.272
        89 -14.5150    229.7789    129.5458   8.5084791621e+01   8.2724212616e+00     1.406139     1.040131  65.21  0.007002913    1.582    0.368
        90 -10.8813     31.5384    135.9930   1.3588172582e+02   4.4327801900e+01    0.1996634    0.1063333 -67.30 0.0005795379    1.562    0.360
        91 -13.7197     99.1769     93.5250   1.0655770403e+02   4.4932514098e+01     1.355643     1.129834  32.64  0.007205646    1.218    0.179
        92 -13.1597    136.9943     96.2021   9.6616306327e+01   3.6521965841e+01    0.5526526    0.4543074 -47.99  0.002156295    1.254    0.203
        93 -15.1131    105.1516    123.1034   1.1247477263e+02   3.7233563322e+01     2.332221     1.406502  34.85   0.01007024    1.776    0.437
        94 -14.1902     90.1318    109.3145   1.1349571309e+02   4.3072407212e+01     1.606988    0.8315555  27.32  0.006383405    2.417    0.586
        95 -12.0332     83.5023    133.0490   1.2086792325e+02   3.8591073381e+01    0.5447088    0.1466205 -58.76  0.001570015    3.992    0.750
        96 -10.3113     11.2240    134.4166   1.4101540377e+02   4.6352302894e+01    0.1401597    0.1062224  51.39 0.0003328533    1.502    0.334
        97 -11.1221     57.7721    128.0148   1.2723817049e+02   4.3400808114e+01     0.278009    0.1712044 -66.27 0.0008376984    1.523    0.343
        98 -11.4281     60.6576    124.7567   1.2577532990e+02   4.3814054395e+01    0.3479452    0.2512261 -31.79  0.001409983    1.588    0.370
        99 -12.9089      3.9990    119.9145   1.4113758330e+02   5.0106897362e+01    0.4903226    0.4486843 -32.08   0.00220799    1.317    0.241
       100 -13.3967     62.1167    102.0772   1.2044435470e+02   4.8875674643e+01     1.301483    0.5478981 -59.57  0.005204515    2.435    0.589
       101 -14.4612     48.6478     96.3339   1.2346756526e+02   5.1756922963e+01     1.734818     1.247515  18.83  0.009935126    1.586    0.370
       102 -14.1088     27.9581    124.0996   1.3509011287e+02   4.7423539984e+01     2.176312    0.4175596 -49.36  0.006927297    4.595    0.782
       103 -11.6856    235.5073    248.5185   1.0781801014e+02  -1.2475677223e+01    0.2597453    0.1013885  37.05  0.001224992    2.216    0.549
       104 -14.2008      2.5345     97.0296   1.3836802466e+02   5.5237627476e+01     1.145224    0.4071952 -69.56  0.005399554    2.330    0.571
       105 -13.7780    170.7829    242.0378   1.1937784933e+02  -8.8153651545e-01     1.032462    0.7028733  27.17  0.005672776    1.448    0.310
       106 -11.3554    184.9079    124.1164   9.2579581486e+01   1.9462791853e+01    0.2961576    0.2491681 -78.93 0.0003843914    1.364    0.267
       107 -12.2509    180.6409    121.0829   9.2756142935e+01   2.1094775965e+01    0.4147428    0.3085108  45.97  0.001084351    1.346    0.257
       108 -15.2432    105.8242    108.7152   1.0868652509e+02   4.0391791269e+01     2.109559     1.596163  12.26  0.009939523    1.656    0.396
       109 -11.5992     51.6401    116.9380   1.2691259829e+02   4.6737984201e+01    0.4765982    0.2431838 -73.70  0.002014603    2.430    0.589
       110 -11.0901    192.8572    117.3036   8.9222169812e+01   1.8968038359e+01    0.2561781     0.202044  76.63  0.001193572    1.468    0.319
       111 -12.4024    176.8342    111.4131   9.1146616149e+01   2.3983328147e+01    0.5688309    0.4297487 -25.11  0.002249497    1.545    0.353
       112 -12.6620     45.6460    110.0716   1.2737362719e+02   4.8984006666e+01    0.5754705     0.380797 -41.38  0.002541804    1.446    0.308
       113 -10.9388    194.6454    112.6910   8.7715678406e+01   1.9457834092e+01    0.1594912     0.124193  14.89 0.0001718204    1.724    0.420
       114 -13.3720     85.7140    115.3999   1.1630384950e+02   4.2407225314e+01      1.10272    0.6436853  12.22  0.004188165    2.987    0.665
       115 -11.1708    222.5229    109.6629   8.1769639138e+01   1.3554249427e+01    0.2564081    0.1387203  54.83  0.001078562    1.935    0.483
       116 -13.3185    248.9176     96.6203   7.4666068180e+01   1.0115962572e+01    0.8628666    0.3295266 -40.22  0.003404526    2.345    0.574
       117 -11.1454    161.9916     97.1191   9.0723210879e+01   3.0438432971e+01    0.3280641    0.2592694  52.79  0.001530882    1.234    0.189
       118 -10.7868    188.8427     97.0964   8.4941297575e+01   2.3871945834e+01      0.25061    0.2104166 -76.43  0.001234094    1.288    0.223
       119 -12.3612    127.4875     95.7132   9.9013201513e+01   3.8744185086e+01    0.5026512    0.2651912  58.36   0.00184354    2.429    0.588
       120 -11.3357     76.0803     95.6906   1.1437579493e+02   4.8340790981e+01    0.2408576    0.1854896 -40.55  0.000315166    1.206    0.171
       121 -14.4595    197.9133     70.8581   7.6524454496e+01   2.6283449980e+01     2.313017    0.8281407  44.86  0.007244722    3.649    0.726
       122 -13.7861    188.4884     84.3999   8.1724420735e+01   2.6295559519e+01     1.390812    0.5009252  50.69  0.001424976    2.690    0.628
       123 -13.6049    213.6198     78.8002   7.5892962754e+01   2.1122907467e+01     1.144522    0.7560653  83.15  0.005234384    1.792    0.442
       124 -12.2107    219.6425     74.8971   7.4015572384e+01   2.0340640633e+01     0.352355    0.3148867  88.22  0.000563988    1.057    0.054
       125 -14.9082    160.9400     80.6809   8.6425757087e+01   3.3801899219e+01     2.053824     1.330809  26.69  0.005418874    2.157    0.536
       126 -13.3046    134.9773     79.5854   9.2356183366e+01   4.0211363003e+01     1.003097    0.5109805  44.09  0.002797387    1.913    0.477
       127 -12.8878    132.5851     86.1412   9.4903673307e+01   3.9517765708e+01    0.4604045    0.4408153 -26.46  0.001669286    1.069    0.064
       128 -11.8681    125.4669     86.7142   9.6983965508e+01   4.0991631881e+01    0.5739542    0.3597464  41.08  0.002528484    1.579    0.367
       129 -13.2731    135.7976    103.2861   9.8888564916e+01   3.5327981545e+01     1.793146    0.4431209  49.27   0.00462862    4.361    0.771
       130 -11.8616     89.7668     87.5131   1.0776699379e+02   4.7864670218e+01    0.4391334    0.2659046  47.52   0.00200751    1.857    0.461
       131 -10.5862     78.9820     87.5006   1.1122003883e+02   4.9640747338e+01    0.1999593    0.1373345  33.88 0.0004127808    1.521    0.343
       132 -12.3157    147.1783    238.8423   1.2371481993e+02   3.8431897849e+00    0.3689959    0.2827014 -79.10  0.001104649    1.676    0.403
       133 -12.1620      5.8689     50.9665   1.2793133876e+02   6.4429369480e+01    0.3869382    0.2217732 -58.87  0.002423708    1.590    0.371
       134 -13.1143    241.8205     83.8327   7.2844687856e+01   1.3792636960e+01    0.5602778    0.3037042  61.29  0.002487239    1.942    0.485
       135 -13.6917    238.2427     80.4341   7.2584561106e+01   1.5146608933e+01      1.04804    0.4510944  60.65  0.004312253    2.426    0.588
       136 -10.9134     98.1797     83.9814   1.0411660513e+02   4.7074607596e+01    0.2143245     0.197326  87.35 0.0005365975    1.331    0.249
       137 -11.8747    100.4534     64.3657   9.7339812294e+01   5.0306172343e+01    0.4727156    0.3518496  16.08  0.002113216    1.460    0.315
       138 -13.3038     38.9959     67.8240   1.1963319522e+02   5.8711775370e+01     1.095953    0.4449385  20.80  0.004909185    2.947    0.661
       139 -14.2180     64.5581     65.6826   1.0967145451e+02   5.6085718022e+01     1.225034     0.764953 -45.03   0.00648774    1.539    0.350
       140 -13.3819     75.7687     73.7656   1.0828210255e+02   5.2902018506e+01     1.047707    0.4406451  31.47  0.004028053    2.628    0.619
       141 -12.3713    144.3082    232.9310   1.2345500635e+02   5.4250407828e+00    0.6364316    0.3512073 -37.07  0.002893304    2.595    0.615
       142 -13.5010     56.6928     78.5370   1.1623765047e+02   5.4608622474e+01    0.6258885    0.3080704 -42.27  0.001117256    1.817    0.450
       143 -12.1538     52.0775     79.9735   1.1824048568e+02   5.4867617540e+01    0.2480462    0.1744124 -51.69 0.0003392108    1.329    0.248
       144 -13.5217     60.8442     75.4202   1.1390688040e+02   5.4708571693e+01    0.5942284    0.3684588 -47.39  0.001165504    1.493    0.330
       145 -12.0633    113.8638     80.4804   9.8393593927e+01   4.4673598576e+01    0.4211061    0.3783953 -35.06  0.001506572    1.129    0.114
       146 -11.8520     90.7894     80.0593   1.0526172601e+02   4.9188716544e+01    0.4196689    0.3131333  12.55  0.001338529    1.515    0.340
       147 -12.4704     41.8554     77.4442   1.2117809456e+02   5.6497088569e+01    0.3693343    0.2379869 -48.78 0.0008025039    1.330    0.248
       148 -12.7281     62.1404    134.7054   1.2723523480e+02   4.1250578857e+01    0.5655573    0.3935113 -74.24 0.0007520389    1.437    0.304
       149 -12.6706    241.9532     71.9428   7.0197800970e+01   1.5702526373e+01    0.5738643     0.334373 -72.47  0.002578618    2.152    0.535
       150 -11.3463     41.4215    249.7392   1.4519989718e+02   1.8187818292e+01    0.2727131    0.1658431  85.05  0.001592858    1.410    0.291
       151 -13.7497    133.5328     67.5185   8.9096843508e+01   4.2683177369e+01     1.249272    0.8068944  37.60  0.004637887    1.581    0.368
       152 -11.2256     40.6743    245.6686   1.4504190938e+02   1.9056964191e+01    0.2038831    0.1769726 -88.13  0.001540746    1.370    0.270
       153 -13.6747      9.4008    210.8105   1.4822702212e+02   2.9541401672e+01    0.7043993    0.5770195  42.26  0.005049223    1.531    0.347
       154 -14.5384    170.3578     76.9130   8.3344894898e+01   3.2136782705e+01     0.995221    0.9486604 -17.70  0.004125517    1.159    0.137
       155 -13.7313    112.3656     40.2741   8.5835438735e+01   5.1558076575e+01    0.8561046    0.4778944  24.91  0.003296952    2.329    0.571
       156 -13.3476    236.5957    230.4859   1.0449318130e+02  -1.0192246004e+01    0.4288267    0.3960447  30.44  0.002917767    1.369    0.270
       157 -11.5468    158.1158     63.9122   8.2268997503e+01   3.7367667148e+01      0.36608     0.201682 -47.40  0.001523841    2.014    0.504
       158 -14.0019    178.1701     57.4019   7.6471314330e+01   3.3365191027e+01    0.8399887    0.6569655 -64.97  0.002333205    1.376    0.273
       159 -11.6975     86.1768     49.9426   9.7002854115e+01   5.5343971882e+01    0.5173299    0.2697092 -20.24  0.002102572    2.529    0.605
       160 -13.4102     78.9507     61.1265   1.0320419844e+02   5.4726833305e+01    0.5848267    0.4772698   2.36  0.002290751    1.180    0.152
       161 -12.3082     82.3342     56.8625   1.0064495178e+02   5.4893201085e+01    0.3701028    0.2227424 -41.23  0.001373003    1.697    0.411
       162 -12.7678     39.4191     60.4321   1.1734731760e+02   6.0087896865e+01    0.3320954    0.2901497  11.67  0.002230495    1.256    0.204
       163 -12.4423     24.5731     60.1324   1.2297924514e+02   6.1473038937e+01    0.2982979    0.1843897 -44.71 0.0009995454    1.294    0.227
       164 -11.2264     31.1079     59.5662   1.2029095093e+02   6.1036783814e+01    0.3537828    0.1233854 -48.62  0.001621683    2.285    0.562
       165 -12.6474    247.7093     53.7165   6.5568448714e+01   1.7229634914e+01    0.5793658    0.3022596 -62.24  0.002707218    2.017    0.504
       166 -12.6157    250.0147     49.1148   6.4351564324e+01   1.7396043377e+01    0.4640801    0.2984925 -44.72  0.001669843    1.441    0.306
       167 -12.1251    230.3283     55.2824   6.7986850534e+01   2.0916548752e+01    0.5603712    0.2620406  67.50  0.002450887    2.130    0.531
       168 -13.9748     51.1200     68.4074   1.1533871258e+02   5.7291843155e+01    0.7889795    0.7094719 -62.08  0.004286214    1.375    0.273
       169 -13.6403     67.0661     48.8634   1.0319239890e+02   5.8657641770e+01    0.6714452    0.5262702 -24.97  0.004118912    1.177    0.150
       170 -10.8562     40.5941     50.4628   1.1378347634e+02   6.1776022128e+01    0.3093958   0.08824242 -43.16   0.00125142    2.937    0.659
       171 -10.5894     23.2943     50.0249   1.2059408261e+02   6.3453256592e+01    0.1650528    0.1236902 -35.57 0.0004925073    1.072    0.067
       172 -13.8120    159.0241     44.5407   7.6467045892e+01   4.0025438762e+01     1.530812     0.454444  50.68  0.005141173    2.968    0.663
       173 -13.0623     45.5079    208.8078   1.4111000269e+02   2.6013434148e+01    0.7852908    0.4704873  26.64  0.004208076    2.330    0.571
       174 -13.3551     57.3823    202.4088   1.3800008941e+02   2.5900567580e+01     1.036491    0.3363968 -69.80  0.004080454    3.028    0.670
       175 -12.7873    152.1446     31.3617   7.3922110150e+01   4.3409551818e+01    0.4062112    0.3076427 -10.89  0.001341315    1.638    0.390
       176 -12.9178     52.8931    214.2964   1.4014349264e+02   2.3889783462e+01    0.4789623    0.2777509  66.89  0.002239567    1.599    0.375
       177 -13.5518     68.0827    222.7335   1.3792911467e+02   2.0024859847e+01    0.6791149    0.5928829 -40.00  0.004373186    1.693    0.409
       178 -14.1986     62.9347    214.9921   1.3817492807e+02   2.2392029899e+01    0.9152351    0.6552145 -77.39  0.004610647    1.307    0.235
       179 -10.8408    163.4196    225.7316   1.1834322419e+02   3.2651338272e+00    0.1796165    0.1320926 -32.67 0.0009524563    1.652    0.395
       180 -11.5145    160.0290    230.4920   1.1980858348e+02   3.0271650792e+00    0.1949901    0.1943935 -85.47  0.001253804    1.169    0.145
       181 -12.2749     85.4910    215.8926   1.3357773809e+02   1.8882265433e+01    0.3650894    0.2192785  51.11  0.001569964    1.468    0.319
       182 -11.6868    180.8656    215.9059   1.1300321208e+02   1.7994510610e+00    0.2253311    0.1849795  10.20  0.001246894    1.310    0.237
       183 -12.9179    185.2509    212.3344   1.1144209053e+02   1.6204518148e+00    0.6266844    0.2370795 -43.85  0.002392118    2.916    0.657
       184 -11.9981    136.8646    211.4948   1.2178559071e+02   1.0954482803e+01     0.321677    0.2441802  81.24  0.001035131    1.570    0.363
       185 -13.1038     46.3926     33.8078   1.0559254458e+02   6.3819455501e+01    0.6689535    0.3967806 -10.12  0.003706776    1.823    0.451
       186 -13.1915     56.0954     27.6499   9.9379019945e+01   6.3404122036e+01    0.4778962    0.2859188  33.66  0.001713984    1.596    0.374
       187 -11.0128    157.4449    213.2568   1.1756412321e+02   6.7255588663e+00    0.1836959    0.1396059 -67.88 0.0009437591    1.621    0.383
       188 -14.3046     97.8707    217.7829   1.3118343562e+02   1.6502170548e+01    0.9091592    0.6245944  44.33  0.004941602    1.343    0.256
       189 -12.0819     72.1419    207.8526   1.3546497950e+02   2.2639774962e+01    0.5442752    0.2727196 -70.93  0.002610949    1.986    0.496
       190 -13.1381     33.6370     32.7473   1.1048290413e+02   6.5423403614e+01    0.4433587    0.3381556  39.61  0.002437688    1.851    0.460
       191 -10.3141    126.4987    211.5403   1.2408100454e+02   1.2852855288e+01    0.1436345    0.1244689  59.29 0.0001773432    1.029    0.029
       192 -12.1190     80.1898    208.4805   1.3381222238e+02   2.1304441064e+01    0.4042141    0.2041475  55.37   0.00188793    1.903    0.474
       193 -13.5887    205.3965     40.3667   6.7781424040e+01   2.9009103908e+01     0.889362    0.4429886  87.38  0.003455349    2.750    0.636
       194 -11.6198     25.4667     43.1988   1.1756906278e+02   6.4479842443e+01    0.2059677     0.134362 -33.61 0.0006487941    1.222    0.182
       195 -13.0211     75.8289     37.4582   9.5975743031e+01   5.8991360752e+01    0.4827957    0.2924823  22.71 0.0008745994    1.695    0.410
       196 -12.5127     70.4661     36.7444   9.7578317598e+01   5.9973229775e+01    0.4422289     0.293105  -2.04  0.001768143    1.624    0.384
       197 -13.4747      8.9240     42.8444   1.2443648690e+02   6.5733598193e+01    0.7558674    0.5719734  34.13  0.005416733    1.817    0.450
       198 -10.8004    149.9885    206.6767   1.1808506416e+02   9.4542382616e+00    0.2173725    0.1702543  41.33  0.001142913    1.163    0.140
       199 -12.1257    245.5820     31.2252   6.1117059567e+01   2.0828296053e+01    0.3112041    0.2116065 -51.86  0.001427062    1.329    0.248
       200 -12.2132     97.1621     27.0214   8.5373703274e+01   5.6380549056e+01    0.3288967    0.2825882  13.84  0.001763972    1.083    0.077
       201 -11.2027     65.3725     24.2308   9.4560558989e+01   6.2450139149e+01    0.3226919    0.1876137  -6.67  0.001692549    1.988    0.497
       202 -11.3727     75.7319     23.6332   9.0725716279e+01   6.0799998438e+01    0.2727516    0.1829496  50.68  0.001290425    1.696    0.410
       203 -11.4498    213.3361    200.7364   1.0346273934e+02  -1.5670423677e+00    0.3510071    0.2707105 -53.64  0.001875836    1.624    0.384
       204 -11.0774     60.2693     15.9129   9.3026263559e+01   6.4237497141e+01     0.204841      0.16796 -35.98  0.001377057    1.618    0.382
       205 -10.5694     80.6221    201.7842   1.3288197228e+02   2.2723470347e+01    0.1904508    0.1176362 -81.19 0.0009432359    1.697    0.411
       206 -12.4963     41.6116    200.8454   1.4114875094e+02   2.8232426263e+01    0.2973225    0.2085883 -77.66  0.001478417    1.250    0.200
       207 -13.8240     39.3756    194.9994   1.4104684569e+02   2.9796077829e+01    0.9244899    0.4255557  54.41  0.004590825    2.095    0.523
       208 -13.3648    164.5772    194.8638   1.1271217661e+02   8.9983630874e+00    0.7838385     0.478925 -63.35   0.00333632    2.212    0.548
       209 -11.4511     70.7519     16.8848   8.9713255689e+01   6.2425444270e+01    0.2080929     0.166539  25.97 0.0004042553    1.100    0.091
       210 -12.2811    179.4218    196.8294   1.0981032939e+02   5.6548217004e+00    0.3301116    0.2497634 -60.09  0.001650394    1.606    0.377
       211 -11.5716    248.6635    194.3334   9.5449531224e+01  -6.6750218477e+00    0.2964621    0.1541722 -29.65  0.001410495    1.885    0.470
       212 -10.7976    107.4610    193.2616   1.2556801570e+02   2.0242232367e+01    0.2551225    0.1341274 -53.87  0.001111007    1.984    0.496
       213 -10.4255     81.2609    193.3871   1.3163322942e+02   2.4527596936e+01    0.1987522     0.113602  49.85 0.0009538769    1.645    0.392
       214 -13.0552     98.2100    187.6500   1.2686191723e+02   2.3116916655e+01    0.6458814    0.5299723 -56.19  0.003565309    1.301    0.231
       215 -13.7793     86.5327    177.7551   1.2812185908e+02   2.7346050954e+01     1.345466     0.745006 -70.90  0.005999247    1.909    0.476
