#   1 NUMBER                 Running object number                                     
#   2 MAG_AUTO               Kron-like elliptical aperture magnitude                    [mag]
#   3 X_IMAGE                Object position along x                                    [pixel]
#   4 Y_IMAGE                Object position along y                                    [pixel]
#   5 X_WORLD                Barycenter position along world x axis                     [deg]
#   6 Y_WORLD                Barycenter position along world y axis                     [deg]
#   7 A_WORLD                Profile RMS along major axis (world units)                 [deg]
#   8 B_WORLD                Profile RMS along minor axis (world units)                 [deg]
#   9 THETA_WORLD            Position angle (CCW/world-x)                               [deg]
#  10 FWHM_WORLD             FWHM assuming a gaussian core                              [deg]
#  11 ELONGATION             A_IMAGE/B_IMAGE                                           
#  12 ELLIPTICITY            1 - B_IMAGE/A_IMAGE                                       
         1 -13.5794    221.0872      8.1272   3.5683058828e+01   2.9362223909e+01     1.228615     1.042819  46.98  0.005120951    1.473    0.321
         2 -14.2356    195.0183     38.2406   4.6030154010e+01   3.1990974823e+01     2.399321     1.528979  21.48     0.010465    2.623    0.619
         3  -9.7787    189.6851     14.7657   4.0404370952e+01   3.6064181734e+01    0.2189168    0.1964931  49.91 0.0008334278    1.241    0.194
         4 -10.0316     79.9486     15.0241   6.1973345218e+01   6.1832533914e+01    0.2790382    0.1812227  56.28 0.0009294547    1.710    0.415
         5 -11.8174    248.6239    246.2528   8.3153181001e+01  -1.1123832326e+01    0.5493802     0.262015 -31.28  0.003189964    2.100    0.524
         6  -7.6773     49.0534    217.2842   1.1850547324e+02   2.3053813150e+01    0.2627209     0.186246   7.85  0.001473881    2.503    0.601
         7  -9.3946     27.4638    214.9411   1.2257605597e+02   2.5959173619e+01    0.1823162    0.1437228  59.33   0.00129882    1.163    0.140
         8  -9.9301    184.1562    212.6657   8.9515644980e+01   3.1088275235e+00    0.2123219    0.1889868 -48.70  0.001309809    1.374    0.272
         9 -10.6769    164.0697    211.9629   9.3536688017e+01   6.6349730111e+00    0.2600774    0.2068101 -55.12  0.001491943    1.503    0.335
        10 -10.5218     28.8578    209.7340   1.2194395037e+02   2.6894449980e+01    0.1626628    0.1196466  66.11 0.0004174517    1.110    0.099
        11  -9.6464     42.5995    208.8718   1.1911510894e+02   2.5567397992e+01    0.2203568    0.1235792  63.97 0.0003339666    1.629    0.386
        12 -11.1174     65.9839    207.0099   1.1405241325e+02   2.3084894476e+01    0.2036797     0.171956  83.25 0.0003114654    1.071    0.067
        13 -11.1507     64.7590    203.1795   1.1391811915e+02   2.4069548008e+01    0.2283192    0.1781828  80.75 0.0004102263    1.149    0.130
        14 -10.8348     62.5948    250.5065   1.1853968849e+02   1.4985530848e+01    0.2054306    0.1012989  46.91 0.0008478644    1.587    0.370
        15  -8.2096    224.2724    206.6745   8.0637051494e+01  -2.4770047561e+00    0.1094732    0.1047982 -62.34 0.0002419184    1.579    0.367
        16  -9.0157     93.7052    205.4489   1.0784696949e+02   1.9500828684e+01    0.2387547    0.2122794  15.99 0.0008413584    1.393    0.282
        17  -9.0084     96.2377    202.0236   1.0684315003e+02   1.9843465806e+01    0.2496022    0.1510194 -54.99 0.0007779585    1.766    0.434
        18 -10.9477    193.3461    195.3916   8.4534638898e+01   4.4758873897e+00     0.956668    0.5179827 -63.12  0.003064377    5.286    0.811
        19  -9.7089     56.4987    209.4908   1.1629910396e+02   2.3772324706e+01    0.3158246    0.1597382  85.78  0.001027067    2.325    0.570
        20  -9.4984     29.5968    205.0936   1.2146024428e+02   2.7797341667e+01    0.2601689    0.1017862  49.36  0.001070498    2.204    0.546
        21 -10.0514    204.5238    200.4566   8.3252563210e+01   1.7024835687e+00    0.2454959    0.1174445 -28.16  0.001036684    2.460    0.593
        22  -9.7271     38.4110    199.2113   1.1917587628e+02   2.8116752393e+01    0.1540532    0.1123487  80.97 0.0002738816    1.154    0.134
        23 -11.3492     52.6269    200.2670   1.1624402115e+02   2.6235665212e+01    0.2348643    0.1664507  68.02 0.0005798207    1.253    0.202
        24  -9.3835     81.5893    194.3672   1.0915932299e+02   2.3689430799e+01    0.2943235    0.2023585  73.86  0.001570513    1.530    0.346
        25 -11.4574    149.3447    187.9983   9.2604465707e+01   1.3804568396e+01    0.4924837    0.3568558 -74.09  0.002377383    1.899    0.473
        26 -12.1151     49.0026    248.5778   1.2084360916e+02   1.7002747194e+01      0.18496    0.1339968  87.96 0.0004759962    1.285    0.222
        27 -12.3013     54.3891    196.8027   1.1552049817e+02   2.6782187084e+01    0.4510924    0.2650811 -49.14  0.001753477    2.120    0.528
        28  -9.3683     92.8210    185.6962   1.0537795940e+02   2.3956677629e+01    0.2699343    0.1901726  50.37  0.001382706    1.346    0.257
        29 -10.9493     98.8169    181.2148   1.0328031974e+02   2.4032113208e+01    0.4570034    0.3385413   4.61  0.001990959    2.028    0.507
        30 -10.8470    142.8905    179.0716   9.2443167961e+01   1.6840697713e+01    0.2691482    0.2439074  85.26 0.0008646554    1.236    0.191
        31 -10.1855    187.9100    176.2924   8.1909820277e+01   8.9129133024e+00    0.3600102    0.3459034 -71.20  0.002097889    1.268    0.211
        32  -9.5063    149.1422    176.7075   9.0548622271e+01   1.6173385185e+01    0.2342374    0.1986539 -63.74 0.0004913911    1.318    0.241
        33  -9.8433    146.8838    172.5214   9.0261728495e+01   1.7485263167e+01    0.2591284    0.2114815 -87.18 0.0007494203    1.559    0.359
        34 -19.5165     14.1792    145.0479   1.1979481172e+02   4.2913019324e+01     19.24956     4.659945 -76.44   0.06563679    3.894    0.743
        35  -9.8422     55.5264    174.3522   1.1278720214e+02   3.1775050258e+01    0.2879888    0.1958482  71.87  0.001566962    1.470    0.320
        36 -11.3145    239.2221    173.8675   7.1527354693e+01   2.0595455767e-01    0.2745883    0.2520045 -60.31  0.001702481    1.534    0.348
        37  -9.9166     84.1018    173.4105   1.0567805848e+02   2.8113158370e+01    0.2217151    0.1811678 -57.57 0.0003829688    1.248    0.199
        38 -10.1137     45.9264    173.0188   1.1493329270e+02   3.3222308244e+01    0.3108349    0.2814911  29.06   0.00133581    1.358    0.264
        39 -10.9501    126.0261    172.8847   9.5293350155e+01   2.1275208904e+01    0.3818275     0.212822  31.21   0.00160252    1.982    0.496
        40  -8.8431    194.0546    171.6418   7.9673266489e+01   8.6248662876e+00    0.2073279    0.1762963  28.10  0.001135157    1.143    0.125
        41  -9.6435    185.2723    169.2543   8.1010433653e+01   1.0752078051e+01    0.3415861    0.1925502 -52.74  0.001429187    2.160    0.537
        42  -9.2993    240.3403    169.2858   7.0390582177e+01   7.5257209846e-01    0.1375185   0.09394193   1.96 0.0003047405    1.637    0.389
        43 -10.6411    137.9352    169.7080   9.1828267932e+01   1.9783108910e+01    0.3962702    0.2758786  35.36  0.001315835    1.434    0.303
        44 -11.8784     94.3432    151.1806   9.9315461008e+01   3.1835115422e+01    0.7070536    0.5795915 -33.13  0.002746459    1.406    0.289
        45 -10.8100    133.7078    144.9436   8.7718823135e+01   2.6163200855e+01     1.213792    0.3012636 -53.98  0.002830119    5.712    0.825
        46  -9.3666    113.0258    151.1337   9.4369129276e+01   2.8637741789e+01    0.2916328    0.1992873 -87.29  0.001055633    2.086    0.521
        47  -9.4547    187.4586    151.5052   7.6683064219e+01   1.3780628246e+01    0.1502996    0.1403309  -8.29 0.0001673115    1.015    0.015
        48  -9.5954    174.7524    149.1415   7.8899306363e+01   1.6859225667e+01    0.2576681    0.2136956  56.76 0.0008571558    1.347    0.257
        49  -8.7258    109.5585    147.9706   9.4638806767e+01   3.0010252079e+01    0.2204175    0.1447062 -56.52  0.000364412    1.505    0.336
        50 -11.0733    106.3081    137.4674   9.3307596544e+01   3.3105172609e+01    0.5733518    0.3702468 -31.80  0.002440704    1.951    0.487
        51 -10.6427    105.9369    130.8510   9.1945085370e+01   3.4759715271e+01     0.406389     0.336172 -63.66  0.001153557    1.216    0.178
        52 -11.6954     94.2292    137.3155   9.6620378154e+01   3.5225213723e+01    0.2925473    0.2635313 -36.21 0.0004771178    1.175    0.149
        53 -10.2175    135.9066    130.3834   8.3773608328e+01   2.9039427586e+01    0.6705903    0.1713699 -49.15  0.001782848    4.072    0.754
        54 -10.1472    134.8175    121.5460   8.1863427550e+01   3.1263229603e+01    0.5794206    0.1190053 -47.73  0.001372608    5.003    0.800
        55 -10.7239    114.1231    129.0173   8.9252546015e+01   3.3681005133e+01    0.3552543    0.3322266 -16.67 0.0009499433    1.139    0.122
        56  -8.4372     98.9211    130.4718   9.3833720594e+01   3.6091956580e+01     0.209127    0.1492648  39.97 0.0006198185    1.458    0.314
        57  -9.2720    160.6365    127.8692   7.7061360401e+01   2.4324017662e+01    0.3179622    0.1962606 -55.87  0.001286736    1.875    0.467
        58 -10.3572    101.4556    124.7327   9.1807466894e+01   3.7029916294e+01    0.2959578    0.2402892 -25.93 0.0004745323    1.394    0.283
        59 -10.6263    119.7342    123.0419   8.6273133584e+01   3.3996721200e+01    0.4670919    0.3347767  -5.77  0.001909367    2.085    0.520
        60  -9.4679    109.5301    118.2642   8.7940100577e+01   3.7084631604e+01    0.2472417    0.2343574  56.22 0.0002107965    1.106    0.096
        61 -10.0826    231.3615    113.7959   5.9638301798e+01   1.1777554793e+01    0.3089677    0.2436994 -33.70 0.0008024339    1.136    0.120
        62  -9.3153    167.8205    112.7224   7.1529717256e+01   2.5887049522e+01    0.3086707    0.2019843 -64.81  0.001222781    2.127    0.530
        63 -11.5227    118.4080    109.9073   8.3272963070e+01   3.7279051020e+01    0.6188029    0.4995092  80.84  0.002734448    1.595    0.373
        64  -9.4687    205.3327    110.2504   6.3249741068e+01   1.7909869525e+01    0.2968726    0.2085837  44.05 0.0009005775    1.524    0.344
        65  -9.7795    134.6049    106.4188   7.7924327772e+01   3.4655995318e+01    0.4003498    0.1492266 -52.33   0.00117754    3.378    0.704
        66  -9.8106     64.3900     99.9634   9.7348258172e+01   4.8800379792e+01    0.3745939    0.1774374  27.34   0.00150207    2.478    0.596
        67  -8.9571    167.9133    231.7664   9.5864186433e+01   2.6442956054e+00    0.1856625    0.1488524  19.79 0.0004973984    1.162    0.140
        68  -9.3117     58.1984    228.2558   1.1761078277e+02   1.9720696781e+01    0.1451858    0.1017253  63.73 0.0002506837    1.184    0.156
        69  -8.5786     39.5496    223.3743   1.2083786390e+02   2.2923710058e+01    0.1119316   0.09273098  70.50 0.0007928063    1.105    0.095
        70  -8.3422    184.6490     76.7027   5.8257308230e+01   2.8712022010e+01    0.1537493    0.1171249  21.73 0.0005136397    1.687    0.407
        71  -9.1720     65.8430     70.8228   8.8758266312e+01   5.5150205775e+01    0.2082687    0.1703353 -21.78 0.0003834183    1.162    0.139
        72  99.0000     52.4937    220.2974   1.1806988181e+02   2.2021309829e+01     0.419554    0.1599088  62.83  0.001173146    3.219    0.689
        73 -12.8746    179.0979     52.8007   5.2502548078e+01   3.3888499921e+01    0.9079623    0.7949563  -1.69 0.0007904132    1.338    0.252
        74 -10.6892     71.8889    245.7908   1.1645880473e+02   1.4637378118e+01    0.3797536    0.1622263 -70.77  0.001961872    2.598    0.615
        75  -8.9675     80.8923    220.7658   1.1235056968e+02   1.8202148371e+01    0.1752908    0.1642922  46.09 0.0007178462    1.241    0.194
        76  -9.5130     59.4375    220.3742   1.1668806315e+02   2.1142676207e+01    0.2802064     0.198074  20.14  0.001640784    2.000    0.500
