#   1 NUMBER                 Running object number                                     
#   2 MAG_AUTO               Kron-like elliptical aperture magnitude                    [mag]
#   3 X_IMAGE                Object position along x                                    [pixel]
#   4 Y_IMAGE                Object position along y                                    [pixel]
#   5 X_WORLD                Barycenter position along world x axis                     [deg]
#   6 Y_WORLD                Barycenter position along world y axis                     [deg]
#   7 A_WORLD                Profile RMS along major axis (world units)                 [deg]
#   8 B_WORLD                Profile RMS along minor axis (world units)                 [deg]
#   9 THETA_WORLD            Position angle (CCW/world-x)                               [deg]
#  10 FWHM_WORLD             FWHM assuming a gaussian core                              [deg]
#  11 ELONGATION             A_IMAGE/B_IMAGE                                           
#  12 ELLIPTICITY            1 - B_IMAGE/A_IMAGE                                       
         1 -14.0710    218.4630      2.6884   4.2929580101e+01   2.8764519873e+01     2.516465      1.14065  60.50  0.007825688    2.254    0.556
         2 -13.7909    178.3888     46.7581   6.1029298794e+01   3.4141853916e+01      1.33772     1.018151 -10.84   0.00107864    1.435    0.303
         3 -14.0288    189.7666     36.5185   5.6052442354e+01   3.2512006117e+01      1.27885     1.005022 -33.70  0.003133564    1.222    0.181
         4 -14.8720    197.1260     27.1755   5.2194624805e+01   3.1706100711e+01     2.178149     1.511617  36.99  0.001329387    1.646    0.392
         5 -10.2890     80.4618    220.5730   1.1754062261e+02   2.1799716406e+01    0.3400317   0.08174784  39.63  0.001533472    2.733    0.634
         6 -16.3050     70.7850    147.6532   1.1271168955e+02   3.6651844701e+01     7.696247     3.553291  73.29   0.02845901    3.733    0.732
         7 -12.0776    129.5017    210.8736   1.0709114970e+02   1.6594524955e+01    0.3277113    0.2137308 -82.06  0.001494343    2.576    0.612
         8 -16.4936     72.5270    246.9274   1.2072455965e+02   1.8847195335e+01     8.110864     2.389883  28.47   0.02127512    6.749    0.852
         9 -11.6334     39.4760    211.9478   1.2494983154e+02   2.7936030593e+01    0.1973054    0.1534613  87.25  0.001564788    1.354    0.261
        10 -10.2308     55.6495    210.9955   1.2172983457e+02   2.6331919428e+01    0.1696402    0.1198339  51.27  0.001237306    1.044    0.042
        11 -10.5841     44.6284    210.8884   1.2389180239e+02   2.7570010038e+01    0.2389825    0.2011511  86.83  0.001675552    1.337    0.252
        12 -11.7769    106.5192    209.5457   1.1147406979e+02   2.0087616255e+01    0.4654412    0.2181753  49.07  0.001633923    1.786    0.440
        13 -12.6241    107.5982    203.2679   1.1061563713e+02   2.0935003298e+01    0.5843666    0.1975467  44.47  0.002705675    2.297    0.565
        14 -11.1106     70.4831    209.9022   1.1870889271e+02   2.4763795843e+01    0.1975428    0.1257211  50.85 0.0005151435    1.185    0.156
        15 -10.0756     33.4724    205.8811   1.2583961857e+02   2.9596205240e+01    0.1625548    0.1394487  15.26 0.0007492173    1.675    0.403
        16 -11.4664    133.0071    203.2995   1.0551523499e+02   1.7197346600e+01    0.3210174    0.2028865  82.15     0.001623    3.096    0.677
        17 -12.5599    112.8235    196.0344   1.0875031570e+02   2.1357364729e+01    0.6421253     0.363927  14.60   0.00277246    3.613    0.723
        18  -9.8799      1.2421    201.8796   1.3197866920e+02   3.3232238844e+01    0.1012898   0.06059818  66.83 -0.000430966    1.229    0.186
        19 -10.7698    156.2922    199.8666   1.0051770816e+02   1.4116134183e+01    0.3813359    0.2387861  65.03  0.001962123    2.684    0.627
        20 -11.3697    153.0952    193.6577   1.0027834445e+02   1.5510186175e+01    0.3465718    0.2005653  54.62  0.001375007    2.003    0.501
        21 -11.2748     96.1666    199.2149   1.1254886243e+02   2.3211331846e+01      0.42707    0.3419752  -3.32  0.001535335    1.909    0.476
        22 -11.8820    193.0668    194.1847   9.2832997614e+01   9.0771714882e+00    0.7043076    0.4112992 -57.06  0.003327927    3.920    0.745
        23 -11.3697    136.0612    199.1474   1.0439308899e+02   1.7359230912e+01    0.2805963    0.2146488  68.63  0.001470997    1.610    0.379
        24 -11.0708    209.1029    198.1647   9.0655717801e+01   6.1404209383e+00    0.1807716    0.1620454   9.94 0.0007314612    1.302    0.232
        25 -19.4200     10.5394    136.2116   1.2764293776e+02   4.5498874024e+01     17.07334     1.880227 -82.14   0.04116889    9.615    0.896
        26 -11.2761    141.2269    198.0106   1.0321780700e+02   1.6733134724e+01    0.2263938    0.1927128  66.42   0.00044122    1.380    0.275
        27 -12.3713     33.4914    198.6708   1.2549590959e+02   3.0870319464e+01    0.1971143    0.1416859  50.01 0.0005520303    1.113    0.102
        28 -12.7728     50.7126    208.3324   1.2254893765e+02   2.7341012410e+01    0.4571038    0.2526607  51.46  0.001786039    1.339    0.253
        29 -13.1132     67.4880    190.2155   1.1780206586e+02   2.8583808728e+01    0.6967372    0.5787445 -57.92  0.004236348    1.553    0.356
        30  -9.8521     81.9385    195.1533   1.1514328040e+02   2.5840685270e+01    0.3043812    0.1916333  23.96  0.001763405    1.912    0.477
        31 -10.6899     44.7139    195.4736   1.2301146379e+02   3.0272586014e+01     0.208192    0.1284833  60.05 0.0003922201    1.285    0.222
        32 -10.2709     40.0196    193.2868   1.2386582899e+02   3.1174523268e+01    0.2419376    0.1568216  46.41   0.00114902    1.216    0.177
        33 -10.2681     37.4182    222.8161   1.2583632268e+02   2.6348794663e+01     0.317922    0.2100347  14.03  0.002102707    2.430    0.588
        34 -13.4826     56.8075    204.2117   1.2106925715e+02   2.7362046229e+01    0.4591385    0.3405179  64.68   0.00161741    1.133    0.117
        35 -12.0870     61.2171    203.6117   1.2013160594e+02   2.6951466318e+01    0.2464668    0.1505452  54.49  0.000646365    1.274    0.215
        36 -13.0460    115.5865    182.8559   1.0656987005e+02   2.3168383140e+01    0.5670888    0.3250597 -59.34  0.003108689    2.109    0.526
        37 -10.2323     48.6220    217.5132   1.2346844312e+02   2.6028072707e+01    0.2591092    0.1318569  30.81  0.001457711    1.905    0.475
        38  -9.5262     59.9597    185.6386   1.1907064128e+02   3.0353356057e+01    0.1862794    0.1473074 -72.01  0.001142805    1.446    0.308
        39  -9.3867     85.9290    218.0000   1.1628493387e+02   2.1512571788e+01    0.1911164    0.0492602  36.09 0.0008083487    2.984    0.665
        40 -11.3524    150.2300    181.3964   9.9064285131e+01   1.7827833259e+01    0.3162377    0.2215367  82.76  0.001434856    2.605    0.616
        41 -11.3978     99.4491    180.7490   1.0984465978e+02   2.5979035247e+01    0.2310154     0.186899  46.35 0.0005854741    1.047    0.045
        42  -9.7175    207.3405    178.3195   8.7691764364e+01   8.7457691397e+00    0.1297667    0.0799532  14.09 0.0007049748    1.715    0.417
        43  -9.5339     66.0040    175.7206   1.1687153247e+02   3.1511569718e+01    0.1698314    0.1282348  48.62 0.0004712186    1.113    0.102
        44  -9.7041     51.0791    172.8280   1.2006058552e+02   3.3875400226e+01    0.1901387    0.1206207  57.32 0.0008172233    1.299    0.230
        45 -10.8196     44.0593    171.8086   1.2160557866e+02   3.4862493043e+01    0.4820777    0.1380377  37.11  0.002176186    2.640    0.621
        46 -10.6425    228.5022    171.4914   8.2904666695e+01   6.1523997534e+00    0.1978657    0.1029231 -38.98  0.001038352    2.403    0.584
        47 -10.3953    201.7971    169.1311   8.7050409254e+01   1.0828313740e+01    0.3120317    0.2172339 -45.44  0.001805349    1.930    0.482
        48 -10.5397    204.2023    165.2950   8.5919058293e+01   1.0918074736e+01    0.4502313    0.2343548 -41.29  0.001793997    2.336    0.572
        49 -11.2248    193.9642    166.8692   8.8069472286e+01   1.2474045952e+01    0.2893092    0.2681494  27.16 0.0007804181    1.226    0.184
        50 -10.3437    191.1879    161.7270   8.7642371665e+01   1.3672901502e+01    0.2821506      0.21184  67.32  0.001526796    2.091    0.522
        51 -10.3114    164.9724    171.4650   9.4484299302e+01   1.6857195991e+01    0.1942396    0.1798619 -75.80 0.0003060895    1.428    0.300
        52 -10.3372    159.1308    163.6116   9.4334622608e+01   1.9118098650e+01     0.195133    0.1839425 -70.46 0.0005726948    1.321    0.243
        53 -10.8924     59.5878    163.3299   1.1722506750e+02   3.4790269274e+01    0.2768145    0.1539453  61.58 0.0009588848    1.695    0.410
        54 -10.6013     51.4775    163.3392   1.1918538429e+02   3.5752075997e+01    0.2319298    0.1280616  41.04 0.0008796255    1.552    0.356
        55 -12.9560     95.6323    154.3210   1.0731789286e+02   3.1643637007e+01    0.6598205    0.5369124 -28.36  0.003850918    1.678    0.404
        56 -11.0372    189.0901    155.0293   8.6770998462e+01   1.5006856051e+01    0.3917604    0.3353672  52.27  0.002406213    1.365    0.268
        57 -11.6273    133.7879    145.0828   9.6592498209e+01   2.6966860135e+01     1.064421    0.3021049 -55.27  0.003007094    5.752    0.826
        58  -9.8858    113.0388    151.0181   1.0256471819e+02   2.9486315013e+01    0.2179027    0.1527996  69.81 0.0008945197    1.686    0.407
        59 -10.4559    174.5874    149.0050   8.8445439506e+01   1.8612704706e+01    0.2490665    0.2140432  42.02 0.0007778959    1.146    0.128
        60 -11.2218    143.9695    146.9827   9.4608510710e+01   2.4729639973e+01    0.3583063     0.238514 -63.87  0.001751702    2.042    0.510
        61  -9.5235    160.1559    147.3907   9.1131068464e+01   2.1609712385e+01    0.1928741    0.1186147  51.49  0.000414573    1.665    0.399
        62 -10.2692    112.4268    141.3317   1.0108508983e+02   3.1530684083e+01    0.3085708    0.1759406  64.58 0.0009568632    2.430    0.588
        63 -11.8810    106.9791    140.0626   1.0223877394e+02   3.2727286434e+01    0.4665756     0.328728 -26.94  0.002290618    2.095    0.523
        64 -12.5001     95.0334    140.1695   1.0533130378e+02   3.4678083064e+01      0.30633    0.2756346  27.54  0.000424984    1.241    0.195
        65 -10.0463    128.0690    139.3229   9.6872981760e+01   2.9125404130e+01    0.2076766    0.1649843  45.23 0.0009108559    1.145    0.126
        66 -11.1203    106.0704    130.7851   1.0081685747e+02   3.4828154441e+01    0.3509146     0.305666 -83.64  0.001383004    1.203    0.169
        67 -11.1211    102.0997    126.5713   1.0108689072e+02   3.6419797023e+01    0.2750503     0.244025  10.06 0.0006897795    1.363    0.266
        68 -10.9994    135.7753    128.1472   9.2773646425e+01   2.9836803258e+01    0.5130484    0.1838679 -49.59  0.001814012    3.117    0.679
        69 -11.2377    114.4783    130.3536   9.8544819107e+01   3.3423638306e+01    0.2976255    0.2676312 -26.14 0.0007384438    1.306    0.235
        70  -9.9275    160.4332    127.7483   8.7002419897e+01   2.4954163421e+01    0.2660062    0.1384463 -46.02  0.001135005    2.133    0.531
        71 -11.0348    119.4208    124.4207   9.6081942676e+01   3.3739823387e+01    0.2907566    0.2449297 -13.30 0.0009049251    1.496    0.332
        72  -9.7956    135.0000    119.9261   9.1176451765e+01   3.1604527928e+01    0.2310708   0.08402362 -46.14 0.0007992747    2.921    0.658
        73 -10.1729    109.9670    119.2208   9.7499330501e+01   3.6599859861e+01    0.2166363     0.202518 -73.86 0.0003121794    1.099    0.090
        74  -9.9160    168.0148    112.9364   8.1931021942e+01   2.5955467818e+01    0.3402546    0.2431669 -81.39  0.001460113    2.433    0.589
        75  -9.6004    135.0000    112.9718   8.9578552914e+01   3.2984642379e+01    0.2381992   0.08492903 -45.29 0.0008030054    2.946    0.661
        76 -11.3625    119.1183    110.5703   9.3126478423e+01   3.6694518982e+01     0.587113    0.3647344  54.36  0.002636502    1.686    0.407
        77 -10.0955    205.6373    110.1070   7.3973348709e+01   1.8353096904e+01    0.2583677    0.1905001  36.31 0.0005991919    1.321    0.243
        78  -8.9449    167.6757     95.2734   7.7500576510e+01   2.9098815416e+01    0.1454701    0.1199688 -84.53 0.0001991877    1.579    0.367
        79 -11.7635     53.1031     91.2437   1.0944072615e+02   5.2023888665e+01     0.466666    0.2962388  75.75  0.002251052    1.875    0.467
        80 -11.5590     41.9114     91.1640   1.1339829825e+02   5.3320771024e+01    0.4138578    0.2267297 -69.72  0.001345104    1.640    0.390
        81 -12.5014    163.7130     63.9183   6.9198422494e+01   3.5354033847e+01      1.03615    0.6034443 -25.36  0.003152177    1.849    0.459
        82  -9.1809    176.2030    241.2086   1.0210179845e+02   6.1433702730e+00    0.1235165   0.08494294 -54.73 0.0008645821    2.480    0.597
        83 -10.3824     53.6349    230.6006   1.2321415043e+02   2.3388321111e+01    0.2649475    0.1325224  88.17  0.001711041    2.305    0.566
        84  -9.6981     60.8064    230.8053   1.2190904311e+02   2.2554120224e+01    0.1288633   0.08356985  61.37 0.0003521475    1.272    0.214
        85  -9.4981     72.1077    230.0020   1.1977259053e+02   2.1362506549e+01    0.1474405   0.09385223  51.78 0.0003927439    1.156    0.135
        86  -9.9416    198.9108    222.8599   9.5981139921e+01   4.9421383816e+00     0.165112    0.1202502  27.53 0.0004376087    1.049    0.047
        87  -8.9777    115.4982     31.4347   6.8600026586e+01   5.2941514405e+01    0.1505115    0.1469758  30.51 0.0001290026    1.010    0.009
        88  99.0000     59.9330    216.1661   1.2120940639e+02   2.4979057008e+01    0.6892113    0.3498207 -50.78  0.001305578    3.131    0.681
