#   1 NUMBER                 Running object number                                     
#   2 MAG_AUTO               Kron-like elliptical aperture magnitude                    [mag]
#   3 X_IMAGE                Object position along x                                    [pixel]
#   4 Y_IMAGE                Object position along y                                    [pixel]
#   5 X_WORLD                Barycenter position along world x axis                     [deg]
#   6 Y_WORLD                Barycenter position along world y axis                     [deg]
#   7 A_WORLD                Profile RMS along major axis (world units)                 [deg]
#   8 B_WORLD                Profile RMS along minor axis (world units)                 [deg]
#   9 THETA_WORLD            Position angle (CCW/world-x)                               [deg]
#  10 FWHM_WORLD             FWHM assuming a gaussian core                              [deg]
#  11 ELONGATION             A_IMAGE/B_IMAGE                                           
#  12 ELLIPTICITY            1 - B_IMAGE/A_IMAGE                                       
         1 -10.0364     39.6221      7.8161   5.7277968824e+01   7.4012345270e+01    0.6651158    0.4060287 -29.78  0.003255319    1.661    0.398
         2 -10.7112     49.9612     36.8823   6.8921789552e+01   6.6809364101e+01     1.064701    0.6649821  87.46  0.003685249    3.979    0.749
         3 -11.0095     39.9983     29.5101   7.0799900017e+01   7.0036042517e+01    0.6921328      0.32295 -50.97  0.002931702    2.114    0.527
         4 -12.2381     44.8849     23.1673   6.4416116190e+01   7.0427490339e+01     1.219597    0.8994154 -67.65  0.006186665    1.790    0.441
         5 -11.0304     78.4005     13.6701   4.4278863111e+01   6.4465125965e+01    0.5697887    0.4347097  16.79  0.002883394    1.548    0.354
         6 -11.3159    178.5013     23.7671   3.0860933380e+01   3.6422889624e+01    0.4819209    0.4472917  88.17  0.002858616    1.119    0.106
         7 -12.0386    154.5152     19.5982   3.2135946858e+01   4.3206390639e+01     0.796605    0.4427876 -52.26  0.003496855    1.756    0.430
         8 -11.5928    143.7392      3.9702   2.7662686525e+01   4.7725079084e+01     1.089285    0.5377737  84.51   0.00455172    1.994    0.498
         9 -13.2893    169.4416     12.5389   2.8163685533e+01   3.9975572101e+01     1.673928     1.588346  26.23  0.009990825    1.257    0.204
        10 -11.2557    158.4260      3.5909   2.6139573715e+01   4.3761983531e+01    0.9952026    0.4180109  71.04  0.004049446    2.210    0.548
        11 -10.0134    128.3595     17.8773   3.5133735006e+01   5.0570403740e+01    0.4038641    0.3450817 -73.22  0.001749272    1.125    0.111
        12  -9.4528    129.6057     12.8964   3.2913670614e+01   5.0769263228e+01    0.3959296     0.270398  31.98  0.001833944    1.810    0.448
        13  -9.0876    114.5214     14.4814   3.6054878104e+01   5.4771130671e+01    0.2627106    0.2563547 -27.95  0.001152721    1.110    0.099
        14  -9.7512     94.0919     17.1552   4.1733167831e+01   5.9982861413e+01     0.503379    0.2853418 -85.72  0.001856236    2.565    0.610
        15  -9.7915     20.6229     14.1475   7.5577584560e+01   7.5978475689e+01    0.5058071     0.221757 -35.87  0.002075805    2.708    0.631
        16  -9.3664    105.0829     12.3336   3.6875259981e+01   5.7593049163e+01    0.2958844    0.2172152 -37.50   0.00147313    1.380    0.276
        17 -10.0871    250.1450      6.1490   2.1495031452e+01   2.2044732284e+01    0.4355036   0.05409262 -32.97  0.001648596    3.351    0.702
        18 -11.7056     84.0696      3.7078   3.7024121331e+01   6.4112490694e+01    0.9818971    0.4325405  69.50  0.003232314    2.190    0.543
        19  -9.4713    230.1945      7.3759   2.2653706786e+01   2.5975755754e+01    0.1704336    0.1008943 -74.87 0.0008985183    1.675    0.403
        20 -10.9236    131.2497      3.9463   2.9045631937e+01   5.1180742705e+01    0.8462809    0.3089037  65.25  0.003060668    2.405    0.584
        21 -11.0710    120.9317      4.1836   3.0480199402e+01   5.4027205667e+01    0.7031384    0.4752386  83.28  0.002339863    1.410    0.291
        22 -11.4873    108.7848      5.0798   3.2743464066e+01   5.7309978260e+01    0.9592094    0.4217408  77.85  0.003670581    2.299    0.565
        23 -10.1801    204.2838      4.3972   2.3211394819e+01   3.2057508485e+01    0.3038155    0.1860296 -77.80  0.001339795    1.579    0.367
        24  -9.7274     59.7422      2.7378   4.3795593262e+01   7.0310435927e+01    0.3560447     0.222222 -36.61  0.001765823    1.657    0.396
        25  -9.2533     62.4972      1.5058   4.1935600185e+01   6.9783689795e+01    0.3497216    0.1198118  60.15  0.001307835    2.618    0.618
        26 -11.5642    156.0095     11.9694   2.9290581242e+01   4.3613815382e+01    0.6994052    0.4780155 -68.25  0.003463657    1.416    0.294
        27 -10.8499     71.4693      5.6501   4.1677005978e+01   6.7141360017e+01    0.5860713     0.319933  65.74   0.00245277    1.801    0.445
        28  -7.8529     17.3129      1.6892   6.9255492730e+01   7.8764046577e+01    0.1157552     0.101303  86.89 0.0003956069    1.630    0.387
        29  -8.9032    169.8481     76.5466   4.7957720018e+01   3.1238638598e+01    0.2602311    0.1683343 -40.50  0.001211124    1.463    0.316
        30  -9.9357     75.5164     68.9808   7.0387617761e+01   5.4901077055e+01    0.4892761     0.394346  15.18   0.00230444    1.611    0.379
        31 -10.2753     25.6366     65.3509   9.2029459353e+01   6.3406669401e+01    0.4987536    0.2725386 -57.35  0.002051329    1.658    0.397
        32  -9.3115     45.8863     62.1272   8.0914052770e+01   6.1711200421e+01    0.2700907    0.2125537 -56.04  0.001416284    1.209    0.173
        33  -9.1918     20.4324     89.2382   9.8843820709e+01   5.7662736033e+01    0.1990371    0.1187573  87.57 0.0008854471    1.643    0.391
        34  -8.6920    193.5579     87.4845   4.7033310963e+01   2.4151242242e+01     0.138512    0.1270842 -35.19 0.0001810196    1.011    0.011
        35  -9.5889    198.1645     54.8319   3.7735203165e+01   2.7769276893e+01    0.1872866    0.1657169  11.71 0.0009835318    1.336    0.252
        36  -9.2028     34.7993     52.5517   8.3528305892e+01   6.5576087013e+01    0.2563678    0.1433177  22.82  0.001136969    2.095    0.523
        37  -8.3055     23.5132     52.5130   8.9923948533e+01   6.6870047247e+01    0.1361627    0.1250936 -72.52 7.499465e-05    1.023    0.022
        38 -10.6762     81.7388     39.2976   5.6278620591e+01   5.9696039260e+01    0.9318165    0.3715273 -41.55  0.003351311    2.488    0.598
        39  -9.0913     87.4031     49.1951   5.8600146728e+01   5.6520440023e+01    0.2872969    0.2200712  55.59  0.001330926    1.299    0.230
        40 -10.0525     83.5419     48.1266   5.9503693359e+01   5.7620837853e+01    0.5544665    0.3105205  35.50  0.002161559    2.268    0.559
        41  -9.3355     12.2482     33.9587   9.1606203267e+01   7.2414158896e+01    0.4311735    0.2039541 -63.98  0.002011509    1.849    0.459
        42 -10.8357      3.1048     40.8737   1.0000204251e+02   7.1298643793e+01    0.5277837    0.4472294  75.51  0.002438553    1.221    0.181
        43  -9.8119      5.7072     35.4022   9.6854446594e+01   7.2508717868e+01    0.4223129    0.2188511  37.57  0.002080764    2.111    0.526
        44 -10.5906    202.1345    221.8995   7.1734314337e+01   4.1144072152e+00    0.1580648    0.1297814  21.78  0.001242441    1.256    0.204
        45  -9.1105    182.6694    216.3416   7.4266632639e+01   7.2914520760e+00    0.1024209   0.08360874  52.53 0.0007051345    1.747    0.427
        46  -9.7036    211.8844    214.6925   6.9122711357e+01   3.6759693863e+00    0.1798702    0.1079021  18.41  0.001197672    1.418    0.295
        47 -10.2087    243.8582    203.2764   6.2558990573e+01   9.6290444830e-01     0.184365    0.1072394 -36.31  0.001234008    2.105    0.525
        48  -8.8726     96.9967     36.4991   5.0099532693e+01   5.6439520668e+01    0.2389021    0.1470082  59.13 0.0008054264    1.591    0.371
        49  -9.5876    197.4572     33.9973   3.2011976462e+01   3.0555705940e+01    0.2183405    0.1821393  88.17  0.001263938    1.231    0.188
        50 -10.2391     86.2130     31.5945   5.1143899848e+01   5.9935975215e+01    0.2898459    0.2547507  51.84  0.001388797    1.124    0.110
        51  -9.9662     90.1452     29.1266   4.8729090004e+01   5.9341878119e+01    0.3626758    0.2714174  43.66  0.001769316    1.383    0.277
        52  -9.5975     66.5268     29.4789   5.7351791834e+01   6.4903529200e+01    0.3091934    0.1424062 -37.23  0.001216983    2.204    0.546
        53  -9.5036    226.9261     29.1233   2.8262237937e+01   2.4465214069e+01    0.2698211    0.1653264  64.93  0.001487194    1.851    0.460
        54  -9.6699    144.9582     27.9696   3.6429373949e+01   4.4807002110e+01     0.321977    0.2621203 -50.18   0.00166744    1.173    0.148
        55  -9.0735    205.3313    192.3153   6.6754033916e+01   7.1253935520e+00    0.1200401   0.07486347   7.31 0.0007046016    1.682    0.406
        56  -9.8908     75.5655     25.8262   5.1894737731e+01   6.3436380230e+01    0.4423375    0.2861702 -39.66  0.002074174    1.557    0.358
        57 -10.0068     77.1124     21.1276   4.8838995068e+01   6.3774642249e+01    0.3477363    0.2738233   3.36  0.001269596    1.535    0.349
        58 -11.7442     11.0536    141.5579   1.0699271694e+02   4.5115641182e+01    0.6238138    0.2703265  84.88  0.002841415    2.174    0.540
        59  -9.3286     40.0738    141.0978   9.7954977899e+01   4.2361147751e+01    0.2596381    0.1719919  43.83  0.001377694    1.345    0.256
        60 -13.0084    239.9919    127.8353   4.9628215070e+01   9.9580992740e+00     1.083816    0.8352219 -38.62  0.007226772    1.367    0.269
        61  -8.7554     23.6744    125.6516   1.0174840215e+02   4.7942148125e+01    0.1356788   0.09583455 -44.60 0.0007049391    1.751    0.429
        62 -10.7041     10.8244    124.1174   1.0600427913e+02   4.9433958557e+01    0.3617389    0.1497764  83.51  0.001528581    2.348    0.574
        63  -8.9111    102.8173     25.9367   4.3760632874e+01   5.6518445204e+01    0.2383312    0.2029805  35.19  0.001157015    1.284    0.221
        64  -9.7567    187.2848     19.4976   2.8740224736e+01   3.4676300537e+01     0.299431    0.2079547 -61.99  0.001574137    1.335    0.251
        65  -8.9282     53.8112    143.2197   9.3980332422e+01   4.0141088197e+01      0.17939    0.1655882 -42.70 0.0006393459    1.341    0.254
        66  -8.8785     58.6944    124.6528   8.9813858217e+01   4.4027014724e+01    0.1422167    0.1100711 -33.91 0.0005040673    1.697    0.411
        67  -9.0348    111.4044     16.7684   3.7673389570e+01   5.5367162981e+01    0.2681463     0.219074  22.89  0.001316028    1.436    0.303
        68  -9.4608    116.9749     17.7089   3.7026179221e+01   5.3729897273e+01    0.3098899      0.23733 -57.61  0.001229146    1.322    0.244
        69  -9.4794    188.5024    117.0116   5.5046343248e+01   2.0634096215e+01    0.2112631     0.127805 -33.05 0.0009401317    1.588    0.370
        70  -8.9328     95.3292    112.6633   7.5775608985e+01   4.0772855941e+01    0.1609703    0.1145258  76.58 0.0003911076    1.730    0.422
        71  -9.7540    248.2707     16.3615   2.3918155722e+01   2.1436668812e+01    0.3311533    0.1151377 -55.97   0.00147295    2.719    0.632
        72 -10.0135     18.3046    127.9562   1.0375895541e+02   4.7852471397e+01    0.1944797    0.1547328  83.37 0.0006434929    1.103    0.094
        73  -8.8618    228.6367     15.7916   2.4819780582e+01   2.5488600980e+01    0.1922651    0.0884422 -36.12 0.0009526715    1.677    0.404
        74  -9.4909     64.2677     16.1333   5.0753184738e+01   6.7544800622e+01    0.2628387    0.1868746 -86.45 0.0008439166    2.011    0.503
        75  -9.5306    225.0116     14.9894   2.4826016650e+01   2.6346185819e+01    0.1900228      0.14934  30.81  0.001140588    1.726    0.421
        76  -9.5760     21.7747    109.9182   1.0085201766e+02   5.2145708116e+01    0.2678569    0.2294924  80.06  0.001601955    1.013    0.013
        77 -10.0377     17.4469    104.1971   1.0189765230e+02   5.4004727622e+01    0.3633264    0.3086002  57.18  0.002188364    1.122    0.109
        78  -9.7328     30.8080    101.6564   9.6327455652e+01   5.3415449341e+01     0.308822    0.1924059 -47.25  0.001482357    1.814    0.449
        79  -9.3782     46.4969    100.1158   8.9928119263e+01   5.1959596676e+01    0.3588432    0.2694573   4.82  0.001774993    1.791    0.442
        80 -11.9233     41.4730     82.2562   8.8342584273e+01   5.7236210904e+01    0.9972385    0.6920415  25.26  0.004954421    1.607    0.378
        81 -10.1527     47.3415     76.1252   8.4267984984e+01   5.8010928090e+01    0.4287711    0.3093573  43.98   0.00183583    1.406    0.289
        82 -10.4318      2.6111     86.8711   1.0638427360e+02   5.9530266711e+01    0.8046101     0.237755 -82.31  0.002948193    2.992    0.666
        83 -11.6819      4.1925     76.3528   1.0466432453e+02   6.2175977780e+01     0.913097    0.4979393  69.18  0.004438399    1.835    0.455
        84 -11.5866     17.6212     74.9496   9.7960186598e+01   6.1639622577e+01    0.8498593    0.4995418 -27.82  0.003936786    2.254    0.556
        85 -11.7949     12.2676     71.9966   1.0013894972e+02   6.2812127300e+01    0.6543579    0.5071693 -47.77  0.003765019    1.335    0.251
        86  -8.7266    100.6060     83.7836   6.6510174446e+01   4.6280929362e+01    0.2244272    0.1446975 -59.38 0.0009476495    1.681    0.405
        87  -8.9723    144.9079     80.8397   5.4063653937e+01   3.6494823236e+01    0.2383101    0.2188561  20.12  0.001252326    1.229    0.187
