#   1 NUMBER                 Running object number                                     
#   2 MAG_AUTO               Kron-like elliptical aperture magnitude                    [mag]
#   3 X_IMAGE                Object position along x                                    [pixel]
#   4 Y_IMAGE                Object position along y                                    [pixel]
#   5 X_WORLD                Barycenter position along world x axis                     [deg]
#   6 Y_WORLD                Barycenter position along world y axis                     [deg]
#   7 A_WORLD                Profile RMS along major axis (world units)                 [deg]
#   8 B_WORLD                Profile RMS along minor axis (world units)                 [deg]
#   9 THETA_WORLD            Position angle (CCW/world-x)                               [deg]
#  10 FWHM_WORLD             FWHM assuming a gaussian core                              [deg]
#  11 ELONGATION             A_IMAGE/B_IMAGE                                           
#  12 ELLIPTICITY            1 - B_IMAGE/A_IMAGE                                       
         1 -13.3872     64.5703     52.9356   6.3075324822e+01   5.8646193850e+01     1.553144    0.6104863 -42.09  0.006531282    2.273    0.560
         2 -14.8835      6.2398     70.5558   8.9312577379e+01   6.0289438866e+01     1.313119    0.5936892 -61.96   0.00588451    1.598    0.374
         3 -12.6815      7.7913      2.6699   6.8766250702e+01   7.3153047507e+01    0.4543239    0.3128124  25.18  0.003322499    1.801    0.445
         4 -13.2082      2.8152     10.2005   7.4725332560e+01   7.2246429491e+01    0.6127834    0.3372145 -50.26   0.00328052    1.507    0.336
         5 -15.6972     11.5541     23.2102   7.5138531381e+01   6.9475967192e+01     1.777672    0.8017941 -35.87  0.007676011    1.789    0.441
         6 -13.7866     24.9105     13.4082   6.4643604116e+01   7.0098618701e+01    0.5888718    0.3576345  18.33  0.003635544    1.724    0.420
         7 -14.0235    147.2837     29.2068   3.0048480869e+01   4.5401295176e+01     1.284857    0.7752897  61.57  0.004342647    1.579    0.367
         8 -13.7590    166.6084     30.0979   2.6645986868e+01   4.0289240677e+01     1.120942    0.5610917  63.85  0.004036849    1.882    0.469
         9 -12.2411    120.5334     25.9485   3.4961245898e+01   5.2339211108e+01    0.5712281    0.3291298  52.77    0.0024352    1.613    0.380
        10 -13.2628    188.8640     25.8122   2.1760319521e+01   3.4951615869e+01    0.9544623    0.4644763 -61.23   0.00349546    2.906    0.656
        11 -11.6396     82.6897      8.2162   3.8302446328e+01   6.2448790560e+01    0.4294057    0.2720844  66.51   0.00213402    2.398    0.583
        12 -14.8502     98.9336     11.5316   3.4888700597e+01   5.8811003091e+01     1.345252    0.7837801  51.52  0.004921712    1.605    0.377
        13 -12.0304     85.7216     13.6822   3.9791137450e+01   6.1252892693e+01    0.4205752    0.3207423 -37.28  0.001470435    1.533    0.348
        14 -11.5530     58.6590     16.0265   5.0634993931e+01   6.5619716627e+01     0.322949    0.2439104   3.24  0.002043227    1.169    0.144
        15 -13.1760    214.5482     10.2924   1.4327864667e+01   3.0075803186e+01    0.5491669    0.4136571  85.01   0.00266421    1.205    0.170
        16 -12.2010    188.1664      9.8791   1.7229409718e+01   3.6913925273e+01    0.3662615    0.2950377  59.08  0.001423878    1.184    0.155
        17 -11.5699     46.9427     12.8949   5.4092795792e+01   6.7704118940e+01    0.2652581    0.2108455  15.92  0.001140501    1.223    0.182
        18 -11.5695     71.4037     16.2104   4.5830225890e+01   6.3552570971e+01    0.3425465    0.2511069  -0.91  0.001542625    1.267    0.210
        19 -11.3481    124.1656     11.2206   2.8453862445e+01   5.3138290995e+01    0.2785933    0.1945109  61.49  0.001338283    1.375    0.273
        20 -11.4238     75.7506      8.9897   4.0964409280e+01   6.3659998342e+01    0.3579256     0.205899 -18.37  0.001903251    1.711    0.416
        21 -10.9554    168.3257      9.6418   1.9870119244e+01   4.2131818301e+01    0.1503194   0.09924632 -64.97 9.595509e-05    1.778    0.438
        22 -11.4415    152.9618      8.8050   2.2018894191e+01   4.6200453922e+01    0.2297182    0.1732123  41.71  0.001230158    1.290    0.225
        23 -13.5364     42.0915      3.9635   5.1872763463e+01   6.9534135990e+01    0.5694517    0.4104346  13.51  0.003197945    1.233    0.189
        24 -11.8705    225.6242      3.6793   1.1608013508e+01   2.8021869135e+01    0.2818965    0.1985597  43.41  0.001532882    1.766    0.434
        25 -11.5117    119.0678      2.8845   2.6333068155e+01   5.5124577454e+01    0.3608927    0.2348252 -73.33  0.001675365    2.478    0.596
        26 -10.3792     66.8205      3.6168   4.1560075194e+01   6.5828657030e+01    0.1560103    0.1126529  50.74 0.0005647102    1.652    0.395
        27 -10.9576    232.5849      1.7976   1.0559790179e+01   2.6528791384e+01    0.2490762    0.1662107  80.53  0.001149349    1.357    0.263
        28 -10.3433    182.5107      1.4713   1.5495918765e+01   3.9205620710e+01    0.1386136    0.1210165  73.53 -9.318052e-06    1.030    0.029
        29 -10.7423    169.2239      1.4733   1.7197365156e+01   4.2663169651e+01    0.2797714    0.1095121  63.25  0.001132784    2.100    0.524
        30 -10.8461     81.1037      1.3219   3.5610821746e+01   6.3453073926e+01    0.4811749          nan  48.41  0.001269611    6.495    0.846
        31 -11.0820     61.6884      1.4513   4.2398364794e+01   6.6924722743e+01    0.3331384    0.1091929  46.83  0.001225532    3.005    0.667
        32 -10.7055     59.7795      7.3477   4.6064102980e+01   6.6563462781e+01    0.2214735    0.1318587  29.32  0.001050354    1.572    0.364
        33 -10.6923     38.0318    145.5204   9.0880617293e+01   4.0917702286e+01    0.1670918    0.1180466  40.30 0.0005240741    1.568    0.362
        34 -11.5969     50.9057    249.3814   9.7138548292e+01   1.8434963763e+01    0.2948375    0.1792801  59.58  0.002114509    1.178    0.151
        35 -12.3455      3.2660    249.4673   1.0445987853e+02   2.3660336245e+01    0.3613366    0.1831488  56.95  0.002048325    1.375    0.273
        36 -13.4602      9.5704    245.5607   1.0338192230e+02   2.3692627427e+01    0.7029213    0.2942291  60.69  0.003618229    1.674    0.403
        37 -12.1026     41.3118    137.6814   8.9104738925e+01   4.2384872888e+01    0.4890843     0.263139  65.45  0.002426418    2.160    0.537
        38 -11.8976     44.7832    133.7699   8.7693395961e+01   4.2928692727e+01    0.3892252    0.2272667 -76.05  0.002078159    1.526    0.345
        39 -11.6150     84.0182    126.5083   7.5969297869e+01   3.9568917719e+01     0.486965    0.2732694 -89.44  0.001783478    3.222    0.690
        40 -13.3488    108.7982    124.1367   6.8732872841e+01   3.5939946945e+01    0.6199178     0.507507 -27.23  0.002868951    1.463    0.316
        41 -13.2635    110.1444    117.0130   6.6730098349e+01   3.7329889478e+01    0.8961062     0.380131  33.12  0.002954837    3.066    0.674
        42 -10.6804    135.4349    125.7436   6.2135894725e+01   3.0298252118e+01    0.2120901    0.1473885 -37.28 0.0009397969    1.571    0.364
        43 -11.4601    180.2511    122.5025   5.0714929534e+01   2.0885758917e+01     0.473832    0.2739038 -30.29  0.001869827    1.988    0.497
        44  -9.9499     58.7184    124.6951   8.2582372383e+01   4.3471425479e+01     0.129431   0.09401175 -41.49 0.0002719399    1.556    0.357
        45 -12.4254     28.6238    121.8316   9.0325766980e+01   4.7252277695e+01    0.3744891    0.2979856 -80.95  0.002491951    1.046    0.044
        46 -10.8402     73.2263    119.8618   7.7663866328e+01   4.2718348497e+01    0.2562265    0.1849254 -16.23  0.001253982    2.094    0.522
        47 -12.7706      5.5728    117.1082   9.5844698581e+01   5.0022347085e+01     1.101184    0.3489571 -61.88  0.005322918    2.290    0.563
        48 -11.8524     48.9779     93.5214   7.9579678254e+01   5.1857594915e+01    0.4155622    0.3011943  75.82  0.002270133    1.757    0.431
        49 -12.0475     42.4426     90.6212   8.1067002955e+01   5.3187972957e+01    0.3292364    0.2283518 -74.14 0.0006444309    1.422    0.297
        50 -11.9923     46.6963     99.3956   8.1485544296e+01   5.0747130258e+01    0.5438029    0.3400266  74.30  0.002672153    2.264    0.558
        51 -11.6442     53.1661     97.3999   7.9074335060e+01   5.0506869437e+01    0.3595286    0.2404494  -4.73  0.001819166    2.237    0.553
        52 -11.8907     19.1829     86.0043   8.7693008447e+01   5.6143373578e+01    0.2902701    0.1815591 -46.83 0.0003265064    1.437    0.304
        53 -13.1496      2.4012     97.1436   9.4449822260e+01   5.4653795726e+01    0.6441042    0.2744475 -78.37  0.002971708    1.973    0.493
        54 -14.4914     24.1101     93.6602   8.7437881481e+01   5.4071668534e+01     1.374464     1.001261 -16.99  0.008660994    1.763    0.433
        55 -12.1003     36.8403     92.9247   8.3314119956e+01   5.3190233497e+01    0.3625548    0.2751354  -6.53  0.001241931    1.699    0.411
        56 -13.8586     18.1963    111.5454   9.1812455925e+01   5.0435272666e+01    0.6097858    0.5128605  -0.19  0.003271665    1.604    0.376
        57 -14.0594     13.7685    103.9332   9.2055873216e+01   5.2467081144e+01     0.879428    0.4196287  32.47  0.004580141    2.453    0.592
        58 -11.1703     78.8682    119.1190   7.5925207165e+01   4.2083798387e+01     0.270936    0.1850843 -66.23  0.001039185    1.397    0.284
        59 -12.2063     86.6698    114.7048   7.2778220616e+01   4.1929668510e+01    0.3120171    0.2534896  25.67  0.001030408    1.432    0.301
        60 -12.4539     81.5866    114.8981   7.4274119792e+01   4.2670395316e+01    0.4517221     0.282758  49.10  0.002176344    1.743    0.426
        61 -12.2248     78.1887    109.9432   7.4189113073e+01   4.4337491698e+01     0.501213     0.382403 -88.02  0.001930122    1.511    0.338
        62 -11.5423    121.6735    112.2347   6.2428369895e+01   3.6163946214e+01    0.3394519    0.2774746 -78.15 0.0007967652    1.405    0.288
        63 -13.4948     95.2359    109.8665   6.9221203548e+01   4.1648263097e+01     0.694403    0.6502411  16.32  0.003125509    1.193    0.162
        64 -14.4816    106.9160    103.8123   6.4378462762e+01   4.0940836198e+01     1.128395    0.9550714 -31.14  0.004805599    1.256    0.204
        65 -11.8852     62.6297    109.9089   7.8756284304e+01   4.6468026358e+01    0.5473406    0.3594039  65.21  0.002739904    1.926    0.481
        66 -11.6003     41.9346    106.7082   8.4273300191e+01   4.9534454875e+01    0.2656347    0.2061491  34.36  0.001097961    1.510    0.338
        67 -12.2923    136.6411    103.1595   5.6076536417e+01   3.4978018498e+01    0.6846293    0.3229843  53.33  0.002045382    2.363    0.577
        68 -10.3767     41.8115    113.6052   8.5471039844e+01   4.7941120088e+01    0.1706812     0.110374  47.11 0.0009494767    1.732    0.423
        69 -11.9259     60.8408     97.5058   7.6701955519e+01   4.9576021402e+01    0.3793574    0.2956923  67.76  0.001735803    1.540    0.351
        70 -11.2087    163.5234     97.4957   4.7882038194e+01   2.9877355330e+01     0.276479    0.1556784  61.67 0.0007790257    2.127    0.530
        71 -12.4750    136.8541     95.1519   5.3798912725e+01   3.6625004014e+01    0.5643642    0.4190141  58.55  0.002567243    1.456    0.313
        72 -10.6779     90.3476     96.9566   6.7478926302e+01   4.5424880446e+01    0.2995694    0.1315292 -58.13  0.001105632    2.494    0.599
        73 -10.8070     81.9762     93.0421   6.9037112980e+01   4.7654567987e+01    0.2325339    0.1680944 -22.00  0.001138258    1.725    0.420
        74 -11.0631    125.2503     91.4245   5.5842576862e+01   3.9960584838e+01    0.2773268    0.1927778 -64.73   0.00119345    1.812    0.448
        75 -12.6253    187.8222     84.4070   3.8960608035e+01   2.6301590797e+01    0.5561719    0.2694466  44.86  0.002047674    2.171    0.539
        76 -12.7709    177.0219     76.3738   3.8857221750e+01   3.0482410110e+01    0.6466026    0.2751239  57.93  0.002224554    2.438    0.590
        77 -12.7360    163.8738     71.9430   4.0352802005e+01   3.4617271068e+01    0.6111207    0.4402283 -32.58  0.002432727    1.432    0.302
        78 -11.6936    158.0366     83.5087   4.5149448880e+01   3.3946101703e+01    0.3712425    0.2501326  53.50 0.0006431639    1.482    0.325
        79 -13.0789    162.1263     79.7498   4.3090340977e+01   3.3639273398e+01    0.9047867    0.4512954  34.70    0.0030456    2.770    0.639
        80 -12.6066    169.6550     76.9940   4.0600073763e+01   3.2247826917e+01    0.5365895    0.3852797  21.83  0.001716056    1.809    0.447
        81 -13.2163     91.5881     58.1383   5.5448675604e+01   5.3329134849e+01    0.5482105    0.4779999 -16.58  0.003131428    1.082    0.076
        82 -11.6273    109.6778    249.3455   8.7175141658e+01   1.0315435911e+01    0.1943978    0.1095908  64.18   0.00113003    1.734    0.423
        83 -12.6931     53.9882     81.1096   7.5100406172e+01   5.4104805445e+01    0.5890334    0.4190546 -68.02  0.003280804    1.445    0.308
        84 -13.3443     87.0243     65.0811   5.9279226496e+01   5.2794335766e+01     1.075478    0.6669733  12.25  0.004389941    2.430    0.588
        85 -13.2003     54.1881     67.9365   7.1549808327e+01   5.6939638391e+01     1.776877    0.6741621  31.50   0.00752893    2.958    0.662
        86 -12.3751     77.2254     73.4403   6.5152382590e+01   5.2669486279e+01    0.5993661    0.3666225 -33.45  0.001888003    1.699    0.411
        87 -13.7927     61.4935     75.7391   7.1149069007e+01   5.4376752261e+01    0.6104043    0.4512322 -30.89  0.001297845    1.359    0.264
        88 -13.0732     70.7793     75.3426   6.7875044411e+01   5.3214052449e+01    0.5487134    0.4014396  -3.34   0.00169045    1.726    0.421
        89 -12.2229    216.1204     81.5935   3.3021216215e+01   1.9709069841e+01    0.3922189    0.2777066  79.58  0.001237701    1.716    0.417
        90 -11.6410    114.2430     79.8002   5.5503217332e+01   4.4689689586e+01    0.3918748    0.3619682 -54.89  0.001451291    1.129    0.114
        91 -11.8113    136.2477     79.5982   4.9371697308e+01   3.9916148745e+01    0.5530047    0.2879314  43.15  0.001738101    1.953    0.488
        92 -11.1789     42.6725     79.3196   7.8519068960e+01   5.5705283931e+01     0.219997    0.1733715 -42.92  0.001010246    1.142    0.124
        93 -11.0730     41.5210     75.9896   7.8133068688e+01   5.6552088635e+01    0.3203777    0.1865139 -64.02 0.0009754638    1.602    0.376
        94 -11.9252     28.5983    245.1883   1.0045289045e+02   2.1752967626e+01    0.3417944    0.1604542  54.65  0.002289046    1.536    0.349
        95 -13.5080      3.9776     63.5924   8.8848092390e+01   6.1885041757e+01     0.461689    0.3747368  61.97  0.003337629    1.584    0.369
        96 -10.2596     97.4557     78.5545   6.0162519139e+01   4.8204763305e+01    0.1445492    0.1367652 -31.80 0.0001140136    1.015    0.015
        97 -11.2388     26.8774     75.1314   8.3037941005e+01   5.8002718911e+01    0.4379742    0.2537983 -84.22  0.002226725    2.261    0.558
        98 -10.0916     97.8035     75.3682   5.9083374033e+01   4.8802499955e+01     0.187569    0.1362096  27.56 0.0001038744    1.518    0.341
        99 -12.7267    198.7400     70.3730   3.2970179722e+01   2.5935845440e+01    0.7195423    0.4741871  33.61  0.002585957    1.883    0.469
       100 -10.8798    117.5910     72.4663   5.2247962548e+01   4.5456048756e+01    0.2522688    0.2382474 -22.49  0.000481549    1.031    0.030
       101 -12.1153    135.0472     66.3623   4.5510022833e+01   4.2692691647e+01    0.5316129    0.3175852  45.32  0.001620651    1.651    0.394
       102 -10.9238     99.8454     65.3254   5.5236378285e+01   5.0426376745e+01    0.2184642    0.1869668  57.91 0.0008818867    1.363    0.266
       103 -12.2516     79.2530     60.8283   6.0498451821e+01   5.4919180572e+01    0.4538949    0.3736181   6.74  0.001641589    1.282    0.220
       104 -12.8910     81.4667     54.3653   5.7533032598e+01   5.5793082044e+01    0.6473908    0.4646365  20.66  0.002417332    1.520    0.342
       105 -10.1441    200.4677     61.4708   3.0178694278e+01   2.6925339144e+01    0.1493707    0.1465177  72.72 0.0008086335    1.046    0.044
       106 -12.8087    178.1695     58.4925   3.3322361478e+01   3.3195536750e+01    0.5811983    0.5613892   8.13  0.001822455    1.101    0.091
       107 -11.1590     38.8833     59.9676   7.4963272186e+01   6.0230910146e+01      0.28085    0.2248924 -77.87  0.001748526    1.545    0.353
       108 -11.4900     24.7402     59.0174   8.0108629971e+01   6.1617812494e+01    0.3884424    0.2074031 -57.34  0.002179178    1.502    0.334
       109 -11.6797    111.1738     58.9050   4.9622248150e+01   4.9358741923e+01    0.2786279    0.2356858  18.92 0.0003196257    1.210    0.173
       110 -14.2132    120.4512     54.7735   4.5535888714e+01   4.8077669986e+01    0.8977612    0.5503758  40.95  0.002426141    1.625    0.385
       111 -13.3033    103.2079     50.4012   4.9021694181e+01   5.2491089849e+01    0.8702782     0.534883 -59.19  0.002246332    2.572    0.611
       112 -13.0790     98.0085     50.2218   5.0577316782e+01   5.3551478396e+01    0.5752105    0.4209558 -36.61  0.001884891    1.337    0.252
       113 -10.6953     47.0287     56.2278   7.0763128886e+01   6.0168959391e+01    0.1875187    0.1432809  63.28  0.000841965    2.000    0.500
       114 -11.0724     17.6562     55.7013   8.2023889359e+01   6.2794521769e+01    0.2761931    0.1424562 -60.24  0.001556371    1.566    0.361
       115 -11.4377     35.8335     53.5653   7.4314076467e+01   6.1827118790e+01    0.3211595    0.1562256  18.70  0.001612654    2.523    0.604
       116 -11.3983    136.4496     49.6365   3.9563848608e+01   4.5199107506e+01    0.2884414    0.2647742  39.15 0.0006363662    1.043    0.041
       117 -10.5220     23.5210     50.0055   7.8217330169e+01   6.3559291463e+01    0.1757952   0.09483422 -54.37 0.0004372924    1.477    0.323
       118 -12.2854    153.5855     46.9724   3.4705709661e+01   4.1344806466e+01    0.5245815    0.3155799  54.66  0.002293312    1.569    0.363
       119 -11.8566    159.3606     43.2181   3.2265111301e+01   4.0412660038e+01    0.4987856    0.3331453  59.59  0.002018135    1.431    0.301
       120 -12.9939      6.4927     43.1047   8.3408607847e+01   6.5984861654e+01    0.7960281    0.3766022  11.01  0.004581831    2.609    0.617
       121 -12.6086    170.9854    242.4764   7.5292454399e+01   1.4536426999e+00    0.3159528    0.1851546  58.66  0.001689202    2.035    0.509
       122 -13.2768     91.5779    230.6437   8.8640143633e+01   1.6184122211e+01    0.4225039    0.2550256  77.70  0.002469506    1.754    0.430
       123 -12.1241     24.5398    216.8636   9.9584496327e+01   2.7287835390e+01    0.5259852    0.2501912  66.08  0.003230446    1.705    0.414
       124 -11.7882    212.7161     43.3000   2.3289831315e+01   2.6464241910e+01    0.4565133    0.2401533  49.50  0.001928309    2.023    0.506
       125 -12.8171    219.5501     41.6075   2.1918537664e+01   2.4964713565e+01    0.6434024     0.432467  77.93  0.002107594    1.522    0.343
       126  -9.9058     80.2802     44.6929   5.4436706470e+01   5.7730360695e+01    0.1233042    0.1088287 -68.80 0.0002608033    1.557    0.358
       127 -13.1649     26.4656    225.6315   9.9758229593e+01   2.5450221150e+01     0.642362    0.3235404 -61.67  0.003990032    2.388    0.581
       128 -13.7331     20.6118    224.0329   1.0064645710e+02   2.6362584306e+01    0.6543062    0.4288183  59.59  0.004927043    1.203    0.169
       129 -12.0010    109.6441     41.8696   4.3958014032e+01   5.2544495958e+01    0.5141332    0.2411169  53.36  0.001105794    2.273    0.560
       130 -12.6794    132.1617     32.6996   3.4629159131e+01   4.8707307473e+01    0.5971614    0.3655874  48.63  0.001485417    1.507    0.336
       131 -13.5056    122.2017     36.6131   3.8540263025e+01   5.0526789482e+01    0.8165187    0.5077414  31.85  0.003722648    1.737    0.424
       132 -12.6527    113.9705     37.7967   4.1200240314e+01   5.2217764416e+01    0.4378886    0.3674661  54.18  0.001600167    1.257    0.204
       133 -12.4716    139.4308     21.4065   2.8940323914e+01   4.8315937087e+01    0.6351553    0.2424585  57.00 0.0008604261    2.275    0.561
       134 -11.0517    135.3748     39.8089   3.6404276248e+01   4.6942710914e+01     0.337901    0.1887282  53.91  0.001048207    1.694    0.410
       135 -11.1261    182.2029     37.7809   2.6349998136e+01   3.5179933634e+01    0.2147913    0.1734188  34.62  0.001084946    1.371    0.270
       136 -12.0368     75.8296     37.0670   5.3078116336e+01   5.9755823140e+01    0.3834967    0.2324158  38.81  0.001162765    1.702    0.413
       137 -11.4646     70.6358     36.1712   5.4622077900e+01   6.0741576298e+01    0.2520165     0.226588  -3.03 0.0006838774    1.095    0.087
       138 -12.2940    242.0335     35.9972   1.7833871034e+01   2.0221726895e+01    0.5330247    0.2823834  66.25  0.001660421    1.882    0.469
       139 -10.6738     35.0592     34.5417   6.8419528097e+01   6.5557303806e+01    0.2148023    0.1688142  19.46 0.0007523879    1.424    0.298
       140 -12.1410     45.8567     33.4781   6.3395565154e+01   6.4593612559e+01    0.5107933     0.419598 -44.39  0.003364559    1.323    0.244
       141 -11.5140     39.6514     32.8860   6.5815419980e+01   6.5387269901e+01    0.4016009    0.2352663 -31.10    0.0018902    1.492    0.330
       142 -13.0016     64.2428    223.2384   9.2988593385e+01   2.1370875357e+01    0.6931434     0.493597  51.41  0.004749072    1.251    0.201
       143 -10.9914    216.5972     28.2229   1.8769315634e+01   2.7466211568e+01    0.1904863    0.1385989 -14.13 0.0009552941    1.712    0.416
       144 -13.0441     55.5240     26.9608   5.6738664562e+01   6.4452710207e+01    0.5809323    0.3615119  36.08  0.002778711    1.742    0.426
       145 -13.3720     63.9268    214.1706   9.2281298442e+01   2.3135784604e+01    0.4968352    0.3025896  66.05  0.003058932    1.388    0.280
       146 -11.6058     30.8255     25.3424   6.6823686143e+01   6.7584473226e+01    0.3799026    0.2126144  -5.53  0.001687646    2.204    0.546
       147 -11.3806     36.4119     24.0109   6.3738858556e+01   6.7249515130e+01    0.3165328    0.2050708 -48.40    0.0019118    1.635    0.388
       148 -10.7246    191.6738    226.3432   6.9120074397e+01   2.0867752648e-01    0.1215569   0.09431808  65.99 0.0007050919    1.739    0.425
       149 -11.9395     48.8206     20.2759   5.6656734086e+01   6.6382572857e+01    0.5689458    0.2453986  34.40  0.002802044    2.429    0.588
       150 -11.3860    224.3742     21.0376   1.6035949708e+01   2.6391305652e+01    0.2709228    0.1746529  55.33  0.001372166    1.618    0.382
       151 -11.4479    248.5042    215.6714   5.7021371709e+01  -7.8509396983e+00    0.2190691   0.09670053  39.25  0.001091528    2.005    0.501
       152 -12.3522      4.4615    212.2478   1.0274505921e+02   3.0133819864e+01    0.3830042    0.1992063 -74.33   0.00260759    1.737    0.424
       153 -11.6042     72.5780    207.2633   8.9982126375e+01   2.3317466388e+01    0.3136007    0.2063955 -86.53  0.001912247    1.447    0.309
       154 -11.8601     62.5348     25.4830   5.3301725151e+01   6.3674520560e+01    0.3960856     0.219579  12.27  0.001824626    2.494    0.599
       155 -10.3972    148.6731    207.3055   7.4618572232e+01   1.0930604189e+01    0.1357852    0.0952331  67.65 0.0003894866    1.649    0.394
       156 -12.1985     59.3976    212.7920   9.3014607915e+01   2.3994374013e+01    0.2476155    0.1446664 -68.81 0.0007716573    1.722    0.419
       157 -13.2818     30.0527    169.1812   9.5102529182e+01   3.6435725658e+01    0.9485406    0.5104977 -45.09  0.004889378    2.823    0.646
       158 -12.5514     22.0300    166.1684   9.6546946556e+01   3.7861675130e+01    0.3149873    0.2538282  30.14  0.000909259    1.639    0.390
       159 -15.3225      7.4796    182.1227   1.0060160922e+02   3.5790496106e+01     1.640779     1.069091  82.69   0.01167027    1.139    0.122
       160 -10.4599     40.5131     12.8865   5.6964697504e+01   6.8517235065e+01    0.1680374    0.0984682 -32.57 0.0003498264    1.471    0.320
       161 -14.8987     15.3135    174.2870   9.8555670413e+01   3.6735083359e+01     1.620648    0.6872302  74.86  0.008218993    2.379    0.580
       162 -10.6291     80.5529    192.5542   8.6802723194e+01   2.5174391209e+01    0.2439812   0.08863585  49.11   0.00103459    2.464    0.594
       163 -11.0864    206.4933    190.5075   6.0111113669e+01   2.9124737858e+00    0.1379314    0.1199666  23.84 1.821691e-05    1.003    0.003
       164 -10.5055    122.5134    182.0197   7.6272258227e+01   2.0543515157e+01    0.1954399    0.1175278 -86.15 0.0008104404    2.576    0.612
       165 -11.1575    200.6704    191.5040   6.1437806925e+01   3.8567474433e+00    0.2639419    0.2195667  51.30 0.0009601045    1.296    0.228
       166 -11.6652    123.7347    166.5402   7.3410501964e+01   2.3595465740e+01    0.4483181    0.2497701 -87.61  0.001461737    4.104    0.756
       167 -11.9497     16.9203    195.9917   9.9688377365e+01   3.2119803890e+01    0.2925636    0.1398506 -70.58  0.001768211    1.865    0.464
       168 -12.2818    202.0701     39.0240   2.3624922612e+01   2.9796223803e+01     1.144369    0.5064934  89.49  0.002935502    5.830    0.828
       169 -12.5905     76.6740    156.5893   8.2990672426e+01   3.3632510839e+01    0.9839296    0.5310991  51.75  0.004215263    1.853    0.460
       170 -12.7729     73.5010    153.4761   8.3301917376e+01   3.4797881904e+01    0.4514386    0.3465125  56.43   0.00190078    1.268    0.212
       171 -12.8853     36.9773    194.4946   9.5799942287e+01   3.0350423241e+01    0.3195587     0.193645 -88.06  0.001947207    1.392    0.282
       172 -10.8531    103.2008    149.9181   7.5379463742e+01   3.0982693636e+01    0.2593455    0.1906889 -40.33 0.0009339247    1.618    0.382
       173 -11.7279     60.3151    147.4445   8.5673550201e+01   3.7944840097e+01    0.3344596    0.2689688  15.21  0.001974765    1.721    0.419
       174 -11.0734    189.0281    155.7571   5.6596675350e+01   1.2458202176e+01     0.206522    0.1212191  45.54 0.0008906214    1.627    0.385
