#   1 NUMBER                 Running object number                                     
#   2 MAG_AUTO               Kron-like elliptical aperture magnitude                    [mag]
#   3 X_IMAGE                Object position along x                                    [pixel]
#   4 Y_IMAGE                Object position along y                                    [pixel]
#   5 X_WORLD                Barycenter position along world x axis                     [deg]
#   6 Y_WORLD                Barycenter position along world y axis                     [deg]
#   7 A_WORLD                Profile RMS along major axis (world units)                 [deg]
#   8 B_WORLD                Profile RMS along minor axis (world units)                 [deg]
#   9 THETA_WORLD            Position angle (CCW/world-x)                               [deg]
#  10 FWHM_WORLD             FWHM assuming a gaussian core                              [deg]
#  11 ELONGATION             A_IMAGE/B_IMAGE                                           
#  12 ELLIPTICITY            1 - B_IMAGE/A_IMAGE                                       
         1 -12.3153    205.8402     44.1825   3.8644589615e+01   2.8767610013e+01      1.20799    0.9318632  42.30  0.006683658    1.691    0.409
         2 -12.0075    213.2706     39.7527   3.6810901722e+01   2.7739266166e+01    0.9617363    0.6261194 -60.97  0.004771836    1.405    0.288
         3 -10.2201      1.9114     27.3933   9.3200044212e+01   7.0441956424e+01    0.5197617    0.1182376 -56.48  0.001731357    5.591    0.821
         4 -11.7381    231.5712     22.9155   3.1547362347e+01   2.6014425068e+01    0.6538377    0.5125178 -65.58  0.002888334    1.043    0.042
         5 -10.3269      2.1582      7.4293   8.4403383226e+01   7.3602727322e+01    0.6870522    0.1412854 -45.95  0.002626565    4.766    0.790
         6  -9.5817    249.8881      3.2894   2.6568859247e+01   2.4648704535e+01    0.3411382    0.1612796 -43.56  0.002084917    1.763    0.433
         7 -11.8522     10.9131    233.6544   1.2085631475e+02   2.2327461384e+01    0.8759695    0.6105558  58.49  0.004306386    1.174    0.148
         8  -9.4214     81.2812    249.5368   1.0776770934e+02   1.0758211764e+01    0.2960931    0.2040914  41.04  0.001120992    1.239    0.193
         9 -11.9181     83.5751    222.0161   1.0427577769e+02   1.6126199594e+01     2.247925     1.248729 -69.99  0.006142635    1.989    0.497
        10 -13.2724      8.8675    208.0164   1.1973323139e+02   2.8112669848e+01     2.024002    0.9603426 -77.42  0.006724885    1.825    0.452
        11 -14.0218     37.4274    191.6776   1.1184981538e+02   2.9112024316e+01     8.510217     3.353071  77.01   0.02443695    5.615    0.822
        12 -10.1352     70.8098    217.6033   1.0670482217e+02   1.8881523145e+01    0.3212136    0.2145846  42.55  0.001734357    1.367    0.268
        13  -9.4499     44.7903    221.5445   1.1296963283e+02   2.1304697175e+01    0.2753709    0.1502709  66.16  0.001290496    1.876    0.467
        14  -8.1708     31.9073    221.8037   1.1578420466e+02   2.2713095359e+01    0.2210373    0.1520692  -1.55  0.001169355    2.524    0.604
        15 -11.4522     27.4058    201.7004   1.1515355407e+02   2.7781617957e+01    0.4864136    0.3969474 -31.64 0.0009528552    1.675    0.403
        16 -13.8576     18.2080    247.7753   1.2024627696e+02   1.8709928326e+01     6.758188     2.011821  23.58   0.02117215    7.410    0.865
        17  -7.9241     67.5014    206.2125   1.0616902074e+02   2.1940145048e+01    0.1826529    0.1230194 -89.89 0.0004070924    1.601    0.375
        18  -9.8300     20.6661    195.0209   1.1614945218e+02   3.0032964702e+01    0.2345385     0.173511  65.70 0.0005598863    1.216    0.178
        19 -11.0639      8.3378    188.1050   1.1846623893e+02   3.2792753359e+01    0.4517759    0.2490726 -82.98  0.002439068    1.549    0.354
        20 -10.2550     56.8762    175.6192   1.0497257878e+02   3.0808882723e+01    0.4318609     0.284025 -32.26  0.001714627    2.047    0.512
        21 -10.2251     62.5244    170.4232   1.0270655686e+02   3.1397960122e+01    0.3860564    0.2795724 -35.70  0.001145629    1.652    0.395
        22 -10.1573     73.0299    161.2233   9.8315820955e+01   3.2304289913e+01    0.3102289    0.2968741 -53.83 0.0004500691    1.076    0.071
        23 -11.3989     80.4510    154.9386   9.5075480201e+01   3.2817269052e+01    0.9870487    0.6353769 -45.33  0.002127569    1.582    0.368
        24 -12.3520     68.6972    145.5975   9.6804231322e+01   3.6954705736e+01     1.672534    0.9596877  80.13  0.005927765    3.150    0.683
        25  -9.8497     33.5116    158.2276   1.0906971739e+02   3.7912489450e+01    0.5337751    0.2535255  62.41  0.002097913    2.848    0.649
        26 -11.7710     59.8190    156.9337   1.0138625000e+02   3.5221031219e+01    0.5581763    0.3286095 -39.23  0.001258252    2.000    0.500
        27  -8.9459     95.5469    141.5215   8.7971730687e+01   3.3781492683e+01    0.3155611    0.2884431 -85.46 0.0009720703    1.164    0.141
        28  -8.3104     99.1730    138.0518   8.6143109481e+01   3.4017819848e+01    0.2641312    0.1927892 -18.51  0.001149258    1.771    0.435
        29 -10.6735     83.7282    139.7158   9.1104397702e+01   3.6203515803e+01     0.340939    0.2924969 -44.97  0.000356318    1.136    0.119
        30  -9.3381    107.0190    131.0770   8.2237203282e+01   3.4309666217e+01    0.3606348    0.3384525  20.75 0.0009884983    1.101    0.092
        31  -9.7816     70.0095    131.1940   9.3555182295e+01   4.0473107050e+01    0.3436244    0.2530987  75.26  0.001066983    1.757    0.431
        32  -9.6633     66.6951    128.3405   9.4011626681e+01   4.1674901579e+01    0.4112691    0.2110967 -58.28  0.001662068    1.813    0.449
        33 -10.9666     56.8077    127.7394   9.7076899301e+01   4.3156930674e+01    0.8804612     0.343762 -70.99  0.002690322    3.780    0.735
        34  -9.2089     61.3274    123.1607   9.4658274979e+01   4.3730909710e+01    0.2680918     0.212574  37.10 0.0006401365    1.360    0.265
        35  -8.2886    105.5127    119.0628   7.9719495703e+01   3.7489073767e+01    0.2286267      0.20513  32.34   0.00032446    1.144    0.126
        36  -8.2993    160.8141    117.5665   6.4800747415e+01   2.6246523992e+01    0.2055422    0.1496037  62.59 0.0006486327    1.603    0.376
        37  -8.0767    205.4495    110.2593   5.4168266512e+01   1.8141274968e+01    0.2035899    0.1237806 -49.90 0.0009364648    1.571    0.363
        38 -10.0287      8.1357    127.4375   1.1263650958e+02   4.7857054030e+01     0.326798    0.1567388 -67.41  0.001576583    1.660    0.398
        39 -10.9990      2.5695     76.0172   1.0642604994e+02   6.0560216690e+01    0.8676786    0.1652961 -63.76  0.003001451    3.710    0.730
        40 -10.5373      1.7761     95.1855   1.1019666058e+02   5.6140252251e+01      1.09548    0.1392882 -69.33  0.002839481    6.339    0.842
        41  -8.3708     45.8239     91.5955   9.2783758325e+01   5.3392738340e+01    0.1930154    0.1260831  38.46 0.0009520922    1.741    0.426
        42  -9.9530      2.2175     63.5411   1.0385628779e+02   6.3333163107e+01    0.4096788    0.1160325 -60.26  0.001705517    2.664    0.625
        43  -9.2422     13.2524     60.3592   9.8043972629e+01   6.3348729109e+01    0.2407598    0.1878274 -41.86 0.0006133247    1.071    0.067
        44  -8.9918    139.6874    222.3094   9.1434059779e+01   7.4561396813e+00    0.2837201    0.1608958  14.51  0.001169487    2.503    0.601
        45  -8.4429    101.4760    238.0079   1.0217005075e+02   1.0187165630e+01    0.1780611     0.130258 -65.91 0.0006245941    1.541    0.351
        46 -11.2948    221.6840     31.8998   3.4261749254e+01   2.6956654044e+01    0.6677557    0.3944598  56.12  0.002125293    1.937    0.484
        47  -7.9014     31.4913     54.3788   8.7846274796e+01   6.2958260285e+01    0.1285101    0.1063416 -16.93 8.438076e-05    1.031    0.030
        48  -9.3505     12.3416     52.8845   9.6325527990e+01   6.4947512134e+01    0.1909216    0.1621511  10.69 0.0007055957    1.320    0.242
        49 -10.1864      2.0009     48.8485   1.0017090559e+02   6.6404462819e+01    0.5590942    0.1053642 -62.52  0.001611111    6.388    0.843
        50  -8.5227    129.5536     37.0652   4.8678331249e+01   4.7521508135e+01    0.2405226    0.1809272  80.86 0.0006278225    1.478    0.323
        51  -8.6672     32.4294    233.1367   1.1651953902e+02   2.0199545306e+01     0.290852    0.1495117  73.32  0.001501124    1.976    0.494
        52 -12.1280     55.4703    240.8747   1.1236095781e+02   1.5864170199e+01    0.9535765    0.7502592  -0.37  0.002923998    1.925    0.481
        53 -10.4227     74.7252    220.6497   1.0614779840e+02   1.7667067971e+01    0.3539208    0.2579733  89.12  0.001432849    1.454    0.312
