#   1 NUMBER                 Running object number                                     
#   2 MAG_AUTO               Kron-like elliptical aperture magnitude                    [mag]
#   3 X_IMAGE                Object position along x                                    [pixel]
#   4 Y_IMAGE                Object position along y                                    [pixel]
#   5 X_WORLD                Barycenter position along world x axis                     [deg]
#   6 Y_WORLD                Barycenter position along world y axis                     [deg]
#   7 A_WORLD                Profile RMS along major axis (world units)                 [deg]
#   8 B_WORLD                Profile RMS along minor axis (world units)                 [deg]
#   9 THETA_WORLD            Position angle (CCW/world-x)                               [deg]
#  10 FWHM_WORLD             FWHM assuming a gaussian core                              [deg]
#  11 ELONGATION             A_IMAGE/B_IMAGE                                           
#  12 ELLIPTICITY            1 - B_IMAGE/A_IMAGE                                       
         1 -13.0241      2.6307     23.0881   5.2131108418e+01   7.5264184545e+01    0.4802061    0.2704285 -67.88  0.002446165    2.050    0.512
         2 -14.1296      7.1676     17.7520   4.5501066450e+01   7.5946087803e+01     1.504969    0.3909643 -46.87  0.005725115    3.307    0.698
         3 -12.9117      2.3830      4.1403   4.1690710556e+01   7.8935443982e+01    0.9535535    0.1744528 -49.44  0.003256034    4.758    0.790
         4 -13.6254      7.6941      2.7113   3.5222221310e+01   7.8554869690e+01    0.6358131    0.4080355  40.70  0.003594462    1.720    0.419
         5 -13.4605    176.2731     16.1679   3.5110848824e+02   3.9450678046e+01    0.4230114    0.2709291 -65.45  0.002469561    1.371    0.270
         6 -13.0495    167.8515     15.7434   3.5171593352e+02   4.1374103555e+01    0.3597673    0.2742693  79.90 0.0009939629    1.273    0.214
         7 -13.6331     20.8258      5.9946   2.6491308266e+01   7.6144344915e+01    0.5192631    0.3340652 -10.77  0.002796177    1.892    0.472
         8 -11.5614     65.2716      6.0207   4.7823273746e+00   6.7057545366e+01    0.2698515    0.1995003  34.88 0.0006722714    1.385    0.278
         9 -10.3268     37.4775      6.4359   1.6283341457e+01   7.3063593070e+01    0.1279126    0.1113914  31.40 7.412565e-05    1.009    0.009
        10 -13.2958    153.9195      3.7499   3.4949942490e+02   4.5764746537e+01    0.4572548    0.2819432 -86.29  0.001696917    1.471    0.320
        11 -12.1864    144.6121      2.6354   3.4997096490e+02   4.8053575385e+01    0.2542948    0.1443125  83.79  0.001312051    1.598    0.374
        12 -11.5653    162.0324      1.7055   3.4827527785e+02   4.4082961445e+01    0.1728811    0.1388945 -80.05   0.00112887    1.069    0.065
        13 -12.2229     24.0716    147.3119   6.5787370653e+01   4.1431303819e+01    0.8013341    0.2893497  80.48   0.00226434    4.663    0.786
        14 -12.3761     16.2752    147.2766   6.8421115723e+01   4.2095659227e+01    0.2764921    0.2412557 -85.88 0.0009748829    1.070    0.065
        15 -12.3702      8.9546    144.6177   7.0686909855e+01   4.3362532866e+01    0.5704239    0.1932544  37.36  0.002178919    2.615    0.618
        16 -11.0475    215.7696    135.0217   1.4111044295e+01   1.4496138080e+01    0.1727131   0.08574612 -39.06 0.0008771188    1.638    0.390
        17 -10.7966    165.5149    127.9661   2.1214936895e+01   2.4030501361e+01    0.2218843    0.1275776 -43.72  0.001028767    1.582    0.368
        18 -10.9207     12.1834    126.1926   6.7941742881e+01   4.8202617653e+01    0.2406458    0.1719212  27.86  0.001013133    1.457    0.314
        19 -10.7544     15.4883    124.5052   6.6508712619e+01   4.8429628042e+01    0.2218835    0.1190691 -63.84  0.000764349    1.689    0.408
        20 -11.2733    181.5103    124.5071   1.7440304600e+01   2.1832355051e+01    0.1366567    0.1197638 -37.22 0.0008105644    1.002    0.002
        21 -10.5575     60.5985    122.8197   4.9236566032e+01   4.3928511828e+01    0.2203443    0.1455249 -79.46 0.0009427348    1.716    0.417
        22 -12.0307     67.7775    120.3353   4.6165103497e+01   4.3522806308e+01    0.2824937    0.2602049  81.67 0.0003318642    1.107    0.096
        23 -10.4769    157.6671    120.3246   2.1061934451e+01   2.6977833726e+01    0.1445188    0.1117159 -78.80 0.0007050873    1.709    0.415
        24 -10.3014    220.1987    119.4187   1.0351656484e+01   1.6311935113e+01    0.1477302    0.1206608  74.48 0.0009501926    1.686    0.407
        25 -11.3477    247.2421    118.0086   6.7322701804e+00   1.2602099427e+01     0.164439   0.07490945 -37.36 0.0008941124    1.641    0.391
        26 -10.6974     53.7497    117.7676   5.0761441766e+01   4.6247438660e+01    0.2088213    0.1702038  64.74 0.0004167873    1.307    0.235
        27 -10.8714    187.3563    117.3034   1.4841579464e+01   2.2094954928e+01    0.1334769    0.1016034  -3.51 0.0007039388    1.714    0.417
        28 -11.8049     87.2033    116.7928   3.8760258005e+01   4.1209511372e+01    0.2665793    0.1652419  74.92 0.0008516977    2.780    0.640
        29 -10.8913     23.4017    115.8469   6.2329031343e+01   5.0192894509e+01    0.2537927    0.1898021  38.66  0.000619176    1.367    0.269
        30 -10.7844    208.4798    114.5148   1.0964453127e+01   1.8962438334e+01    0.1289723    0.1062516 -38.01 0.0004487925    1.009    0.009
        31 -11.3850     40.4894    109.4432   5.4335720081e+01   5.0203211726e+01    0.2418712    0.2317575  70.11 0.0007638692    1.054    0.051
        32 -11.9045     38.9207    105.1246   5.4148102437e+01   5.1566033066e+01    0.3320899    0.2847128  86.87 0.0009855784    1.203    0.168
        33 -11.2480      2.2079    111.6634   7.0481828528e+01   5.2841948975e+01    0.2763647    0.2458253  77.82  0.001615728    1.081    0.075
        34 -10.4748    136.6827    108.4169   2.2788504919e+01   3.3525134700e+01    0.1914237      0.14384  34.31  0.000730779    1.503    0.335
        35 -10.8213    223.1756    106.6525   7.3484241524e+00   1.7830882881e+01    0.1816237    0.1290821 -43.96 0.0008526231    1.149    0.130
        36 -11.1515    111.4803    107.4640   2.9037703890e+01   3.8837705205e+01    0.1522583    0.1477806 -63.54 -0.0001173289    1.002    0.002
        37 -11.2810      2.0722    104.2503   6.9829430436e+01   5.4891862057e+01    0.2294977    0.2132568 -64.76 0.0006091514    1.061    0.057
        38 -13.0090     18.6367     99.6536   6.1957041910e+01   5.5075614424e+01    0.9684198    0.4124594 -56.30  0.003874346    2.066    0.516
        39 -11.6577     25.0193     92.7875   5.7861611536e+01   5.6391458036e+01     0.353232    0.2062217 -73.97  0.001566237    1.696    0.411
        40 -10.5897     86.8144    102.1454   3.5211491149e+01   4.4896620738e+01    0.2391362    0.2069166  79.54 0.0006854649    1.281    0.219
        41 -11.5967    160.4778     97.8240   1.5038762567e+01   3.0756895265e+01    0.4713936    0.2067281 -57.98  0.001539018    3.624    0.724
        42 -11.4869    207.4991     94.4879   6.7658224767e+00   2.2346391288e+01    0.1295778    0.1059845 -45.34 0.0008105219    1.016    0.015
        43 -10.9472      4.6808     93.3967   6.7443285960e+01   5.7730011923e+01    0.2662644    0.1364832 -54.47  0.001188866    1.750    0.429
        44 -11.6824    150.8318     92.1762   1.5478027608e+01   3.3816591430e+01    0.1967409    0.1748552 -11.70 0.0007988126    1.320    0.243
        45 -11.9686    145.0896     90.4170   1.6193591402e+01   3.5371346919e+01    0.3039629    0.2030313 -49.03  0.001452526    1.417    0.294
        46 -11.1150      2.7199     86.9833   6.7558473392e+01   5.9571745875e+01    0.2450695    0.1980841 -20.52 0.0006393781    1.322    0.244
        47 -11.9360     56.6661     83.0771   4.1258007927e+01   5.4877113716e+01    0.4315352    0.2170835  37.16  0.001730139    1.987    0.497
        48 -10.8219    143.4187     81.2197   1.4017130760e+01   3.7458933146e+01    0.2159275    0.1258838 -51.27 0.0009473294    1.695    0.410
        49 -11.5708    214.4052     80.2013   2.7628163907e+00   2.3309781691e+01    0.1916685   0.09030993 -45.68 0.0009508873    1.733    0.423
        50 -11.2095    138.7724     80.0045   1.4649296643e+01   3.8710815052e+01    0.2307839    0.1885407 -67.50 0.0007108194    1.254    0.203
        51 -10.5522    107.2307     80.2123   2.2500359738e+01   4.5670976488e+01      0.20053    0.1720851 -82.75 0.0003200301    1.270    0.213
        52 -12.1852     10.9657     76.2068   6.1657382383e+01   6.1968292155e+01    0.2516494    0.2344881  22.33 0.0004126002    1.158    0.136
        53 -10.5310    206.3216     73.3317   2.1592244430e+00   2.5798215657e+01    0.1184184   0.09736209  -0.96 0.0007049551    1.698    0.411
        54  -9.8399     44.6844     70.2694   4.2798550463e+01   5.9843142131e+01    0.1439612    0.1123524  64.18 0.0002096284    1.554    0.357
        55 -10.4539     16.9359     62.7884   5.5348231741e+01   6.4957815668e+01    0.1782126    0.1117881  15.11 0.0008005479    1.680    0.405
        56 -11.3519    198.0074     54.0449   3.5857982605e+02   3.0168126760e+01     0.209088    0.1545188 -43.66            0    1.158    0.137
        57 -11.2362     84.4801     52.5179   1.9947873040e+01   5.6101216618e+01    0.2782362    0.1271657  40.57  0.001034272    2.457    0.593
        58 -11.5974     76.5983     47.2593   2.0576997260e+01   5.8776379692e+01    0.2790401    0.1771084  60.84  0.001267612    1.736    0.424
        59 -11.1446    175.1136     45.1721   3.5893598678e+02   3.6173746311e+01     0.315968     0.158376 -40.47  0.001530139    1.731    0.422
        60 -12.7768    189.7253     43.3311   3.5683401831e+02   3.3301941055e+01     0.261389    0.2034799 -62.22  0.001635885    1.099    0.090
        61 -12.5057      4.6017     34.1088   5.4867707340e+01   7.2731491545e+01    0.3969788    0.3083023 -69.72  0.002357677    1.397    0.284
        62 -11.8620     65.4915     33.2316   1.8593727653e+01   6.3533489163e+01     0.428459    0.1701035  46.21  0.001662705    2.386    0.581
        63 -11.4284     85.8387     30.8454   1.0665200918e+01   5.9277029508e+01    0.1995859    0.1655455 -78.60   0.00109225    1.342    0.255
        64 -11.5010    170.0000     28.9777   3.5514590005e+02   3.9387067084e+01    0.2068554   0.06755779 -30.99 0.0008013906    2.935    0.659
        65 -10.7758    183.7027    245.5587   3.8252276983e+01   1.2740141683e+00     0.140665     0.089497  26.54 0.0006776175    1.489    0.328
        66 -10.9017     81.0266    239.0087   5.8868469539e+01   1.3651505012e+01    0.1987622    0.1659458  30.81  0.001320465    1.013    0.013
        67 -11.5992    238.0653    231.3335   2.7210407062e+01  -2.0054855759e+00    0.1997784    0.1268862 -31.31  0.001482171    1.412    0.292
        68 -10.9531     28.2339    227.2576   7.0423740653e+01   2.1459821016e+01    0.1870698   0.08906434  81.27 0.0008902866    2.416    0.586
        69 -11.7731    107.6104     21.9084   1.7804182856e+00   5.5137906650e+01    0.2395323    0.1976033  69.62 0.0003666927    1.117    0.105
        70 -10.4248    155.3584     20.2858   3.5424265287e+02   4.3748466162e+01    0.1259906   0.09415714  45.05 0.0007021714    1.678    0.404
        71 -11.9716    136.5527    218.1976   4.3898717134e+01   1.0916478661e+01    0.2384769    0.1908981  46.03  0.001396131    1.478    0.323
        72 -10.5239     63.1197    217.1726   6.1159087178e+01   2.0045535367e+01    0.1842853    0.1328915  49.67 0.0004400322    1.295    0.228
        73 -10.9773     51.2535     17.6296   1.6509444154e+01   6.8834563696e+01     0.243024    0.1620847 -44.49  0.001276309    1.713    0.416
        74 -11.0850     83.3685    203.6892   5.4631626419e+01   2.0575068805e+01    0.1466796   0.09174695  54.25 0.0007036464    1.765    0.434
        75 -10.9438    186.3513    194.0135   3.0004626193e+01   8.8033176404e+00    0.1961017    0.1801311  48.57   0.00132771    1.553    0.356
        76 -12.2064    219.1567    174.4866   2.0999856732e+01   7.8096915186e+00    0.4119507    0.2448885 -48.48  0.002352987    1.912    0.477
        77 -11.1703     67.8295    175.6363   5.5368922505e+01   2.9117469108e+01    0.2686917    0.2198695  71.06 0.0008749024    1.283    0.220
        78 -11.8171     15.2971    162.5341   6.9938850534e+01   3.8082946570e+01    0.3462318    0.2058239  52.57   0.00161272    1.575    0.365
