#   1 NUMBER                 Running object number                                     
#   2 MAG_AUTO               Kron-like elliptical aperture magnitude                    [mag]
#   3 X_IMAGE                Object position along x                                    [pixel]
#   4 Y_IMAGE                Object position along y                                    [pixel]
#   5 X_WORLD                Barycenter position along world x axis                     [deg]
#   6 Y_WORLD                Barycenter position along world y axis                     [deg]
#   7 A_WORLD                Profile RMS along major axis (world units)                 [deg]
#   8 B_WORLD                Profile RMS along minor axis (world units)                 [deg]
#   9 THETA_WORLD            Position angle (CCW/world-x)                               [deg]
#  10 FWHM_WORLD             FWHM assuming a gaussian core                              [deg]
#  11 ELONGATION             A_IMAGE/B_IMAGE                                           
#  12 ELLIPTICITY            1 - B_IMAGE/A_IMAGE                                       
         1  -7.9832     30.1729     16.1762   7.9162973682e+01   6.9553427796e+01    0.1464837     0.130932 -11.75 0.0006080446    1.352    0.260
         2  -7.8862     17.2345     14.4315   8.5125254447e+01   7.1222748716e+01    0.1378583   0.09906665  26.53 0.0005123181    1.581    0.367
         3  -8.5469     55.6729     10.0169   6.4748148198e+01   6.6594685043e+01     0.190142    0.1773319 -16.86 0.0008161304    1.388    0.280
         4  -8.1741     91.1310      9.1657   5.2884105422e+01   5.9840582791e+01    0.1588147    0.1517371 -61.75 0.0005059853    1.325    0.245
         5  -7.8240    101.4811      7.9806   4.9833809342e+01   5.7694403900e+01    0.1693381    0.1253342 -17.43 0.0003729767    1.487    0.328
         6  -8.4374     33.5927      5.3775   7.2038133000e+01   7.0513380107e+01    0.2499795    0.1246396 -43.12  0.001229899    2.901    0.655
         7  -8.3854     78.9825      4.2891   5.4169760303e+01   6.2795532207e+01    0.1979968    0.1599799 -23.95  0.000947098    1.401    0.286
         8  -7.4835     44.6541      3.3055   6.5900131493e+01   6.9111327912e+01   0.09889979   0.09728351 -78.34 0.0007041981    1.694    0.410
         9  -8.3280     62.4627      1.4704   5.8103616297e+01   6.6236545887e+01    0.1836326    0.1124492  60.25 0.0005642651    2.015    0.504
        10  -7.5730     39.4387      1.4621   6.7224859674e+01   7.0107208853e+01    0.1172279    0.0918305   9.24 4.423386e-05    1.038    0.037
        11  -8.5601    156.0811    248.0931   9.7140889397e+01   1.3007111713e+00    0.1841959    0.1399908  60.74 0.0006739342    1.663    0.399
        12  -8.9960    232.8624    247.4401   8.2404509011e+01  -9.5266972003e+00    0.3198371    0.1785143 -37.89  0.001894202    2.014    0.503
        13  -8.2009    191.3411    249.6594   9.0447190760e+01  -4.1604405503e+00    0.1658167    0.1357428  53.82 0.0008608821    1.694    0.410
        14  -7.9513    184.5010    250.4662   9.1884257834e+01  -3.2877616344e+00    0.1236336   0.09911853  19.63 0.0001192878    1.007    0.007
        15  -8.6909     93.9718    249.4720   1.0974907451e+02   1.0268201607e+01    0.2882682    0.1669966  76.90  0.001482675    2.343    0.573
        16  -8.2522     63.7864    248.3686   1.1553085071e+02   1.4530964088e+01    0.1547223    0.1010163  31.98 0.0006542799    1.627    0.385
        17  -9.0694    210.9661    246.5997   8.6262074936e+01  -6.5021719091e+00      0.19144    0.1656907 -44.73 0.0007751613    1.665    0.399
        18  -9.2342    147.1420    246.2423   9.8685895145e+01   2.9581062179e+00    0.2838956     0.208321  76.34  0.001557587    2.073    0.518
        19  -8.5069    146.4582    240.1006   9.7992851273e+01   4.0932123061e+00    0.3149026    0.2107856  81.50  0.001419097    2.857    0.650
        20  -9.2590    120.3429    245.6871   1.0404529058e+02   7.1101673010e+00    0.3365146    0.2125935  72.42  0.001598371    2.279    0.561
        21  -9.0331      9.5622    244.4367   1.2521277952e+02   2.1409681947e+01    0.3311276   0.09150901 -83.25  0.001464254    3.622    0.724
        22  -8.6729     67.4675    244.7896   1.1452468122e+02   1.4732336954e+01    0.1989849     0.110724 -78.66  0.001115101    1.961    0.490
        23  -8.3219     34.4386    244.2965   1.2075455719e+02   1.8826149918e+01    0.1903793   0.09578124 -73.02  0.001054971    1.960    0.490
        24  -8.8269    168.9965    243.4784   9.3908686623e+01   7.4244650984e-02    0.1954118    0.1800865 -85.43 0.0005516903    1.507    0.337
        25  -9.2330     77.9476    243.4469   1.1234439919e+02   1.3598068598e+01    0.3041024    0.1631065  74.33  0.001512174    2.371    0.578
        26  -8.8787    213.9339    242.5506   8.5065565797e+01  -6.3585500079e+00    0.1985105    0.1930371  -2.32  0.001055939    1.507    0.336
        27  -9.5508    160.2683    240.6150   9.5249613293e+01   1.8703401999e+00    0.3854996    0.2714566 -89.79  0.001748475    2.867    0.651
        28  -8.8832    194.4794    240.6078   8.8454524076e+01  -3.3026135441e+00    0.2910302    0.2126737 -65.27    0.0013307    2.535    0.606
        29  -9.3527    183.1691    240.2615   9.0612601574e+01  -1.5690062019e+00    0.3519975    0.2499726  62.37   0.00187621    2.354    0.575
        30  -8.2280    153.4058    242.2153   9.6868511244e+01   2.6645578729e+00    0.1571258    0.1239744 -68.78 0.0009447325    1.733    0.423
        31  -8.2803     88.1867    242.1999   1.1017612497e+02   1.2424431229e+01    0.1687601    0.1231884  70.64 0.0005813459    1.358    0.264
        32  -9.0368    241.4722    238.4634   7.9412121485e+01  -9.4792926651e+00    0.4322068     0.188843 -15.26  0.001792099    3.621    0.724
        33  -9.3058    135.6440    239.1538   1.0009033687e+02   5.9319773715e+00    0.2971691     0.170024  55.39  0.001272636    2.038    0.509
        34  -9.2517    230.9354    237.2255   8.1077324494e+01  -7.9461505489e+00    0.2663803    0.2400791 -70.00  0.001769347    2.147    0.534
        35  -8.5014    128.9835    238.7984   1.0142104687e+02   7.0223664542e+00    0.2134539    0.1231357  55.79 0.0007260524    1.959    0.489
        36  -9.9198    215.0440    233.5041   8.3378307087e+01  -5.2445246102e+00    0.5163713    0.3929266 -82.27  0.002448663    3.949    0.747
        37  -8.6036    208.9043    238.0008   8.5275049981e+01  -5.0133905365e+00    0.2049552    0.1604508 -32.63  0.001045795    1.430    0.301
        38  -8.4043    170.7438    236.6260   9.2539668286e+01   9.0084505440e-01      0.27124     0.182274 -77.88  0.001232182    3.397    0.706
        39  -8.7495    203.0675    234.6949   8.5849689525e+01  -3.6886456436e+00    0.2417859    0.1763447 -52.87   0.00101759    2.002    0.501
        40  -9.7665    175.7433    233.4243   9.1037559798e+01   6.4421068442e-01    0.4417368    0.2362987 -55.87  0.002067765    2.778    0.640
        41  -9.3744    109.1890    234.5946   1.0502113610e+02   1.0813016652e+01    0.5113555    0.2469673  54.25  0.001571189    2.244    0.554
        42  -7.7999     57.9542    237.0000   1.1573985977e+02   1.7456966410e+01    0.1911992   0.05969226  35.04 0.0007986007    2.916    0.657
        43  -9.1108    247.9344    234.7852   7.7670614402e+01  -9.8220907247e+00     0.224328    0.1660464 -16.77  0.000764897    1.195    0.163
        44  -9.6749    246.4420    229.2006   7.6974738274e+01  -8.9051955269e+00    0.3561888    0.1755625 -33.57   0.00160327    1.914    0.478
        45  -9.0291     78.7711    234.3576   1.1130870058e+02   1.5244069996e+01    0.2663715    0.1507615  87.84  0.001061159    2.232    0.552
        46  -8.6838      7.8611    234.6239   1.2504568382e+02   2.3467842043e+01    0.1834019    0.1049717  86.70  0.001192791    1.452    0.312
        47  -8.2974    122.9455    234.0137   1.0206344220e+02   8.8244064170e+00    0.2084101    0.1414672  64.75 0.0008477065    1.753    0.430
        48  -8.2474     99.6204    234.2555   1.0698162690e+02   1.2299814802e+01    0.2088032    0.1286644  65.82 0.0009324809    1.853    0.460
        49  -9.7406     67.9989    231.5730   1.1324723537e+02   1.7247386794e+01    0.5478953    0.2738398  81.53  0.002497435    2.749    0.636
        50  -8.5780    194.6064    232.9000   8.7199299829e+01  -2.1616781860e+00    0.2069163    0.1870159  40.71 0.0008836777    1.371    0.271
        51  -8.2292    144.6858    233.3250   9.7413008926e+01   5.5469479524e+00    0.2100784    0.1321826  65.62 0.0009831717    2.479    0.597
        52  -8.7751    140.2044    230.1681   9.7905758450e+01   6.8226098526e+00    0.3678544    0.1938009  54.82  0.001640875    2.382    0.580
        53  -8.4716    132.8060    233.0702   9.9866657564e+01   7.4629105781e+00     0.201287    0.1621104  59.68  0.001212698    1.316    0.240
        54  -9.0020    201.9672    243.3337   8.7444427898e+01  -4.7830598558e+00    0.2274005    0.1652754 -44.40 0.0009675052    1.754    0.430
        55  -9.3257    186.4937    230.8834   8.8476227777e+01  -6.1197638810e-01    0.2903798    0.2343383  86.14  0.001149614    2.270    0.559
        56  -8.4069    157.9622    232.0453   9.4465144264e+01   3.6684631084e+00     0.197104     0.150273  61.96 0.0007487771    1.684    0.406
        57  -8.5472     92.4035    231.6127   1.0819494997e+02   1.3865823082e+01    0.2572336    0.1464342  68.17 0.0009386294    2.170    0.539
        58  -9.1926    236.0697    230.3979   7.9003881365e+01  -7.7092078142e+00    0.2833725    0.1688595 -33.63  0.001158808    1.665    0.399
        59  -8.8434      1.7279    230.8885   1.2596651744e+02   2.4776602175e+01    0.2134604    0.1077542  75.11   0.00095519    1.621    0.383
        60  -8.5433    229.9632    229.2558   7.9906505328e+01  -6.7272139428e+00    0.2086485    0.1553018 -58.89 0.0009882301    2.620    0.618
        61  -9.9697    149.7781    226.4740   9.5343628054e+01   5.9574593718e+00    0.5876736    0.3746323 -87.99    0.0023948    3.709    0.730
        62  -8.6462    162.1825    227.9133   9.2961276154e+01   3.7085242069e+00     0.281978    0.2082184  77.28   0.00113373    2.286    0.563
        63  -8.7767    128.0737    227.4058   1.0009782968e+02   9.2594575071e+00    0.2941686    0.2054729  72.80  0.001255911    1.922    0.480
        64  -8.2842    119.9641    227.7391   1.0187768623e+02   1.0470410024e+01    0.2184338    0.1656917 -85.67 0.0008057891    1.635    0.388
        65  -8.9087      8.0255    228.2047   1.2469686435e+02   2.4726883801e+01    0.1757772   0.08949489  73.08   0.00104446    1.650    0.394
        66  -8.1591    223.5521    226.7308   8.0646186409e+01  -5.4785026646e+00    0.2271643    0.1082738 -31.89   0.00113867    2.076    0.518
        67  -9.0920    205.8687    225.8204   8.3830664031e+01  -2.7694151700e+00     0.248863     0.173869 -39.32 0.0008816163    1.585    0.369
        68  -8.2811     49.3402    226.9681   1.1663811582e+02   2.0541105761e+01    0.2385701    0.1278368  58.59  0.001302497    1.671    0.402
        69  -7.9044    200.4382    226.5097   8.5001473739e+01  -2.0575458270e+00    0.1270944    0.1083307  11.02 0.0001538369    1.052    0.049
        70  -8.8567    180.7098    224.4002   8.8584965482e+01   1.3463260674e+00    0.2655143      0.20633  61.68 0.0006550882    1.840    0.456
        71  -9.0824    104.8803    223.8813   1.0462851633e+02   1.3552787510e+01    0.3646928    0.2273391  78.56  0.001650627    2.242    0.554
        72  -8.9543     93.9939    224.2601   1.0702257852e+02   1.5103944777e+01    0.3647919    0.1941274  60.97  0.001694411    2.183    0.542
        73  -8.0924     38.4772    224.9888   1.1866339423e+02   2.2221433998e+01    0.1724058   0.07923468  75.43 0.0007211426    2.437    0.590
        74  -9.1721    216.4951    223.6205   8.1425495157e+01  -4.0094851292e+00    0.2185461    0.2025259 -26.79    0.0010017    1.392    0.282
        75  -8.6330    173.1041    223.1932   8.9947301672e+01   2.7665064886e+00    0.2524655    0.1872614 -50.50 0.0007031003    1.616    0.381
        76  -8.1125    113.9176    223.9707   1.0268403513e+02   1.2145372507e+01    0.2083258     0.144861  67.14 0.0007779787    1.658    0.397
        77  -8.2918     59.7671    224.1342   1.1425885412e+02   1.9835645714e+01    0.2268596   0.09769606  64.31  0.000945881    2.888    0.654
        78  -9.2841    192.4088    221.4152   8.5724822650e+01  -1.0458996039e-02    0.2932261    0.2501873 -76.70  0.001074093    1.884    0.469
        79  -7.9701    163.6783    223.3141   9.1928194409e+01   4.2697959648e+00    0.2561497    0.1642813  71.12  0.001050207    3.408    0.707
        80  -8.7808    159.3201    220.8074   9.2447748525e+01   5.4266861309e+00    0.2764859    0.2058967  63.76  0.001043461    1.803    0.445
        81  -9.2222    238.9766    221.3432   7.6913097156e+01  -6.8505513437e+00    0.2413981    0.1613273 -30.12 0.0008885161    1.423    0.297
        82 -10.2867    225.0051    219.4734   7.9111049399e+01  -4.6283677796e+00    0.3656833    0.2453792 -38.25 0.0009166837    1.606    0.377
        83  -8.4429    202.8223    220.3139   8.3477018291e+01  -1.4518448866e+00    0.2045749    0.1684061 -37.82 0.0006385538    1.393    0.282
        84  -9.2000    120.4334    219.3044   1.0063396294e+02   1.2043924697e+01    0.4673846    0.2444635  59.93  0.001937866    2.658    0.624
        85  -8.6725     82.8756    220.6030   1.0900204042e+02   1.7461630184e+01    0.3108876    0.1759007  75.36  0.001307157    2.304    0.566
        86  -8.1333     73.0156    220.9412   1.1115722487e+02   1.8759582863e+01     0.216064    0.1280966  65.69  0.001012556    1.749    0.428
        87  -8.3114     27.6768    220.8740   1.2051550728e+02   2.4263346062e+01    0.2252375   0.08122866 -66.60  0.001076778    2.571    0.611
        88  -7.8790      9.6433    221.6918   1.2405348161e+02   2.5897744421e+01    0.1014907   0.08158361 -51.72 0.0007042081    1.728    0.421
        89  -8.6849    248.4196    218.0991   7.4687524126e+01  -7.6625210553e+00    0.2695769    0.1883358  55.34  0.001451168    2.894    0.654
        90  -8.2104    210.2013    219.2103   8.1854321280e+01  -2.4038124152e+00    0.1555593    0.1489794   7.59 0.0004469885    1.332    0.249
        91  -9.4014    132.9160    216.1929   9.7441534014e+01   1.0639884935e+01    0.4545272    0.2940249  78.40  0.002008223    2.656    0.623
        92  -8.4438    112.0004    217.2807   1.0221360895e+02   1.3785534084e+01    0.2658885    0.1620631  84.18  0.001160252    2.661    0.624
        93  -8.8578     51.3553    217.2084   1.1539324079e+02   2.2344227713e+01    0.2443863     0.165934  83.18 0.0007215283    1.377    0.274
        94  -8.6975    169.3513    216.4749   8.9622977298e+01   4.5522860928e+00    0.2541037    0.2241451  79.41 0.0009177752    1.540    0.351
        95  -8.6950    143.0297    216.5717   9.5284215788e+01   8.8997853627e+00    0.2655571    0.2039225  79.55  0.001115366    1.802    0.445
        96  -8.4975     61.7402    217.1690   1.1318834378e+02   2.1050766426e+01    0.2069832    0.1342366  74.33 0.0009263879    1.526    0.345
        97  -8.9850    232.3307    214.7356   7.6925484310e+01  -4.9785500667e+00     0.214279    0.2048552 -56.70 0.0007856794    1.652    0.395
        98  -8.3797    185.5257    214.3314   8.5898777098e+01   2.2721322614e+00    0.2205302    0.1306048 -46.88 0.0006048079    1.920    0.479
        99  -8.3361    154.1759    214.9790   9.2613392728e+01   7.3478645848e+00    0.1997931    0.1775492  65.44 0.0006203814    1.320    0.242
       100  -9.1605     93.3649    214.3707   1.0596946523e+02   1.7245426298e+01    0.4477265    0.1929511  53.92  0.001448276    2.609    0.617
       101  -9.5307    214.0203    212.4275   7.9915567450e+01  -1.9241127295e+00     0.345762     0.280852  60.55  0.001719304    1.956    0.489
       102  -9.3970     73.3662    212.2277   1.1015154649e+02   2.0568138030e+01     0.646245    0.2373826  57.82  0.002217676    3.932    0.746
       103  -8.1020    224.8622    212.5558   7.7899014171e+01  -3.5712074619e+00    0.1959694    0.1385952 -34.70 0.0005308889    1.435    0.303
       104  -8.6812    161.7197    212.5359   9.0587399926e+01   6.5393508407e+00    0.2420673    0.2212619  88.70 0.0008954588    1.388    0.280
       105  -8.1052    106.3977    213.1051   1.0289659519e+02   1.5523559360e+01    0.1790017    0.1254155 -81.50 0.0007250277    1.703    0.413
       106  -9.2091    204.1414    210.7254   8.1522746883e+01  -1.1473808759e-01    0.2418253    0.2031238 -36.34 0.0006278146    1.327    0.246
       107  -8.4012    192.2828    210.6662   8.3877868775e+01   1.7979931185e+00    0.2235681    0.1583734 -50.72 0.0007145397    1.746    0.427
       108  -9.3085    175.2489    209.9884   8.7275852431e+01   4.7326792633e+00     0.332487    0.2566234  76.00   0.00143332    2.122    0.529
       109  -8.8882    148.1217    210.6548   9.3231326852e+01   9.1876686862e+00    0.2731933    0.2101909  79.51  0.001234416    1.844    0.458
       110  -9.0562    116.3812    210.5768   1.0030063318e+02   1.4466666421e+01    0.3382619    0.2058148  62.77  0.001188274    2.058    0.514
       111  -8.3583     32.7855    210.9607   1.1875981494e+02   2.5828822743e+01    0.3421125   0.06729565  50.71   0.00111001    4.863    0.794
       112  -9.4223      6.4595    209.3537   1.2398177026e+02   2.8773817904e+01    0.4560227    0.1507306  76.37  0.001795169    3.760    0.734
       113  -8.6020     85.6642    209.5815   1.0710252840e+02   1.9404864140e+01    0.3517396    0.1726995  62.58  0.001441087    2.679    0.627
       114  -9.0339    236.4543    208.2040   7.4994778910e+01  -4.6001669825e+00    0.2687066    0.2066149 -50.34 0.0009468304    1.870    0.465
       115  -8.2204    126.6712    208.5907   9.7685621126e+01   1.3194840170e+01    0.2199741    0.1683132  86.88 0.0007213135    1.671    0.401
       116  -8.3002    179.1611    217.2629   8.7710562130e+01   2.8047919856e+00    0.1681644    0.1575548  62.57 0.0006409734    1.364    0.267
       117  -9.2494    245.3900    193.4662   7.0661252063e+01  -3.6649253381e+00    0.3145028    0.2390487 -59.49  0.001281977    2.231    0.552
       118  -9.3923    246.4299    207.3793   7.3090219186e+01  -5.8796330701e+00     0.291483     0.184834 -25.31 0.0005841976    1.373    0.272
       119  -9.5300    250.1223    202.0851   7.1477466991e+01  -5.6191673315e+00    0.4629892    0.1977795 -39.02  0.002222958    2.225    0.551
       120  -8.0179    156.4048    208.1852   9.1007899056e+01   8.2575107679e+00     0.178546     0.134644 -62.67  0.000618576    1.658    0.397
       121  -8.5607    139.2584    207.8858   9.4748411457e+01   1.1230370357e+01    0.2533171    0.2045155  75.62 0.0008143177    1.541    0.351
       122  -9.2294     99.4243    206.0778   1.0352518832e+02   1.8101133846e+01    0.4272044    0.2688903  78.35  0.001455233    2.144    0.534
       123  -8.4775     56.3993    205.4307   1.1318960637e+02   2.4291146939e+01    0.2939553    0.1474885  67.08 0.0009793402    2.303    0.566
       124  -8.4434     11.5050    206.5274   1.2281035942e+02   2.8922297350e+01    0.1174598   0.09163412  79.52 0.0008098969    1.026    0.025
       125  -9.4587    194.8845    203.4692   8.2046583603e+01   2.6073009195e+00      0.37238    0.2880569 -41.05  0.001155628    1.395    0.283
       126  -9.2934    192.3641    197.3103   8.1412331040e+01   4.1148416312e+00    0.3114602    0.2556606 -48.10 0.0008661847    1.416    0.294
       127  -8.9804    183.6977    203.9858   8.4438996279e+01   4.3888628236e+00    0.2827933    0.2236866  62.98 0.0009833083    1.772    0.436
       128 -10.3498    162.9470    203.8364   8.8834156938e+01   7.9665998260e+00    0.3853985    0.3227561  26.51   0.00138069    1.104    0.094
       129  -8.7388    131.6968    204.3084   9.5880414743e+01   1.3234996743e+01     0.326678    0.2091003  59.44  0.001048328    1.891    0.471
       130  -8.3003    108.9105    205.1620   1.0122168168e+02   1.6808210346e+01    0.2152155    0.1731742  67.23 0.0007361362    1.281    0.219
       131  -8.5924     24.8008    204.9566   1.1997264577e+02   2.7978245276e+01    0.2122419    0.1036998  71.45 0.0008611607    2.032    0.508
       132  -8.1459     41.3554    203.1254   1.1628208338e+02   2.6604423904e+01    0.1860284    0.1006738 -89.84 0.0009394046    1.855    0.461
       133  -9.1152    243.1070    201.0034   7.2483112873e+01  -4.4754149035e+00    0.2937806    0.1793474 -34.63 0.0009290085    1.519    0.342
       134  -7.9846    222.0191    201.7876   7.6441717207e+01  -1.4638525639e+00    0.1854166    0.1559298  68.13  0.001057585    2.003    0.501
       135  -8.3568    210.9728    201.9738   7.8580175102e+01   2.4062735514e-01    0.1827455    0.1679717 -82.02 0.0004682452    1.662    0.398
       136  -8.9793    140.5459    201.0864   9.3344603625e+01   1.2385736276e+01    0.3747141    0.2557564  75.05  0.001052755    2.307    0.566
       137  -8.7517     80.1300    201.2941   1.0734318611e+02   2.2031687572e+01    0.3409417    0.1939867  70.69   0.00153051    2.223    0.550
       138  -7.7328     73.2891    202.6123   1.0907537576e+02   2.2697524707e+01    0.1435857   0.08962741  70.97 0.0007010331    1.758    0.431
       139  -8.1227     10.7993    202.6300   1.2270958178e+02   2.9833511208e+01    0.1641096    0.0871278  46.43 0.0009517947    1.703    0.413
       140  -9.4880    113.1044    198.8840   9.9320858629e+01   1.7486481833e+01    0.5011883    0.3103405  74.75   0.00213415    2.466    0.594
       141  -9.5976    149.5669    198.5656   9.0875306585e+01   1.1329483770e+01    0.4455338    0.3146649 -84.92  0.001248545    2.331    0.571
       142  -8.9346    124.0236    199.2649   9.6837617633e+01   1.5588209586e+01    0.3310328    0.2241339 -81.52  0.001170928    2.058    0.514
       143  -9.3472     88.6868    198.7298   1.0502098663e+02   2.1355834706e+01    0.4081462    0.2490972  81.92  0.001474855    2.182    0.542
       144  -9.1502    237.0120    198.4004   7.3065664102e+01  -3.1959509422e+00    0.2668182    0.1595512 -42.29 0.0008743032    1.793    0.442
       145  -8.3460    177.0410    199.0364   8.4936242384e+01   6.4330803983e+00    0.2018151    0.1733384  79.01  0.000523447    1.638    0.389
       146  -8.3694    202.2449    197.5763   7.9465854281e+01   2.4068743001e+00    0.2450064    0.1756181 -36.01 0.0006602799    1.388    0.280
       147  -9.0779     61.3999    196.7786   1.1113873302e+02   2.5609179548e+01    0.4715083    0.2560789  84.59  0.001913922    2.262    0.558
       148  -8.9552     12.8891    197.7657   1.2196007436e+02   3.0714427424e+01    0.2463264    0.1128666  72.48  0.001048104    2.145    0.534
       149  -7.9937     53.6751    196.6823   1.1290362818e+02   2.6605366401e+01     0.271655    0.1363339  81.02  0.001162075    2.563    0.610
       150  -8.1436     29.4903    197.5029   1.1838953262e+02   2.9158177453e+01    0.1271708   0.09877872  75.88 9.739964e-05    1.069    0.064
       151  -8.7112    215.8306    195.6003   7.6437616257e+01   5.2058825107e-01    0.2409599    0.1708669 -53.04 0.0007081395    1.898    0.473
       152  -8.3828    133.1435    196.1234   9.4208981346e+01   1.4697573475e+01    0.1917746    0.1643517  76.72 0.0005623046    1.335    0.251
       153  -8.6285    224.4858    193.9753   7.4495694248e+01  -5.8747093973e-01    0.2713033    0.1187674 -43.42  0.001161803    2.396    0.583
       154  -8.7399    185.2035    194.7394   8.2410361224e+01   5.8127637760e+00    0.2484024     0.210785 -72.11 0.0008381313    1.652    0.395
       155  -8.8082    160.7798    194.1078   8.7569425242e+01   1.0241897881e+01    0.3125033    0.2267594 -66.92  0.001035023    1.859    0.462
       156  -8.9803     43.9127    193.5044   1.1481055115e+02   2.8496101469e+01    0.4344789    0.1940668  75.45   0.00170924    3.149    0.682
       157  -8.0062    230.7909    194.5505   7.3449336099e+01  -1.6578960618e+00    0.1608157    0.1219159  42.46 0.0006377818    1.586    0.370
       158  -8.7806     76.8300    193.8054   1.0716922390e+02   2.4202864481e+01    0.2457296    0.1853389 -82.32 0.0005508915    1.315    0.239
       159  -7.9578    205.2339    191.9343   7.7790543804e+01   2.8879436898e+00    0.1732385    0.1084205 -38.69 0.0004537674    1.575    0.365
       160  -8.0939    198.9774    191.9656   7.9046341482e+01   3.9417121134e+00    0.1946271    0.1740641 -85.09 0.0006120197    1.635    0.388
       161  -8.0939    179.2586    191.4642   8.3045122394e+01   7.4688496105e+00    0.2233966    0.1732886 -65.84 0.0006424406    1.774    0.436
       162  -8.5168    172.3250    191.8004   8.4602294412e+01   8.6369453691e+00    0.2528994    0.2182943 -82.21  0.001028479    1.571    0.363
       163  -9.1626    139.4260    190.5646   9.1791076929e+01   1.4774897123e+01    0.3434621    0.2616564  85.10 0.0009932755    1.813    0.448
       164 -10.4404     91.9910    188.2117   1.0275751782e+02   2.3253791705e+01    0.9656709    0.5183364  54.96  0.002738442    2.048    0.512
       165  -8.5036      6.4467    190.9542   1.2286665035e+02   3.2798486399e+01    0.1785633   0.07331277  75.80 0.0007004823    2.530    0.605
       166  -8.9244    184.2865    190.0006   8.1697314606e+01   6.8551890350e+00    0.2299747     0.189123  29.28 0.0003113686    1.164    0.141
       167  -8.7596    148.5911    189.6589   8.9509898340e+01   1.3328348826e+01    0.2474213    0.1867613 -63.17 0.0008730831    1.565    0.361
       168  -8.3648    237.1636    188.4614   7.1130268268e+01  -1.6630400385e+00    0.2375821    0.1574159 -30.63 0.0006192607    1.342    0.255
       169  -8.9270    216.6189    188.1998   7.4850569635e+01   1.6382727222e+00    0.2726718    0.2145337 -43.77 0.0006496211    1.420    0.296
       170  -9.2795    155.8988    187.5170   8.7445470156e+01   1.2451464397e+01    0.3735298    0.2458955 -62.83 0.0009992206    1.966    0.491
       171  -8.9013    129.2199    188.6068   9.3846076522e+01   1.6996789585e+01    0.2942264    0.2214662  74.69 0.0008104618    1.693    0.409
       172  -9.6622    120.8946    186.6725   9.5503137949e+01   1.8871146391e+01    0.5517888    0.3138039 -76.26  0.002108274    2.872    0.652
       173  -8.6843     34.2427    188.3781   1.1653060138e+02   3.0749482119e+01    0.2655311    0.1513601  73.78  0.001004365    1.764    0.433
       174  -8.8753    191.5131    187.3787   7.9677467806e+01   6.0684038738e+00     0.282409    0.2289922 -59.11 0.0009572834    1.581    0.367
       175  -9.0070     54.5147    186.9632   1.1164693312e+02   2.8758421689e+01    0.4017115    0.2036099  76.43  0.001657468    2.627    0.619
       176  -8.1210    230.4992    187.1080   7.2057839469e+01  -4.1329567073e-01    0.1985326    0.1175131 -35.77  0.001019712    1.556    0.357
       177  -8.7339    164.8083    186.9007   8.5325083770e+01   1.0957248285e+01     0.247298    0.2018708 -72.90 0.0007231598    1.611    0.379
       178  -9.2882    109.5217    186.1140   9.8163697905e+01   2.0924748329e+01    0.3876716    0.2747628  82.13  0.001042603    1.814    0.449
       179  -8.7360    249.0810    185.5206   6.8502269304e+01  -2.9837169219e+00    0.2312745    0.1598241 -42.76 0.0006973862    1.576    0.365
       180  -8.6339    183.0226    185.3740   8.1063598072e+01   7.9567566257e+00    0.2522992    0.2009767 -59.28 0.0005729905    1.567    0.362
       181  -9.1647    244.6554    184.7739   6.9107815578e+01  -2.2125364667e+00    0.2824641    0.2141759  86.61  0.001322359    3.473    0.712
       182  -8.8933    202.8797    184.8077   7.6858862624e+01   4.5514038673e+00    0.2380258    0.1843842 -67.06 0.0007713987    1.974    0.493
       183  -8.9359    174.2097    183.6054   8.2613401086e+01   9.8984811670e+00    0.3270991    0.2226577 -60.54 0.0007567615    1.935    0.483
       184  -9.0314     66.3952    184.4722   1.0848393677e+02   2.7820972479e+01    0.3608888    0.2161201  73.40  0.001221639    1.966    0.491
       185  -8.3262    224.1720    183.6991   7.2542529932e+01   1.1633479462e+00    0.2195857    0.1649456 -38.69 0.0006053672    1.343    0.256
       186  -8.0241    196.8248    183.5942   7.7838117418e+01   5.8300234171e+00    0.1869029    0.1304901  47.65 0.0005181835    1.626    0.385
       187  -8.9545     44.5126    182.3555   1.1352462065e+02   3.1034498734e+01    0.3664252    0.1919396  65.09  0.001031586    2.117    0.528
       188  -8.1086      1.7724    183.6033   1.2339055486e+02   3.4835012230e+01    0.1580788   0.09069954  47.78 0.0009415353    1.664    0.399
       189  -9.4027    147.5553    180.8018   8.8098634440e+01   1.5386410159e+01    0.3869878    0.2994523 -88.89  0.001196082    1.811    0.448
       190  -8.7452    210.2013    184.5472   7.5363666400e+01   3.3420793924e+00    0.2301026    0.2057298 -53.10 0.0005965062    1.405    0.288
       191  -9.5213     25.5815    178.8785   1.1766365943e+02   3.3850231034e+01    0.6126302     0.239321  76.45  0.002172456    3.973    0.748
       192  -8.7181    137.4976    179.2004   9.0175022643e+01   1.7579230836e+01    0.3242939    0.2380113 -88.00  0.001022196    1.956    0.489
       193  -9.3741    191.6033    178.5266   7.7891629971e+01   7.7093524078e+00    0.3066336    0.2547911  64.35 0.0007113977    1.603    0.376
       194  -8.2622    169.4773    178.9460   8.2732547159e+01   1.1702456942e+01    0.2148955    0.1429234 -45.54 0.0006275618    1.542    0.351
       195  -8.9875     36.0449    176.8703   1.1498063161e+02   3.3270200210e+01    0.5464849    0.2227131  77.27   0.00181087    4.366    0.771
       196  -9.4269    248.4104    176.4431   6.6832510219e+01  -1.4643452024e+00    0.4120918    0.2415468 -46.43  0.001786668    1.921    0.479
       197  -8.6658    250.5113    172.9103   6.5781853686e+01  -1.2226995057e+00     0.188743    0.1648096 -30.81 0.0005316957    1.222    0.182
       198  -8.6090    231.1247    177.3301   7.0000776983e+01   1.1014033021e+00    0.2525257    0.1746307 -37.99 0.0007163605    1.375    0.273
       199  -8.4760    217.6611    177.3062   7.2474743505e+01   3.3420137296e+00    0.2394819    0.1564674 -45.62 0.0006444138    1.634    0.388
       200  -8.5380    205.0611    177.6576   7.4984802703e+01   5.4624239224e+00    0.2363364    0.1833932 -44.45 0.0006209686    1.370    0.270
       201  -8.6137    129.2153    177.4585   9.1850314772e+01   1.9469555325e+01    0.3054239    0.2202825  79.92 0.0009024052    1.949    0.487
       202  -8.3628     97.0512    177.8057   9.9900017311e+01   2.4893835104e+01     0.231907    0.1718826  -4.93  0.001080932    2.024    0.506
       203  -8.9065    183.1011    176.1060   7.9188877007e+01   9.7345656080e+00    0.2646115    0.2269467 -47.06 0.0006292695    1.256    0.204
       204  -8.7276     89.0487    176.8255   1.0176295233e+02   2.6384737901e+01     0.293987    0.2171653  78.95  0.001100084    1.519    0.342
       205  -9.9203     57.2888    173.1378   1.0929058184e+02   3.1723096340e+01    0.8743426    0.3967937  80.65  0.002707358    4.689    0.787
       206  -8.7604     12.8215    176.7203   1.2043828832e+02   3.5514677252e+01    0.2477458    0.1216895  73.85  0.001034244    2.064    0.515
       207  -7.5572    211.6936    176.3416   7.3418399114e+01   4.5382121453e+00    0.1308467    0.1128302 -73.80 0.0007042293    1.686    0.407
       208  -9.2092    158.8800    175.0859   8.4353896516e+01   1.4486770311e+01    0.3922358    0.2919938  80.63   0.00128978    2.083    0.520
       209  -9.4221    104.2793    174.8244   9.7579699739e+01   2.4416827544e+01    0.5284377     0.291414  63.36  0.001952079    2.660    0.624
       210 -10.7395     75.8642    170.2096   1.0411992842e+02   2.9944400772e+01     1.282567    0.5016344 -75.68  0.003806798    4.475    0.777
       211  -8.4049    224.3269    174.4411   7.0648635109e+01   2.7123758144e+00    0.2214865    0.1550505 -51.29   0.00059429    1.740    0.425
       212  -9.2152    175.7116    172.4210   8.0030781485e+01   1.1850749259e+01    0.3171286    0.2465324 -51.04 0.0009047963    1.393    0.282
       213  -8.1943    142.9843    172.7228   8.7614397551e+01   1.7990530247e+01    0.2612742    0.1960932 -69.54 0.0007679832    1.633    0.387
       214  -8.4892    134.7602    171.8392   8.9431236123e+01   1.9720384785e+01    0.2717419    0.2078827 -78.30 0.0008687404    1.652    0.395
       215  -9.5833    121.4617    170.6232   9.2491238425e+01   2.2424710455e+01    0.4111912    0.2958467 -87.51  0.001120709    1.886    0.470
       216  -9.2207     44.9291    171.0281   1.1214639517e+02   3.3708252309e+01    0.3944435    0.2143091  80.61  0.001315233    2.194    0.544
       217  -8.5937    205.8868    170.3105   7.3304940396e+01   6.6598282473e+00    0.3028211    0.1894668 -52.24 0.0009492222    1.924    0.480
       218  -8.5319    198.6731    170.4623   7.4777864055e+01   7.9435809668e+00    0.2619181    0.2117893 -68.18 0.0009898077    1.718    0.418
       219  -8.4700    237.1422    169.6895   6.7389660630e+01   1.4005764473e+00    0.2273166    0.1623155 -39.71 0.0005707691    1.350    0.259
       220  -8.9325    230.3698    169.2903   6.8498538767e+01   2.5829995102e+00    0.4008724    0.2067356 -47.67  0.001785281    2.187    0.543
       221  -9.1731    167.0338    168.7027   8.1189810433e+01   1.4269408050e+01       0.3286    0.2626453 -86.89 0.0009462734    1.790    0.441
       222  -8.8157    149.6929    169.5253   8.5375172046e+01   1.7422353776e+01     0.286484    0.2239727 -82.95  0.000977535    1.736    0.424
       223  -8.1799    244.4682    169.1042   6.6021029848e+01   3.2447003350e-01     0.199006    0.1131132 -35.64 0.0004662198    1.532    0.347
       224  -8.3871    218.8417    168.3458   7.0407582786e+01   4.7158161892e+00    0.2301861    0.1729242 -42.70 0.0005359896    1.351    0.260
       225  -8.4444     88.4856    168.5088   1.0057094532e+02   2.8475006133e+01     0.240782    0.1382012 -74.35 0.0007451444    2.053    0.513
       226  -7.9826    211.3908    168.1459   7.1779428965e+01   6.0678375145e+00    0.1969069    0.1249713 -48.05 0.0005510644    1.711    0.416
       227  -8.6959    111.7106    167.6145   9.4401973726e+01   2.4854694769e+01    0.3701796    0.2233498  68.86  0.001340015    2.575    0.612
       228  -8.8833    191.9470    166.5497   7.5331960223e+01   9.9426265498e+00    0.3113004    0.1989706 -45.31 0.0008239445    1.583    0.368
       229  -8.6132    185.0607    166.6719   7.6805430777e+01   1.1223980570e+01    0.2475279    0.1979368 -52.50 0.0006401878    1.385    0.278
       230  -9.2798     20.5270    166.2007   1.1769709725e+02   3.7336050512e+01    0.3583536    0.1738635  65.50  0.001676798    2.284    0.562
       231  -8.2050     13.2879    167.6467   1.1958115365e+02   3.7611025842e+01    0.1322711   0.07677186  71.01  0.000589561    1.670    0.401
       232  -9.7269    136.7910    164.5680   8.7487157755e+01   2.0982086190e+01    0.6564474    0.3229553  55.68  0.002284207    2.858    0.650
       233  -9.9889     95.1598    163.1650   9.7903331210e+01   2.8714870100e+01    0.8216262    0.4426306  72.94  0.002606486    4.003    0.750
       234  -7.7811    251.0000    164.9837   6.4109935460e+01  -3.0639867102e-02    0.2182232   0.06399432 -37.78 0.0007997515    2.924    0.658
       235  -8.6509    233.9101    165.1070   6.7010045873e+01   2.7041205455e+00    0.1964698    0.1702736 -43.42 0.0005144186    1.286    0.222
       236  -8.6584    159.5628    164.6418   8.2047958063e+01   1.6574156766e+01     0.278133    0.2249317 -83.27 0.0009865718    1.663    0.399
       237  -9.4659     33.5454    163.5199   1.1416312580e+02   3.6754592711e+01    0.5338116    0.2083155  53.41  0.002141521    2.972    0.664
       238  -8.2812    239.9498    163.9601   6.5733064095e+01   1.8993114777e+00    0.1948935    0.1588075 -58.89  0.000609517    1.640    0.390
       239  -8.4964    213.0232    163.9694   7.0585634998e+01   6.5346541127e+00    0.2149584    0.1929351 -27.40 0.0006226243    1.086    0.079
       240  -8.3631     56.4174    163.9098   1.0828309097e+02   3.4093918814e+01     0.263524    0.1916897  -1.08     0.001328    2.033    0.508
       241  -8.9878    246.0088    162.9901   6.4519905546e+01   1.0801492596e+00    0.2014521    0.1696106 -26.48 0.0004963151    1.074    0.069
       242  -8.3449    204.9230    162.9348   7.1935337640e+01   8.2060718055e+00    0.2078784    0.1751978 -70.57 0.0003978763    1.608    0.378
       243  -9.4643      3.4320    162.3777   1.2150432080e+02   3.9622083293e+01    0.4013191     0.177099  53.26  0.002002242    2.302    0.566
       244  -9.0936    177.6403    160.8954   7.7167475639e+01   1.3820788606e+01    0.3396574    0.2684765 -74.43  0.001137618    1.746    0.427
       245  -8.9657    151.6386    161.1553   8.3173048598e+01   1.8878939841e+01    0.3243257    0.2513332 -78.92 0.0008718381    1.733    0.423
       246  -8.8427     60.6688    160.2733   1.0663819169e+02   3.4459050123e+01    0.3646704      0.21383  75.75    0.0011187    2.223    0.550
       247  -8.9645    242.2872    159.7229   6.4464668906e+01   2.2240128659e+00    0.2923082    0.1651957  36.35 0.0002271379    1.975    0.494
       248  -9.9464    250.1777    157.8775   6.2794422464e+01   1.2514940427e+00    0.3775562    0.2813333 -23.75  0.002227641    1.159    0.137
       249  -9.1284    246.5714    155.5491   6.2895465642e+01   2.2167968659e+00    0.3084194    0.1879448 -20.64  0.001545636    1.718    0.418
       250  -8.7386    227.4194    159.1130   6.6900338673e+01   4.8466939827e+00    0.3009521    0.2028437 -55.73  0.001075124    1.928    0.481
       251  -8.6560    237.1115    158.8837   6.5162752782e+01   3.2254505309e+00    0.2018294    0.1718332 -45.53 0.0007231434    1.295    0.228
       252  -8.4077    128.0218    158.8212   8.8507713608e+01   2.3960660414e+01    0.2726891    0.2011249 -71.52 0.0007494468    1.622    0.384
       253  -9.6811    105.6203    157.8788   9.4150995001e+01   2.8243804706e+01    0.4631796    0.3169392  77.07  0.001203623    2.031    0.508
       254  -8.3943    196.7666    158.0896   7.2519578645e+01   1.0665519811e+01    0.2188948    0.1958811 -62.85 0.0006895852    1.331    0.249
       255  -8.3259    188.0535    158.0267   7.4306787178e+01   1.2363049469e+01    0.2184139    0.1849969 -79.34 0.0004825202    1.582    0.368
       256  -9.1785    167.6059    157.2973   7.8619543921e+01   1.6552115415e+01    0.3341896    0.2697657 -84.96    0.0010439    1.708    0.414
       257  -9.4549     81.6666    155.0894   1.0010614145e+02   3.2819057062e+01    0.4945499    0.2869999  62.73  0.001659278    2.278    0.561
       258  -8.4941    217.9538    156.5357   6.8069415149e+01   6.9925687728e+00      0.26725    0.1790938 -49.99 0.0006920936    1.644    0.392
       259  -9.0787    157.6408    156.3469   8.0714101079e+01   1.8743577457e+01    0.3004116    0.2436515 -87.79 0.0007402636    1.650    0.394
       260  -9.2991    119.5857    155.2045   8.9937506356e+01   2.6384779744e+01    0.4348145    0.2871591 -78.38  0.001205117    2.163    0.538
       261  -9.4404     49.6103    155.4270   1.0892009628e+02   3.7016948481e+01     0.402911    0.2352255  70.16  0.001591937    2.096    0.523
       262  -7.8886    204.6712    155.7603   7.0432774692e+01   9.6038300054e+00    0.2035126    0.1249275 -46.69  0.000426541    1.661    0.398
       263  -9.5614     68.1363    153.8760   1.0361916893e+02   3.5066474427e+01    0.5118455    0.3079567  74.90  0.001493113    2.277    0.561
       264  -8.4182     23.5801    155.9122   1.1588831421e+02   3.9557930613e+01    0.2347996     0.160254 -30.60  0.001280234    1.994    0.498
       265  -9.2973    242.8196    155.1405   6.3423846022e+01   2.9031228291e+00    0.2592093     0.202613 -67.53 0.0004062557    1.907    0.476
       266  -8.5775    144.4438    154.7997   8.3547266292e+01   2.1708733681e+01    0.2971732     0.238512  76.49 0.0009960759    1.587    0.370
       267  -9.7107    133.1040    153.0772   8.6006180916e+01   2.4322552599e+01    0.4952905    0.3731878  82.55  0.001327768    1.831    0.454
       268  -9.1348    133.5192    148.4785   8.4897849841e+01   2.5306032689e+01    0.2979005     0.264125 -20.14  0.001515196    1.218    0.179
       269  -8.0069    232.7865    154.0072   6.4876695397e+01   4.8020949630e+00    0.2138492    0.1481679 -57.80 0.0005920997    1.920    0.479
       270  -9.2597     20.0316    152.5513   1.1645241547e+02   4.0686507989e+01    0.2465552    0.1501402  86.66 0.0006173454    1.570    0.363
       271  -9.6324     29.3860    150.6978   1.1376481738e+02   4.0310569546e+01    0.4946736    0.2295142  70.43  0.001953461    3.082    0.676
       272  -9.5809    248.7842    149.4431   6.1271627594e+01   2.8659770769e+00     0.337656     0.184228 -34.65 0.0008737049    1.566    0.361
       273  -8.9002    243.2005    150.0480   6.2294322004e+01   3.6958743852e+00    0.3097313    0.1510351 -42.83  0.001095764    1.883    0.469
       274  -8.8155    189.4182    150.4844   7.2346891428e+01   1.3595415829e+01    0.3019278     0.240396 -65.21 0.0009800679    1.573    0.364
       275  -7.8398    182.4897    151.4954   7.4039823765e+01   1.4776699368e+01    0.1494863    0.1430117 -21.96 -2.383071e-05    1.036    0.034
       276  -7.9388    162.5699    150.7899   7.8328799841e+01   1.8954042059e+01    0.2121883    0.1455068 -56.52 0.0007160517    1.637    0.389
       277  -8.7650     98.2437    150.6779   9.4738223923e+01   3.1260284046e+01    0.3179109    0.2264977  89.58  0.001070829    1.820    0.450
       278  -8.9246    237.2225    150.4276   6.3362035984e+01   4.6513321370e+00    0.1607698    0.1345597  56.79 0.0002738083    1.529    0.346
       279  -8.2989    212.9068    150.0610   6.7600385402e+01   9.1139209400e+00    0.2102356    0.1867043 -49.77 0.0005183963    1.226    0.185
       280  -8.7765      2.8228    150.0318   1.2063674451e+02   4.2599021698e+01    0.2142078     0.108373  73.73  0.001068083    2.063    0.515
       281  -8.4355    198.8214    149.0161   7.0097482568e+01   1.2024093696e+01    0.2220632    0.1927593 -60.55 0.0005920126    1.334    0.250
       282 -10.0234     89.0798    146.2940   9.6421556165e+01   3.3851566481e+01    0.6721621    0.3912892 -88.12  0.002402607    3.040    0.671
       283  -9.8965     39.6547    147.2294   1.1051460512e+02   4.0159467637e+01    0.6361218    0.3577243 -87.38  0.002648077    1.949    0.487
       284  -9.2744    233.3814    147.7425   6.3436365817e+01   5.7866648166e+00    0.2720216    0.1859767 -28.66 0.0007326082    1.333    0.250
       285 -10.3119     55.0458    145.0111   1.0585579583e+02   3.8982028968e+01    0.7857695    0.3883099  68.49  0.002535443    3.598    0.722
       286  -9.8763     55.7402    136.0656   1.0417007986e+02   4.1150491035e+01     0.561339    0.3081916  -1.94  0.001997431    3.926    0.745
       287  -8.2994    223.6335    147.0992   6.4990255304e+01   7.6574449637e+00    0.2209007    0.1593466 -47.45 0.0006335204    1.415    0.293
       288 -10.2197    148.9864    145.0071   8.0247182718e+01   2.2993990024e+01    0.5819293    0.4040302 -84.87  0.001481333    2.431    0.589
       289  -9.9660    139.1976    145.2744   8.2738621349e+01   2.4916574619e+01    0.4732616    0.3327745 -85.27  0.001303797    2.248    0.555
       290 -10.2332    106.6090    144.3705   9.1153157090e+01   3.1350800280e+01    0.7584571    0.4909656  88.70  0.002350178    2.581    0.613
       291  -9.1495     13.1151    146.3286   1.1762107447e+02   4.2758262052e+01    0.3187073    0.1737309  68.71  0.001168246    2.015    0.504
       292  -8.0901    206.7430    146.4036   6.7958958239e+01   1.0978103300e+01    0.1921449    0.1708146 -37.17 0.0006030722    1.091    0.083
       293  -8.3965    175.4557    146.1746   7.4361912437e+01   1.7298417605e+01     0.239268    0.2125425  75.92 0.0006834855    1.352    0.260
       294  -9.2629    240.3572    145.1944   6.1729689848e+01   5.0053209478e+00    0.3032571    0.1654685 -39.77 0.0008759619    1.604    0.377
       295  -9.5756    242.6874    143.3013   6.0949254455e+01   4.9248934212e+00    0.4887218    0.1944816 -27.86  0.001740271    3.200    0.687
       296  -9.8222    125.0301    142.7371   8.5824661166e+01   2.8305219113e+01    0.5627559    0.3768343 -86.04  0.001709845    2.492    0.599
       297  -9.0479    246.9836    143.7598   6.0363690302e+01   4.1138601008e+00    0.2490739    0.1657211 -39.47 0.0005777035    1.313    0.238
       298  -7.8598    194.1612    144.1003   6.9923583795e+01   1.3910776955e+01    0.2001665    0.1714258 -59.80 0.0005128341    1.323    0.244
       299  -8.9185    165.3750    144.0762   7.6147221469e+01   1.9820621604e+01    0.2756889    0.2260894  54.66  0.000649304    1.329    0.248
       300 -10.4080     69.3756    141.7827   1.0119208520e+02   3.7931527492e+01    0.5230629    0.3849014 -69.40   0.00171993    1.299    0.230
       301  -9.1523     78.1827    147.1149   9.9645988516e+01   3.5329339377e+01    0.3344625    0.2092666  82.35  0.001064174    2.329    0.571
       302  -9.4321      2.8227    141.9373   1.1990999896e+02   4.4541767831e+01    0.4002192    0.1833203  74.36  0.001652478    2.541    0.606
       303  -8.0797    235.3347    142.3171   6.1938826226e+01   6.3835849152e+00     0.140707    0.1013511  -3.18 0.0002982249    1.695    0.410
       304  -8.3280    182.1657    141.7415   7.1879677042e+01   1.6830643461e+01     0.265116    0.1967006 -53.17 0.0005434554    1.443    0.307
       305  -8.4144    250.4884    140.9470   5.9226673789e+01   3.9924089590e+00    0.2032735    0.1124946 -38.11  0.000663854    1.527    0.345
       306  -8.7587    240.9939    138.0291   6.0091719348e+01   6.1188073217e+00    0.1948743    0.1489319 -14.04 0.0004913529    1.369    0.270
       307  -9.7579     23.4678    138.1389   1.1385412763e+02   4.3944737428e+01    0.5466531    0.2715833  69.02  0.002237452    2.693    0.629
       308  -7.8327    218.6109    138.7811   6.4045503295e+01   1.0108086594e+01    0.1998538    0.1233335 -46.26  0.000491061    1.584    0.369
       309  -8.5169    172.1825    138.2516   7.3240984052e+01   1.9634265648e+01    0.2719802    0.1940417 -68.06 0.0004353081    1.901    0.474
       310  -8.2978    207.6474    138.0736   6.5902119891e+01   1.2377557894e+01    0.2324111    0.1685488 -53.38 0.0006820256    1.504    0.335
       311  -8.6611    197.6442    137.5023   6.7705644760e+01   1.4498443889e+01    0.2804946    0.2045756 -60.79 0.0007747561    1.675    0.403
       312  -8.2517     89.1014    137.8825   9.4726258125e+01   3.5936983297e+01    0.3125585     0.210196  -7.28  0.001268113    2.449    0.592
       313  -8.4190    162.6868    136.3694   7.4953711145e+01   2.2037733300e+01    0.2781022    0.1873148 -55.01 0.0007975423    1.623    0.384
       314  -8.8419    150.7250    136.1201   7.7740812362e+01   2.4613632538e+01    0.4031488    0.2667776  19.82  0.001628766    2.072    0.517
       315  -9.5084    139.8609    137.0728   8.0671260625e+01   2.6654930951e+01    0.2904378     0.241032  20.43 0.0007658672    1.337    0.252
       316  -9.4483     38.9710    135.8604   1.0907781812e+02   4.3076156773e+01    0.3840971    0.2110149 -88.22  0.001575613    2.179    0.541
       317  -9.5185    250.7210    130.1560   5.6908439862e+01   5.7469977587e+00    0.4666325    0.1166229 -37.61  0.001554968    3.406    0.706
       318  -8.5741    246.7587    130.3779   5.7549556607e+01   6.4011493189e+00    0.2090069    0.1669012 -45.07 0.0006623058    1.185    0.156
       319  -8.3349    188.1868    136.1615   6.9307070802e+01   1.6710694805e+01    0.2110433    0.1764668 -65.01 0.0004127834    1.393    0.282
       320 -10.4193    132.5152    132.2143   8.1404986239e+01   2.9271289875e+01    0.7470875    0.4376056 -63.81  0.002389675    2.281    0.562
       321  -8.6651    179.5943    134.0083   7.0608318811e+01   1.8950517194e+01     0.317314    0.2193936 -58.61 0.0008494072    1.705    0.413
       322 -10.3629     83.4230    132.8591   9.5337476635e+01   3.8092019012e+01     0.618367    0.3618369 -70.34  0.001451555    2.006    0.501
       323  -8.6468     84.0204    123.4653   9.3116347340e+01   4.0322205165e+01    0.6654085    0.3685342   6.23  0.002055863    4.355    0.770
       324  -9.4072     69.1357    134.8916   9.9981504865e+01   3.9697552397e+01     0.383674    0.2298897   2.12  0.001481248    3.008    0.668
       325  -8.0476    237.5049    133.9046   5.9757040623e+01   7.4519161953e+00    0.2138148     0.119678 -38.87  0.001016457    1.550    0.355
       326  -8.0294    231.5132    133.9651   6.0748480105e+01   8.5395289636e+00    0.2144268    0.1232697 -37.60 0.0005136281    1.530    0.346
       327  -8.9903    112.9191    133.4083   8.6979476643e+01   3.2842721311e+01     0.360561    0.2563153  70.30  0.001029035    1.906    0.475
       328 -10.5017     97.8853    130.1414   9.0503710413e+01   3.6364980257e+01    0.9634159    0.3063452 -53.54  0.001576376    3.024    0.669
       329  -8.3551    101.6803    131.6991   8.9761391762e+01   3.5316385320e+01    0.2383298    0.2129773 -13.97 0.0006067943    1.245    0.197
       330  -9.1515    142.9888    131.6167   7.8570693347e+01   2.7241725182e+01    0.3492433    0.2546752 -66.90 0.0009514258    1.681    0.405
       331  -9.3161    153.1016    129.2156   7.5486546260e+01   2.5631782425e+01    0.4318271    0.2553674 -58.75 0.0007845131    2.086    0.521
       332 -10.0627     73.2853    128.3459   9.7435619027e+01   4.0748248451e+01    0.7213479     0.323481 -63.32  0.002142458    2.304    0.566
       333  -9.6466     70.9313    119.7715   9.6343978725e+01   4.3218349002e+01    0.4351802    0.2829941 -70.98  0.001402592    1.698    0.411
       334 -10.2480     12.7296    128.8983   1.1578695226e+02   4.7047887103e+01    0.5887095    0.2852815  86.96  0.002361174    2.386    0.581
       335  -8.2644    220.5410    130.0500   6.1734568438e+01   1.1327098956e+01    0.2157217    0.1284646 -38.92 0.0005541158    1.508    0.337
       336  -7.9317    204.7453    130.5713   6.4717837306e+01   1.4385008754e+01    0.1867548    0.1450712  62.40 0.0004766204    1.549    0.354
       337  -8.1249    192.7831    130.3583   6.6996780233e+01   1.6902901191e+01    0.2073019    0.1780792 -43.42 0.0003092394    1.121    0.108
       338  -8.9957    168.3417    129.5940   7.2018969221e+01   2.2272436808e+01    0.3043525    0.2501616 -70.77 0.0007850233    1.456    0.313
       339  -8.7438    161.7981    129.6687   7.3536369905e+01   2.3666051060e+01    0.2244532    0.1974879 -31.47  0.001127826    1.126    0.112
       340  -8.6121     26.1204    129.7430   1.1197376824e+02   4.5802515974e+01    0.2994714    0.1566104 -13.15  0.001225248    3.482    0.713
       341  -8.0818      1.8055    130.5686   1.1907703694e+02   4.7345811133e+01    0.1540029    0.1069089  45.36 0.0006727972    1.628    0.386
       342  -7.8170    211.4393    129.2176   6.3162208624e+01   1.3283360663e+01    0.2068397    0.1272911 -48.90 0.0004633352    1.643    0.391
       343 -10.5011     60.1603    125.4244   1.0087553732e+02   4.3272015200e+01    0.7317587    0.4315025  77.15  0.002425028    2.834    0.647
       344 -10.6861     45.1341    123.8976   1.0526183916e+02   4.5428799456e+01     1.079271    0.5568426  74.86  0.003758384    3.871    0.742
       345  -9.9421    117.9594    125.3886   8.3668704884e+01   3.3777376878e+01    0.5198987    0.3653418  82.34  0.001308135    2.241    0.554
       346 -10.2931     28.6495    122.3931   1.1012991148e+02   4.7409330622e+01    0.7724148    0.3794598  69.95  0.002958645    3.444    0.710
       347  -8.1181    228.4694    125.5046   5.9365869798e+01   1.0607790598e+01    0.1418337    0.1245722 -40.09 8.122267e-05    1.054    0.052
       348  -8.8335    179.2345    124.6580   6.8417495621e+01   2.0936470915e+01    0.2968046    0.2394279 -75.70 0.0006851177    1.561    0.359
       349  -8.3545    188.4910    124.0190   6.6337290564e+01   1.9065424106e+01    0.2321943      0.14352 -40.75 0.0004347127    1.532    0.347
       350  -9.2726    248.3598    135.0574   5.8306322770e+01   5.3367639528e+00    0.3742481     0.188051 -44.32  0.000787664    1.815    0.449
       351  -9.0331    158.8463    121.2512   7.2123887815e+01   2.6106318687e+01    0.5683631    0.2697802 -46.64  0.001613849    2.097    0.523
       352  -8.2765    153.8642    123.1786   7.3795485158e+01   2.6781327289e+01    0.2208658    0.1881663   4.61  0.000514687    1.355    0.262
       353  -7.9299    203.0000    122.0678   6.3039491380e+01   1.6361366602e+01    0.2415525   0.07949636 -39.58 0.0003979165    2.817    0.645
       354  -7.7623    194.8444    121.8516   6.4546388652e+01   1.8128828107e+01    0.2043218    0.1710871 -61.58 0.0004323774    1.308    0.236
       355  -8.7177    171.9947    121.5056   6.9200954053e+01   2.3162441678e+01    0.2858319     0.207891 -55.95 0.0005878134    1.493    0.330
       356  -9.9479    131.0233    118.8674   7.8474220939e+01   3.2629089014e+01    0.5417197    0.3757421  89.08  0.001620229    2.456    0.593
       357  -9.7128    141.5461    118.6278   7.5676731059e+01   3.0445719201e+01    0.4467865     0.305723 -67.21 0.0009887317    1.935    0.483
       358  -9.8283      3.2143    117.3942   1.1721802822e+02   5.0444813983e+01    0.5189024    0.2468688  71.04  0.002309531    2.851    0.649
       359  -7.8345    231.3415    117.6621   5.7135649584e+01   1.1431952840e+01    0.1441061    0.1033721 -66.05 0.0007050061    1.766    0.434
       360  -8.6632     58.5151    116.1614   9.9523204823e+01   4.5787216913e+01    0.3887602    0.2186452 -28.95  0.001594004    2.463    0.594
       361  -8.2311    219.4590    116.4943   5.8804368144e+01   1.3994085392e+01    0.1444148    0.1290616 -41.89  0.000193329    1.031    0.030
       362  -8.2282    185.5403    115.9921   6.4957614568e+01   2.1290710358e+01    0.2329804    0.1435978 -41.98 0.0004418006    1.541    0.351
       363 -10.0504    109.2835    114.1576   8.3305178515e+01   3.8094688424e+01    0.5923021    0.3758823 -69.01  0.001494026    2.187    0.543
       364  -9.1220    109.8201    107.3834   8.1361724453e+01   3.9550610317e+01    0.3463682    0.2405035  13.33  0.001458563    1.982    0.495
       365  -8.0452    193.1407    115.2206   6.3258121421e+01   1.9777042283e+01    0.2063606    0.1675507 -59.54 0.0004278608    1.322    0.244
       366 -10.0737     79.0017    112.5259   9.2131749595e+01   4.3784822106e+01    0.6407284    0.4152994 -84.21   0.00198158    2.441    0.590
       367  -8.8010     78.4766    105.1805   9.0488212257e+01   4.5627096761e+01    0.3204852    0.2200481  13.82  0.001468411    1.836    0.455
       368  -7.8463    167.4726    114.5363   6.8431406519e+01   2.5598234353e+01    0.1548516    0.1495358 -52.91 0.0002655657    1.039    0.037
       369  -9.9471     92.7057    112.5662   8.7856306249e+01   4.1513251440e+01    0.4685546    0.3288601 -71.56  0.001193816    1.766    0.434
       370  -8.6899     92.4933    105.5038   8.6101238239e+01   4.3213511286e+01    0.3815197    0.2298935 -26.93  0.001244392    2.218    0.549
       371  -9.1828     27.5466    113.6071   1.0907367973e+02   4.9673669855e+01    0.3462445    0.1853544  26.69  0.001722968    2.143    0.533
       372  -8.6338    159.3325    111.9849   6.9618503161e+01   2.7949083849e+01    0.3190933     0.227832 -61.06 0.0008316236    1.642    0.391
       373  -9.8541    122.1049    112.6838   7.9280212094e+01   3.5878441995e+01      0.35602     0.299484  75.03 0.0007010695    1.427    0.299
       374  -9.7602     14.3068    111.5479   1.1300555028e+02   5.1178101852e+01    0.3740189    0.2083002  80.06  0.001288645    2.297    0.565
       375  -8.6359    174.8591    111.9494   6.6155388121e+01   2.4467456912e+01    0.2783064    0.2061626 -60.64 0.0005391433    1.537    0.349
       376 -10.1418     66.3163    109.8777   9.5602843978e+01   4.6295663091e+01    0.5764431    0.3160902 -60.02  0.001927518    1.755    0.430
       377  -9.7496    133.4959    109.0499   7.5229274421e+01   3.4286479181e+01    0.5438829    0.2871958 -46.82  0.001321879    1.878    0.467
       378  -7.7683    149.6828    110.3069   7.1466629052e+01   3.0460231348e+01    0.1581641    0.1260665 -84.38 0.0003189059    1.631    0.387
       379 -10.8089    248.3561    107.7543   5.2424653780e+01   9.8866847633e+00    0.4564326    0.3010326 -56.48  0.001806558    1.609    0.378
       380  -8.1497    189.2060    108.1692   6.2265801946e+01   2.1996252182e+01    0.2099433    0.1689966 -60.17 0.0004274577    1.329    0.248
       381  -9.5735    139.8777    104.3177   7.2286188220e+01   3.3909425534e+01    0.5028787     0.316061 -55.08  0.001383111    1.783    0.439
       382  -9.9843    118.3510    105.0706   7.8278497760e+01   3.8357839955e+01      0.65229    0.4137648  74.84  0.002273883    3.054    0.673
       383 -10.2333    108.8325     98.9003   7.9312452574e+01   4.1648712553e+01    0.5570841    0.3901397  72.21  0.001406183    2.177    0.541
       384 -10.5530     45.7276    102.4999   1.0086986309e+02   5.0637837800e+01     0.767082    0.4475332  71.17  0.003045312    3.182    0.686
       385 -10.6245     22.8316    102.6499   1.0876170643e+02   5.2723132217e+01    0.7373271    0.3984902  76.75  0.002857554    3.062    0.673
       386  -8.4595    166.7107    104.3424   6.5932819453e+01   2.7834090620e+01    0.2743458    0.1801764 -51.18 0.0005646829    1.584    0.369
       387  -9.5341    150.6500    103.3351   6.9352604802e+01   3.1699354013e+01    0.4553813     0.295333 -62.50  0.001231339    2.005    0.501
       388  -9.5823    128.2891    102.1679   7.4728390123e+01   3.6901522237e+01    0.3533989    0.2904138 -75.91 0.0008420357    1.491    0.329
       389  -7.8711    175.4265    102.1846   6.3498920209e+01   2.6263726503e+01    0.2196914    0.1386949 -50.46 0.0006237313    1.634    0.388
       390  -8.3575    159.8287    101.1087   6.6602347941e+01   3.0057124457e+01    0.2403916    0.2057914 -66.18  0.000542078    1.278    0.217
       391  -9.2218     81.9928     99.9877   8.7990366535e+01   4.6281495917e+01    0.3663296    0.2675467 -78.49 0.0007550335    1.870    0.465
       392 -10.3126     63.6595     95.6453   9.3026481323e+01   5.0058945186e+01    0.7422551    0.4105732 -70.31  0.002272421    2.556    0.609
       393  -8.4868     65.1806     87.7901   9.0394811907e+01   5.1651567697e+01     0.356571    0.1957707   1.66  0.001233248    3.708    0.730
       394  -8.9158    244.0000     98.9483   5.1091991630e+01   1.2154179406e+01    0.2330731   0.06715265 -37.47 0.0008077759    2.980    0.664
       395  -9.4479     94.9802     97.0359   8.3013879834e+01   4.4705744409e+01    0.3686782    0.2397734 -56.84  0.000636408    1.657    0.397
       396  -9.1703      6.9250    103.3043   1.1420038707e+02   5.3622280352e+01    0.2708564    0.1883275  77.78  0.001011365    1.628    0.386
       397  -7.9887    164.6567     93.9021   6.3564069718e+01   3.0353763833e+01    0.2232883    0.1346734 -49.12 0.0004920132    1.711    0.416
       398  -8.7043    120.3493     93.3292   7.4390890344e+01   4.0481853106e+01    0.2818922    0.2412169   7.77  0.001403184    1.303    0.233
       399  -9.7793    124.4510     90.9111   7.2547035260e+01   4.0104344195e+01    0.4268154    0.3669191 -66.02 0.0009214152    1.318    0.241
       400  -9.5737    248.5142     92.7404   4.9134263799e+01   1.2295401696e+01    0.2617229    0.1549944  42.49  0.001239259    2.190    0.543
       401  -8.1437    176.4822     93.0996   6.0874717497e+01   2.7749931595e+01    0.2314571    0.1455203 -40.21 0.0006440182    1.536    0.349
       402  -9.2431    138.9551     91.8980   6.9021732725e+01   3.6682022170e+01    0.4556918    0.2815546 -53.05  0.001403565    1.801    0.445
       403  -8.9177    108.4695     92.3988   7.7550016301e+01   4.3136003840e+01    0.5081202    0.2719077  24.12  0.001767218    2.924    0.658
       404  -9.1092     46.5710     92.6285   9.8319478721e+01   5.2896811124e+01    0.4099061    0.1784645  18.29  0.001607336    3.074    0.675
       405  -9.7567      5.0273     91.7934   1.1309274611e+02   5.6450855934e+01    0.4362043    0.2433433  88.44  0.001917503    2.174    0.540
       406  -8.0460    157.6306     91.8305   6.4544864652e+01   3.2391507714e+01    0.2184613    0.1389689 -49.41 0.0002927398    1.628    0.386
       407  -9.6663     34.8242     89.8554   1.0194621871e+02   5.4754118579e+01    0.4793313    0.2745922 -83.09  0.001774243    2.628    0.619
       408  -7.8143    193.4862     90.4244   5.6944473214e+01   2.4312142160e+01    0.1454073    0.1399553 -50.66 0.0001696331    1.031    0.030
       409  -9.5316     97.7688     88.2311   7.9588066381e+01   4.6119473002e+01    0.2994331    0.2248861 -31.43 0.0002525283    1.345    0.257
       410  -7.6582    188.4836     93.4859   5.8648871182e+01   2.4905135329e+01    0.1505724    0.1403317 -59.43 0.0008098815    1.045    0.043
       411  -7.9514    151.1294     89.1764   6.5285929773e+01   3.4419232441e+01    0.2153236    0.1798909 -67.91 0.0004929331    1.352    0.260
       412 -10.1936     86.5393     85.8219   8.2487901181e+01   4.8688802122e+01    0.7175236    0.4327402 -47.26  0.001978382    1.598    0.374
       413  -9.8202    104.8718     83.3213   7.5907345115e+01   4.5763559113e+01    0.4722434    0.3355359 -71.15  0.000994975    2.092    0.522
       414  -8.4890    157.9822     83.8787   6.2222694076e+01   3.3813532278e+01    0.2655358    0.2129823 -40.74 0.0004076947    1.235    0.190
       415  -9.0646    140.8315     82.8277   6.5901517887e+01   3.8027183605e+01    0.3006526    0.2070168 -50.97 0.0006255275    1.551    0.355
       416  -9.8398     24.7570     80.6640   1.0364772322e+02   5.7751453047e+01    0.4695636      0.28414  88.28  0.001390201    2.702    0.630
       417  -9.5163     10.1502     81.3400   1.0938095790e+02   5.8595308905e+01    0.3585254    0.2065113  58.04  0.001615212    2.629    0.620
       418  -8.3458     63.5860     82.1115   8.9360604244e+01   5.3145341190e+01    0.2374507    0.1939938  83.62 0.0009981205    1.740    0.425
       419  -9.1053     22.6754     90.0110   1.0643292161e+02   5.5746857670e+01    0.2942573    0.1882412 -35.22  0.001054772    1.529    0.346
       420  -8.8161    249.7483     80.9746   4.6425075217e+01   1.3909693808e+01    0.1823733   0.09737761 -38.06 0.0008970964    1.610    0.379
       421  -8.3249    150.0337     80.3703   6.2995137917e+01   3.6337913937e+01    0.2805794    0.2065765 -62.75 0.0008979248    1.615    0.381
       422  -8.7950    119.3120     80.5729   7.0851618330e+01   4.3297955758e+01    0.3093009    0.2421875 -75.53 0.0008033717    1.729    0.422
       423  -8.9271     74.5439     80.5689   8.4993975065e+01   5.1830202302e+01    0.3113646    0.2268212 -59.58 0.0009641628    1.558    0.358
       424  -8.1419    166.7147     79.9205   5.9248912767e+01   3.2459668602e+01    0.2119751    0.1842613 -40.87 0.0004793094    1.139    0.122
       425  -8.3722    184.1631     78.5875   5.5522610519e+01   2.8551003714e+01       0.2753   0.09947535 -39.32 0.0006586644    2.606    0.616
       426  -9.3142    128.2808     75.5264   6.6862146040e+01   4.2273880326e+01    0.3869675    0.2514759 -57.86 0.0007286383    1.940    0.485
       427  -9.9105     48.4715     83.6931   9.5369929047e+01   5.4742580395e+01    0.6156357     0.394409 -73.85   0.00216711    2.087    0.521
       428  -7.8783    157.1783     76.2608   6.0208461074e+01   3.5385015875e+01    0.2079541    0.1717886 -67.08 0.0005069617    1.345    0.256
       429  -8.3226    140.4655     75.4820   6.3788830496e+01   3.9478421338e+01    0.2590074    0.2004055 -73.03 0.0006378117    1.648    0.393
       430  -9.9646     63.0123     73.5008   8.6995678176e+01   5.5083617196e+01     0.457103    0.2679218 -56.66  0.001106688    1.887    0.470
       431  -8.3306    163.5032     73.4489   5.8071451490e+01   3.4361728868e+01    0.2577607    0.1307272 -47.36 0.0009419203    2.074    0.518
       432  -9.5928     82.4035     72.7705   7.9820578988e+01   5.2137896138e+01    0.3962756    0.2967586 -70.92  0.001212439    1.954    0.488
       433  -8.0667    151.4848     73.4708   6.0636252175e+01   3.7235339853e+01    0.1491537    0.1458001 -87.86 7.917212e-05    1.030    0.029
       434  -8.7437    115.5144     73.0108   6.9539685319e+01   4.5569973598e+01    0.2249173      0.14622 -38.57 0.0004926352    1.539    0.350
       435  -9.2864    105.9064     72.0092   7.2014785531e+01   4.7790281009e+01    0.2939106    0.2064437 -60.54  0.000685958    1.861    0.463
       436  -8.3192     42.6240     72.7987   9.4628612213e+01   5.7823568036e+01     0.185686    0.1193547 -61.96 0.0004616746    1.669    0.401
       437  -7.7899    175.4780     72.5421   5.5477427877e+01   3.1642559144e+01    0.1468463    0.1405954 -75.28 8.443012e-05    1.010    0.010
       438  -9.3092     95.1609     71.1119   7.5050687853e+01   5.0112585721e+01    0.3741005     0.240863 -56.36  0.001041584    1.951    0.487
       439  -9.4719     51.4882     69.7721   9.0245589443e+01   5.7425330834e+01    0.4403539    0.2650625 -68.63  0.001582169    2.538    0.606
       440  -8.9918     28.7909     70.6935   9.9602649930e+01   5.9647554312e+01    0.2911141     0.148674 -27.12  0.001264555    2.238    0.553
       441  -9.0528     16.6914     70.1873   1.0441309789e+02   6.0698322672e+01    0.2498706    0.1923969  86.74  0.001114128    1.724    0.420
       442  -9.0143    146.9612     68.0729   6.0029030933e+01   3.9247804583e+01     0.330645    0.2067292 -45.62 0.0005589056    1.660    0.397
       443  -9.0135    138.5084     66.0494   6.1356839477e+01   4.1596542558e+01    0.3186848    0.1923805 -51.96 0.0009596416    1.928    0.481
       444  -8.8598    121.6304     66.1621   6.5645127160e+01   4.5465317035e+01    0.3227497    0.2387527 -65.18  0.000902038    1.793    0.442
       445  -8.7217     83.8076     65.3198   7.6864952219e+01   5.3345935907e+01    0.3853862    0.2177973   7.04   0.00129579    3.791    0.736
       446  -8.4716     95.3965     64.7779   7.2856551747e+01   5.1260904547e+01    0.2039467    0.1323036 -26.93 0.0005506906    1.645    0.392
       447  -8.7547     64.3442     63.7142   8.3332970044e+01   5.6882503354e+01    0.3970623    0.2212583 -14.41  0.001542941    2.944    0.660
       448  -9.0948     37.3320     64.6241   9.4385057801e+01   6.0134888847e+01    0.2504306    0.2103715  83.07  0.001020602    1.746    0.427
       449  -8.8249    110.1076     63.7443   6.8046218180e+01   4.8419426850e+01     0.276703    0.2304113 -56.38 0.0007243838    1.396    0.284
       450  -8.0426    158.1757     61.8475   5.5776701859e+01   3.7574988449e+01    0.1931113    0.1719511  13.10 0.0002506431    1.282    0.220
       451  -9.3184     97.6148     60.6750   7.0748495049e+01   5.1558901259e+01    0.3267273     0.262784  56.85 0.0009982726    1.432    0.302
       452  -9.6590     73.2882     59.4369   7.8536194481e+01   5.6280526155e+01    0.4172973      0.23457 -50.36  0.001213594    2.021    0.505
       453  -8.1779     88.8506     59.7797   7.3253307759e+01   5.3433861663e+01    0.1810629    0.1730532 -79.99 0.0005721339    1.305    0.234
       454  -7.9886    147.0000     58.9709   5.7238458509e+01   4.0734497622e+01    0.2343376   0.08395974 -34.33 0.0005540135    2.876    0.652
       455  -9.8894     23.6347     56.6326   9.7853804175e+01   6.3073877849e+01    0.4373575    0.2957894  87.56  0.002138971    2.911    0.657
       456  -8.2705    130.8130     58.0359   6.0655687271e+01   4.4728180343e+01    0.2224893    0.1940898 -67.52 0.0005419209    1.315    0.239
       457  -9.5192      7.3916     57.0912   1.0516432186e+02   6.4099900522e+01    0.2931649      0.20174 -78.09  0.001142508    1.768    0.434
       458  -9.2738    119.0769     55.3524   6.2739866823e+01   4.7855631078e+01    0.4572788    0.2283982 -41.34  0.001355693    2.097    0.523
       459  -7.9228    140.1089     56.1563   5.7877998183e+01   4.2829508748e+01    0.1981462    0.1705457 -71.54  0.000466162    1.316    0.240
       460  -9.4191     62.8031     53.8874   8.0490602167e+01   5.8983557176e+01    0.5905154    0.1901117 -46.25  0.002131842    3.156    0.683
       461  -8.8961     44.0682     54.9939   8.8480283039e+01   6.1333094295e+01    0.4035679    0.1650259 -51.98  0.001703599    2.473    0.596
       462  -9.0496     54.2161     53.9521   8.3918052022e+01   6.0222440698e+01     0.356657    0.2235585 -61.55  0.001498111    2.413    0.585
       463  -8.4251    105.7830     53.1492   6.5655240676e+01   5.1134060385e+01    0.2076157     0.196097 -66.57 0.0005983603    1.251    0.201
       464  -9.5340     92.3447     50.6334   6.8837834282e+01   5.4317507386e+01    0.3736587    0.2332808 -47.53   0.00105254    1.878    0.467
       465  -8.0756     74.5256     51.9632   7.5390763052e+01   5.7414661177e+01    0.1966044    0.1109027 -17.05 0.0008087404    2.443    0.591
       466  -8.5449    144.8238     48.9966   5.4597422918e+01   4.2773550555e+01      0.23741    0.1513738 -57.43 0.0005397944    1.940    0.485
       467  -8.5129    129.6964     49.1726   5.8014756315e+01   4.6359213160e+01    0.2196539    0.1753416 -51.88 0.0005005146    1.400    0.286
       468  -8.7452    120.9555     47.7125   5.9654874140e+01   4.8605304101e+01    0.2335135    0.2037204 -24.60 0.0005758182    1.191    0.160
       469  -8.3805    112.1511     46.7926   6.1630019805e+01   5.0730806366e+01    0.2380539     0.184703 -44.91 0.0006193331    1.431    0.301
       470  -9.0248     82.1593     46.7060   7.0736007342e+01   5.6919249699e+01    0.2534427    0.2357287 -65.39 0.0006383366    1.410    0.291
       471  -8.4083     45.0880     44.6838   8.4338554220e+01   6.3133715518e+01    0.2114623    0.1589592 -43.59 0.0005626794    1.367    0.268
       472  -8.7465     16.5482     44.8202   9.7442329364e+01   6.6000444124e+01    0.1929262    0.1841208 -76.77 0.0005820494    1.448    0.310
       473  -8.9338    132.7279     43.5436   5.5452843911e+01   4.6450700686e+01    0.2626281    0.2215794 -56.86 0.0006913052    1.329    0.248
       474  -9.2530     69.5337     41.5983   7.3261612253e+01   5.9996183423e+01    0.3266226    0.2346972 -52.77 0.0009742946    1.879    0.468
       475  -8.8494     58.0765     42.0836   7.7896715510e+01   6.1767512494e+01    0.4129424    0.2038293 -48.67  0.001840333    2.469    0.595
       476  -9.4271      5.2257     42.1853   1.0207993816e+02   6.7261028975e+01     0.292244    0.1977111 -76.31  0.001471228    2.031    0.508
       477  -8.4864    105.9674     41.4944   6.1420407261e+01   5.2863369181e+01    0.2509988    0.1890336 -47.43 0.0006400654    1.552    0.356
       478  -7.6604    140.4159     41.4782   5.3123914559e+01   4.4891689038e+01    0.1387748    0.1327558  70.17 0.0001307394    1.042    0.040
       479  -8.3668     36.6749     40.9400   8.6651026684e+01   6.4819681888e+01    0.1808342    0.1376981 -32.26 0.0005055916    1.150    0.130
       480  -8.8332     95.4478     38.2017   6.3228621859e+01   5.5569864335e+01    0.2400206    0.1979498 -57.75 0.0007582038    1.585    0.369
       481  -8.0872     80.7326     36.9694   6.7439463058e+01   5.8676092132e+01    0.1847554     0.164649  -9.63 0.0004870794    1.104    0.094
       482  -8.6172     92.7530     42.9454   6.5852131970e+01   5.5435955118e+01    0.2772728    0.1904133  -1.44  0.001360508    1.757    0.431
       483  -8.1067    125.8289     35.7809   5.4392724820e+01   4.9119779041e+01    0.1782372     0.160127 -72.84 0.0003624148    1.275    0.216
       484  -9.2609     26.2222     35.3852   8.9432795448e+01   6.6918310531e+01    0.2770914    0.1874632 -52.64 0.0009249007    1.678    0.404
       485  -8.0707    158.7887     35.1924   4.7722161229e+01   4.1231218371e+01    0.1877094    0.1552048  35.61 0.0005240593    1.333    0.250
       486  -8.6341    111.8645     34.5550   5.7319778473e+01   5.2495761983e+01    0.2644688    0.1702526 -48.47 0.0007978162    1.906    0.475
       487  -8.3752    119.2696     33.3892   5.5081112518e+01   5.0952954416e+01    0.2308581    0.1561741 -49.45 0.0006395916    1.775    0.437
       488  -7.9421     88.8329     34.5987   6.3861339707e+01   5.7423293787e+01    0.1823299    0.1260976  58.16 0.0006259127    1.680    0.405
       489  -8.9486     48.5418     33.4321   7.8356904428e+01   6.4567032769e+01    0.2232496    0.2127125 -26.21 0.0008110401    1.388    0.280
       490  -8.8804     60.7230     32.6535   7.2992277296e+01   6.2837457873e+01    0.2232906    0.1930867 -33.31 0.0004116193    1.330    0.248
       491  -8.8402     72.1204     31.4774   6.8204348218e+01   6.1051229611e+01    0.2271799    0.1763384 -43.01 0.0006635765    1.562    0.360
       492  -7.7663    139.4593     31.5479   5.0107833828e+01   4.6392675931e+01    0.1375071    0.1269853  62.83 0.0002013304    1.021    0.020
       493  -9.0069     12.8609     30.2248   9.4180049429e+01   6.9002800097e+01    0.2971453    0.1580676 -56.63  0.001185471    2.093    0.522
       494  -8.2980    101.5688     29.3377   5.8090498705e+01   5.5433270874e+01    0.1893128    0.1596959 -66.66 0.0005262104    1.571    0.364
       495  -8.8835     81.4311     27.6493   6.3427186959e+01   5.9810443799e+01    0.2473132     0.211271 -74.12 0.0007281245    1.777    0.437
       496  -8.6104      3.6513     27.7477   9.8144234563e+01   7.0077958276e+01    0.1888518     0.128386 -53.46 0.0006398131    1.460    0.315
       497  -8.9246     91.8618     26.3315   5.9661975375e+01   5.7867041947e+01    0.2704475    0.1754839 -43.15 0.0009619716    1.865    0.464
       498  -8.0085     34.6489     23.3149   8.0284695337e+01   6.7963818818e+01    0.1529957    0.1499053  64.58 0.0007899819    1.688    0.407
       499  -8.7994    232.0325     22.0462   3.5434211424e+01   2.5707489579e+01    0.1864216    0.1535551 -66.24 0.0003921305    1.031    0.030
       500  -8.0536    104.0858     22.7807   5.4920983179e+01   5.5648501990e+01    0.1792524     0.101354  56.54 0.0008199156    1.655    0.396
       501  -8.9248     63.7479     21.2003   6.6847014152e+01   6.3896223779e+01    0.2538612    0.1822538 -45.70 0.0008937351    1.886    0.470
       502  -9.1382     49.1064     21.9282   7.3070513162e+01   6.6181074910e+01    0.2479615    0.1814913  41.40 0.0009769049    1.576    0.365
       503  -7.9523    120.6851     21.3278   5.0491496407e+01   5.2022775987e+01    0.1332054     0.102078 -70.51 0.0004209736    1.673    0.402
       504  -7.6594     19.5305     21.4993   8.7107578372e+01   6.9905305860e+01    0.1177267   0.09256304 -16.69  8.62141e-05    1.056    0.053
       505  -8.8909     73.9901     19.4943   6.2439588215e+01   6.2237035188e+01    0.2218454      0.17171 -40.52  0.000766592    1.599    0.375
       506  -8.4525     87.8849     17.5871   5.7268459003e+01   5.9689133865e+01    0.2325205    0.1560182 -41.51 0.0005720641    1.824    0.452
       507  -8.2341     38.5513     18.0578   7.6002422645e+01   6.8218114813e+01    0.1776632    0.1051097 -31.84  0.001024022    1.584    0.369
       508  -7.9139    112.6373     16.8177   5.0630827553e+01   5.4350537456e+01    0.1697794    0.1190987 -35.97 0.0003158082    1.601    0.375
       509  -7.9807    244.2911     16.7003   3.3335792865e+01   2.3769639987e+01    0.1250188    0.0704533 -63.02 0.0002167172    1.563    0.360
       510  -8.5831    249.1574    248.9375   7.9803251425e+01  -1.1725674332e+01    0.2126859    0.1303768 -21.86  0.001395291    1.461    0.316
       511  -7.7874      7.8125     15.6212   9.0965553722e+01   7.1862512493e+01    0.1397464   0.09436651  24.17 0.0005804549    1.685    0.406
       512  -9.8458    248.5853    242.1026   7.8783202366e+01  -1.0825111311e+01    0.3920473    0.1848092 -35.36  0.001275715    2.128    0.530
       513  -8.6827    218.5377    247.9181   8.5069573009e+01  -7.7098686229e+00    0.2394779     0.110141 -39.53 0.0009967769    2.422    0.587
       514  -7.7595     47.6777     10.3443   6.8171100134e+01   6.7862896961e+01    0.1044816   0.09831059 -56.46 0.0007050168    1.732    0.423
       515  -8.2316     97.0454     15.2387   5.3794816917e+01   5.7988621686e+01    0.1785952    0.1590216  35.17 0.0004692047    1.043    0.041
       516  -9.1422    175.8118    247.8923   9.3201492112e+01  -1.6299168020e+00    0.3037862    0.2411545  85.75  0.001343969    2.278    0.561
       517  -7.5884    119.7257     11.3353   4.7144454584e+01   5.3234934351e+01    0.1258677   0.09729715 -65.46 0.0006993615    1.603    0.376
       518  -8.9274    132.3535    248.0679   1.0190503189e+02   4.8944369635e+00    0.2534972    0.1835602  73.61 0.0006373822    1.853    0.460
       519  -8.4193    113.1054    248.6350   1.0584643536e+02   7.6637354850e+00    0.2001919    0.1586284 -88.12 0.0008578217    1.495    0.331
       520  -9.2617    103.9359    246.7825   1.0748369796e+02   9.3319385241e+00    0.4135039    0.2283457 -84.79  0.001964943    2.907    0.656
       521  -9.1681    243.1553    245.9885   8.0359138755e+01  -1.0638927954e+01     0.387297    0.1607544 -23.39  0.001887075    2.687    0.628
       522 -10.0181    224.0481    244.5223   8.3520652649e+01  -7.9987812916e+00    0.4653805    0.2399507 -45.19  0.002448123    2.647    0.622
