#   1 NUMBER                 Running object number                                     
#   2 MAG_AUTO               Kron-like elliptical aperture magnitude                    [mag]
#   3 X_IMAGE                Object position along x                                    [pixel]
#   4 Y_IMAGE                Object position along y                                    [pixel]
#   5 X_WORLD                Barycenter position along world x axis                     [deg]
#   6 Y_WORLD                Barycenter position along world y axis                     [deg]
#   7 A_WORLD                Profile RMS along major axis (world units)                 [deg]
#   8 B_WORLD                Profile RMS along minor axis (world units)                 [deg]
#   9 THETA_WORLD            Position angle (CCW/world-x)                               [deg]
#  10 FWHM_WORLD             FWHM assuming a gaussian core                              [deg]
#  11 ELONGATION             A_IMAGE/B_IMAGE                                           
#  12 ELLIPTICITY            1 - B_IMAGE/A_IMAGE                                       
         1  -8.8494     40.4611      1.8260   8.4291064408e+01   6.6680200786e+01    0.3239067    0.1452441  24.92  0.001807398    2.150    0.535
         2  -9.6848     38.4013      8.5299   8.7693388537e+01   6.6215461813e+01    0.5560114    0.2913965   3.32  0.003169511    2.259    0.557
         3 -10.8423     39.6567     30.0371   9.5077483893e+01   6.3370961624e+01    0.5708952    0.3078862 -38.83  0.002737312    1.733    0.423
         4 -12.3575     44.5611     21.2243   9.0160364823e+01   6.3986700944e+01     1.444236    0.9092221 -49.80  0.008523286    2.574    0.612
         5 -10.4091    225.4539     29.2095   5.2769081784e+01   2.6804619459e+01    0.4585655    0.3627393  61.80  0.001736041    1.335    0.251
         6 -11.4195    129.6911     15.7284   6.4157684949e+01   5.0040020179e+01     1.000042    0.7149263 -38.03  0.006059585    1.633    0.387
         7 -13.8284    163.9875     11.2532   5.6799597444e+01   4.2913524891e+01     3.168511     1.703779  63.34   0.01671103    1.555    0.357
         8 -11.8679     81.3168      4.3398   7.2018999873e+01   6.0423442276e+01     1.763848    0.3601868  47.39  0.006870557    3.681    0.728
         9 -10.7301    131.6050      3.4214   6.0157622995e+01   5.0768331644e+01    0.8338875    0.2736934  56.74  0.003282754    2.338    0.572
        10 -10.7407    121.0120      4.1215   6.2435207712e+01   5.2923746923e+01    0.6199948    0.3789492  59.32  0.003084617    1.438    0.304
        11 -11.0507    109.0218      4.4457   6.5104290107e+01   5.5310045840e+01     1.040836    0.3774753  56.97  0.004768655    2.420    0.587
        12  -8.5872     11.6375     21.9647   1.0322497365e+02   6.7041432102e+01    0.3042372    0.1591439 -18.31  0.001953962    1.768    0.434
        13 -10.1480    116.4854     16.7650   6.7322628108e+01   5.2675946196e+01    0.7688203    0.3682644 -42.06  0.003725767    2.653    0.623
        14  -9.6445     93.4840     17.9652   7.3416510952e+01   5.6969351072e+01    0.4318705     0.358253  44.04  0.002242965    1.211    0.174
        15 -10.4750    249.9653      5.9776   4.5826858833e+01   2.4366258974e+01    0.7344759    0.2232213 -43.14  0.003426175    2.869    0.651
        16  -9.2480     55.3890      7.6916   8.1278136953e+01   6.4132843874e+01    0.3218611    0.1864374  45.71  0.001824937    1.977    0.494
        17  -8.7897     60.4823      9.5059   8.0258392623e+01   6.3224268645e+01    0.2400569     0.172029  18.63   0.00150203    1.140    0.123
        18 -10.1425     60.6829      2.4062   7.7506136634e+01   6.3887520917e+01    0.5107059    0.2945038  30.37   0.00330062    1.450    0.310
        19  -9.0452     52.2762      2.1090   8.0189675232e+01   6.5115192218e+01    0.3158577    0.1832019  20.18  0.002047009    1.534    0.348
        20  -8.9821     20.2158     13.7611   9.6833447840e+01   6.7455592122e+01     0.495505    0.1858418 -25.54      0.00247    2.945    0.660
        21 -10.1121    248.8566     15.5088   4.7672880411e+01   2.3463392997e+01    0.3196591    0.3031165 -45.82  0.002350808    1.488    0.328
        22  -9.6197    103.9133     12.1570   6.8803766033e+01   5.5606531599e+01    0.3900485    0.2683992  -8.47  0.001972422    1.617    0.381
        23 -10.6257     64.6670     16.3731   8.1424194565e+01   6.1880649657e+01    0.4906009    0.3640315  50.10  0.003247334    1.771    0.435
        24  -9.4746    244.3355      9.1587   4.6894901212e+01   2.5171954542e+01    0.2034261     0.113723 -28.05    0.0010858    2.584    0.613
        25 -10.1043    199.8625      8.1712   5.1228730738e+01   3.5056965787e+01    0.2215531    0.1763028  87.45 0.0007443908    1.059    0.056
        26  -9.1862     26.7057      3.0350   9.0084853377e+01   6.8107646684e+01    0.2718359    0.1703048 -30.52  0.001529945    1.568    0.362
        27 -11.6254     78.2519     14.8194   7.6636461646e+01   5.9927357548e+01     1.236416    0.7109231 -14.70  0.007180933    1.877    0.467
        28  -8.9268    229.7930      6.1793   4.7658402893e+01   2.8621271437e+01    0.1560826    0.1282282  68.19  0.001066412    1.311    0.237
        29  -9.7612    217.1461      2.3206   4.8119711153e+01   3.1805799122e+01     0.336953    0.1666471  61.51   0.00182011    1.807    0.446
        30  -9.6756    208.8362      3.9829   4.9321431738e+01   3.3476679005e+01    0.2507145    0.1959409  24.32  0.001558271    1.994    0.499
        31  -9.3866    204.4802      4.1336   4.9825959857e+01   3.4436520368e+01     0.240735    0.1859683 -84.18 0.0009313455    1.134    0.118
        32  -9.1865     17.2810      2.4084   9.3705454652e+01   6.9092975734e+01    0.2367606    0.2047808 -39.34  0.001939222    1.956    0.489
        33  -7.8363      1.5981      1.7647   1.0024328708e+02   7.0425718315e+01    0.1247138   0.07809409 -39.23 0.0009468449    1.633    0.387
        34  -9.3404    199.0418     55.4284   6.2234383527e+01   2.9199339238e+01    0.2480979    0.2187789 -42.92 0.0004828645    1.242    0.195
        35  -9.2237     65.9112     53.2006   9.3498868603e+01   5.6684747460e+01    0.4654048    0.1837009 -49.28   0.00194121    3.129    0.680
        36  -7.9145      9.8125     56.1986   1.1382423424e+02   6.1657484080e+01    0.1586148   0.09710711 -32.29 0.0009848458    1.342    0.255
        37  -8.0520     34.9994     52.5143   1.0389055614e+02   6.0357601673e+01    0.1574153    0.1065345  18.69 0.0005111836    1.555    0.357
        38 -10.7698     17.7185     73.7615   1.1525629346e+02   5.7892398643e+01    0.6798931    0.3684807 -40.28  0.004107191    1.505    0.335
        39 -10.2502     84.1000     47.2340   8.5843197815e+01   5.4884943813e+01    0.6422432    0.5489355  77.94  0.003902858    1.844    0.458
        40  -7.3019     45.3364     49.3058   9.9283622305e+01   5.9840859013e+01    0.1235409   0.07699139 -14.20 0.0003447342    1.672    0.402
        41  -8.4243    202.5285     46.9840   5.9709017302e+01   2.9626973988e+01    0.1974833     0.131557 -40.15  0.001029715    1.585    0.369
        42  -8.2243    110.7844     46.2128   7.7940578673e+01   5.0257184660e+01    0.1914243    0.1448412  19.50     0.001078    1.371    0.271
        43  -9.8405     82.1537     38.8203   8.3698557298e+01   5.6399756579e+01    0.3342343    0.2984419 -22.87  0.002269146    1.227    0.185
        44 -10.2933      3.4296     40.6286   1.1212398133e+02   6.4698527300e+01    0.3563291    0.3488519 -41.30  0.003107414    1.505    0.336
        45  -9.6931     10.3128     34.3927   1.0770193913e+02   6.5278685704e+01    0.5201415    0.2840422  -3.65  0.003345361    1.936    0.483
        46  -8.4937    111.5904     41.7273   7.6338211660e+01   5.0718622547e+01    0.1735952    0.1209841 -41.60 0.0009515553    1.621    0.383
        47  -9.1184    185.4854    247.0195   1.0557115051e+02  -4.5747720188e+00    0.1811948    0.1285254 -44.14  0.001041126    1.615    0.381
        48  -9.6486    161.7109    240.9994   1.0932928833e+02   5.6183240207e-01    0.2456491    0.1305733  41.94  0.001189268    1.648    0.393
        49  -9.9120    206.2301    225.8993   9.8005178641e+01  -4.6151763520e+00    0.2913326    0.1921118 -63.20  0.001410176    2.336    0.572
        50  -8.8485    196.3240    222.0289   9.9294327157e+01  -2.2036920346e+00    0.2191761    0.1032803 -25.53 0.0007047469    4.431    0.774
        51  -8.9324     67.3052     35.6767   8.7346727198e+01   5.9104863066e+01    0.3950137    0.1963823  49.39  0.001896318    2.829    0.647
        52  -9.3513     66.7095     29.3947   8.5389488921e+01   6.0024769953e+01    0.4485134    0.2263075 -12.36  0.001780438    2.890    0.654
        53  -8.7307     27.1387     35.2223   1.0149611883e+02   6.3846475801e+01    0.2360939     0.137741  15.65  0.001126533    1.738    0.425
        54  -9.2457    123.9893    205.9953   1.1179001248e+02   1.4257096015e+01    0.1977066    0.1811595  71.32  0.001155248    1.027    0.027
        55  -8.2889    238.7019    203.3141   8.7605969764e+01  -6.3138586190e+00    0.1211656    0.1071763 -80.67  0.000701484    1.606    0.377
        56 -11.4746     10.0274    141.5230   1.2862748244e+02   4.4097528030e+01     0.540002    0.4074178 -85.89  0.003706611    1.186    0.157
        57 -12.7826    241.3972    131.8937   7.2559601142e+01   6.2683585328e+00     1.487884     1.367764  56.63  0.005753476    1.187    0.158
        58  -9.0705     41.0207    141.9939   1.2116871862e+02   4.1273069757e+01    0.2060824    0.1416177  77.21 0.0009988211    1.691    0.409
        59 -10.4123     11.2685    129.6758   1.2682459197e+02   4.6629990468e+01     0.287747      0.20076  56.72  0.001863666    1.711    0.416
        60  -8.8396     23.0289    125.4474   1.2323536062e+02   4.6677170799e+01    0.2473507    0.1284706 -51.92  0.000995158    1.607    0.378
        61 -10.0023     86.4152     31.2497   7.9898069889e+01   5.6683247357e+01    0.3233884    0.2068467  21.61  0.001315365    1.590    0.371
        62  -9.4048     90.6214     28.1729   7.7649655015e+01   5.6333920104e+01    0.2667256    0.2042294 -18.07  0.001702618    1.319    0.242
        63  -9.0042     96.5705     30.7729   7.6847467409e+01   5.4958268580e+01    0.2919629    0.1795304 -13.91  0.001571416    1.877    0.467
        64  -8.6013    125.9679     28.6159   6.8824452721e+01   4.9438655616e+01    0.2533554    0.2017164 -19.88  0.001547976    1.391    0.281
        65  -8.7857    104.4448     26.2140   7.3257045334e+01   5.4031025856e+01    0.3791156    0.2205576  46.83  0.002074652    1.527    0.345
        66  -8.4086      9.8338     26.8949   1.0556907701e+02   6.6453521370e+01    0.1708671    0.1065845 -24.66  0.001147849    1.237    0.192
        67  -9.0795     14.4729    120.4985   1.2472129735e+02   4.8418528033e+01    0.1198203   0.09356847 -63.86 3.127402e-05    1.004    0.004
        68  -9.5320     17.7304    105.1129   1.2138968497e+02   5.1512079644e+01    0.4049661    0.2897573  83.98  0.002527277    1.758    0.431
        69  -9.0615    111.0089     16.4896   6.8503573669e+01   5.3799634061e+01     0.281495    0.1924235  48.08  0.001128435    1.259    0.206
        70  -8.7439     68.8908    105.2550   1.0658125230e+02   4.6338773001e+01    0.2797364     0.151718 -33.53  0.001248226    2.157    0.536
        71  -9.4011     30.1076    101.3448   1.1714423058e+02   5.1355199632e+01    0.2562964    0.1710927 -46.75  0.001569819    1.249    0.199
        72  -8.8551     64.1336     99.8387   1.0673008945e+02   4.8114818591e+01    0.1982121    0.1802806 -76.77  0.001238204    1.252    0.201
        73  -9.2707      2.1380     89.1978   1.2314756309e+02   5.5781028786e+01    0.4583148    0.1620808 -66.39  0.002215284    2.419    0.587
        74 -11.9610     43.2196     82.0598   1.0894777623e+02   5.4127495185e+01     1.059853    0.8192167 -15.17  0.006671737    1.323    0.244
        75  -7.4905     83.3198     89.6901   9.8489534780e+01   4.7544140509e+01    0.1299318    0.1088673  85.78 0.0004243442    1.643    0.391
        76  -9.4826     19.4653     87.6080   1.1763074168e+02   5.5033222868e+01    0.3659978    0.2056183 -46.47  0.002194403    1.409    0.290
        77  -8.9226    228.0788     78.8274   6.3129232802e+01   1.8755258031e+01    0.4018489    0.2859286   5.64  0.001732646    2.937    0.660
        78  -8.6160    221.1949     81.0314   6.4673409268e+01   1.9920431047e+01    0.2481704    0.1459781 -63.44  0.001090925    1.961    0.490
        79  -8.7332     21.0671     23.3978   9.9922547390e+01   6.6093968185e+01    0.2240117    0.2015248   5.33  0.001848263    1.474    0.321
        80 -10.6995     24.7798     65.6564   1.1099058400e+02   5.8904244162e+01    0.9315436    0.6404094  47.24  0.005842118    2.171    0.539
        81 -10.6317     11.9379     71.9153   1.1673955774e+02   5.8624763493e+01    0.5746162    0.3371612 -43.34  0.003711842    1.316    0.240
        82  -8.5065    138.7623     78.4327   8.0271468292e+01   3.9323012776e+01    0.2043323    0.1332361  39.24 0.0009446496    1.571    0.363
        83  -7.6870     97.6675     36.6943   7.8476955315e+01   5.4012713109e+01    0.1323462   0.08820607  16.56 0.0003102369    1.663    0.399
        84 -10.0639     74.4705     69.3086   9.5579262962e+01   5.2739201956e+01    0.4297966    0.3301591  67.75  0.002340484    2.113    0.527
        85  -8.8880     83.0758     69.3239   9.2922340463e+01   5.1445018711e+01    0.1848388    0.1653619  13.92  0.001152472    1.099    0.090
        86  -9.0830      9.0633     80.3219   1.1940233162e+02   5.7166502571e+01    0.2916707    0.2223469 -38.59  0.001245163    1.132    0.116
        87  -9.5866     47.9377     61.9936   1.0213183567e+02   5.7404756181e+01    0.4551787    0.3125391   7.79  0.002789094    1.553    0.356
        88  -8.4194     60.6162     62.7814   9.8130068650e+01   5.5771113331e+01    0.1716096    0.1103179 -50.75  0.000949692    1.674    0.402
        89  -8.4962     93.1787     56.9611   8.6181535242e+01   5.1872883903e+01    0.2310153    0.1714486  54.02  0.001282638    1.634    0.388
        90 -10.5549      4.0497     76.0751   1.2014117599e+02   5.8279796802e+01    0.5271906    0.3738892 -34.65  0.002924911    1.246    0.198
