#   1 NUMBER                 Running object number                                     
#   2 MAG_AUTO               Kron-like elliptical aperture magnitude                    [mag]
#   3 X_IMAGE                Object position along x                                    [pixel]
#   4 Y_IMAGE                Object position along y                                    [pixel]
#   5 X_WORLD                Barycenter position along world x axis                     [deg]
#   6 Y_WORLD                Barycenter position along world y axis                     [deg]
#   7 A_WORLD                Profile RMS along major axis (world units)                 [deg]
#   8 B_WORLD                Profile RMS along minor axis (world units)                 [deg]
#   9 THETA_WORLD            Position angle (CCW/world-x)                               [deg]
#  10 FWHM_WORLD             FWHM assuming a gaussian core                              [deg]
#  11 ELONGATION             A_IMAGE/B_IMAGE                                           
#  12 ELLIPTICITY            1 - B_IMAGE/A_IMAGE                                       
         1 -13.9019    216.2436      9.0088   3.7631241479e+01   3.0056902541e+01      2.25648     1.274275  41.95   0.01088318    2.469    0.595
         2 -13.1768    176.3401     53.4919   5.4846234729e+01   3.4217212345e+01     1.804127     1.129968  31.28  0.004941883    2.153    0.536
         3 -13.4467    191.3512     40.3196   4.8675526567e+01   3.2343712031e+01     1.060642    0.9582465  51.85   0.00389816    1.179    0.152
         4 -12.7715    196.2724     34.3311   4.6345816677e+01   3.1913126500e+01    0.6446069    0.5910683  84.22  0.001235446    1.054    0.052
         5 -10.5052    189.6177     14.6884   4.1790524022e+01   3.5858891622e+01    0.2560952    0.2142442 -72.00 0.0007131695    1.130    0.115
         6  -9.8461     56.7475    210.1358   1.1733357506e+02   2.3604123691e+01    0.2730563    0.1304331 -63.63  0.001419955    2.066    0.516
         7 -12.4727    247.6807    245.2695   8.5270802110e+01  -1.1083970323e+01     0.863131    0.4528621 -20.07  0.005157704    1.909    0.476
         8  -9.6881     43.9319    210.0580   1.1987312084e+02   2.5182519367e+01     0.173882    0.1162421  68.72 0.0003085981    1.257    0.205
         9  -7.7884     42.6335    206.1689   1.1980747035e+02   2.6146118249e+01    0.2751702    0.1922327 -40.51  0.001609003    2.280    0.561
        10  -9.5544    160.4932    205.5234   9.5011266357e+01   8.2813551188e+00    0.1352713    0.1216876  31.95 0.0001677831    1.006    0.006
        11 -10.2666     96.4510    202.2390   1.0816958400e+02   1.9684537541e+01    0.2874352    0.2213642 -66.81 0.0009585313    1.340    0.253
        12 -10.7833     66.1011    204.6287   1.1488325593e+02   2.3545280792e+01    0.2436848    0.1629898 -60.52  0.001019978    1.591    0.371
        13 -10.8262     55.7385    201.4985   1.1672072399e+02   2.5553137725e+01    0.2812067    0.1612048 -40.92    0.0013343    3.001    0.667
        14 -12.1191     58.1982    195.3884   1.1558829788e+02   2.6564102846e+01    0.6602179    0.2640541 -51.52  0.002803286    3.104    0.678
        15 -10.9224    193.0664    195.4672   8.6580880236e+01   4.2784974033e+00    0.9713545    0.4809657 -60.19  0.002981068    5.677    0.824
        16  -8.2907     70.5435    199.9749   1.1344999220e+02   2.3938507132e+01    0.1667672    0.1150263 -71.54 0.0007690066    1.402    0.287
        17  -9.7341     35.9881    197.8652   1.2045216998e+02   2.8666467098e+01    0.1604989    0.1125182  62.95 0.0003913799    1.224    0.183
        18  -9.4377     81.8236    194.7822   1.1040055591e+02   2.3470672126e+01    0.2169922    0.1720858  83.25 0.0007013507    1.179    0.152
        19 -11.8992    150.1726    189.3890   9.4431012186e+01   1.3190709766e+01    0.6877713    0.4158582 -69.64  0.002630145    2.592    0.614
        20 -10.7087     94.9780    188.0722   1.0657351717e+02   2.2955837188e+01    0.4947019    0.4473674 -78.36  0.002262775    1.112    0.101
        21 -10.9966     99.3488    180.8750   1.0451091350e+02   2.3861355611e+01    0.3392224    0.2929528 -12.36  0.001010661    1.566    0.362
        22 -11.4791    143.7609    178.0337   9.3791352685e+01   1.6686975161e+01    0.4441477    0.2799099 -48.45  0.001300569    1.653    0.395
        23 -10.1330    188.5074    176.7159   8.3845943852e+01   8.4385308622e+00    0.3867075    0.3310877 -59.64  0.002070111    1.425    0.298
        24 -10.0892    149.7399    177.3607   9.2319384639e+01   1.5703521419e+01    0.2558158    0.2181692 -89.93 0.0005887193    1.404    0.288
        25  -9.4322     59.0802    176.8271   1.1331302816e+02   3.0625842602e+01    0.1842713    0.1630552  86.56 0.0004142246    1.073    0.068
        26 -10.5725    234.3277    174.5045   7.4612245813e+01   5.0759058251e-01     0.243482    0.1135779 -35.23  0.001087517    1.993    0.498
        27  -9.6241     84.0405    173.5448   1.0701052806e+02   2.7918414084e+01    0.2129906     0.169115 -72.58 9.113103e-05    1.194    0.162
        28  -9.3010     58.5975    228.9990   1.1861819949e+02   1.9592176902e+01    0.1490889    0.1109387  89.25 0.0003901511    1.228    0.185
        29  -8.9817    194.4743    171.8976   8.1638581483e+01   8.1890950403e+00    0.2117194    0.1370302 -37.38 0.0006721845    1.537    0.350
        30 -10.7739    139.5467    171.3983   9.3502314786e+01   1.8883305235e+01    0.3876924     0.294248  55.25  0.001541799    1.364    0.267
        31 -10.4978    132.9185    172.1398   9.5179958092e+01   1.9962238569e+01    0.2754685    0.2029489  37.45  0.001376326    1.352    0.260
        32 -19.5313     20.0539    145.8537   1.1912751384e+02   4.2120753043e+01     19.53243     4.827253 -75.02   0.06708535    3.802    0.737
        33  -9.4553    185.6913    169.9403   8.3034037216e+01   1.0243778189e+01    0.2035465    0.1867396 -34.07 0.0008145146    1.123    0.109
        34 -10.2040    240.2003    169.5587   7.2560479241e+01   2.9146794557e-01    0.1836383    0.1177033  25.59 0.0005970197    1.659    0.397
        35  -9.9596    230.5701    167.3612   7.3792862684e+01   2.3116453503e+00    0.2706486    0.1093662 -47.78 0.0009626895    3.369    0.703
        36 -11.0328     50.4196    224.7294   1.1980832595e+02   2.1441750344e+01    0.2109706    0.1292845  75.31 0.0006685788    1.462    0.316
        37  -9.2658    187.6096    162.7389   8.1107596796e+01   1.1238592911e+01      0.26135    0.1801127 -48.29 0.0007993958    1.555    0.357
        38 -11.0308     89.8264    157.7881   1.0307714598e+02   3.0733413270e+01    0.2785185    0.2585859 -48.87 0.0004664463    1.182    0.154
        39 -11.6225     95.8792    151.2961   1.0037017745e+02   3.1306746694e+01    0.6201491     0.485626 -22.93  0.003102516    1.706    0.414
        40 -10.0141    187.5518    152.0580   7.8765676177e+01   1.3314606820e+01    0.3151164    0.2865023 -67.59   0.00163431    1.290    0.225
        41 -10.8172    133.7685    145.3950   8.9542719390e+01   2.5764665319e+01     1.283259    0.2995846 -53.91  0.002867179    6.291    0.841
        42  -9.3076    112.9173    150.9360   9.5939802649e+01   2.8442871065e+01    0.2422485    0.1794135  82.33 0.0007963336    1.691    0.409
        43  -9.7514    174.7909    148.9617   8.0786542700e+01   1.6567803723e+01     0.279258    0.2135019 -60.70  0.001024302    1.545    0.353
        44  -9.4723    108.9914    147.0795   9.6166572567e+01   3.0056688752e+01    0.2217047    0.2062894 -89.73 0.0003082964    1.057    0.054
        45 -11.0730    107.6554    137.9040   9.4600311292e+01   3.2475947483e+01    0.5819945    0.3923392 -44.82  0.002695013    1.494    0.331
        46 -10.6755    105.9289    130.7375   9.3487941067e+01   3.4496612646e+01    0.3958809    0.3328405 -67.55  0.001125042    1.190    0.160
        47 -11.6639     95.6064    137.0896   9.7657575437e+01   3.4772316882e+01    0.2906533    0.2667516 -52.65 0.0003979591    1.085    0.078
        48  -8.5206    101.5244    132.5531   9.5087390459e+01   3.4847669164e+01    0.1506151    0.1401821 -80.93 0.0001784421    1.061    0.057
        49 -10.4046    135.9155    128.6941   8.5132129581e+01   2.9117600285e+01    0.5552207    0.1757492 -47.83  0.001681786    3.116    0.679
        50 -10.5568    114.6950    128.8093   9.0682520688e+01   3.3325429718e+01    0.3349556    0.3048491 -17.66 0.0007230663    1.220    0.180
        51  -9.4116    161.1522    128.1662   7.8900891034e+01   2.3826362815e+01    0.2212708    0.1920477 -76.78  0.001083426    1.339    0.253
        52 -10.4303    102.3430    124.5649   9.3062928017e+01   3.6615313976e+01    0.2887072    0.2374007 -26.60 0.0004354889    1.389    0.280
        53 -10.2133    120.0119    123.2408   8.7927127885e+01   3.3594859753e+01    0.3757964    0.2339098 -25.11  0.001444991    2.346    0.574
        54  -9.2385     61.3074    220.1998   1.1734644219e+02   2.0971446791e+01    0.1438922   0.08067481  39.35 0.0003267485    1.712    0.416
        55  -9.4100    110.0031    118.1034   8.9383231660e+01   3.6731469356e+01    0.2228135    0.2143561 -70.57 0.0003085696    1.042    0.040
        56 -10.9541     54.9528    222.4785   1.1876754502e+02   2.1325643676e+01    0.1773981    0.1282274  59.72 0.0006809023    1.136    0.120
        57 -10.0246    231.2857    113.7085   6.1562236764e+01   1.1320181843e+01    0.2700119    0.2474849 -38.25 0.0007563896    1.056    0.053
        58 -10.2790    134.7049    112.7231   8.1374544163e+01   3.2950735523e+01    0.5449303    0.1346077 -43.29  0.001435965    4.002    0.750
        59  -9.1752    167.6393    112.6034   7.3430438540e+01   2.5623998182e+01    0.3189521    0.2269333 -75.47  0.001310133    2.061    0.515
        60 -11.6204    117.7130    109.8198   8.5124717239e+01   3.7137883077e+01    0.9580429    0.6066606  77.19  0.003375742    3.093    0.677
        61  -9.4781    205.6091    110.2905   6.5136209528e+01   1.7434375873e+01    0.2776787    0.2536822  -5.45 0.0006594523    1.144    0.126
        62 -10.8078     56.4766    218.1964   1.1810932168e+02   2.1989624024e+01     0.320793    0.1542013  74.90  0.001253845    2.445    0.591
        63  -9.8753     48.6001    217.8490   1.1960316921e+02   2.3032319004e+01    0.2092002    0.1331133  51.44 0.0006406616    1.350    0.259
        64  -8.7473    154.7900     82.3805   6.7837576074e+01   3.4629243542e+01    0.2170483    0.1432636  41.40 0.0004966913    1.602    0.376
        65  -8.5661    184.3616     77.3116   6.0273063965e+01   2.8361712122e+01    0.1583419    0.1187282  20.11   0.00070412    1.749    0.428
        66  -8.6008     68.4505     71.5333   8.9347006970e+01   5.4340112080e+01    0.1409115    0.1243468 -32.34 0.0001810613    1.009    0.009
        67 -11.2090     33.6212    207.2016   1.2166519277e+02   2.6948665819e+01    0.3006124    0.1435731  72.12 0.0009826949    2.085    0.520
        68 -10.2438     71.8886    245.1677   1.1750707300e+02   1.4863309917e+01    0.1984103    0.1474402 -71.93  0.001381746    1.483    0.326
        69 -10.1313     30.6912    210.6236   1.2248285086e+02   2.6559345428e+01    0.1962228    0.1050985  47.34 0.0003207836    1.643    0.392
        70  -8.7012    167.8867    230.8335   9.7512045635e+01   2.7468739740e+00    0.1548801    0.1421542  63.97 0.0007222929    1.299    0.230
        71  -9.6796     75.1211    249.8722   1.1731433896e+02   1.3605157275e+01    0.2586376   0.09790116 -57.90  0.001296139    3.092    0.677
        72  -9.7171    184.3491    212.8326   9.1414699617e+01   2.8968982030e+00    0.2287599    0.2057883  88.96  0.001407688    1.545    0.353
        73  -7.3218     44.5610    230.5630   1.2132977046e+02   2.1014126945e+01    0.1175269   0.08422076  68.59 0.0001807298    1.079    0.073
