#   1 NUMBER                 Running object number                                     
#   2 MAG_AUTO               Kron-like elliptical aperture magnitude                    [mag]
#   3 X_IMAGE                Object position along x                                    [pixel]
#   4 Y_IMAGE                Object position along y                                    [pixel]
#   5 X_WORLD                Barycenter position along world x axis                     [deg]
#   6 Y_WORLD                Barycenter position along world y axis                     [deg]
#   7 A_WORLD                Profile RMS along major axis (world units)                 [deg]
#   8 B_WORLD                Profile RMS along minor axis (world units)                 [deg]
#   9 THETA_WORLD            Position angle (CCW/world-x)                               [deg]
#  10 FWHM_WORLD             FWHM assuming a gaussian core                              [deg]
#  11 ELONGATION             A_IMAGE/B_IMAGE                                           
#  12 ELLIPTICITY            1 - B_IMAGE/A_IMAGE                                       
         1 -14.5344     53.3897     72.9244   1.0418777640e+02   5.5689363744e+01     2.843451     1.788732  65.82   0.01373054    2.365    0.577
         2 -13.5885     38.4013     90.2052   1.1293453427e+02   5.3432575197e+01     1.852622    0.9940366  88.97  0.008422144    2.564    0.610
         3 -14.8512    248.6850     60.2528   5.5703977783e+01   1.5141609344e+01      4.44975     1.446256 -21.35   0.01383077    4.085    0.755
         4 -13.7688    247.4852     18.8792   4.5458343189e+01   2.0357519258e+01     2.807568    0.6745587 -24.87  0.009095258    4.020    0.751
         5 -13.8929     38.8132     37.5755   9.9195363913e+01   6.4839250339e+01     1.325182     1.116381 -68.34  0.008605689    1.391    0.281
         6 -13.6898     71.7122     12.8239   7.4971234630e+01   6.4195946062e+01     1.028912    0.6582399 -44.60  0.005369403    1.837    0.456
         7 -12.2330     76.3411     33.3483   8.2630272213e+01   6.0216128554e+01    0.8732308    0.6463324  84.72  0.004180999    2.521    0.603
         8 -14.7274     60.6227     20.9484   8.3105765336e+01   6.4902745918e+01     1.360218    0.9318243 -37.61  0.006568134    1.367    0.269
         9 -12.3339     83.5882     26.5688   7.7226611505e+01   5.9969420772e+01    0.7032999    0.2877694 -39.35  0.002864188    2.381    0.580
        10 -13.0425    181.3741     10.2685   4.9799490292e+01   3.7951814433e+01    0.8215922    0.5564257 -37.30  0.004071879    1.481    0.325
        11 -12.2228     77.0010      2.8062   6.8086557122e+01   6.4418852129e+01    0.5227493    0.3062807  68.28  0.002428073    2.584    0.613
        12 -11.6766    162.8668     23.3204   5.6822192601e+01   4.1482331186e+01    0.3854845    0.2643273 -55.61  0.001792868    1.647    0.393
        13 -14.2965    235.4277    243.5311   9.5034423793e+01  -5.0160196087e+00     1.550562    0.9307976  15.92   0.01062968    1.525    0.344
        14 -12.9364     57.9242    172.1256   1.1892577916e+02   3.3127671656e+01     4.539256    0.5563221  41.73   0.01538072    4.764    0.790
        15 -14.2660    113.4741    151.8348   1.0370095346e+02   2.9035767434e+01     1.971598     1.793448  29.04   0.01004526    1.259    0.206
        16 -12.9367     21.1172    248.4389   1.3046387719e+02   2.3701220746e+01    0.4856025    0.2933323  46.13  0.003320547    1.416    0.294
        17  99.0000     30.2133    232.5326   1.2836383901e+02   2.5259822025e+01     1.202015    0.5710711  63.68   0.00823438    1.592    0.372
        18 -13.0970     90.2076    201.8657   1.1539284095e+02   2.3085371021e+01     1.753828    0.6846328  47.33  0.008679723    2.079    0.519
        19 -13.8921    104.5083    194.5984   1.1177052107e+02   2.2259459108e+01     1.976331     0.635099  50.26  0.008055278    2.896    0.655
        20 -12.4662     45.8271    230.2782   1.2567414385e+02   2.3910637177e+01    0.5057377    0.2554588  69.88  0.002610581    1.710    0.415
        21  99.0000     19.9898    211.6425   1.2907089422e+02   2.9834647139e+01     1.604528    0.2966744  51.62  0.007451716    3.382    0.704
        22 -13.1603     76.1539    223.2352   1.1995397023e+02   2.1347087975e+01     2.111781    0.9651195  32.59   0.01100886    2.667    0.625
        23  99.0000     38.7886    214.6187   1.2596180924e+02   2.7345830644e+01     2.611944    0.7575692  59.20   0.01207635    3.256    0.693
        24 -13.8273     82.9211    248.2235   1.2069252307e+02   1.6573353971e+01     1.465592    0.3728022  39.67  0.006740653    3.193    0.687
        25 -14.2004     82.6820    236.0812   1.1982857921e+02   1.8431459230e+01      2.85038    0.7052925  38.49   0.01206124    3.626    0.724
        26 -12.9241     47.6345    185.7807   1.2229029738e+02   3.1651819178e+01     1.553436    0.3289844  45.41  0.006509182    3.377    0.704
        27 -11.0873     52.7029    250.1481   1.2567074902e+02   2.0008324288e+01    0.3652772   0.09550729  45.72  0.001981597    2.438    0.590
        28 -10.8375     46.3207    249.6271   1.2664434583e+02   2.0818466244e+01    0.4181042   0.09976565  51.15  0.002188675    2.693    0.629
        29 -12.1890     19.6519    140.3176   1.2453295853e+02   4.3892485272e+01    0.9178113    0.3303305  46.76  0.004615833    2.554    0.608
        30  -9.8782     57.0794    157.4959   1.1755607608e+02   3.6265618731e+01    0.1784187     0.111277  41.47 0.0009772521    1.589    0.371
        31 -11.4864     66.6422    153.3373   1.1485252641e+02   3.5928763698e+01    0.5816223    0.3129155  67.66  0.002646594    2.122    0.529
        32 -11.3900     65.4645    147.4736   1.1437232409e+02   3.7346793943e+01    0.4521861    0.2621189  84.60   0.00226947    1.996    0.499
        33 -12.6117    133.6239    150.5902   9.8893959569e+01   2.5621786194e+01    0.7730674    0.5671986 -51.76  0.004133021    1.458    0.314
        34 -10.4161      4.5536    151.3751   1.2876374819e+02   4.2790015583e+01    0.3396656    0.2386731  46.19  0.002010197    1.458    0.314
        35 -11.3634     89.0437    147.1322   1.0867037731e+02   3.4047517143e+01     0.532927    0.3300456 -82.61  0.002638167    1.902    0.474
        36 -11.8277     74.7715    146.2014   1.1196036375e+02   3.6355918016e+01    0.5546448    0.4157306  59.95  0.002472822    1.248    0.198
        37 -12.0731     93.7710    136.2975   1.0571897655e+02   3.5639448083e+01    0.6471771    0.3865623 -51.69  0.002996834    1.723    0.420
        38 -11.2216     97.9081    129.6990   1.0347424302e+02   3.6397185864e+01    0.5118535    0.2745624  48.82  0.002341646    1.858    0.462
        39 -11.6957    101.4856    136.2145   1.0379316077e+02   3.4380445662e+01    0.4604292    0.3726175 -85.12  0.002595088    1.267    0.211
        40 -10.6898      4.1190    137.4431   1.2794457975e+02   4.5744819882e+01    0.4002921    0.1334943  52.50  0.001984125    2.798    0.643
        41 -13.3597    112.0664    132.2892   1.0043855475e+02   3.3369340670e+01    0.7724882    0.4876609  38.11  0.003731133    1.647    0.393
        42 -12.8405    109.0050    127.6786   1.0027676652e+02   3.4907914980e+01    0.5069532    0.4308779 -43.91  0.002841269    1.281    0.219
        43  99.0000      6.0617    242.0113   1.3250436564e+02   2.6158092141e+01    0.8564281    0.4179947 -78.30   0.00646812    2.024    0.506
        44 -14.3648    247.9971    208.4796   8.7680358200e+01  -3.4662483963e+00     3.221874    0.5718887 -29.06   0.01032517    7.071    0.859
        45 -12.8252     56.3543    121.9780   1.1303977276e+02   4.4174549071e+01     1.172921    0.6186441  58.83  0.004992728    2.177    0.541
        46 -12.2814     35.3488    113.5094   1.1755120685e+02   4.8407791191e+01     2.222916    0.9994005  57.79   0.01018764    2.707    0.631
        47 -13.6071     51.9480     89.9973   1.0859055101e+02   5.2012954125e+01     1.006144    0.7465174  66.35  0.005479812    1.543    0.352
        48 -12.1777     24.8435     82.9940   1.1604185582e+02   5.6295817679e+01    0.8433524    0.6563507 -80.03  0.005447336    1.144    0.126
        49 -14.0512     56.0029    107.9738   1.1081519625e+02   4.7411940341e+01     1.757978     1.146458  47.02  0.009008797    1.622    0.383
        50 -10.4258     37.0873    247.8960   1.2799761049e+02   2.2106088696e+01    0.1890863    0.1216595  41.38  0.001483668    1.546    0.353
        51 -11.7208     96.5704    113.7785   1.0060474291e+02   4.0131712962e+01    0.4029672    0.2971916   9.20  0.001932687    2.083    0.520
        52 -10.6584     11.8223    110.4864   1.2368699258e+02   5.1073392367e+01      0.33462    0.1739761  56.17  0.001896557    2.013    0.503
        53 -11.5585    114.9047    105.8095   9.3876602114e+01   3.8513418532e+01     0.346663    0.2090518 -54.15   0.00155058    1.685    0.407
        54 -10.0761      9.1888    223.3141   1.3137058295e+02   2.8878362049e+01    0.2352637   0.07999101  44.93  0.001423538    2.092    0.522
        55  99.0000     42.3716    199.1201   1.2431333815e+02   2.9727668938e+01     3.488054    0.7810435  53.38   0.01409746    3.892    0.743
        56 -13.7218    118.1937    121.4356   9.6653378929e+01   3.4541900636e+01    0.8781858    0.6249515  74.57  0.004169812    1.773    0.436
        57 -13.3329     70.2181     67.3526   9.6867328311e+01   5.4617446513e+01     1.373609    0.7827764 -70.85  0.005664788    2.711    0.631
        58 -13.1997     70.6635     47.3007   9.0118015562e+01   5.8636975774e+01    0.8636631    0.6925939  71.64  0.004746724    1.763    0.433
        59 -14.0519     61.0464     44.6591   9.2728019832e+01   6.0614076033e+01    0.9189231    0.6751708   9.44  0.004860247    1.641    0.391
        60 -10.2820      8.5097    214.2968   1.3113215335e+02   3.0471687466e+01    0.2086755   0.08741642  57.81 0.0009659064    1.714    0.417
        61  -9.5263      2.2851    213.3341   1.3212828534e+02   3.1201814201e+01   0.08323703   0.06711571 -73.41 0.0004399836    1.622    0.383
        62 -10.5293      2.3509    174.9618   1.3050823072e+02   3.8232334078e+01    0.2493449    0.1283149  71.28   0.00163525    1.532    0.347
        63 -12.2069     87.2335    169.1633   1.1222253981e+02   2.9736625467e+01     0.992952    0.5828652  68.99  0.005101505    1.903    0.475
        64 -13.8838    108.6694    176.5411   1.0858499486e+02   2.4950569490e+01     1.891312     1.003323  48.54  0.009613168    1.663    0.399
        65 -11.6496    100.0549     18.8773   6.8751935524e+01   5.7646016206e+01    0.3358878    0.2897872   3.41  0.001931894    1.107    0.097
        66 -12.4944     50.2369    139.4532   1.1704415462e+02   4.0989047651e+01    0.9294123     0.498008  75.43  0.004566035    2.187    0.543
        67 -12.5038    184.0081     38.0875   5.8254674152e+01   3.4020968719e+01    0.4936883    0.3479929 -64.96  0.002281417    1.650    0.394
        68 -13.5711     34.3843    140.7521   1.2105896578e+02   4.2419656075e+01     2.074835     1.404258  66.43   0.01314589    1.352    0.260
