#   1 NUMBER                 Running object number                                     
#   2 MAG_AUTO               Kron-like elliptical aperture magnitude                    [mag]
#   3 X_IMAGE                Object position along x                                    [pixel]
#   4 Y_IMAGE                Object position along y                                    [pixel]
#   5 X_WORLD                Barycenter position along world x axis                     [deg]
#   6 Y_WORLD                Barycenter position along world y axis                     [deg]
#   7 A_WORLD                Profile RMS along major axis (world units)                 [deg]
#   8 B_WORLD                Profile RMS along minor axis (world units)                 [deg]
#   9 THETA_WORLD            Position angle (CCW/world-x)                               [deg]
#  10 FWHM_WORLD             FWHM assuming a gaussian core                              [deg]
#  11 ELONGATION             A_IMAGE/B_IMAGE                                           
#  12 ELLIPTICITY            1 - B_IMAGE/A_IMAGE                                       
         1 -11.7009     85.4693     73.5661   1.0364370455e+02   5.1120072867e+01     1.355326     0.607717 -48.36  0.005579038    2.341    0.573
         2 -12.3156     60.6494     44.8092   1.0240417443e+02   5.9956459326e+01    0.9642075    0.4494927 -38.16  0.004742039    2.024    0.506
         3 -11.4338    120.1736     57.6601   8.8620961256e+01   4.7076916736e+01      1.87732     1.107792 -70.25  0.006297353    4.337    0.769
         4 -11.8896     26.5785     55.8488   1.1883775718e+02   6.2013969669e+01     1.252323    0.6953768   1.91  0.006845167    2.236    0.553
         5 -11.9387    105.5881     33.0437   8.4216530841e+01   5.3615429852e+01    0.9671357    0.5176261   8.10  0.003312495    3.642    0.725
         6 -11.4313    105.9594     20.1315   7.9602059130e+01   5.4995704403e+01    0.3926041    0.2433559 -25.06 0.0006414411    1.759    0.431
         7 -10.3946    139.7126     31.9022   7.6006175945e+01   4.6176548026e+01    0.3809237    0.2217734  17.61  0.001595953    2.821    0.646
         8 -11.7496     22.8121     11.2058   1.0424195406e+02   6.9299430082e+01    0.5311219    0.3038347  -4.58  0.002654835    1.723    0.420
         9 -11.9748     16.6108     13.9141   1.0819925550e+02   6.9556144513e+01    0.3832735    0.2269193 -13.02 0.0003671242    1.487    0.328
        10 -11.3778     12.8219      9.5543   1.0810123490e+02   7.0469802617e+01    0.3982224    0.2064642  21.70  0.002106398    1.875    0.467
        11 -11.5591    177.8933     22.4526   6.6878890987e+01   3.8076579426e+01    0.8636358    0.4646974 -11.31  0.003674932    3.176    0.685
        12 -10.4987    153.2202     25.6226   7.1606247226e+01   4.3692713078e+01     0.471706     0.307183   1.75  0.002291864    2.285    0.562
        13 -10.2736     60.5646     24.6067   9.4808699351e+01   6.2796982389e+01    0.4668347    0.2003689 -31.15  0.002317917    2.284    0.562
        14 -10.2773     86.7522      7.2097   7.9766499797e+01   6.0075964615e+01    0.5614817    0.2867272  51.47  0.003034734    1.708    0.415
        15 -11.4506     90.6338     19.9901   8.3545151340e+01   5.8096829698e+01    0.4867652    0.3885046  -6.21  0.002562383    1.261    0.207
        16 -11.5164     86.0816     14.0486   8.2570473948e+01   5.9572412770e+01    0.5490424    0.3398626  -1.61  0.002049798    1.831    0.454
        17  -9.9384     32.0254     12.0546   1.0061358921e+02   6.8178485070e+01    0.2254681    0.1832186  50.46  0.001386759    2.195    0.544
        18 -11.0165     46.9560     18.5997   9.7382263833e+01   6.5498558985e+01    0.3275551     0.281576   3.33  0.002421822    1.204    0.170
        19 -12.2327     49.3652     12.9704   9.4098575415e+01   6.5817594595e+01    0.5911694    0.2928008  43.28  0.003305438    2.115    0.527
        20 -11.1188     42.5432     14.1460   9.7223778532e+01   6.6620223600e+01     0.372373    0.1545011  33.89  0.001444439    2.267    0.559
        21 -10.3448     38.8442     21.1311   1.0162595441e+02   6.6227317180e+01    0.4553349    0.1385469 -36.31  0.002046373    3.047    0.672
        22 -11.7023     35.7800     18.6766   1.0186268661e+02   6.6913601148e+01    0.5569733    0.2210248 -27.53  0.002735056    2.542    0.607
        23 -12.1613     69.5232     17.8673   8.9074577265e+01   6.2144834605e+01    0.6460946    0.3657305  50.21    0.0035749    1.913    0.477
        24 -11.8826    244.7604     14.4434   5.7817796502e+01   2.3467936232e+01    0.3113416    0.2187384 -44.94  0.001262067    1.425    0.298
        25 -12.4095    245.3250      6.5166   5.6226700312e+01   2.4265530558e+01     1.010199     0.448339 -86.45  0.004847681    2.369    0.578
        26 -11.2580    240.0128      7.6979   5.6872936588e+01   2.5275901896e+01    0.2787154    0.1614025 -67.10 0.0008788762    1.523    0.343
        27 -12.6316    238.2315     15.1561   5.8512009599e+01   2.4802958192e+01    0.5190049    0.4555483  -2.38  0.002966766    1.795    0.443
        28 -11.4008    234.0262     16.3360   5.9124074411e+01   2.5592020618e+01    0.3018331    0.2495451  46.74  0.001249048    1.652    0.395
        29 -10.9061    165.4000     17.1960   6.7276506457e+01   4.1668316045e+01    0.3669375    0.2161936  43.74 0.0008799977    1.823    0.451
        30 -11.3721    133.6438     15.2961   7.2029357431e+01   4.9370414983e+01    0.8823567    0.2483333  58.84  0.003339577    2.804    0.643
        31 -11.1996    192.2288      7.9619   6.1453447778e+01   3.6173621548e+01    0.4215195    0.2963987   0.91  0.001807769    2.270    0.559
        32 -11.1081    125.7434     11.2728   7.2265554143e+01   5.1542404157e+01    0.5330073    0.3148154  79.16  0.002626971    2.110    0.526
        33 -12.1754    104.9545     13.0831   7.7353913708e+01   5.5896743970e+01    0.4230251    0.3455013  -6.86  0.002736669    1.314    0.239
        34 -12.6924     18.7641     23.0450   1.1091570798e+02   6.8092382431e+01    0.8479215    0.5742346  43.01  0.005373596    2.430    0.588
        35 -11.6254    211.5394      9.7850   5.9843827835e+01   3.1447935545e+01    0.4247679    0.3389095  14.02  0.001760056    1.988    0.497
        36  -9.8313      4.5158     10.6000   1.1250950304e+02   7.1011185909e+01    0.2890487    0.1256842 -25.47  0.001687885    2.074    0.518
        37 -10.7380     66.6624     10.2955   8.6929648404e+01   6.3410561802e+01    0.3693033    0.1718632  39.30   0.00197406    1.853    0.460
        38 -10.0913    168.9248     10.1249   6.4872004828e+01   4.1529491304e+01    0.2937092    0.1380771  53.41  0.001392077    1.919    0.479
        39  -9.2949    157.4100      9.6474   6.6376702261e+01   4.4326251703e+01    0.2397389   0.08212235 -42.69 0.0009477922    3.300    0.697
        40  -9.0940    150.9370      8.2103   6.6949421150e+01   4.5992399428e+01    0.1727314   0.09024135  67.14 0.0003145082    1.644    0.392
        41 -10.0854      1.2495      7.3393   1.1274342407e+02   7.1691451171e+01    0.1501723   0.06968355 -40.62 0.0001839237    1.822    0.451
        42 -10.4843    199.6449      6.0665   6.0209013461e+01   3.4614286674e+01    0.3008269    0.1686827  79.05 0.0009862765    1.552    0.356
        43 -10.7175     71.5913      3.2247   8.2479952711e+01   6.3211281705e+01    0.2924917      0.23226  -4.77  0.002055991    1.249    0.199
        44 -11.0043     77.3546      5.1369   8.1561832965e+01   6.2014316826e+01    0.4497124    0.2673892 -13.08  0.002592436    1.778    0.437
        45 -10.4482     62.9421      6.1364   8.6410549247e+01   6.4426247443e+01    0.2626425    0.1740998   8.62  0.000981822    1.418    0.295
        46 -10.6619     42.4576      3.5921   9.2623312622e+01   6.7774999764e+01    0.4699542    0.2312923   4.55  0.002343903    2.792    0.642
        47  -9.8548    163.0139      5.7576   6.4509032411e+01   4.3349725635e+01    0.2101059    0.1896114  13.61 0.0006853846    1.368    0.269
        48  -9.5267    174.9117      4.4879   6.2627801495e+01   4.0631420530e+01    0.1801464    0.1654006 -83.82 0.0009525115    1.138    0.121
        49 -10.8237    218.6109      3.3177   5.7779191210e+01   3.0511121682e+01    0.3114688    0.2388854  73.25 0.0008274105    1.226    0.184
        50 -11.6458    223.7075      1.8647   5.7033844933e+01   2.9512160318e+01    0.7160278     0.279482  89.50  0.002971151    2.980    0.664
        51 -10.1617    141.8753      3.5936   6.7027073022e+01   4.8512981252e+01    0.3038014    0.1927251  67.90  0.001708341    1.360    0.265
        52 -12.1752    133.9219      2.5896   6.8034647886e+01   5.0426065294e+01    0.3290673    0.2255193  57.69 0.0005056637    1.201    0.168
        53 -10.7693    113.6163      2.4415   7.1757664685e+01   5.4960071962e+01    0.4627493    0.2042123  65.03  0.001922204    2.163    0.538
        54 -11.1769    106.1611      2.2406   7.3251650019e+01   5.6567017213e+01     0.621303    0.2418199  65.03   0.00226031    2.701    0.630
        55  -9.1043     22.0000      3.9186   1.0135330344e+02   7.0254976438e+01    0.1666881   0.05088323 -34.69 0.0008087063    2.986    0.665
        56 -11.0374    205.2664      2.2636   5.8783172037e+01   3.3683723057e+01    0.3809603     0.188742  87.08 0.0009843787    1.946    0.486
        57 -11.0854      2.9678      1.8393   1.0948251771e+02   7.2273763906e+01    0.3460736    0.1487886  14.22  0.002058652    2.450    0.592
        58  -9.4737    193.9514      1.4335   5.9725290192e+01   3.6407397120e+01    0.1860111    0.1035715  74.55 0.0003825749    1.501    0.334
        59  -9.3384    162.7273      1.3174   6.3352620596e+01   4.3808224663e+01    0.1666705   0.09508027  63.84 0.0002323522    1.434    0.303
        60  -9.4186    123.0837      1.0000   6.9449913355e+01   5.2994339701e+01    0.3428004   0.06026091  63.48  0.001034018    4.778    0.791
        61 -10.6590     47.6461    134.3622   1.2970786551e+02   4.3023615845e+01    0.2926813    0.1951475 -60.29 0.0006602488    1.278    0.218
        62 -10.4475     14.3355    133.3149   1.3843633438e+02   4.6436491630e+01    0.2620308    0.1711276  78.88   0.00153293    1.661    0.398
        63 -10.5425     81.4863    135.2711   1.2058228067e+02   3.8248229560e+01    0.4999275    0.3414648  -2.86  0.002146315    2.525    0.604
        64 -10.5971     92.7927    129.4377   1.1621620330e+02   3.7797773316e+01    0.4074709    0.3108912 -65.53  0.001634619    1.310    0.236
        65 -10.8459     10.8238    127.2075   1.3854422150e+02   4.8096482182e+01    0.4511581    0.1443801 -54.66  0.001582982    2.411    0.585
        66 -10.1182     78.8245    128.3823   1.1988109810e+02   4.0301155456e+01    0.2854637    0.1833187 -51.25 0.0008769387    1.432    0.302
        67  -9.8753     82.7991    124.8098   1.1798338644e+02   4.0528766381e+01    0.3748487    0.2315979  -2.56  0.001350508    3.572    0.720
        68 -10.8441     18.3232    125.2861   1.3626401728e+02   4.7969952377e+01    0.3925506     0.143549 -59.44  0.001144932    2.039    0.509
        69  -9.9179     26.4079    139.8266   1.3619891603e+02   4.3908210103e+01    0.2262065    0.1635488 -48.92 0.0007875231    1.395    0.283
        70  -9.6779      2.0702    125.4028   1.4061083941e+02   4.9095546277e+01    0.2834752    0.1393689 -70.36  0.001574751    1.553    0.356
        71  -9.7120      4.5248    121.9985   1.3952683791e+02   4.9704839474e+01    0.2251278    0.1372238  51.98  0.001345096    1.985    0.496
        72 -11.0806     55.4445    123.0336   1.2543886579e+02   4.4781958679e+01    0.5561457    0.3429343  26.71  0.002108611    1.937    0.484
        73 -10.6791    239.4971    124.0222   8.2063746834e+01   7.5585746071e+00    0.2317831    0.1290132 -40.11  0.001045471    1.627    0.385
        74 -11.6476    104.9123    121.1356   1.1092973966e+02   3.7581825402e+01    0.5325128     0.492937 -66.34  0.002185071    1.065    0.061
        75 -10.4548     45.7383    120.5635   1.2776150207e+02   4.6487833890e+01     0.292266    0.2306425 -85.83  0.001219981    1.346    0.257
        76  -9.7537    221.4760    120.4976   8.4280274969e+01   1.2010172475e+01    0.1479441    0.1369358 -53.66 0.0001545093    1.009    0.009
        77  -9.0785     72.5011    119.9916   1.1987112380e+02   4.3217860347e+01    0.2028242     0.103734 -37.44 0.0005711798    2.368    0.578
        78 -10.6659     34.0250    119.1693   1.3088512729e+02   4.8013568266e+01    0.3051398    0.2566565  54.53  0.001949745    1.379    0.275
        79  -9.7895    149.1252    119.1844   9.8944664401e+01   2.8825009047e+01    0.3447413    0.1923992  27.93  0.001179664    2.831    0.647
        80 -10.0839    114.0184    115.9585   1.0714724816e+02   3.7016522870e+01    0.2239154    0.2186725 -45.99  0.000367604    1.021    0.021
        81 -10.6365     67.0522    112.0331   1.1969687743e+02   4.5829962976e+01    0.5001879    0.2858672 -63.44  0.002212341    1.799    0.444
        82  -9.4459     37.5002    115.4755   1.2920690586e+02   4.8527151608e+01    0.1308868    0.1086137 -56.79 0.0003566373    1.030    0.030
        83 -10.3269     35.3456     92.7822   1.2524332373e+02   5.3812680134e+01     1.579648    0.7949157 -68.21  0.007394243    2.240    0.554
        84 -11.5430     45.1960     85.6353   1.2029501329e+02   5.4334334893e+01    0.8431468    0.5873954  76.40  0.004037644    2.517    0.603
        85 -12.3205      9.6844     97.4690   1.3432457579e+02   5.4815452721e+01    0.8683759    0.7012806  68.79   0.00597424    1.535    0.348
        86 -12.1927      7.3527     88.7725   1.3349664659e+02   5.6827313341e+01    0.4946087    0.4090848 -51.20  0.001203114    1.076    0.071
        87 -11.2589     21.5124    114.2086   1.3364321867e+02   5.0246345292e+01     0.296094    0.2297386  -3.99 0.0009768961    1.652    0.395
        88 -11.4784     28.7150    113.0197   1.3134019595e+02   4.9911402405e+01     0.412917    0.2907498  22.59  0.002295564    1.736    0.424
        89 -12.6693     26.2678    107.0037   1.3097956506e+02   5.1482871156e+01     1.164048    0.5747989 -32.01  0.005445014    2.616    0.618
        90 -11.6802      2.3958    112.2315   1.3877917870e+02   5.2018012761e+01     0.372189    0.2579334 -87.00 0.0009029857    1.416    0.294
        91 -12.1500      4.0994    105.6964   1.3733651717e+02   5.3359791860e+01    0.6535116    0.3663847 -83.74  0.003643182    1.884    0.469
        92 -12.9592     19.5761     95.6647   1.3090623407e+02   5.4522887418e+01    0.5237944    0.3929321  20.51 0.0004981375    1.620    0.383
        93 -12.3377     18.5336     90.4257   1.3020642309e+02   5.5731303416e+01     0.611454    0.2726553 -45.70 0.0005588685    1.857    0.462
        94  -9.1090    126.6086    114.1813   1.0332626510e+02   3.4844074232e+01    0.2135216    0.1440902 -36.55 0.0005753465    1.575    0.365
        95  -9.6281     87.4929    114.1945   1.1417732991e+02   4.2236714499e+01    0.2987587    0.1828833  55.42  0.001309448    2.045    0.511
        96 -11.2147     79.2922    108.5978   1.1522753530e+02   4.4821208451e+01    0.6357039    0.4130822  50.23  0.002609549    1.795    0.443
        97 -10.4396    108.1726    112.5895   1.0789629171e+02   3.8908537117e+01    0.3614613     0.269361  73.43  0.001431188    1.773    0.436
        98 -10.7921    102.6461    109.4491   1.0863981516e+02   4.0650737792e+01    0.4756573    0.3292762  29.86  0.002227054    1.632    0.387
        99 -10.7210    170.3763    110.1836   9.1740527536e+01   2.5801121984e+01    0.4399123    0.4129211   7.34  0.001783408    1.199    0.166
       100 -10.1239    174.8476    107.9575   9.0203884314e+01   2.5193788707e+01    0.3785651    0.2292399 -29.34  0.001428303    1.999    0.500
       101 -10.0565     48.9301    112.3671   1.2520368676e+02   4.8027955050e+01    0.2610759    0.1739055 -54.91  0.001389842    1.280    0.219
       102  -9.6075    120.2241    109.0160   1.0366995699e+02   3.7304965254e+01    0.2092071    0.1236801 -45.96   0.00063814    1.657    0.397
       103 -12.6970     18.8381    106.2269   1.3307214391e+02   5.2250212277e+01      0.44996    0.2513508 -43.76 0.0004138228    1.650    0.394
       104 -10.3433    157.9165    105.7621   9.3380050052e+01   2.9634069723e+01    0.3174687    0.2552522 -20.22  0.001193582    1.479    0.324
       105  -9.5799    130.5113    107.4967   1.0055059204e+02   3.5464608354e+01    0.1528571     0.150544 -66.86 0.0003010704    1.007    0.007
       106 -11.1223     86.4238    105.1707   1.1224809296e+02   4.4447787197e+01    0.4978409    0.3564095  19.58  0.002048483    1.696    0.410
       107 -10.1387    143.4732    105.9998   9.6878594930e+01   3.2913118506e+01    0.3118921    0.2998934 -84.46  0.001135592    1.050    0.048
       108 -10.9317    146.3645     99.7564   9.4489157072e+01   3.3539224270e+01    0.5301543    0.4246881 -16.04  0.002514799    1.519    0.342
       109 -10.1930     48.0011    103.0639   1.2350145454e+02   5.0241187542e+01    0.2211554    0.1886216  -5.89 0.0003881277    1.332    0.249
       110 -10.1090     51.6279    100.1493   1.2170638597e+02   5.0474925148e+01    0.3752248    0.1421574 -45.93  0.001187956    2.356    0.576
       111  -9.5575     52.6654     95.6831   1.2032346670e+02   5.1334187073e+01    0.2305596    0.1409795 -43.39  0.001180954    1.460    0.315
       112 -10.8446     66.7006     99.4159   1.1680094000e+02   4.8713627979e+01    0.4725546    0.3543327  21.63  0.002588951    1.514    0.340
       113 -10.6944     68.6276     95.7166   1.1526015879e+02   4.9250714665e+01    0.3222451    0.2748101  17.56 0.0009102923    1.279    0.218
       114  -9.3359     96.0547    100.0167   1.0805313778e+02   4.3918806748e+01      0.21339    0.1690139  -5.64 0.0003717028    1.542    0.352
       115 -10.4624     57.6726     97.8239   1.1924663259e+02   5.0254467110e+01    0.2771279    0.2172146 -61.45 0.0007392308    1.261    0.207
       116  -9.5703    210.5033     98.0033   8.0861704214e+01   1.8679104751e+01    0.2342618    0.1405977 -41.30 0.0008367655    1.595    0.373
       117  -9.7875     77.9715     97.2194   1.1274324401e+02   4.7541972559e+01    0.1837291    0.1757893 -31.94 0.0003058508    1.048    0.046
       118 -11.0167     81.0901     92.7869   1.1059448618e+02   4.7999339039e+01    0.6536266     0.464184  47.35  0.002621665    1.595    0.373
       119 -11.0516     89.3774     90.1356   1.0732197877e+02   4.7178136748e+01    0.4141814    0.2920524 -39.00  0.001123286    1.357    0.263
       120 -10.0551     92.8848     85.7423   1.0500507543e+02   4.7460190821e+01    0.2595763    0.2175742  15.93 0.0009370341    1.269    0.212
       121 -11.4865     79.5072     82.7349   1.0826360709e+02   5.0323697011e+01    0.5384867    0.4946648 -76.35  0.002192297    1.316    0.240
       122 -11.9080     69.9660     79.9353   1.1052035876e+02   5.2344700623e+01     1.103286    0.6197776   9.43  0.004437022    3.091    0.676
       123 -10.6177    117.3769     92.9656   1.0004682473e+02   4.1278522756e+01    0.7179409    0.4201331  19.14  0.002551314    3.093    0.677
       124 -10.4802    126.3064     93.1531   9.7706799509e+01   3.9354497204e+01    0.5154487    0.3733726 -65.20  0.002252704    1.714    0.417
       125 -10.7709    122.4692     93.5155   9.8826444760e+01   4.0101595127e+01    0.2909537     0.266156 -33.37 0.0008736275    1.092    0.084
       126 -10.8358    102.5401     90.3511   1.0347873450e+02   4.4752516344e+01    0.5196598    0.4492031 -30.64  0.001854992    1.136    0.120
       127  -9.3486    160.5231     93.4994   8.9502565104e+01   3.1457953651e+01    0.1545768    0.1482527 -87.94 7.872217e-05    1.030    0.029
       128 -10.1925    152.8293     92.0754   9.0856218689e+01   3.3556563581e+01    0.3635794    0.3137318  22.54  0.001828907    1.323    0.244
       129  -8.7319    139.4633     92.4860   9.4164063197e+01   3.6571283405e+01    0.1505507    0.1494819  30.22 0.0001918591    1.019    0.019
       130  -9.9130    183.7969     86.8248   8.2902491182e+01   2.7088511753e+01     0.425386    0.1726505 -39.66  0.001522653    2.442    0.591
       131 -11.1546    113.3597     85.1201   9.8890535657e+01   4.3666772470e+01    0.6661668     0.310681 -39.34  0.001818114    2.171    0.539
       132 -10.3240    108.7053     80.9553   9.8962433898e+01   4.5410528247e+01    0.3485325    0.2686054 -19.74  0.001268852    1.436    0.303
       133  -9.6058    140.5324     96.3042   9.4963967299e+01   3.5568374040e+01    0.2606148    0.1881586  26.68 0.0009221079    1.697    0.411
       134  -9.2840    212.2432     87.5489   7.8044743662e+01   2.0151149438e+01    0.1959152    0.1361025  47.75 0.0007776623    1.584    0.369
       135 -11.2148    143.7395     83.3691   9.0542473796e+01   3.7337408546e+01    0.4365262    0.3530576  -1.24  0.002122138    1.556    0.357
       136 -10.5906    119.9843     85.3224   9.7138182197e+01   4.2251921698e+01    0.4696488    0.1275357  42.76  0.001356044    3.890    0.743
       137 -10.3978    165.5906     83.1558   8.5583024430e+01   3.2178274806e+01    0.3677436    0.2873647 -52.86  0.001510218    1.314    0.239
       138 -10.3426    127.4473     83.2901   9.4571043693e+01   4.1035134735e+01    0.3229799    0.1739641  36.80  0.001286058    2.090    0.521
       139 -11.1360     58.5020     78.1968   1.1382865516e+02   5.4275081056e+01    0.3372265    0.3288832 -20.75  0.001124695    1.171    0.146
       140 -10.0681     53.6338     80.7744   1.1618543630e+02   5.4366748446e+01    0.2770929    0.1897286 -46.15 0.0009578712    1.282    0.220
       141 -11.3552     52.9988     76.0479   1.1509272651e+02   5.5396396026e+01    0.5579854    0.3172827 -45.16  0.002907109    1.533    0.348
       142 -10.5445     13.8179     54.3930   1.2335869903e+02   6.3283865963e+01    0.4958298    0.2177555 -23.94  0.001986985    2.784    0.641
       143 -12.0618     13.9545     74.3727   1.2832180985e+02   5.9400277798e+01    0.4975314    0.3789551 -19.44  0.001719621    1.348    0.258
       144 -12.0419      2.0274     71.4622   1.3187135442e+02   6.0700856383e+01    0.7333596    0.1252796 -59.95  0.002806175    3.625    0.724
       145 -11.4210     13.9491     66.5571   1.2648134968e+02   6.0958648637e+01    0.3112894    0.2604039 -68.57 0.0008697829    1.374    0.272
       146 -11.6811      6.5005     62.5395   1.2825073041e+02   6.2211041778e+01    0.7014969    0.1520359 -50.76  0.003053083    2.787    0.641
       147 -11.4456     11.5838     62.3550   1.2631254019e+02   6.1932351131e+01    0.4311441    0.2277866  16.21  0.001743444    2.207    0.547
       148 -10.5102     94.1054     76.4253   1.0186408772e+02   4.9058617369e+01    0.4906324    0.3186302  32.68  0.001689066    1.613    0.380
       149 -10.6698    143.0702    249.3744   1.2521104682e+02   2.6567758417e+00    0.2911347    0.1423964  33.92  0.001343835    2.117    0.528
       150 -10.6647     71.5446     55.9823   1.0250440026e+02   5.6519359342e+01    0.6293945    0.4325921  14.71  0.003440205    1.584    0.369
       151 -11.9061     74.4923     49.4711   9.9288512490e+01   5.7107781377e+01    0.7612907    0.4456567  41.09  0.001275598    1.745    0.427
       152 -10.8187     72.3821     46.1855   9.8837494923e+01   5.7957885593e+01     0.260682    0.2005604 -38.27  0.001565708    1.376    0.273
       153 -12.0600     37.1815     85.8481   1.2303171526e+02   5.5117448045e+01     1.407332    0.3987736  23.68  0.005054977    4.675    0.786
       154  -9.9626    104.5113     75.9253   9.8640379415e+01   4.7187286959e+01    0.2958009    0.2084151 -30.04  0.001463811    1.464    0.317
       155  -9.2685    126.7746     76.5992   9.2766057628e+01   4.2424660290e+01    0.1981112    0.1402046  58.92 0.0003291038    1.528    0.346
       156 -11.7732    186.5082     70.5645   7.8151865785e+01   2.9250995334e+01    0.7313269    0.6411623 -29.06  0.003501198    1.279    0.218
       157 -11.3103     32.8750     71.9532   1.2101779046e+02   5.8373272409e+01    0.4860353    0.2537029  27.74  0.002622697    2.164    0.538
       158 -10.1981     38.4729     73.5048   1.1944689827e+02   5.7521334529e+01    0.2218239    0.1657473 -32.71 0.0007088566    1.167    0.143
       159 -11.2847     41.8004     70.5161   1.1744609978e+02   5.7765669361e+01    0.4003887     0.270834 -47.83  0.001588776    1.301    0.231
       160  -9.9327    161.6261     70.3803   8.2866110210e+01   3.5375207724e+01    0.3027768    0.2290145  70.93  0.001456667    1.382    0.276
       161 -11.6374    122.5689     68.4114   9.1369489308e+01   4.4790376051e+01    0.5705979    0.3584896  48.30  0.002200049    1.547    0.354
       162 -10.2487    172.1115     67.8689   8.0082638905e+01   3.3229796208e+01    0.3426424    0.2716212 -73.25  0.001699205    1.386    0.279
       163  -9.9068    208.1637     68.1935   7.3988685280e+01   2.4386736522e+01    0.3069927    0.1830262  50.43  0.001408911    1.797    0.444
       164 -11.3299    219.5923     66.2864   7.1856291885e+01   2.1992372524e+01    0.5872111    0.3098173  65.56   0.00248773    1.914    0.478
       165  -8.8267     69.7118     66.6992   1.0661050212e+02   5.4917754985e+01    0.1333885    0.0947725 -11.77 0.0002277712    1.560    0.359
       166 -10.2415     42.7136     94.9272   1.2334403612e+02   5.2611074565e+01    0.2864796    0.2494936 -39.76  0.001205428    1.058    0.055
       167  -9.5206     25.7331     65.0068   1.2174897037e+02   6.0365656808e+01    0.1700074    0.1204981 -43.65 0.0004152049    1.141    0.124
       168 -10.3592     20.9641     65.1109   1.2353667113e+02   6.0731149749e+01    0.1799049    0.1387304 -36.69 0.0008237427    1.039    0.038
       169 -10.0804    204.3036     63.8963   7.3524706639e+01   2.5998547248e+01    0.2463165    0.2092438  38.55 0.0002107973    1.428    0.300
       170 -10.4844     98.0373     62.8004   9.6398429794e+01   5.0770018429e+01    0.4063581    0.2679232  15.91  0.001798819    1.942    0.485
       171 -10.9937     92.0426     62.2906   9.8030796435e+01   5.1977136234e+01    0.3527429    0.2939973  24.88  0.001061055    1.166    0.142
       172 -10.8539     91.1814     58.0677   9.6903563033e+01   5.2841433062e+01    0.3766072    0.3054228  15.96   0.00117951    1.222    0.182
       173 -10.7830     87.6026     56.9443   9.7630956134e+01   5.3672890778e+01    0.4146545    0.2095524 -34.74  0.001275192    1.977    0.494
       174 -10.9419     58.2225     61.7044   1.0897168482e+02   5.7452864821e+01     0.434334     0.306184 -48.06  0.001683275    1.457    0.314
       175  -9.4515    176.2200    246.9723   1.1841491415e+02  -2.6011314830e+00     0.229902    0.1287041  65.29 0.0009013739    3.666    0.727
       176 -10.8674     60.5165     36.6754   9.9480209181e+01   6.1190696286e+01    0.3245246    0.1730543 -31.45  0.001072248    1.781    0.439
       177 -11.2425     56.3295     30.9764   9.8826845678e+01   6.2595123007e+01    0.3586331    0.2117091  35.25  0.001514968    1.658    0.397
       178 -12.0300     48.3146     30.2321   1.0153239899e+02   6.3800707264e+01    0.6562921    0.2745464  29.54  0.002732092    2.486    0.598
       179  -9.6008    167.4695     63.0483   7.9647515957e+01   3.5146778855e+01    0.2153203    0.1819258  64.45 -2.507432e-05    1.122    0.109
       180 -10.4291    159.3140     61.7641   8.0900404857e+01   3.7341157928e+01    0.4738555     0.246332  43.53  0.001941199    2.060    0.515
       181 -11.8184     78.6894     67.0978   1.0377967706e+02   5.3442887528e+01     1.157105     0.599609 -49.43  0.005241058    2.110    0.526
       182  -9.8990    199.1873    244.4081   1.1358633540e+02  -6.0535917768e+00    0.1859842    0.1052208  46.63  0.000955178    1.749    0.428
       183 -11.2209    113.0315     50.1655   8.8054620833e+01   4.9747660243e+01    0.8479409    0.4405519  26.42  0.003266498    2.911    0.657
       184 -12.9665    120.5663     39.3453   8.2590921221e+01   4.9618280597e+01    0.8024444     0.668065 -82.83  0.002433466    1.554    0.357
       185 -11.7204    127.2979    241.9881   1.2732670465e+02   6.6503734335e+00    0.4104991    0.2578025 -69.69  0.002187248    1.940    0.484
       186 -10.1098     52.0357     47.9140   1.0661983214e+02   6.0637252221e+01    0.2588603    0.1885323 -25.21  0.001146823    1.203    0.169
       187 -11.6278     33.5649     42.4879   1.1182103892e+02   6.3670427154e+01    0.5445403    0.4184197  22.59  0.002408846    1.418    0.295
       188 -11.0389     40.1866     56.0932   1.1374429357e+02   6.0639797487e+01    0.4032879    0.3328425  89.86  0.001420634    2.097    0.523
       189 -11.7427     46.0433     48.9865   1.0921853697e+02   6.1205430947e+01    0.4323646    0.3203723 -20.48  0.001258267    1.175    0.149
       190 -12.0361     41.7216     45.4323   1.0964612291e+02   6.2300775288e+01    0.2969773    0.2368581   5.41 0.0003093978    1.190    0.159
       191 -12.6154    117.2207     42.4448   8.4431507732e+01   4.9939243874e+01    0.8091424    0.5415522  74.74  0.003859118    2.102    0.524
       192  -9.2765    146.9604     60.5376   8.3145247373e+01   4.0506183390e+01    0.2249572    0.1369985  55.33  0.001002694    1.556    0.357
       193  -9.4057    228.2749     59.3157   6.9082390362e+01   2.1071429352e+01    0.1227846    0.1095746  21.29 0.0001982525    1.564    0.361
       194 -10.4074    136.7939     56.0291   8.4066690512e+01   4.3590878450e+01    0.6369113    0.4876803  22.82  0.003223602    1.515    0.340
       195 -10.0456    145.7027     52.0083   8.0877293126e+01   4.2098585593e+01    0.3100887    0.2616725 -26.90  0.001261843    1.291    0.225
       196 -11.1438    146.0344     46.2970   7.9095356917e+01   4.2831716452e+01    0.4950326    0.3182229 -25.20  0.002172117    1.790    0.441
       197 -11.1995    157.3489     55.4286   7.9480687581e+01   3.8793668003e+01    0.5352205    0.3680407 -46.73  0.001567835    1.545    0.353
       198  -9.9798    155.2216     49.9840   7.8328288142e+01   4.0107168657e+01    0.2805263    0.2119591  -7.98 0.0007393652    1.708    0.414
       199 -10.0196    113.4039     60.9791   9.1465365514e+01   4.7992015767e+01    0.3902066    0.2318975 -39.55  0.001662711    1.735    0.424
       200  -9.4062      1.8350     56.2030   1.2846740250e+02   6.3681125090e+01     0.154258   0.09607259 -35.55 0.0004426166    1.303    0.233
       201  -9.8583     67.1589     54.9122   1.0363369023e+02   5.7368791148e+01    0.1850435    0.1701668 -32.99 0.0006617275    1.230    0.187
       202 -10.3016    249.2841     53.0036   6.5235676314e+01   1.7360061844e+01    0.2777564    0.1865566 -80.02  0.001067782    1.467    0.318
       203 -10.4774    244.8840     51.1217   6.5318390779e+01   1.8585521405e+01    0.2116182    0.1770892 -70.10  0.001306463    1.020    0.019
       204 -10.9007    239.9912     50.5878   6.5747593408e+01   1.9736545623e+01    0.2922904    0.2546548 -69.03 0.0007942245    1.081    0.075
       205  -9.5315     54.8947     51.1758   1.0669425486e+02   5.9724006012e+01    0.1658024    0.1239156  -5.22 0.0004469814    1.296    0.228
       206  -9.5584    221.4058     48.8288   6.7562639287e+01   2.4214115186e+01    0.3006838    0.2121598  12.09 0.0009232715    2.811    0.644
       207 -10.7206    173.5516     48.2997   7.4471946431e+01   3.5865593650e+01    0.4651137    0.2624222  70.04  0.002020985    1.810    0.448
       208 -10.8615     26.0100     48.0076   1.1665385297e+02   6.3463237104e+01     0.229619    0.1569293 -17.18 0.0003206766    1.349    0.259
       209 -10.6128     21.0734     47.4310   1.1844093803e+02   6.3986676969e+01    0.3060921     0.218469 -37.90  0.001602124    1.131    0.116
       210  -9.6338      2.5928     48.7806   1.2625615102e+02   6.5013139994e+01    0.2252359     0.173673  16.20  0.001689857    1.555    0.357
       211 -10.0916      3.2701     44.8403   1.2489366318e+02   6.5682270878e+01    0.4352168    0.1954931 -18.80  0.002078804    2.611    0.617
       212 -10.5892    201.8989     46.7187   6.9648734989e+01   2.9150393457e+01    0.3696495    0.2778669 -43.73  0.002024683    1.353    0.261
       213  -9.9872     14.1525     46.1844   1.2084930109e+02   6.4739558555e+01    0.3162019    0.1177671 -34.27   0.00152836    2.500    0.600
       214  -9.9393     17.9604     42.1134   1.1802153189e+02   6.5154482093e+01    0.2737968    0.1455621  -5.84  0.001518177    2.260    0.558
       215 -10.0180     90.4816     48.0056   9.3703072603e+01   5.4549749999e+01    0.2216271    0.1829035  57.14 0.0005564682    1.461    0.316
       216  -8.8649    132.3209     45.3152   8.1764141213e+01   4.6174878085e+01    0.1450636    0.1017992  26.01  0.000228273    1.658    0.397
       217  -9.5253    139.3329     43.6849   7.9711767093e+01   4.4771082147e+01    0.3053602    0.1462658  51.32  0.001312441    1.875    0.467
       218 -10.3696    100.4253     43.1627   8.9125124962e+01   5.3337997303e+01    0.3098906     0.259421 -70.55   0.00117735    1.690    0.408
       219 -11.1534     93.8708     41.2884   9.0349771651e+01   5.4877314506e+01    0.4955536    0.2664976  42.20  0.001684595    1.734    0.423
       220  -9.2485    161.7374     43.4474   7.5213873959e+01   3.9431909757e+01    0.3726678     0.136905  66.11  0.001277721    3.036    0.671
       221 -11.2855    156.1699     41.7467   7.5755106424e+01   4.1012631683e+01    0.3294669    0.3154632  41.67  0.000822146    1.107    0.097
       222 -12.1445     49.2063     59.8844   1.1161376021e+02   5.8927583875e+01    0.7508056    0.5532225  68.63  0.002805479    2.666    0.625
       223  -9.3298    188.9788     41.9921   7.0331242274e+01   3.2948696915e+01    0.1619288    0.1475928 -75.24 0.0009580191    1.076    0.071
       224 -11.0050    231.5776     39.4453   6.4271310803e+01   2.3194546153e+01    0.3627512     0.228973 -64.41  0.001603671    1.497    0.332
       225 -11.0474     81.2572     39.4092   9.3511814498e+01   5.7454138575e+01    0.4809246    0.3111963  45.90  0.002157855    1.587    0.370
       226 -11.0073     77.6331     34.0991   9.2715862841e+01   5.8805204407e+01    0.3900446    0.2508093  29.34  0.001133094    1.472    0.321
       227 -11.1156     82.1626     31.3984   9.0287180488e+01   5.8356065729e+01    0.5164284     0.328285  50.99  0.002839549    1.701    0.412
       228 -10.7452    176.6129     37.0167   7.0920497928e+01   3.6636023169e+01     0.377948    0.2513276 -43.63  0.001905353    1.573    0.364
       229 -10.1700    172.5128     33.0467   7.0498326212e+01   3.8140018415e+01    0.2695142    0.1957862 -80.57 0.0009863655    1.501    0.334
       230 -10.9206     22.6250     36.6322   1.1425069192e+02   6.5669908449e+01    0.3602051     0.230211  40.17  0.001742551    2.245    0.555
       231 -11.3277      4.4519     35.9600   1.2174450349e+02   6.7145841205e+01    0.4295568    0.2095858 -28.47 0.0007539938    1.794    0.443
       232  -6.8371      5.7041     31.0433   1.1960119471e+02   6.7876187046e+01    0.3130713    0.1533249 -12.74  0.001787271    2.293    0.564
       233  -9.2824    218.4913     38.5196   6.5559966731e+01   2.6333516569e+01    0.1352426     0.114857 -82.00 0.0001495154    1.002    0.002
       234  -9.7998    133.3411     37.2241   7.8991575752e+01   4.7006846662e+01    0.3634118    0.2121637 -64.05  0.001488489    2.931    0.659
       235  -9.7681    206.9341     37.0037   6.6627133854e+01   2.9269196384e+01    0.2143197    0.1803484 -79.98  0.000844464    1.054    0.051
       236 -10.3606    153.1352     35.9746   7.4640866631e+01   4.2488531559e+01    0.2263412    0.1815089  62.53 0.0003176545    1.126    0.112
       237  -9.6848    131.1928    240.6170   1.2637496453e+02   6.2383697736e+00    0.2107159    0.1777174  24.90  0.001048639    1.394    0.283
       238 -11.4358    149.1517    237.6098   1.2237033603e+02   3.6678689913e+00    0.4832806    0.2502874  41.73  0.002337941    1.668    0.401
       239 -11.6320    115.5261     24.4982   7.8830088603e+01   5.2493171764e+01     0.465509    0.2263919  50.41  0.001309818    1.763    0.433
       240 -11.3020    110.2285     23.4070   7.9708554131e+01   5.3750272379e+01    0.3172863    0.2374011  40.53  0.001036266    1.173    0.148
       241 -11.2371     69.7814     32.6171   9.4737306180e+01   6.0316612644e+01    0.4413718    0.2665355  34.37 0.0008428092    1.550    0.355
       242 -11.1719    240.7411     31.8571   6.1706387732e+01   2.2165678232e+01    0.2880241     0.255184 -82.91  0.001507064    1.162    0.140
       243 -10.4534    159.8811     30.5429   7.1874851814e+01   4.1519915697e+01    0.5267604    0.2397137 -42.52  0.002285893    2.380    0.580
       244 -11.2263    164.4784     27.6370   7.0296257875e+01   4.0745434352e+01    0.3323045    0.2502537 -83.89 0.0006456646    1.424    0.298
       245  -9.2794     15.4085    233.7554   1.4742669096e+02   2.4188450716e+01    0.1500101   0.08316283 -70.92  0.000946154    1.683    0.406
       246 -10.8842    198.2618     28.9782   6.5800837437e+01   3.2375518878e+01    0.4239805    0.2744398  51.23  0.001571475    1.649    0.394
       247  -9.8483    199.6670     24.7080   6.4594969143e+01   3.2555606331e+01    0.2345433    0.1732597  57.56 0.0005262299    1.369    0.270
       248 -11.7039     26.4051     27.8105   1.0944203006e+02   6.6676108601e+01    0.4362335    0.3543795  19.91  0.002485229    1.409    0.290
       249  -9.9615    242.3230    231.6559   1.0338707323e+02  -1.1016107364e+01    0.1073989    0.1008197  84.81 0.0007050337    1.733    0.423
       250  -9.1615     23.3433    231.6965   1.4592567742e+02   2.3729875959e+01    0.1238429   0.06280097  67.95 0.0007040095    1.683    0.406
       251  -9.1408    190.0025    229.9776   1.1299843492e+02  -2.2180789328e+00    0.1603305    0.1411116  27.06 0.0005595982    1.006    0.006
       252  -9.3182    210.8375     29.8684   6.4474924852e+01   2.9263471258e+01    0.1846745    0.1352715 -73.37 0.0005113047    1.273    0.215
       253  -9.2687      9.0538    227.4618   1.4811230226e+02   2.6110219144e+01    0.1445868   0.09502058  48.74 0.0003455481    1.512    0.339
       254 -11.8349    182.4625     25.3675   6.6997003871e+01   3.6633377968e+01     0.461368    0.2487675  54.16 0.0007087549    1.753    0.430
       255 -11.5287    125.1679     26.9236   7.7467913042e+01   5.0093329614e+01     0.499622     0.346721  76.73  0.002427642    1.731    0.422
       256 -10.1773    121.9548     30.0000   7.9190717947e+01   5.0461251005e+01    0.3567685    0.1768159  57.77  0.001636383    1.876    0.467
       257  -9.7976    100.2693     30.0792   8.4584900552e+01   5.5060107575e+01    0.2507226    0.1578777  29.70  0.001315581    1.600    0.375
       258 -10.0590    230.4662     26.9995   6.1701989360e+01   2.5084343597e+01    0.1834965    0.1183831 -40.41  0.001025124    1.576    0.365
       259  -9.9692    234.5063    222.5148   1.0316561642e+02  -8.4967656648e+00    0.1282639    0.1076256   5.65 -5.362782e-05    1.019    0.019
       260  -9.5936    156.6607     25.2525   7.0911809046e+01   4.2907425329e+01    0.2246365     0.162862  67.15 0.0004919349    1.231    0.188
       261  -9.7572      9.7667    217.9471   1.4737714283e+02   2.7976752983e+01    0.1495308   0.07404231 -78.72 0.0006359877    1.632    0.387
       262  -9.1218     98.0364     26.5283   8.3916515258e+01   5.5922753455e+01    0.1897335    0.1157651  50.78   0.00100678    1.527    0.345
       263 -10.8335    250.2989     24.3147   5.9297512536e+01   2.1069506235e+01    0.3167558    0.1267919 -48.54 0.0009496817    2.127    0.530
       264 -11.5297    246.0825     20.7081   5.8947138755e+01   2.2423935168e+01    0.2734476    0.2032259 -86.11 0.0008717281    1.127    0.113
       265 -11.1017    214.9235     23.6309   6.2587948743e+01   2.9074466492e+01    0.3634232    0.3294469 -50.49   0.00115245    1.263    0.208
       266 -11.1207    139.8698     20.5472   7.2489219388e+01   4.7402206288e+01    0.6174195    0.1575375  49.44  0.002141525    3.321    0.699
       267 -10.5754    189.4652     28.9445   6.6947386314e+01   3.4506485826e+01    0.5291867      0.28554 -29.27  0.002521655    2.154    0.536
       268  -9.5020    152.5121    207.5396   1.1691912962e+02   8.7754720048e+00    0.1427235    0.1301699  52.38 0.0001081782    1.015    0.015
       269  -9.6696    238.5788    204.7111   9.9096200496e+01  -6.4100203979e+00     0.249746    0.1173527 -33.73  0.001140086    2.093    0.522
       270  -9.9776     81.5173     19.0000   8.5787239120e+01   5.9916807490e+01    0.3601364    0.1358094  48.94 0.0008842942    2.406    0.584
       271 -10.2496      4.3671    204.6576   1.4745275440e+02   3.1277172928e+01    0.2277232    0.1075997 -75.79  0.001319394    1.676    0.403
       272 -10.4340    245.4871    200.9825   9.7135360937e+01  -6.9435635204e+00     0.195985    0.1175292 -35.53 0.0005629934    1.578    0.366
       273 -10.3804    233.9251    197.1586   9.8485271480e+01  -4.4076422742e+00    0.2391822    0.1838553 -31.62 0.0008203934    1.247    0.198
       274 -10.2892     16.9524    192.4497   1.4410401218e+02   3.2717020650e+01     0.205813    0.1350949 -75.35   0.00130954    1.263    0.208
       275 -12.2557      5.0257    185.0766   1.4587840246e+02   3.5447356551e+01    0.6940876    0.3983616  81.30   0.00401318    1.495    0.331
       276  -9.5745    169.2070    191.6371   1.1041913786e+02   8.7606800562e+00     0.206656    0.1322316  34.00 0.0005399214    1.616    0.381
       277  -9.9987    249.6268    180.1953   9.2299969573e+01  -4.2561124081e+00    0.2003702    0.1126107 -28.62 0.0009598599    1.750    0.428
       278  -9.7674    223.4966     22.4542   6.1426637846e+01   2.7234180526e+01    0.2235138      0.16509 -89.64 0.0006624305    1.162    0.139
       279  -9.8562    221.1130     19.0769   6.0932113639e+01   2.8186006477e+01    0.1910201    0.1573287 -85.16  0.001221695    1.023    0.023
       280 -10.4165     66.1676     21.8714   9.1785068794e+01   6.2245270727e+01    0.2211746     0.162344  21.99 0.0003764277    1.183    0.155
       281  -9.4657     28.3269    176.3032   1.4017922537e+02   3.5213535844e+01    0.1184961   0.08588699 -49.02 0.0003429776    1.644    0.392
       282  -8.8802     57.3242    175.2668   1.3347407129e+02   3.2067096254e+01    0.1220095    0.1007326 -38.76 0.0003097971    1.567    0.362
       283  -9.7786    248.4273    173.3926   9.1124305076e+01  -2.9084212726e+00    0.2584609     0.111211  31.09 0.0009601861    3.349    0.701
       284 -10.0175     39.6104    173.2489   1.3730599132e+02   3.4701058824e+01    0.1856339   0.09885362 -61.74 0.0009488706    1.651    0.394
       285 -11.5577      9.4045    165.9627   1.4329017406e+02   3.9347644606e+01    0.5193757    0.3359262 -66.86  0.002765751    1.307    0.235
       286 -11.7358     13.0561    157.1832   1.4157946799e+02   4.1045360138e+01    0.4769852    0.3357285  75.92  0.001281455    1.355    0.262
       287  -9.3160      1.4138     20.7669   1.1794901665e+02   6.9762934475e+01    0.1437752   0.07142722 -36.67 0.0008582402    1.500    0.333
       288  -8.9789    158.4752     20.4621   6.9251013379e+01   4.2992885477e+01    0.1338426    0.1156457  65.29 0.0003513703    1.023    0.022
       289  -9.4167    198.2090    167.7907   9.9399139737e+01   7.6963800264e+00    0.2038605    0.1725377  -2.63 0.0006247198    1.327    0.246
       290  -9.5912    225.9617     17.4837   6.0113290449e+01   2.7267259864e+01     0.186479   0.08874809 -80.68 0.0008094287    2.496    0.599
       291  -9.6657    191.7442     16.5734   6.3589258838e+01   3.5384042796e+01    0.2156463     0.169585  -7.71  0.001257092    1.783    0.439
       292  -8.9117    170.7726     17.6009   6.6605169325e+01   4.0329456425e+01    0.1704748    0.1125543  79.67 0.0002796364    1.429    0.300
       293  -9.7626    145.5293     16.2489   7.0179974348e+01   4.6508844435e+01     0.210927    0.1782684 -88.95            0    1.246    0.198
       294 -10.2305     18.9319    165.2526   1.4109824534e+02   3.8674807719e+01    0.2379341     0.216745 -47.85  0.001250408    1.398    0.285
       295  -9.5363    115.5020     17.0907   7.6326628821e+01   5.3263824754e+01    0.1803437    0.1265445 -20.01  0.001034087    1.594    0.372
       296 -10.2659    186.4829     15.0072   6.3847467094e+01   3.6815442530e+01    0.2563914    0.1656661  66.29 0.0006383272    1.339    0.253
       297  -9.9956    205.1383    163.2612   9.7019570914e+01   7.1684351170e+00    0.2476432    0.2319503  -5.92 0.0006205323    1.072    0.067
       298  -9.5047    188.6000    164.2125   1.0062377489e+02   1.0417419049e+01    0.2130245    0.1417131 -32.74 0.0006039297    1.629    0.386
       299  -9.8699     27.9891    163.2963   1.3880525306e+02   3.8262549896e+01    0.1762753    0.1478797 -87.46 0.0009585738    1.063    0.059
       300 -10.0115     80.4308    160.4064   1.2558676020e+02   3.2345645866e+01    0.3259359    0.2564152  48.75  0.001767134    1.311    0.237
       301  -9.9927    218.5930     12.7318   5.9800596707e+01   2.9496025618e+01    0.3244393    0.1387007  61.39  0.001541145    2.147    0.534
       302  -9.7643    223.9909    156.9820   9.2024284305e+01   4.5657821799e+00     0.177781    0.1650237 -27.99  0.000624862    1.009    0.009
       303 -10.6700    104.5351    153.9912   1.1826700405e+02   2.9874908060e+01    0.4269484    0.2710466 -65.22  0.001911469    1.631    0.387
       304 -10.4225     31.1425    154.0683   1.3692012451e+02   4.0110453142e+01    0.3615117    0.2332544  64.44  0.002030084    1.670    0.401
       305 -10.7203     30.5063    149.0244   1.3641434486e+02   4.1360583215e+01    0.2982646    0.2045334  72.44 0.0005357851    1.547    0.353
       306 -10.3323     71.3778    151.7308   1.2639863088e+02   3.5788814060e+01    0.3741734    0.2168855  47.83  0.001765423    1.830    0.454
       307 -12.1457     22.9364    149.3094   1.3832088785e+02   4.2007475041e+01    0.5532041    0.3126728 -32.22  0.002717711    2.764    0.638
       308 -10.9273     15.8622    148.0652   1.3989245846e+02   4.2911359794e+01    0.3331963    0.1877669  37.99  0.001300398    2.021    0.505
       309 -12.1759      5.2173    147.3360   1.4235750901e+02   4.3912504896e+01    0.6236647     0.323285 -58.06   0.00315716    1.647    0.393
       310 -11.3209      2.9323    141.7607   1.4230118821e+02   4.5342039067e+01    0.3367898    0.3088853 -61.65  0.001971092    1.271    0.213
       311 -11.3949      3.9408    136.4700   1.4146100457e+02   4.6472386549e+01    0.2367926     0.186786 -64.94 0.0004792619    1.132    0.117
       312 -11.3567     62.3479    149.8309   1.2841527119e+02   3.7497007102e+01    0.4844975    0.4094705  61.78  0.002113036    1.230    0.187
       313 -11.2449     46.8393    146.2438   1.3185954562e+02   4.0282641316e+01    0.5598502    0.4265022 -58.98  0.002564091    1.189    0.159
       314  -9.7824     85.3990    150.1908   1.2247242136e+02   3.4036948760e+01    0.2102682    0.1311839 -70.67 0.0009476925    1.679    0.404
       315 -11.0029     47.2756    151.4914   1.3254669255e+02   3.8977729664e+01    0.5915335    0.2005565  42.88  0.002361787    3.095    0.677
       316 -11.2426    249.7611    143.2703   8.4594539249e+01   2.0956153512e+00    0.7207985    0.1911697 -39.43  0.002358758    3.365    0.703
       317  -9.8295    239.8215    146.6223   8.6962498446e+01   3.3808077298e+00    0.1835846    0.1357128  61.79 0.0009391776    1.652    0.395
       318  -9.2081    108.6288    146.1899   1.1561222183e+02   3.0995207744e+01    0.2025453     0.135178 -45.03  0.000909873    1.537    0.349
       319  -9.3405     74.2192    145.5915   1.2455420514e+02   3.6860854355e+01    0.1797226    0.1409628  20.07   0.00094117    1.608    0.378
       320 -10.7427     33.1809    144.3601   1.3509698773e+02   4.2195634294e+01    0.2651551    0.2196356 -86.08 0.0007871777    1.098    0.089
       321  -9.6659    133.3997    140.8470   1.0809717966e+02   2.7372339537e+01    0.2840964    0.1944251 -42.25  0.001084694    1.508    0.337
       322 -10.9830     14.4962    140.3250   1.3929155108e+02   4.4809726505e+01    0.2307719    0.2063454 -25.07  0.001635392    1.442    0.307
       323 -11.0929     11.0018    138.0034   1.3988117378e+02   4.5614515234e+01    0.2383782    0.1751748 -85.93  0.001342783    1.193    0.162
       324 -11.8917     29.8504    132.8887   1.3428653838e+02   4.5214135234e+01    0.6443908    0.3566787 -80.71 0.0005108025    1.856    0.461
       325 -11.8339     22.7762    135.5940   1.3655114548e+02   4.5218687816e+01    0.5250826    0.4019136  59.31  0.001967236    1.454    0.312
       326 -10.9216     71.0474    134.6355   1.2332649850e+02   3.9957317384e+01     0.534057    0.4597027  -4.97  0.003010486    1.460    0.315
