#   1 NUMBER                 Running object number                                     
#   2 MAG_AUTO               Kron-like elliptical aperture magnitude                    [mag]
#   3 X_IMAGE                Object position along x                                    [pixel]
#   4 Y_IMAGE                Object position along y                                    [pixel]
#   5 X_WORLD                Barycenter position along world x axis                     [deg]
#   6 Y_WORLD                Barycenter position along world y axis                     [deg]
#   7 A_WORLD                Profile RMS along major axis (world units)                 [deg]
#   8 B_WORLD                Profile RMS along minor axis (world units)                 [deg]
#   9 THETA_WORLD            Position angle (CCW/world-x)                               [deg]
#  10 FWHM_WORLD             FWHM assuming a gaussian core                              [deg]
#  11 ELONGATION             A_IMAGE/B_IMAGE                                           
#  12 ELLIPTICITY            1 - B_IMAGE/A_IMAGE                                       
         1 -13.4130    221.8472      6.8844   3.5796848891e+01   2.8727749161e+01     1.352058    0.9630257  54.09  0.006219125    1.596    0.373
         2 -14.3065    195.4322     37.3798   4.6338882353e+01   3.1547706853e+01     2.487263     1.617331  23.20   0.01113096    2.383    0.580
         3 -10.6519     77.3579     14.3277   6.3264161308e+01   6.2360016735e+01    0.6452347    0.2727779  62.36  0.002201268    4.615    0.783
         4  -9.7299     48.3271     15.3399   7.4807797339e+01   6.7244321457e+01    0.1327675   0.08135732   3.05 0.0007051539    1.733    0.423
         5  -9.0664     44.5544    230.4616   1.2114269272e+02   2.1225245623e+01    0.1185505   0.08579005  67.47 0.0008057423    1.076    0.071
         6 -19.4719     12.4162    145.0577   1.2095238626e+02   4.3108664564e+01     19.02162     4.373692 -76.54   0.06418104    4.094    0.756
         7  -9.1883     50.4639    224.5800   1.1958142250e+02   2.1661531360e+01    0.1755465   0.09351309  86.02 0.0005839518    1.939    0.484
         8 -10.5098     40.2763    224.0947   1.2148846317e+02   2.2966475868e+01    0.2166251    0.1264787  74.92 0.0007158552    1.528    0.345
         9  -8.4882     76.5123    224.2224   1.1442422987e+02   1.8335341720e+01    0.1356824    0.1125929 -63.92 0.0002933251    1.402    0.287
        10 -10.6257     54.6616    222.1144   1.1856651150e+02   2.1632116449e+01    0.2550008    0.1300486  51.11  0.000538333    1.642    0.391
        11  99.0000     56.8170    218.7238   1.1785206644e+02   2.2041152711e+01    0.4654348    0.2024817  61.00  0.002203004    2.373    0.579
        12  -9.1697     81.1647    220.2836   1.1308175839e+02   1.8459343223e+01    0.2149694    0.1361111  38.92  0.001219152    1.488    0.328
        13 -10.3865     72.1483    250.2858   1.1757561442e+02   1.4095293456e+01    0.1831818    0.1191268  52.62 0.0003451109    1.193    0.162
        14  -9.3430     48.6101    217.5045   1.1937495804e+02   2.3301165023e+01    0.1997281    0.1148487  27.33  0.001003202    2.234    0.552
        15  -9.7868     27.5690    214.8491   1.2326027873e+02   2.6224147653e+01    0.1934402    0.1513836  61.86  0.001392301    1.139    0.122
        16  -8.1021     56.7961    209.3703   1.1701464514e+02   2.3964800555e+01    0.3025337    0.1710717 -70.54   0.00168914    1.718    0.418
        17  -8.5893     58.7745    206.2691   1.1630901453e+02   2.4365150034e+01    0.1436237    0.1252725  82.67            0    1.114    0.102
        18 -10.2230     28.8419    209.6775   1.2265994510e+02   2.7147875027e+01    0.1545384    0.1139558  63.39 0.0004079435    1.123    0.110
        19  -9.1711     42.6133    208.9548   1.1987228771e+02   2.5769672618e+01    0.1916509    0.1209258  74.88 0.0001129098    1.410    0.291
        20 -10.9019     65.4299    205.0474   1.1478164031e+02   2.3756838914e+01    0.3677814       0.1918 -78.30 0.0008121245    2.014    0.504
        21  -8.3178    224.2646    206.6821   8.1600131355e+01  -2.7626125216e+00     0.108229    0.1051411 -59.15 0.0002515972    1.550    0.355
        22 -11.0531    195.2247    205.8241   8.7053704042e+01   2.2074888436e+00      0.47351    0.1849002  34.38  0.001891267    2.484    0.597
        23  -9.6351     29.2171    204.8369   1.2223849761e+02   2.8116390549e+01    0.3132964   0.08893561  47.02  0.001395344    2.844    0.648
        24  -9.3065     96.5182    201.4087   1.0758454314e+02   2.0044899758e+01    0.2538634    0.1290217 -62.11  0.001185612    2.080    0.519
        25 -10.9230    193.7302    195.7323   8.5488248720e+01   4.1470772631e+00    0.9912938     0.650506 -72.85  0.003788408    3.996    0.750
        26 -12.7148     53.7923    198.5267   1.1661167149e+02   2.6650163583e+01    0.5026658    0.2942964 -50.92   0.00267793    2.099    0.524
        27 -11.4789    133.7990    196.3698   9.8495438978e+01   1.4871393494e+01    0.4047336    0.2669401 -58.17  0.001256953    1.704    0.413
        28  -8.6705     69.4541    199.4325   1.1331346138e+02   2.4418383389e+01    0.1295819    0.1078154  70.87 -1.10319e-05    1.027    0.027
        29  -9.2484     38.4985    199.1639   1.1990220743e+02   2.8313798341e+01    0.1527346    0.1017221 -86.14 0.0002760002    1.315    0.239
        30  -9.0209     82.0392    194.7842   1.0996993035e+02   2.3652823728e+01    0.2500142    0.1883283  62.08  0.001286057    1.223    0.183
        31 -10.8774    127.0289    192.5222   9.9397416678e+01   1.6850947123e+01    0.2588469    0.2009136 -84.98  0.001164264    1.562    0.360
        32 -12.0873     61.8689    186.1983   1.1351251583e+02   2.8353934186e+01    0.8523051    0.6528927 -50.64  0.002823004    1.531    0.347
        33 -11.1939     67.2076    182.5710   1.1184791346e+02   2.8469344153e+01    0.4298399    0.3089022  19.53  0.001421894    1.867    0.464
        34  -8.4704     96.7397    190.6009   1.0605726603e+02   2.2332071800e+01    0.1887232    0.1150144  49.30 0.0007673878    1.535    0.349
        35 -10.8166    149.0133    188.0950   9.3657376760e+01   1.3782000494e+01    0.3816079    0.2968657  55.53  0.002003838    1.351    0.260
        36 -10.1735    120.2485    187.0027   1.0005594528e+02   1.9200791366e+01    0.2835643    0.1085469 -51.60  0.001066651    2.734    0.634
        37 -10.6407     74.5822    189.2359   1.1096987582e+02   2.5948812345e+01    0.9918497    0.3570959  57.53   0.00321008    4.307    0.768
        38  -8.8922     42.3079    188.4419   1.1812897901e+02   3.0232463078e+01      0.16044   0.09956414  52.81 0.0005803455    1.479    0.324
        39  -9.1544     93.9675    186.6425   1.0613553999e+02   2.3641163889e+01    0.2418493    0.1893352 -83.57  0.000487046    1.308    0.235
        40  -9.1320    168.2047    233.4713   9.7025425198e+01   2.3330922728e+00    0.2413305    0.1473448  56.51  0.001214154    2.126    0.530
        41 -11.4152    114.9956    183.6147   1.0073015846e+02   2.0844013613e+01    0.4691344     0.267795 -35.97   0.00197049    2.478    0.596
        42 -10.3908     53.3076    230.5657   1.1950799746e+02   2.0145575426e+01    0.3033932    0.1608901 -88.88  0.001702087    1.959    0.489
        43 -10.7801     98.7147    181.3600   1.0423151482e+02   2.4065963992e+01     0.411008    0.3268146 -13.88  0.001683983    1.821    0.451
        44 -10.2318    189.3330    177.5204   8.2818398665e+01   8.1773703518e+00    0.4825508     0.337245 -52.12  0.002363136    1.721    0.419
        45  -9.3073    127.5054    180.5104   9.7256575419e+01   1.9307272245e+01     0.144158    0.1346538  55.33 -1.02782e-05    1.017    0.017
        46  -9.7166     55.6657    174.3345   1.1356500201e+02   3.1861801467e+01    0.2983929    0.1889413  63.40  0.001581307    1.585    0.369
        47 -10.1173     45.8088    173.1014   1.1575837290e+02   3.3324394327e+01    0.3192002    0.2507996  54.10  0.001249146    1.244    0.196
        48  -9.8598    150.0672    177.9087   9.1527306961e+01   1.5653493706e+01    0.3926359    0.2355853 -66.93  0.001353935    2.519    0.603
        49 -10.4582    138.9282    170.9875   9.2795783036e+01   1.9239105561e+01    0.3483097    0.2120983  32.83 0.0009548612    1.714    0.417
        50 -10.3796    240.1180    169.1722   7.1297592552e+01   3.4424501800e-01     0.211624    0.1629532  -2.99 0.0005076568    1.224    0.183
        51 -10.2509    249.4936    231.0008   8.1427859363e+01  -9.7157479331e+00    0.2174312     0.127203  13.50  0.001278677    1.573    0.364
        52 -10.0318     58.4726    165.5869   1.1178415430e+02   3.3565652855e+01    0.3013383    0.1917361 -52.13  0.001082182    1.649    0.394
        53 -10.9848    143.9258    178.2021   9.2998744671e+01   1.6758586394e+01     0.441708    0.2942465 -49.10  0.001235003    1.588    0.370
        54 -11.6417     93.8914    151.8923   1.0048383623e+02   3.1720428127e+01    0.7114269    0.5250816 -31.98  0.003467585    1.688    0.408
        55 -10.7397    133.9189    145.6987   8.8783950887e+01   2.5828808617e+01     1.276383    0.3376069 -54.62  0.002989407    5.761    0.826
        56  -9.5804    187.0570    151.9246   7.7791472847e+01   1.3482513505e+01    0.2398638    0.2200373  -0.38  0.001293677    1.053    0.050
        57  -8.7831    112.6034    150.7630   9.5344390924e+01   2.8746026626e+01    0.2085331    0.1424507 -65.69 0.0005950295    1.597    0.374
        58  -9.4626    174.8150    149.1081   7.9814708116e+01   1.6598729787e+01    0.3111278    0.2108412 -53.68 0.0008500401    1.680    0.405
        59  -8.2061    109.3129    147.7112   9.5588369566e+01   3.0061178180e+01    0.1515305    0.1154147  75.41 0.0006998119    1.585    0.369
        60  -9.6507    143.4856    145.4847   8.6345145794e+01   2.3932101603e+01    0.2947728    0.1478913 -58.15  0.001039593    2.555    0.609
        61 -10.6584    106.0763    137.8126   9.4382261670e+01   3.2996785282e+01    0.5378917    0.3338877 -36.07  0.002281261    1.909    0.476
        62 -11.6528     93.9088    137.8325   9.7739268163e+01   3.5107479454e+01    0.2893615    0.2609502 -42.50 0.0003800276    1.146    0.128
        63 -10.4466    105.8748    130.6572   9.2855588748e+01   3.4739131840e+01    0.3926221    0.3240787 -64.32  0.001187648    1.229    0.186
        64 -10.2387    135.9235    128.7723   8.4318005297e+01   2.9247059803e+01    0.6515253    0.1887752 -53.37  0.001587153    5.011    0.800
        65  -8.4929     99.0061    130.4905   9.4744910935e+01   3.6006785596e+01    0.2069623    0.1489823  40.25 0.0003790323    1.437    0.304
        66  -9.0833    160.4708    127.0156   7.7807867672e+01   2.4302950742e+01    0.2506576    0.1541826 -42.05  0.000614399    1.613    0.380
        67 -10.3874    101.3643    124.9572   9.2819774308e+01   3.6914161992e+01    0.3208434    0.2397958 -33.97 0.0008829706    1.466    0.318
        68 -10.9048    120.6654    122.7952   8.6897545673e+01   3.3749041515e+01    0.5275326    0.3696193 -23.56  0.002264257    1.827    0.453
        69 -10.2960    113.9737    129.1124   9.0257413780e+01   3.3589636120e+01    0.3781095    0.3090158  -4.71 0.0009987011    1.531    0.347
        70  -9.4278    109.4485    118.4420   8.8944565083e+01   3.6957152111e+01    0.2590169    0.2410873 -54.67 0.0001634922    1.052    0.050
        71 -10.0618    231.2750    113.7426   6.0415900081e+01   1.1247953766e+01    0.2918413    0.2653948 -16.46 0.0007731778    1.078    0.072
        72  -9.1029    167.6670    112.6323   7.2424918147e+01   2.5655320444e+01    0.3249751    0.2332828 -78.25  0.001323523    2.114    0.527
        73  -9.9305    134.5429    104.7845   7.8403704861e+01   3.4848783327e+01    0.5794138    0.1531359 -44.33  0.001582566    3.740    0.733
        74 -11.4498    117.8577    109.5994   8.4276478036e+01   3.7332444028e+01    0.8009551    0.5546181  73.22  0.003268341    2.190    0.543
        75  -9.4919    205.3750    110.1996   6.4042793871e+01   1.7459473362e+01    0.3100933    0.2503594  44.80 0.0009858877    1.302    0.232
        76  -9.2482     64.0380     99.6482   9.8282936404e+01   4.8860095569e+01    0.1914704    0.1842792   8.74 0.0006016367    1.139    0.122
        77 -10.2087     58.9151    229.7632   1.1837643536e+02   1.9596334705e+01     0.172077    0.1365648  82.05 0.0004109286    1.137    0.121
        78 -11.4387     51.4423     89.8763   1.0018475338e+02   5.2730795964e+01    0.3703496    0.3207687 -48.44  0.001068268    1.017    0.016
        79  -9.0533    184.2277     77.3366   5.9266428622e+01   2.8321477668e+01     0.239192    0.1867998  40.20  0.000780891    1.375    0.273
        80  -9.2722     65.5418     70.3728   8.9627244774e+01   5.5215703282e+01    0.2329912    0.2090081  29.50 0.0009924948    1.237    0.191
        81 -11.5147    249.3278    247.0399   8.4137847729e+01  -1.1545332302e+01    0.4411471    0.3076304 -47.07  0.002708695    2.690    0.628
        82 -13.0473    179.8310     51.7310   5.2748791616e+01   3.3490390018e+01    0.8626044    0.7666206  -1.05 0.0008662961    1.295    0.228
        83  -9.4885     72.4329    245.4896   1.1713223572e+02   1.4905934950e+01    0.2759578    0.1234268  60.66 8.909483e-05    2.247    0.555
        84 -10.0028    189.6273     14.9220   4.0979892381e+01   3.5625164297e+01    0.2555765    0.1846762  85.19 0.0005662172    1.297    0.229
        85  -9.8264    145.6112    244.2203   1.0296521510e+02   4.2746081741e+00    0.1536741    0.1164119 -34.19 0.0009560463    1.669    0.401
        86  -9.9751    158.1835    235.3932   9.9292867546e+01   3.6614127737e+00    0.2499552    0.2003667  32.20 0.0008798417    1.055    0.052
