#   1 NUMBER                 Running object number                                     
#   2 MAG_AUTO               Kron-like elliptical aperture magnitude                    [mag]
#   3 X_IMAGE                Object position along x                                    [pixel]
#   4 Y_IMAGE                Object position along y                                    [pixel]
#   5 X_WORLD                Barycenter position along world x axis                     [deg]
#   6 Y_WORLD                Barycenter position along world y axis                     [deg]
#   7 A_WORLD                Profile RMS along major axis (world units)                 [deg]
#   8 B_WORLD                Profile RMS along minor axis (world units)                 [deg]
#   9 THETA_WORLD            Position angle (CCW/world-x)                               [deg]
#  10 FWHM_WORLD             FWHM assuming a gaussian core                              [deg]
#  11 ELONGATION             A_IMAGE/B_IMAGE                                           
#  12 ELLIPTICITY            1 - B_IMAGE/A_IMAGE                                       
         1 -14.7366     68.5226    144.4241   1.0182318978e+02   3.7117427129e+01     4.891513     2.644287  71.30  0.005347078    3.454    0.710
         2 -14.2766    218.4006     25.6143   3.7403705005e+01   2.7978750046e+01     1.336986    0.9512272  38.51  0.007572918    1.934    0.483
         3 -14.4311    204.8650     38.5985   4.1980783971e+01   2.9435645253e+01     2.115808     1.412796  35.82   0.00855038    2.059    0.514
         4 -12.7678    243.7271      3.2103   3.0574352403e+01   2.5092854198e+01    0.7292925     0.326165  76.80  0.003957184    2.112    0.527
         5 -10.5906     52.6966      4.4329   6.3029708269e+01   6.7173749585e+01    0.2248178    0.1649298  58.68  0.001352939    1.961    0.490
         6 -10.7962     47.5240      2.2441   6.3979637792e+01   6.8248418325e+01    0.2448426     0.198458  48.45  0.000633564    1.596    0.374
         7 -10.3335      1.9274      2.8915   8.7678759169e+01   7.3787077040e+01    0.2354386    0.1127156 -36.34  0.001429332    1.676    0.403
         8 -11.7314    192.5058    193.7920   8.0833571572e+01   4.7737897764e+00    0.8033724    0.4034335 -57.99   0.00280396    4.048    0.753
         9 -11.0685    139.4572    248.7161   1.0072112000e+02   3.8165090241e+00    0.3518594    0.1908323 -47.69  0.001889521    2.183    0.542
        10 -14.7794     84.8631    221.9022   1.0877854606e+02   1.6877097483e+01      3.59129     0.811015  43.63  0.003488387    3.666    0.727
        11 -14.8945      5.3593    186.1790   1.2261228779e+02   3.3740810129e+01     3.325108    0.8020784 -72.44  0.001574269    3.171    0.685
        12 -14.3034     20.0131    220.3838   1.2191225589e+02   2.5029881855e+01     1.056771    0.6417179  51.29  0.004442101    1.419    0.295
        13 -15.4871      9.7320    207.6608   1.2311441637e+02   2.8671369092e+01     2.922509     1.315615 -51.87   0.01039926    2.937    0.659
        14 -13.6413     37.1035    202.4573   1.1708310379e+02   2.7076638783e+01    0.6622752    0.5524587 -61.63  0.001514106    1.347    0.258
        15 -15.1416     47.2458    192.0806   1.1384394344e+02   2.8269815843e+01     2.562061     1.538542  86.44   0.01147452    1.723    0.420
        16  -9.7908     99.3831    180.8676   9.9845191140e+01   2.3682169225e+01    0.2553824    0.2063513  29.71 0.0005998529    1.303    0.233
        17  -9.7498    143.5071    179.4571   8.8881595314e+01   1.6380534758e+01    0.1456906    0.1398107  23.77 0.0001532049    1.014    0.014
        18  -9.8263     72.7606    172.6361   1.0524941493e+02   2.9607973296e+01    0.2122863    0.1826008 -59.67 0.0003717939    1.159    0.137
        19 -12.1771     63.7612    176.0859   1.0799922969e+02   2.9988738658e+01    0.4598719    0.3197488 -41.46  0.002392408    1.715    0.417
        20 -12.0431     68.7118    170.7614   1.0600660635e+02   3.0612818943e+01     0.339972    0.2728865 -38.26  0.000902885    1.453    0.312
        21  -9.5810    149.3631    177.1236   8.7053942313e+01   1.5802727656e+01    0.1993185    0.1398558 -58.76 0.0004652475    1.647    0.393
        22 -12.9408     85.3270    154.9094   9.9043809855e+01   3.2090509145e+01     1.611548    0.7724909 -58.73  0.001704125    1.998    0.500
        23 -12.4687     78.2457    161.3935   1.0206809514e+02   3.1557628365e+01    0.5975681    0.5060071  63.70  0.000468648    1.207    0.171
        24 -13.5615     65.5827    157.3978   1.0480697004e+02   3.4294449998e+01    0.5721651    0.4175697 -49.08  0.001503299    1.384    0.277
        25 -16.5314      7.6820    241.5082   1.2533459868e+02   2.2059603238e+01     9.274461     2.063704 -76.24   0.04016425    3.948    0.747
        26 -10.4561    146.1747    171.7993   8.6748025190e+01   1.7537501484e+01    0.2261481    0.2077002  76.14 0.0009925887    1.250    0.200
        27 -10.5942    174.5968    148.6613   7.5174670140e+01   1.6889867413e+01    0.3420736    0.2837292 -52.94   0.00128807    1.302    0.232
        28 -10.3530     47.7218    145.5981   1.0788002352e+02   3.9405008574e+01    0.2793415    0.1814604   2.24  0.001328879    2.289    0.563
        29 -11.0939     31.8889    144.0987   1.1206157010e+02   4.1408435038e+01    0.4522801    0.2073069  38.28  0.002105828    2.310    0.567
        30 -10.8677    100.3239    140.2235   9.2001860604e+01   3.3243415128e+01    0.5942734    0.3661292 -21.77  0.002257008    2.632    0.620
        31 -12.4053     87.2875    139.9632   9.5627961535e+01   3.5460974765e+01    0.3155919    0.2630478 -43.50 0.0004660049    1.189    0.159
        32 -10.2101     80.2646    140.4028   9.7722423540e+01   3.6435529226e+01    0.2760359    0.2029629  67.17 0.0007982063    1.644    0.392
        33 -11.1780    135.5807    128.3615   7.9682182957e+01   2.9332644521e+01    0.5567417    0.2042544 -49.60  0.001774201    2.832    0.647
        34 -10.5178    105.8509    130.8562   8.8356325576e+01   3.4525674631e+01    0.3640165    0.3253707 -54.30   0.00190004    1.094    0.086
        35 -10.3107    109.9778    130.5163   8.7115639111e+01   3.3852046337e+01    0.3598142    0.2576449  -4.99  0.000974726    2.007    0.502
        36 -11.5048     44.5373    129.3516   1.0619836565e+02   4.3798872011e+01    0.2727495    0.2442422 -65.24  0.001450546    1.025    0.025
        37 -10.1727    160.6069    127.4454   7.3290884568e+01   2.4255103718e+01    0.3396421    0.2754268 -70.33   0.00160524    1.520    0.342
        38 -11.2571     97.0830    126.6521   8.9896554688e+01   3.7085868270e+01    0.3053106     0.266718 -15.00   0.00042162    1.254    0.203
        39  -9.8862    116.2008    124.8162   8.4006294115e+01   3.4016606486e+01    0.2190917    0.1826358 -13.52 0.0005409499    1.360    0.265
        40 -13.3528     57.6825    240.7015   1.1612483750e+02   1.6738186863e+01    0.5624325     0.366935 -81.45 0.0004470199    1.549    0.354
        41 -10.3346    134.6728    119.9602   7.7796312230e+01   3.1400195048e+01    0.3597689    0.1431765 -45.03  0.001007479    2.455    0.593
        42  -9.9820    106.9606    119.0903   8.5199590044e+01   3.7107477659e+01    0.2204777      0.21168 -27.96 0.0002990832    1.015    0.015
        43  -9.6563     83.6137    117.6826   9.1823112034e+01   4.1488937142e+01    0.2864678    0.2060669  74.97  0.001088708    2.012    0.503
        44  -9.5552    135.9444    165.8761   8.8024162556e+01   2.0756383100e+01     0.368522    0.1798449  56.26  0.001078902    3.130    0.681
        45  -9.2391    168.2324    113.0513   6.7887444741e+01   2.5564776222e+01    0.2567824     0.176995 -66.41  0.001066793    1.989    0.497
        46  -9.6223    135.0000    112.4166   7.5732208004e+01   3.2989772574e+01    0.3477818   0.08805992 -44.19 0.0009255959    3.861    0.741
        47 -16.2173     38.4655    248.5572   1.2028757034e+02   1.7524085041e+01       9.8113     3.014498  25.73   0.02625561   10.443    0.904
        48 -10.0171    205.4754    110.1624   5.9714203067e+01   1.7951591851e+01    0.2993138    0.2134055  40.32 0.0009798702    1.548    0.354
        49 -11.2189     32.3499    155.4355   1.1337332070e+02   3.8580457893e+01    0.2712875    0.2178366 -64.31 0.0008952599    1.148    0.129
        50 -11.1533    133.5687    143.6976   8.3847427350e+01   2.6249944902e+01     1.162253    0.3008971 -53.67  0.002724217    5.564    0.820
        51  -9.6553    134.6053    105.7853   7.4038732057e+01   3.4502070661e+01     0.229449    0.1456713 -52.19 0.0009531965    1.691    0.409
        52 -10.0244     39.0230    102.0123   1.0281018459e+02   5.1070577339e+01     0.204064    0.1574967  70.59 0.0005320579    1.657    0.396
        53 -11.6298    241.3661     99.9039   5.1616741209e+01   1.2414258821e+01    0.3724135    0.1414429 -39.23  0.001221702    2.222    0.550
        54 -10.0751    121.4813     99.0141   7.5677416187e+01   3.8736920380e+01    0.2396964    0.1502465 -43.34 0.0004887489    1.561    0.359
        55 -10.5244     52.8246     90.9803   9.5429487291e+01   5.2152481020e+01    0.3365364    0.2002564 -44.78  0.001444854    1.479    0.324
        56  -9.9933     41.8780     91.4104   9.9447498603e+01   5.3288400516e+01    0.2643954    0.1719113 -48.61 0.0007345098    1.303    0.233
        57  -8.7939     18.2727     90.3317   1.0770333745e+02   5.5592073655e+01    0.1366034   0.07587135 -42.39 0.0001804511    1.592    0.372
        58 -10.2832     72.2712     83.1679   8.6405025449e+01   5.1224395657e+01    0.3961076    0.2585269  59.63  0.001725116    2.424    0.587
        59  -9.3170    151.0327     82.9617   6.3499332429e+01   3.5346413787e+01     0.238457    0.1851887 -74.74 0.0006203252    1.666    0.400
        60  -9.5080    159.5374     82.4708   6.1461518561e+01   3.3444340698e+01     0.149478    0.1474677 -11.63 7.791297e-05    1.015    0.015
        61 -10.1250    243.4860     77.5082   4.6350683840e+01   1.5541073209e+01    0.1330569    0.1129375 -50.65 9.554294e-05    1.014    0.014
        62 -11.9479    202.6403    199.3177   7.9840191867e+01   2.1081152701e+00    0.4737878    0.2157824  30.15  0.002007793    2.303    0.566
        63 -10.5704     13.4660     59.8922   1.0268983937e+02   6.2711443164e+01    0.2509727    0.1874842 -53.51 0.0004018528    1.181    0.153
        64  -9.7895    172.4704    239.1571   9.2750683085e+01   3.4226988308e-01    0.2761216    0.1270984 -48.98  0.001292173    2.695    0.629
        65 -12.1132    196.2737     44.6123   4.4601342173e+01   3.0639658606e+01    0.5082668    0.4749551  25.25 0.0009909122    1.273    0.214
        66  -8.7888    120.0242    194.0398   9.7015769192e+01   1.7347653757e+01    0.1599689    0.1554531  54.00 0.0009446011    1.028    0.027
        67  -8.9085     48.7624     42.6191   8.1677796933e+01   6.2544039730e+01    0.1627388    0.1165339  36.91 0.0004087687    1.598    0.374
        68 -10.6287    139.3705     37.3358   5.1975136823e+01   4.5299909318e+01    0.4070134    0.2619967 -78.50  0.001186166    2.428    0.588
        69  -9.6981      2.2578     49.9900   1.0501504691e+02   6.5420440698e+01    0.1593686   0.08288992 -57.28 0.0008884392    1.555    0.357
        70  -9.3402    189.5161     15.0164   3.7858930467e+01   3.5762542596e+01    0.1783693    0.1245292 -31.98  0.000507704    1.539    0.350
        71  -9.6447    137.1969     43.3897   5.4391615552e+01   4.5020930076e+01    0.1926281    0.1327755  69.99 0.0002710344    1.599    0.375
        72  -9.5568     79.4353    182.7049   1.0504238384e+02   2.6276713289e+01    0.2571762    0.1327362 -69.38  0.001117615    2.058    0.514
        73 -10.6387    207.7404    194.2495   7.7858213359e+01   2.1301921590e+00    0.2363699    0.1583458 -36.88 0.0006858321    1.473    0.321
        74 -11.1640    109.4998    201.3444   1.0060658388e+02   1.7493886503e+01    0.4848371    0.2840007 -42.77  0.001815669    2.001    0.500
