#   1 NUMBER                 Running object number                                     
#   2 MAG_AUTO               Kron-like elliptical aperture magnitude                    [mag]
#   3 X_IMAGE                Object position along x                                    [pixel]
#   4 Y_IMAGE                Object position along y                                    [pixel]
#   5 X_WORLD                Barycenter position along world x axis                     [deg]
#   6 Y_WORLD                Barycenter position along world y axis                     [deg]
#   7 A_WORLD                Profile RMS along major axis (world units)                 [deg]
#   8 B_WORLD                Profile RMS along minor axis (world units)                 [deg]
#   9 THETA_WORLD            Position angle (CCW/world-x)                               [deg]
#  10 FWHM_WORLD             FWHM assuming a gaussian core                              [deg]
#  11 ELONGATION             A_IMAGE/B_IMAGE                                           
#  12 ELLIPTICITY            1 - B_IMAGE/A_IMAGE                                       
         1  -8.3523     92.0956     14.3462   1.7582503515e+01   5.8244904388e+01    0.2051084    0.1752189 -53.49 0.0004376711    1.285    0.222
         2  -8.2717    108.1725     13.6756   1.4461197588e+01   5.4484284721e+01    0.1904093    0.1862811 -50.39 0.0006472446    1.235    0.190
         3  -8.6194    228.8261     12.3395   3.6481290685e+00   2.9795414520e+01    0.2683007   0.07911333 -28.61  0.001142183    4.645    0.785
         4  -8.2696    246.5554    244.4966   4.1132391132e+01  -3.2582545673e+00    0.1023229   0.06622459 -17.49 7.302849e-05    1.027    0.026
         5 -12.3710     12.4858    245.9522   9.1050871249e+01   1.8539433221e+01    0.3900283    0.2793558  30.58  0.000395813    1.151    0.131
         6 -16.0178      3.5450    241.3659   9.3033296926e+01   2.0181980576e+01     3.218122       2.5353 -42.98  0.004687917    1.566    0.361
         7  -9.8689     92.6941    214.1738   6.7600549740e+01   1.7379146872e+01    0.3118791    0.2268102 -40.91 0.0004741618    1.442    0.306
         8  -8.0933    102.1159    215.3519   6.5327378197e+01   1.5994172761e+01    0.2820482     0.121816  16.30  0.001088481    2.555    0.609
         9  -9.0065     98.9790    212.3607   6.5729405386e+01   1.7007991084e+01    0.2748689     0.210528  -1.34 0.0009357607    1.283    0.220
        10  -7.8370    125.9829    209.3412   5.8571796419e+01   1.4282532961e+01    0.2273484    0.1671728 -29.20 0.0005782862    1.326    0.246
        11  -8.2729    105.6731    209.6333   6.3635294129e+01   1.6762837309e+01     0.221306    0.1468856 -17.99 0.0006357811    1.688    0.408
        12  -9.2171     58.5071    217.1915   7.7110537892e+01   2.0596386493e+01     0.254202    0.1972806 -16.27 0.0006868524    1.416    0.294
        13  -6.9117     92.7199    203.3068   6.6141344936e+01   1.9760532214e+01    0.1369758    0.1048297  54.67 0.0001837776    1.557    0.358
        14  -8.7328     40.1624    201.2451   8.0751961656e+01   2.6249079352e+01    0.2609975    0.1545874  63.00 0.0007086773    1.953    0.488
        15  -8.1225    183.4243    200.1140   4.4822570667e+01   8.9693145745e+00    0.1916241    0.1423568  -7.33 0.0005265349    1.214    0.176
        16  -9.8292     22.8915    193.1476   8.5172871640e+01   2.9857291913e+01     0.642905    0.1706431  39.32  0.002193241    3.085    0.676
        17  -9.6337     36.8118    192.8680   8.0963641717e+01   2.8656205331e+01    0.3017733    0.2493092  34.74 0.0002958675    1.118    0.105
        18 -12.6396     10.6002    241.2956   9.1310114808e+01   1.9660666154e+01    0.2579494    0.1817402 -65.90 0.0007125982    1.638    0.389
        19  -9.2390     48.6876    190.9835   7.7190363793e+01   2.7914393234e+01     0.323264    0.2637184 -28.05 0.0006327769    1.334    0.251
        20  -7.2044    119.0000    241.9539   6.4666892813e+01   8.8663420228e+00    0.1803079   0.07157581 -54.41 0.0005163414    2.861    0.650
        21  -8.7719     71.1020    241.2507   7.6153451612e+01   1.4114579373e+01    0.2082771    0.1888338  71.97 0.0004672987    1.326    0.246
        22  -9.9886     56.1928    238.7415   7.9689249986e+01   1.6140110858e+01    0.4449429    0.3489336  -6.29   0.00246861    1.347    0.257
        23  -9.1461     73.1470    227.4530   7.4259759638e+01   1.6761206474e+01    0.2511532    0.2079781  43.44  0.001492012    1.230    0.187
        24  -8.8022      5.2755    176.6096   8.9433501000e+01   3.5469813980e+01    0.3571344    0.2108149 -51.62  0.001696758    1.780    0.438
        25  -7.1657    101.1312    175.8747   5.9621548619e+01   2.4906986126e+01    0.1971098    0.1604149 -16.95            0    1.274    0.215
        26  -9.0833    111.2570    171.1035   5.6024127361e+01   2.4512135626e+01     0.367336    0.2605388 -25.20  0.001078325    1.548    0.354
        27  -7.6655     49.9300    170.1350   7.4300143028e+01   3.3131051528e+01     0.222896    0.1635921 -26.31 0.0002518876    1.534    0.348
        28  -8.0757      4.3602    170.0155   8.9302100248e+01   3.7269595151e+01    0.2087909    0.1867287  -8.46 0.0003368574    1.205    0.170
        29  -8.0134     73.0893    167.3859   6.6488807481e+01   3.0935388190e+01    0.3274399    0.2139711 -28.79  0.001429673    1.807    0.447
        30  -8.5228     76.9065    162.9249   6.4565421903e+01   3.1535590806e+01    0.3214386    0.2174806 -15.03 0.0008755639    1.859    0.462
        31  -7.0751    224.2787    165.6505   3.2241742389e+01   9.7672222253e+00    0.1068104   0.07992401 -54.61 0.0003725429    1.642    0.391
        32  -7.4053      8.2523    162.3766   8.7463880684e+01   3.9055478340e+01    0.2005984    0.1224909  28.89 0.0009178337    1.568    0.362
        33  -7.4694     84.7987    155.1711   6.0743610159e+01   3.2327807655e+01    0.2047354    0.1698515 -23.68 0.0003669752    1.276    0.216
        34  -7.9941     90.9309    152.1410   5.8295674082e+01   3.2131860433e+01    0.2941934    0.2214073 -79.59 0.0009641339    1.686    0.407
        35  -9.5413     73.2920    150.1653   6.3492705592e+01   3.5303173280e+01    0.3954648    0.3510033 -35.33 0.0008394119    1.146    0.128
        36  -9.9045     69.8464    144.5716   6.3609727186e+01   3.7246213178e+01    0.8443145     0.444316  51.95  0.002988502    2.382    0.580
        37  -8.9063     86.6451    219.4585   6.9839359254e+01   1.6956162383e+01     0.338091    0.1420834  42.83 0.0009846622    2.553    0.608
        38  -7.9689     33.7904    146.4075   7.6710386095e+01   4.1262798160e+01    0.3635367    0.1507663  15.26  0.001271253    2.635    0.620
        39  -7.3497     30.3478    140.2845   7.7156414136e+01   4.3285679527e+01    0.1592337    0.1074261 -29.49 0.0004791771    1.650    0.394
        40  -7.3243     32.6964    137.0210   7.5796306312e+01   4.3946041307e+01    0.1973067    0.1933706 -71.70 0.0005402022    1.031    0.030
        41  -6.9836    138.3298    136.2773   4.2238124577e+01   2.7699901640e+01    0.1421866    0.1096434  -5.46 0.0002736323    1.597    0.374
        42  -8.3218     92.0615    135.4826   5.4564592904e+01   3.6010273738e+01    0.2570994    0.2039721 -31.02 0.0005273052    1.345    0.257
        43 -10.3148     21.7104    132.6704   7.9475282492e+01   4.6179490031e+01    0.2623848    0.2511567 -38.23 0.0002753159    1.036    0.035
        44 -10.4234     55.9235    208.5337   7.6949277848e+01   2.2872625648e+01    0.6288505    0.3547516  46.82  0.002232307    1.798    0.444
        45  -7.2182    100.1147    123.6354   4.9454924604e+01   3.7398809323e+01    0.2094808    0.1418702  24.18 0.0004642544    1.660    0.398
        46  -8.0255    170.2050    121.7894   3.2549798705e+01   2.4908579285e+01    0.1845098    0.1622427 -52.61 0.0003521118    1.097    0.089
        47  -7.5477    183.3237    120.0499   2.9936389256e+01   2.2987842752e+01    0.1750103    0.1424877 -42.41 0.0003898024    1.070    0.066
        48  -7.3224    209.4903    117.4778   2.5553624062e+01   1.9261226976e+01     0.119936   0.09789928 -43.01 9.826261e-05    1.009    0.009
        49  -7.2448    103.6383    113.5345   4.5985363837e+01   3.9032202321e+01    0.1465976    0.1421131 -46.65 9.834726e-05    1.038    0.037
        50  -8.0145     51.7463    110.2476   6.3263365152e+01   4.8786835471e+01    0.2195094    0.1736912 -22.80  0.001053533    1.379    0.275
        51  -7.9196     97.9797    109.0459   4.6538777108e+01   4.1119377713e+01    0.2237673    0.2128579  27.70 0.0004107634    1.050    0.048
        52  -7.5998     67.8990    103.6499   5.5341618229e+01   4.7890031120e+01    0.2157399    0.1911314  32.04 0.0004902749    1.096    0.088
        53  -7.3658    140.1756     96.8734   3.2660831711e+01   3.5133324798e+01     0.175252    0.1624175  -3.45 0.0003019419    1.248    0.199
        54  -8.9221     72.0517     91.5725   5.0529947734e+01   4.9975102715e+01    0.3783449     0.227125 -42.62  0.001195327    1.762    0.432
        55  -8.3077    123.9353     77.3657   3.1078581926e+01   4.2072108964e+01    0.2242232     0.188125 -50.89  0.001243655    1.188    0.158
        56  -7.6803     72.8595     75.1277   4.5277644623e+01   5.3365119518e+01    0.2060797    0.1927495  71.64 0.0003085267    1.148    0.129
        57  -7.2939     96.2234     68.5968   3.5538840225e+01   4.9713630843e+01    0.2071807    0.1282484  40.68 0.0009376327    1.670    0.401
        58  -7.7644    245.0847     63.6402   1.1870235003e+01   2.1474570871e+01    0.1353242    0.1060508 -54.14 0.0004797051    1.085    0.079
        59  -8.3780    163.4490     62.8308   2.0120305517e+01   3.5949765828e+01    0.1972075     0.165499  79.76  0.000289985    1.177    0.150
        60  -7.5999    183.3095     57.3826   1.6310068890e+01   3.2745083130e+01    0.1658384    0.1433915  20.91 0.0008963255    1.706    0.414
        61  -7.5217    188.1953     52.7180   1.4737737931e+01   3.2426571262e+01    0.1820055    0.1255061 -77.07 0.0005134665    1.423    0.297
        62  -7.2879     79.6680     49.3424   3.4034742754e+01   5.6644416599e+01    0.1441605    0.1089176 -86.88 0.0002986084    1.753    0.429
        63 -10.2767    204.8826     39.8057   1.0453673610e+01   3.0936419931e+01    0.5857177    0.3862125  30.22  0.003204601    3.288    0.696
        64  -8.7054    204.1389     36.0457   9.7420399335e+00   3.1512896976e+01    0.1759556    0.1576082 -75.87  0.001372896    1.226    0.184
        65  -7.4442     70.7366     29.0478   2.8965658540e+01   6.1582778717e+01    0.1763044    0.1646237  59.21 0.0002838483    1.072    0.067
        66  -8.0859     87.2623     25.8495   2.3032286118e+01   5.8154515377e+01    0.2296111    0.1655597  50.50  0.000353476    1.291    0.225
        67  -8.8459    229.9409     19.4635   4.8899511825e+00   2.8884975744e+01    0.1426657   0.08704158  87.82  0.001041537    1.625    0.385
        68  -7.5697    117.4022     15.2812   1.3585079601e+01   5.2148951762e+01    0.1696285    0.1059552 -47.26 0.0009405634    1.635    0.388
        69  -7.2689    102.7266     15.6819   1.6065083537e+01   5.5581937839e+01    0.1240113   0.08992562  41.84 0.0001935815    1.566    0.362
        70  -8.0582     75.5719    247.5731   7.5643895448e+01   1.2402730137e+01    0.3449747   0.06040061 -53.07  0.001149706    4.965    0.799
        71  -7.2945    100.8478    247.1803   6.9518185771e+01   9.8454446914e+00    0.1716902    0.1257684  -2.43  0.000283261    1.285    0.222
