#   1 NUMBER                 Running object number                                     
#   2 MAG_AUTO               Kron-like elliptical aperture magnitude                    [mag]
#   3 X_IMAGE                Object position along x                                    [pixel]
#   4 Y_IMAGE                Object position along y                                    [pixel]
#   5 X_WORLD                Barycenter position along world x axis                     [deg]
#   6 Y_WORLD                Barycenter position along world y axis                     [deg]
#   7 A_WORLD                Profile RMS along major axis (world units)                 [deg]
#   8 B_WORLD                Profile RMS along minor axis (world units)                 [deg]
#   9 THETA_WORLD            Position angle (CCW/world-x)                               [deg]
#  10 FWHM_WORLD             FWHM assuming a gaussian core                              [deg]
#  11 ELONGATION             A_IMAGE/B_IMAGE                                           
#  12 ELLIPTICITY            1 - B_IMAGE/A_IMAGE                                       
         1 -13.5077     57.5394    129.8970   1.3594380567e+02   4.1459459643e+01     2.149145    0.7086993 -77.53  0.006222216    5.597    0.821
         2 -14.6332    193.9437     15.0051   6.9901039677e+01   3.4576435822e+01     2.909705     1.913274  24.60  0.009711012    1.792    0.442
         3 -13.3463    199.4568      7.9068   6.7146998951e+01   3.3872635496e+01     1.162752    0.6436626  44.30  0.001556238    1.983    0.496
         4  -9.3113    127.9907     23.6772   8.3516382119e+01   5.0530411047e+01    0.2057394    0.1896833  43.73 0.0004129155    1.095    0.087
         5 -10.8826    163.1086    249.1108   1.2787443932e+02   7.0328648417e+00    0.2350584    0.1444958  34.36   0.00100673    1.211    0.174
         6 -12.0551    139.4740    245.9814   1.3161649929e+02   1.0333949179e+01    0.4048221    0.2085298  52.70  0.002393627    2.417    0.586
         7 -11.7584    138.9754    250.0000   1.3209793387e+02   9.9079968811e+00    0.5210085    0.1092795  40.99  0.002219948    3.602    0.722
         8 -11.2864    126.0422    249.8686   1.3431836839e+02   1.1492164345e+01    0.3157349    0.1031445  37.70  0.001509842    2.182    0.542
         9 -12.0170    110.9737    249.5172   1.3689832556e+02   1.3326531867e+01    0.4374973    0.2044906  35.84  0.002252845    1.576    0.366
        10 -13.8308     33.2324    246.5732   1.4999004400e+02   2.1913309105e+01     1.374637    0.7194918  32.53   0.01013682    1.673    0.402
        11 -15.1777      8.1703    210.8916   1.5308237070e+02   2.9700539517e+01     4.992538     0.895648 -64.08   0.01997101    6.256    0.840
        12 -15.8358      2.5833    141.3674   1.5156239506e+02   4.3601239178e+01     15.65812    0.4313523 -79.19   0.03410121   12.185    0.918
        13 -15.6001     59.6064    217.1642   1.4380784397e+02   2.3900148376e+01     6.505234     1.158106  40.09    0.0285609    3.304    0.697
        14 -11.3009    166.2597    224.6555   1.2443912354e+02   9.5124271828e+00    0.3590342    0.1394436  27.09  0.001683819    2.678    0.627
        15 -15.3885     12.2382    239.4465   1.5321173763e+02   2.4789393464e+01     4.951652     1.016528 -64.20   0.01163435    6.099    0.836
        16 -11.4240    173.7136    222.1409   1.2277094337e+02   8.8162859805e+00    0.3226551    0.2048793  40.43  0.001459079    1.459    0.315
        17  -9.2865    152.7257    212.9298   1.2542956933e+02   1.2905083628e+01    0.1491191    0.1266792  25.01 0.0003089734    1.081    0.075
        18 -11.5764     66.5417    250.1975   1.4458218325e+02   1.8154113721e+01    0.4359811    0.2303865  27.30  0.002959472    1.891    0.471
        19 -11.2792     35.4810    206.5726   1.4779562862e+02   2.8101431665e+01    0.3736432     0.164058  45.99  0.001993373    1.742    0.426
        20 -10.9803    193.3056    195.3754   1.1527071306e+02   9.4049202227e+00    0.5923105    0.3369723 -57.59  0.002367312    5.407    0.815
        21 -12.0369     67.9601    244.4323   1.4400478101e+02   1.8822319290e+01    0.3928543    0.2244339  35.72  0.002862033    1.394    0.283
        22 -11.7218     73.9873    196.2881   1.3933346940e+02   2.5895854145e+01    0.3240094     0.222631 -39.61  0.001486033    2.025    0.506
        23  -8.6242    110.4244    197.4619   1.3188345547e+02   2.1105730095e+01    0.1175552   0.09785369  45.90 0.0001221382    1.075    0.070
        24 -10.0726    228.9296    228.8411   1.1432685490e+02   8.5287626889e-01    0.2157517    0.1662271 -51.39  0.001410239    3.151    0.683
        25 -11.7434     78.4523    189.0705   1.3771165607e+02   2.6675707536e+01    0.2419955    0.2135728 -39.66 0.0006464575    1.412    0.292
        26 -11.2140     86.4283    176.9295   1.3465710607e+02   2.7960987368e+01     0.219358    0.2096704 -75.59 0.0004615518    1.155    0.134
        27 -13.3575     74.3712    174.4395   1.3710779430e+02   2.9947694595e+01    0.4266207    0.2633359 -39.65  0.002053868    2.226    0.551
        28 -14.1809     47.9812    129.6262   1.3857895371e+02   4.2554841017e+01     1.324608     0.691081  59.00  0.003333284    2.162    0.537
        29 -12.2513     92.7748    150.8223   1.2968263533e+02   3.2332270138e+01    0.2638971    0.2400807   4.97 0.0005841506    1.241    0.194
        30  -9.6746    134.0000    147.5605   1.1911359140e+02   2.6541071389e+01    0.3707466     0.107451 -51.46  0.001191398    4.152    0.759
        31  -8.7713    192.3738    144.2079   1.0588599177e+02   1.6770049655e+01    0.1698608    0.1216046 -37.34 0.0003413457    1.508    0.337
        32 -10.1842    113.0826    136.5964   1.2212680454e+02   3.2208160112e+01    0.3135977    0.2391451  -3.63  0.001015205    1.691    0.409
        33 -11.2813     70.9245    135.1465   1.3300954906e+02   3.8663723933e+01    0.4286635    0.1828551  40.88  0.001890586    2.248    0.555
        34 -14.1063     67.5802    144.2904   1.3517662692e+02   3.7046567561e+01     1.782249    0.9970901  70.99   0.00648182    2.379    0.580
        35 -13.0522     51.6987    230.2509   1.4605658930e+02   2.2614546574e+01    0.3670231    0.3067466 -64.95   0.00112174    1.539    0.350
        36 -10.7500    100.9730    133.8731   1.2474620826e+02   3.4710887456e+01    0.2825547    0.2240263 -24.05 0.0006309831    1.501    0.334
        37  -9.6050    118.4893    128.9967   1.1923385953e+02   3.2880590521e+01    0.2019606    0.1153047 -27.95 0.0008099417    2.509    0.601
        38  -9.6188    109.3389    123.8390   1.2055641508e+02   3.5519058528e+01     0.208438    0.1835426  47.74 0.0003264071    1.156    0.135
        39 -10.9535    168.4165    113.4506   1.0368781575e+02   2.6399727360e+01    0.3777778    0.3154106 -77.89  0.001424055    1.779    0.438
        40 -10.5502    103.9285    151.0534   1.2695973795e+02   3.0662596049e+01    0.3373362    0.2664556 -36.40 0.0009669949    1.424    0.298
        41 -11.1447    248.3173    248.8567   1.1414841932e+02  -3.1758100588e+00     0.231337    0.1374303  31.45  0.001761029    1.527    0.345
        42  -9.2160    135.0000    112.9801   1.1139688357e+02   3.3144791863e+01    0.2469339   0.08227724 -43.99 0.0008096925    2.993    0.666
        43  -9.5933    106.1763    147.0157   1.2573666165e+02   3.1148440930e+01    0.2651846     0.190534 -23.61  0.001370913    1.825    0.452
        44  -8.7465    203.6667    111.6527   9.6244490317e+01   1.9581291805e+01    0.1532599    0.1002468   8.47 0.0007048928    1.769    0.435
        45 -13.1704     92.3188    168.1089   1.3222240896e+02   2.8895412206e+01     2.810273    0.3890348  42.09  0.004139769    5.692    0.824
        46  -8.8447    184.7014     77.6462   9.0620612025e+01   2.8826647040e+01    0.1582411    0.1100794  10.05 0.0007036042    1.696    0.411
        47 -10.3336     60.5665    246.3234   1.4538346941e+02   1.9315205042e+01    0.1462632   0.08887079 -86.80 0.0003583942    1.929    0.482
        48 -10.3533     33.6294    228.5181   1.4918708284e+02   2.4621684338e+01    0.1758926    0.1066814  83.76  0.001323678    1.622    0.384
