#   1 NUMBER                 Running object number                                     
#   2 MAG_AUTO               Kron-like elliptical aperture magnitude                    [mag]
#   3 X_IMAGE                Object position along x                                    [pixel]
#   4 Y_IMAGE                Object position along y                                    [pixel]
#   5 X_WORLD                Barycenter position along world x axis                     [deg]
#   6 Y_WORLD                Barycenter position along world y axis                     [deg]
#   7 A_WORLD                Profile RMS along major axis (world units)                 [deg]
#   8 B_WORLD                Profile RMS along minor axis (world units)                 [deg]
#   9 THETA_WORLD            Position angle (CCW/world-x)                               [deg]
#  10 FWHM_WORLD             FWHM assuming a gaussian core                              [deg]
#  11 ELONGATION             A_IMAGE/B_IMAGE                                           
#  12 ELLIPTICITY            1 - B_IMAGE/A_IMAGE                                       
         1 -14.8673    240.5741     66.7324   4.3283947476e+00   1.7841884241e+01     1.166875      1.12869  50.48  0.008615614    1.296    0.228
         2 -14.7595    247.4843     38.7575   3.5776005270e+02   2.0030314185e+01     1.948378    0.4908051 -31.11  0.007828358    3.233    0.691
         3 -11.9040    106.0524     70.6632   2.9087020763e+01   4.7839898420e+01    0.4643925     0.240548 -42.36  0.001710465    1.989    0.497
         4 -10.4487    194.4717    239.4804   4.4248068958e+01   4.5219897212e-01    0.1132814   0.08439033  11.05 0.0001288654    1.051    0.048
         5 -10.3946    194.3212    231.6611   4.3170593814e+01   1.4509067863e+00    0.1004833   0.08583351  39.09 0.0004500951    1.715    0.417
         6 -11.0022    184.5940    227.7797   4.4419815454e+01   3.1568974691e+00    0.1402892    0.1101769 -40.86 0.0009509996    1.689    0.408
         7 -10.5299    250.0000    215.9551   3.1538987319e+01  -2.9443828920e+00     0.164378   0.04880708 -33.44 0.0008068392    2.973    0.664
         8 -10.4657    198.4769    214.9904   3.9914793284e+01   3.1250544949e+00    0.1350145    0.1063326 -60.76 0.0008094315    2.492    0.599
         9 -10.3971     76.6697    213.3271   6.6362231065e+01   2.0213446515e+01    0.1409362   0.08127504  53.96 0.0007051108    1.708    0.415
        10 -10.4792    236.7758    208.1559   3.2327558819e+01  -6.1807066205e-01    0.1455733    0.1295481 -77.35 0.0009570317    2.915    0.657
        11 -11.6360     98.7843    205.3112   6.0057820503e+01   1.8803202323e+01    0.2876773    0.1856351 -88.50  0.001408706    2.337    0.572
        12 -11.8381    185.0416    203.8786   4.0675367803e+01   6.4821353185e+00    0.3117828    0.2111975  59.88  0.001511171    3.202    0.688
        13 -10.7057    197.6201    204.3260   3.8372494140e+01   4.7065475069e+00     0.159298    0.1499248  49.71 0.0009692149    1.683    0.406
        14 -11.2692     79.9763    200.6821   6.4237890706e+01   2.2367636063e+01    0.2775514    0.1506263  71.47  0.001173008    2.757    0.637
        15 -11.1646    124.1189    198.2333   5.2968689632e+01   1.6442697852e+01    0.2861086    0.1866272 -67.73  0.001429931    2.167    0.538
        16 -11.7731     88.7463    198.4022   6.1739629138e+01   2.1630882324e+01    0.3121529    0.1869173  84.25  0.001398053    2.580    0.612
        17 -10.9240    112.2666    197.5068   5.5731245684e+01   1.8375965866e+01    0.3216213     0.189542  68.91  0.001307617    3.120    0.679
        18 -10.0170    216.1772    195.4072   3.3593037551e+01   3.4961596844e+00    0.1496907    0.1026217  36.63 0.0007548069    1.653    0.395
        19 -10.6669    184.9873    194.4530   3.9124862022e+01   7.9129163470e+00    0.1976918    0.1552729 -23.92 0.0009271934    1.250    0.200
        20 -11.3204    246.3450    193.1545   2.8402314078e+01   9.4907660606e-02     0.262139    0.2212558 -63.46  0.001741405    2.696    0.629
        21 -10.9539    224.9028    193.1395   3.1748467549e+01   2.6822784720e+00    0.2759621    0.1454868 -40.92   0.00154267    2.120    0.528
        22 -11.7303     77.0055    192.7695   6.4129317087e+01   2.4467437655e+01     0.243361    0.1745798  81.10   0.00129032    1.635    0.388
        23 -11.1102    129.4917    188.1760   5.0157941591e+01   1.7539298080e+01    0.3047033    0.2330038  87.39   0.00156468    2.012    0.503
        24 -10.6155     20.3430    189.6710   7.8965404675e+01   3.1740053794e+01    0.1463019   0.07079963  54.17 0.0005505377    1.746    0.427
        25 -11.7189     95.4981    188.0250   5.8681233373e+01   2.2845531429e+01    0.2411859    0.1772783  50.30  0.001002675    1.309    0.236
        26 -11.1323     86.4175    188.2098   6.1094843474e+01   2.4139340696e+01    0.1850506    0.1337454 -88.13 0.0009520467    1.699    0.411
        27 -10.0283    235.6404    181.3250   2.7994585243e+01   2.8721907961e+00   0.09978183   0.09150113 -50.20 0.0007043188    1.780    0.438
        28 -11.1507    147.3860    179.5958   4.4518834848e+01   1.6277924370e+01    0.2463956     0.131784 -62.59 0.0009568074    3.270    0.694
        29 -11.1233      2.4228    172.1321   8.3019878998e+01   3.7323627628e+01    0.3090242   0.09564053  82.11  0.001149986    3.321    0.699
        30 -10.7877    120.6322    169.8210   4.9322382118e+01   2.2725293852e+01    0.1955418    0.1413675 -66.79 0.0009521732    1.722    0.419
        31 -11.5369     55.1406    168.8886   6.7542575509e+01   3.2895887032e+01      0.36019     0.196419  71.98  0.001524458    2.241    0.554
        32 -11.3224    212.8015    162.3009   2.8194253666e+01   8.6921532530e+00    0.3209734    0.1627177 -39.21  0.001627581    1.885    0.469
        33 -11.0018    150.1099    169.2300   4.2021824771e+01   1.7781189561e+01    0.3034419    0.2084702 -50.48  0.001533592    1.650    0.394
        34 -10.5566     91.7543    159.0065   5.5384391836e+01   2.9990062800e+01     0.192791    0.1285969 -60.76 0.0007991525    1.621    0.383
        35 -10.2643     91.3352    151.6797   5.4262833362e+01   3.1810537446e+01    0.1608317    0.1103815  63.39 0.0007049699    1.704    0.413
        36 -10.9305    199.0946    148.6593   2.7880218774e+01   1.3000932796e+01     0.232762    0.1738548 -41.00  0.001328041    1.365    0.267
        37 -11.3418    189.1039    147.2406   2.9426649438e+01   1.4946691478e+01    0.3224581    0.1661386 -46.98   0.00143996    2.145    0.534
        38 -11.0207     55.1761    145.0061   6.4566099378e+01   3.8912879852e+01    0.2625832    0.1527984  69.15  0.001089793    2.060    0.515
        39 -11.5178      2.0000    139.4953   8.1749473154e+01   4.5448387658e+01    0.2990949   0.06814991 -82.64  0.000942489    3.998    0.750
        40 -12.9305    193.1155    136.9821   2.6511875600e+01   1.5970520303e+01    0.4964878    0.1945155 -49.19  0.001765384    3.408    0.707
        41 -10.4963    207.5054    137.0230   2.4011223704e+01   1.3445693854e+01     0.182136    0.1039803 -54.23 0.0008098825    2.506    0.601
        42 -10.4673    147.9897    144.4941   3.7576194240e+01   2.3040000912e+01    0.2053522    0.1258001  61.75 0.0008096785    2.466    0.595
        43 -12.2981    187.9996    135.4854   2.7132708189e+01   1.7154589495e+01     0.271487    0.1860516 -50.35  0.001118341    1.640    0.390
        44 -10.2465     69.0516    135.7871   5.8516410285e+01   3.9348730806e+01    0.2050903    0.1894811  50.83 0.0003673142    1.027    0.027
        45 -12.0609    179.6038    132.7836   2.8147753200e+01   1.9198860545e+01    0.3832249    0.2469419 -52.24  0.001822274    1.800    0.444
        46 -11.3901     38.6028    133.1860   6.8641816149e+01   4.4022325274e+01    0.2175747     0.121459 -59.86 0.0009597527    1.759    0.431
        47 -11.0959    143.8557    131.4879   3.5686433967e+01   2.6517914003e+01    0.3634542    0.2706503  80.76  0.001615426    2.019    0.505
        48 -12.7979    193.0926    129.6965   2.4929065246e+01   1.7203654085e+01    0.3456248    0.2598725 -39.65  0.001908175    1.270    0.213
        49 -11.8101    153.0286    128.7939   3.2892553762e+01   2.5203603913e+01    0.5682752     0.301718 -58.58  0.002102074    2.740    0.635
        50 -10.2564    204.9878    130.4867   2.3041771974e+01   1.4925391182e+01    0.1673096    0.1209146  79.50 0.0008096698    2.473    0.596
        51 -12.6221    169.3405    128.8252   2.9327911068e+01   2.1916488507e+01    0.5213937    0.3168637 -55.78  0.002274473    2.072    0.517
        52 -10.6896     98.3689    127.5580   4.7373883360e+01   3.6433943723e+01    0.3035593    0.1489117 -69.59 0.0009548659    3.335    0.700
        53 -13.1150    180.6203    124.2397   2.6017006346e+01   2.0526326051e+01    0.5251161    0.2835792 -50.13  0.002258225    2.092    0.522
        54 -12.5350    172.5079    121.1608   2.6896913561e+01   2.2701703509e+01    0.3603299    0.2592531 -48.37   0.00172888    1.434    0.303
        55 -11.8561     11.8670    128.5238   7.7683314444e+01   4.7667094725e+01    0.3939221    0.1586549  77.77  0.001476318    2.780    0.640
        56 -11.1293     57.6615    121.1476   5.9903802208e+01   4.4855960194e+01    0.3079287    0.1453201 -75.52  0.001092436    2.599    0.615
        57 -12.6427    185.9748    115.5578   2.2998055073e+01   2.0992090541e+01    0.4256684    0.1947307 -42.19  0.001765759    2.069    0.517
        58 -11.3941    129.9844    116.5246   3.5617500244e+01   3.2589339424e+01    0.3109808    0.2267626 -63.32  0.001396011    1.615    0.381
        59 -11.4730      2.0000    114.4914   8.0297868479e+01   5.1986746912e+01    0.3070649   0.06933066 -81.36 0.0009389477    3.969    0.748
        60 -10.9947    108.5813    113.3061   4.0870243712e+01   3.7829279984e+01    0.3053046    0.1565462 -54.91  0.001134922    2.120    0.528
        61 -11.7006     77.9160    109.5597   5.0088464349e+01   4.4669609464e+01    0.7002977    0.2408937 -62.20    0.0020305    3.643    0.725
        62 -11.1447    121.5998    110.6995   3.6413391135e+01   3.5672400225e+01    0.3127018     0.151324 -42.89  0.001148098    2.156    0.536
        63 -12.3119    128.6992    101.3049   3.1967953804e+01   3.6149238491e+01     0.559251     0.334787 -58.84  0.002208216    2.040    0.510
        64 -10.7962    107.4041     98.2091   3.7210245522e+01   4.1570327726e+01    0.2279168    0.1524252 -59.91 0.0009496521    1.687    0.407
        65 -11.9834     94.7973     94.7604   4.0304570372e+01   4.5056777682e+01    0.7103141    0.3263022 -48.77  0.002561529    2.218    0.549
        66 -11.8612      4.4124     89.7626   7.7229902748e+01   5.8451206035e+01    0.5510899    0.2718692  86.93  0.002420489    2.049    0.512
        67 -12.4054    124.4594     89.2692   2.9679243925e+01   3.9656330915e+01    0.5332796    0.3172897 -45.22  0.002014329    1.706    0.414
        68 -11.9683     34.7627     86.7683   6.2608510266e+01   5.6919438731e+01    0.8537597     0.285613 -63.60  0.002981561    2.684    0.627
        69 -12.2945     86.4451     86.3034   4.0740018050e+01   4.8771069956e+01    0.5933747     0.392986 -84.64  0.002234523    2.497    0.600
        70 -11.8218     47.0047     82.5261   5.5930265947e+01   5.6532039179e+01    0.4267876    0.2464202  89.06  0.001562779    2.835    0.647
        71 -12.3893    104.6694     81.8944   3.3200356409e+01   4.5810463819e+01    0.7965743    0.4081373 -56.61  0.002847449    2.418    0.587
        72 -12.2786    119.4294     79.5164   2.8083793741e+01   4.2849505005e+01    0.4833064    0.2682062 -52.42  0.001874654    2.003    0.501
        73 -11.3160     74.2850     78.4205   4.2924666302e+01   5.3043919144e+01    0.4951584    0.2125522 -54.18  0.001733084    2.467    0.595
        74 -11.6711     23.7204     76.7582   6.5902008998e+01   6.0639182488e+01     0.615379    0.1182887 -62.82  0.001861937    3.708    0.730
        75 -11.4253    167.4939     77.0429   1.6519090410e+01   3.1686889945e+01    0.2301018    0.1400086 -37.35  0.001031016    1.584    0.369
        76 -12.4062    127.7036     74.7059   2.4367325056e+01   4.1787708330e+01    0.4470997    0.2673899 -49.51  0.001850146    1.757    0.431
        77 -13.6923    234.0092     32.2175   3.5726726845e+02   2.3329555901e+01    0.6673478    0.4377519  40.73  0.003814718    2.320    0.569
        78 -10.7067    169.4950    242.9996   4.9400302534e+01   2.9948257620e+00     0.127292    0.1065466 -89.27  0.000810476    2.551    0.608
        79 -11.4119     50.6645     67.8934   4.9973449293e+01   5.9668900732e+01    0.5148671    0.2062769 -68.76  0.001381085    5.025    0.801
        80 -11.5192    121.5642     64.8773   2.2730658182e+01   4.5156578135e+01    0.3913276    0.1474955 -40.73  0.001308321    2.668    0.625
        81 -11.8171     95.0248     70.4017   3.2557166695e+01   5.0463714555e+01    0.6143979    0.2783426 -54.63  0.002053451    2.814    0.645
        82 -11.4619    157.1822     68.8577   1.6083397118e+01   3.5545181554e+01    0.4713094    0.2852772  80.61  0.001917234    2.213    0.548
        83 -11.5795    115.6860     71.4855   2.6534270403e+01   4.5355044590e+01    0.4045981    0.1940554 -43.03  0.001503442    2.127    0.530
        84 -10.6421    160.8103    241.2038   5.0867983476e+01   4.3152780369e+00    0.1791871    0.1156592  55.71 0.0009520836    2.847    0.649
        85 -11.8299     72.9537     57.1563   3.5977467564e+01   5.8060874372e+01    0.6401109    0.2231708 -44.67  0.002108792    2.952    0.661
        86 -11.9699    159.1284     54.8458   1.1548907307e+01   3.7300577540e+01    0.2331898    0.1889931 -68.58 0.0005098671    1.232    0.188
        87 -10.4969     86.3086     55.2850   3.0051813244e+01   5.5519149486e+01    0.2130212    0.1325294 -43.07  0.000219522    1.672    0.402
        88 -10.2075     87.3133     52.3016   2.8509970548e+01   5.5858303267e+01    0.1545457    0.1200587  15.40 0.0002540566    1.612    0.379
        89 -11.8983     62.9038     52.5848   3.8555599055e+01   6.1027882204e+01    0.6395485    0.2167208 -49.90  0.002075666    3.210    0.689
        90 -11.6629     21.6547     53.2302   6.1321119237e+01   6.6806262248e+01    0.3420798    0.1759427 -81.23  0.001367303    2.686    0.628
        91 -12.3045     82.7226     73.5390   3.8041971286e+01   5.2473981546e+01    0.5528067    0.3452596 -84.68  0.001814989    3.478    0.712
        92 -11.1893     53.4801     51.9930   4.2859681063e+01   6.2877430616e+01    0.3414572    0.1477151 -56.66   0.00121656    2.798    0.643
        93 -11.5420     27.8423     46.1385   5.5148597888e+01   6.7877306050e+01    0.2616804    0.1850749 -16.26  0.000866378    1.548    0.354
        94 -10.6071     28.4606     42.4855   5.3383444117e+01   6.8644450418e+01    0.2080343    0.1162462 -46.21 0.0001597895    1.677    0.404
        95 -12.2580     62.5640     71.7406   4.5704208186e+01   5.6785792063e+01    0.6846788    0.1833155 -54.95  0.001906389    4.052    0.753
        96 -11.5806    184.4871     41.4855   4.0778894245e+00   3.2957645357e+01    0.1383878    0.1223326 -64.60 8.057417e-05    1.008    0.008
        97 -10.9759     36.5589     39.7560   4.7143800022e+01   6.8195432197e+01    0.3714996    0.1268926 -50.31  0.001353076    2.805    0.643
        98 -10.3168     38.4799     35.4981   4.4022987936e+01   6.8802791714e+01    0.2049328    0.1306138  19.88 3.864956e-05    1.701    0.412
        99 -10.6232    123.2921     36.3472   1.2134567136e+01   4.9348362116e+01    0.1520129     0.113277  29.24 0.0007028766    1.666    0.400
       100 -10.8587    176.5362     33.4726   2.7641782144e+00   3.5907987883e+01    0.1388119     0.123088 -69.83 3.915044e-05    1.015    0.015
       101 -11.0303     26.6703     31.1526   4.9748338868e+01   7.1335884063e+01     0.362216     0.075463 -46.32  0.001096197    4.271    0.766
       102 -10.9570     42.4675     71.0281   5.4972665641e+01   6.0067243209e+01    0.2328909    0.1413465 -60.26  0.001040081    1.619    0.382
