#   1 NUMBER                 Running object number                                     
#   2 MAG_AUTO               Kron-like elliptical aperture magnitude                    [mag]
#   3 X_IMAGE                Object position along x                                    [pixel]
#   4 Y_IMAGE                Object position along y                                    [pixel]
#   5 X_WORLD                Barycenter position along world x axis                     [deg]
#   6 Y_WORLD                Barycenter position along world y axis                     [deg]
#   7 A_WORLD                Profile RMS along major axis (world units)                 [deg]
#   8 B_WORLD                Profile RMS along minor axis (world units)                 [deg]
#   9 THETA_WORLD            Position angle (CCW/world-x)                               [deg]
#  10 FWHM_WORLD             FWHM assuming a gaussian core                              [deg]
#  11 ELONGATION             A_IMAGE/B_IMAGE                                           
#  12 ELLIPTICITY            1 - B_IMAGE/A_IMAGE                                       
         1  -9.8324    249.5193     15.9237   3.9392520127e+00   2.9932937032e+01    0.5187232    0.1455722 -45.29  0.003159126    2.652    0.623
         2  -7.3474    218.7017      9.6708   4.5418971727e+00   3.5115255947e+01   0.07771742   0.06749492 -79.96 0.0004857453    1.639    0.390
         3  -8.8299    120.2258      8.5941   1.2676066261e+01   5.3046965126e+01    0.1623187   0.08168148  64.24 0.0009569998    1.717    0.418
         4  -8.1677    101.2946      7.9344   1.5318679974e+01   5.6997829866e+01    0.1485524    0.1241435  88.30 0.0003215547    1.132    0.117
         5  -8.2466     75.7690    245.4348   6.8941531585e+01   1.0526650120e+01    0.2899057    0.1607208 -67.43 0.0008064918    1.988    0.497
         6 -10.6835    246.2798    248.7462   3.6153443163e+01  -3.7639805120e+00    0.2950882    0.2556692  17.29  0.002767195    1.666    0.400
         7  -8.8414     46.4759    250.4633   7.6953367901e+01   1.2085451960e+01    0.3920566    0.1786261   6.47  0.001573192    2.542    0.607
         8  -8.0319     61.9131    250.8049   7.2987026960e+01   1.0606660872e+01    0.2614974    0.1058125  20.84 0.0008768815    2.206    0.547
         9 -10.4444     55.9543    248.0776   7.4291841093e+01   1.1781419322e+01    0.6902107    0.4948092  76.93  0.003687217    1.668    0.401
        10  -8.7841     50.8508    242.2939   7.5145532354e+01   1.3612335992e+01    0.2713188    0.1955412 -71.91  0.001449438    1.510    0.338
        11 -13.6843      6.0555    135.1107   7.9497342722e+01   4.6778119228e+01     4.140182     1.267951 -87.41     0.002862    4.855    0.794
        12  -8.9121     61.9711    238.3676   7.1843871827e+01   1.3499629885e+01    0.3003082     0.266825  62.40 0.0007490658    1.209    0.173
        13 -13.3129     11.7107    245.0486   8.5755958823e+01   1.6291533993e+01     1.116821    0.9430115 -33.06  0.006632162    1.358    0.263
        14  -8.3308     75.1951    249.8354   6.9516794785e+01   9.5892764823e+00    0.2378419    0.1664717 -45.67  0.001037677    1.477    0.323
        15  -9.2979    125.1569    230.2655   5.5208706049e+01   8.9875914619e+00    0.3408042    0.2203332 -32.59   0.00183076    1.515    0.340
        16 -10.6353     93.3445    227.2305   6.2481687274e+01   1.2960210761e+01    0.5157101    0.4359645  60.85    0.0029503    1.373    0.271
        17  -7.7242    150.5021    228.5411   4.9511338795e+01   6.8498606183e+00    0.1242218    0.1064052 -26.97 0.0001853037    1.005    0.005
        18 -14.4651      6.1296    229.2380   8.6452209380e+01   2.0651442946e+01      3.07252     1.626644 -46.29   0.01372053    2.189    0.543
        19  -9.3919     81.8232    226.2100   6.5335847406e+01   1.4412917826e+01    0.2964073    0.2375588 -29.44  0.001095593    1.277    0.217
        20 -10.5719     79.6376    221.3554   6.5358452414e+01   1.5819013977e+01    0.5560021    0.3394685  39.00  0.002249561    1.626    0.385
        21 -12.2591      3.0892    210.8320   8.6339755034e+01   2.5703040926e+01    0.7895066    0.4538327 -83.56   0.00223911    1.744    0.427
        22  -9.2125     82.7502    216.1601   6.3915694304e+01   1.6754995032e+01    0.3457421     0.211799 -14.16  0.001516098    2.071    0.517
        23 -12.1032     18.6363    221.1461   8.2451238817e+01   2.1771029391e+01    0.7450652    0.5063987  30.00  0.001352296    1.351    0.260
        24  -8.5437     59.3057    186.0701   6.6898786772e+01   2.7247628760e+01    0.3946608    0.2523022 -83.39  0.001725174    1.770    0.435
        25 -12.4779     11.0269    206.6591   8.3728528043e+01   2.6245778941e+01    0.7778469    0.5645684  26.04  0.001748239    1.320    0.242
        26  -8.6143    101.0144    175.9901   5.3438268171e+01   2.4549663039e+01    0.2005828    0.1925422 -46.78            0    1.025    0.024
        27 -13.9810     30.0609    235.0842   8.0205245132e+01   1.7240336262e+01     3.541511     2.069465 -20.71   0.01575221    2.198    0.545
        28  -9.0018     41.5460    171.0237   7.0690613866e+01   3.3410423378e+01    0.2246463     0.205735  27.41 0.0004825105    1.093    0.085
        29  -9.7335     59.0219    167.0956   6.4438525677e+01   3.2469047242e+01    0.6893763    0.3569065 -29.63  0.002326491    2.876    0.652
        30  -9.5452     63.7401    163.1223   6.2344978896e+01   3.2954398809e+01    0.3633954    0.2991487  25.75 0.0005379344    1.232    0.188
        31  -9.7788     29.2546    168.8533   7.4591935174e+01   3.5279110109e+01    0.4912917    0.1975993 -66.74  0.001781616    2.319    0.569
        32 -10.3693     76.1222    155.8885   5.7318093347e+01   3.3211072414e+01     0.689817     0.434398 -73.06  0.002647438    1.713    0.416
        33 -10.2608     22.0832    158.7606   7.5992927598e+01   3.8816571427e+01    0.4535236    0.3215495  77.39  0.002113926    1.512    0.339
        34  -8.0641     43.0179    158.4921   6.8573548088e+01   3.6763269650e+01    0.2400673     0.150415  22.59 0.0009920117    1.609    0.378
        35 -10.4652     60.6014    152.0337   6.1653989871e+01   3.6375501549e+01    0.6213882    0.4310551 -67.51  0.001069004    1.442    0.307
        36  -9.7572     21.5774    152.8570   7.5514761098e+01   4.0540358298e+01    0.4475155    0.2267983  18.57  0.001792779    1.993    0.498
        37  -8.6565     37.4822    152.1696   6.9658920102e+01   3.9150683475e+01    0.3176862    0.1413424  43.59  0.001159514    2.278    0.561
        38  -9.0108     80.4827    150.3115   5.5043722970e+01   3.4039755521e+01    0.2774929    0.2671748 -54.03 0.0005943066    1.061    0.057
        39  -8.6134    250.1463    148.8243   2.2720390319e+01   1.1384925363e+01    0.1442132   0.09113599 -42.56  0.001082124    1.345    0.256
        40 -10.6351     68.6307    144.6072   5.7784978221e+01   3.7254260528e+01    0.7939538    0.4869249  61.28  0.003298615    1.994    0.499
        41 -13.6905      8.6619    195.1455   8.3685380056e+01   2.9592232509e+01     5.994707     2.396387  18.36    0.0190052    2.429    0.588
        42 -10.3226     84.4611    135.8120   5.1221402041e+01   3.7128345242e+01    0.3452997    0.3225328  72.02 0.0004483231    1.046    0.044
        43  -8.3188    170.4888    135.6229   3.1346723929e+01   2.3447867716e+01    0.1901268    0.1817762 -51.72 0.0006850759    1.224    0.183
        44  -9.4878    247.0428    133.9538   2.0972669587e+01   1.4039218173e+01     0.232178    0.1048567 -56.07   0.00145496    1.688    0.407
        45  -7.7690    139.8179    242.6318   5.3559363937e+01   5.0439806063e+00    0.1704313    0.1044156  29.75 0.0009469344    1.698    0.411
        46  -9.4824     18.9125    125.4898   7.3089778666e+01   4.8416219557e+01    0.5183098    0.2219265  43.94  0.001924965    2.453    0.592
        47  -8.5124     29.4943    141.0080   7.1069554493e+01   4.3117121867e+01    0.3372808    0.1291286  52.02  0.001038111    3.417    0.707
        48  -7.5497    102.2833    242.3760   6.2036969114e+01   8.6416035918e+00     0.142444   0.08779302 -29.34 0.0007013832    1.714    0.417
        49  -7.2922     46.2682    115.0048   6.0324501364e+01   4.8101342335e+01    0.1761046    0.1289157 -64.36 0.0002789272    1.392    0.282
        50  -8.5897     17.6132    114.1663   7.1983947364e+01   5.1573266582e+01    0.3529227    0.2508342  38.51   0.00174751    1.405    0.288
        51  -8.2596     68.8525    240.9795   7.0285486617e+01   1.2218755833e+01    0.2636248     0.184609  20.57  0.001393088    1.316    0.240
        52 -10.2317     83.6940    237.7352   6.6126736645e+01   1.1513718111e+01    0.2563617    0.2347399 -50.20 0.0003791723    1.145    0.126
        53  -7.6632    163.8320     86.7959   2.3521288311e+01   3.3586948649e+01    0.1703392    0.1193286 -75.51 0.0004703491    1.294    0.227
        54  -8.4554     59.4367     74.8086   4.6058153603e+01   5.5312910739e+01    0.3142897    0.2225101  78.82  0.001530942    1.858    0.462
        55  -8.0158    144.1418     59.6313   2.1035342283e+01   4.1647001930e+01    0.1676636    0.1295778  82.06 0.0005595456    1.136    0.120
        56 -11.5455    210.0598     50.1157   1.1656909848e+01   3.1507703072e+01    0.4981228    0.4350846 -57.76  0.004173816    1.586    0.370
        57  -9.5482    196.2686     52.3359   1.3260221522e+01   3.3408740150e+01    0.1772553    0.1650062 -67.04 0.0005050919    1.623    0.384
        58  -8.3173    124.9121     51.8634   2.2503896811e+01   4.6599187552e+01    0.2769793    0.1296891 -54.79  0.001372182    2.140    0.533
        59  -7.4744    116.4821     49.4682   2.3496458499e+01   4.8652265797e+01    0.1262043    0.1022076  86.96 2.787939e-05    1.020    0.020
        60 -11.5189    223.8440     39.2922   8.8694219039e+00   3.0821660518e+01    0.5375364    0.4441612 -75.77  0.003622051    1.418    0.295
        61  -7.0914     64.5064     36.5507   3.2982950199e+01   6.1016582171e+01    0.1260914    0.1051779  60.02 0.0001235506    1.009    0.009
        62  -7.3436     81.6758     35.3227   2.7517408406e+01   5.7777420835e+01    0.1271404    0.0867002  89.61 0.0007047337    1.683    0.406
        63  -7.9316    102.9954     24.2744   1.9547589432e+01   5.4822246899e+01    0.1627291     0.125983  76.66 0.0002746295    1.049    0.047
        64  -8.4142     86.8358     23.7914   2.2783022207e+01   5.8218857594e+01     0.188673    0.1481282 -81.24 0.0003414063    1.261    0.207
        65  -7.8586     66.0333    248.7500   7.1746040530e+01   1.0692647429e+01     0.192004    0.1640624  17.10  0.001138266    1.064    0.060
        66  -8.4765     90.6186    246.4604   6.5327821136e+01   8.8739687084e+00    0.2445917    0.1536851  68.73  0.001142043    2.415    0.586
        67  -9.8835    234.3351    245.6760   3.7416720520e+01  -2.6233233819e+00    0.1593976    0.1384129 -70.48  0.001340847    1.866    0.464
