#   1 NUMBER                 Running object number                                     
#   2 MAG_AUTO               Kron-like elliptical aperture magnitude                    [mag]
#   3 X_IMAGE                Object position along x                                    [pixel]
#   4 Y_IMAGE                Object position along y                                    [pixel]
#   5 X_WORLD                Barycenter position along world x axis                     [deg]
#   6 Y_WORLD                Barycenter position along world y axis                     [deg]
#   7 A_WORLD                Profile RMS along major axis (world units)                 [deg]
#   8 B_WORLD                Profile RMS along minor axis (world units)                 [deg]
#   9 THETA_WORLD            Position angle (CCW/world-x)                               [deg]
#  10 FWHM_WORLD             FWHM assuming a gaussian core                              [deg]
#  11 ELONGATION             A_IMAGE/B_IMAGE                                           
#  12 ELLIPTICITY            1 - B_IMAGE/A_IMAGE                                       
         1 -13.7010    214.8282     18.8105   5.5606869145e+01   3.0283195896e+01     1.017102    0.8064247  46.12  0.006734252    1.765    0.434
         2 -11.2101      2.2610      3.8768   1.0208228891e+02   7.1777102911e+01    0.4848727    0.1506808 -38.05  0.002568864    2.953    0.661
         3 -11.3742      1.8792     19.4602   1.0872514747e+02   6.9812020188e+01    0.4723107    0.1067778 -46.75  0.001959452    4.379    0.772
         4 -10.4825    224.1470    197.7698   9.1682343165e+01  -2.5940071039e+00    0.3326962    0.2383713 -58.80 0.0009881892    1.791    0.442
         5 -12.6709    138.3823    248.6917   1.1828854949e+02   1.8627432120e+00    0.6575183    0.4198399  41.97  0.003485954    1.399    0.285
         6 -12.3011    126.8228    245.7490   1.2031833897e+02   4.3089769859e+00    0.4488994    0.3170759  56.01  0.002442141    1.428    0.300
         7 -12.2557     93.9426    248.4742   1.2758370038e+02   8.9571321152e+00    0.4397787    0.4140494  35.53  0.002881712    1.235    0.190
         8 -12.4256    107.2415    246.3724   1.2454694443e+02   7.3219566116e+00    0.4710677     0.352478  56.92  0.002708143    1.240    0.194
         9 -12.3605    103.5535    241.5854   1.2471636440e+02   8.8891569388e+00     0.704139    0.4089714 -35.18  0.003097254    2.806    0.644
        10 -11.9306     84.8848    249.1507   1.2952653424e+02   1.0182261454e+01    0.4122451    0.2889596  83.97  0.002340517    1.505    0.335
        11 -12.4469     64.7962    249.2517   1.3359177650e+02   1.3049072665e+01    0.6700981    0.2675853  35.00  0.002965919    2.557    0.609
        12 -15.7118     11.2814    240.6171   1.4310237235e+02   2.1430147605e+01     14.03131     5.119654 -76.18   0.06876963    2.368    0.578
        13 -12.5789     29.3866    222.4744   1.3822374187e+02   2.3419598932e+01    0.3789485    0.3221364 -61.99 0.0007555016    1.388    0.280
        14 -11.3509     57.7850    190.9872   1.2843873457e+02   2.7415625635e+01    0.3922828    0.2612073 -43.53  0.001103181    1.789    0.441
        15 -11.4166     63.9927    183.8091   1.2590588039e+02   2.8360614250e+01    0.3084713    0.2494615 -49.78 0.0004686754    1.315    0.240
        16 -12.0922     50.4273    238.9040   1.3546777112e+02   1.7187208497e+01    0.4459278    0.1921303  54.18  0.002071373    2.183    0.542
        17 -10.6648     74.5085    172.2769   1.2140660224e+02   2.9759995059e+01    0.2592895    0.2369243 -56.69 0.0003930465    1.116    0.104
        18 -12.9486     61.1269    169.5116   1.2445742781e+02   3.2356592855e+01    0.5726171    0.2876882 -44.12  0.001672448    2.276    0.561
        19 -11.5476     82.2786    163.8768   1.1787328648e+02   3.0703277262e+01    0.5687218    0.5339498 -44.05   0.00317473    1.133    0.117
        20 -13.6950     10.3977    206.9541   1.4079141252e+02   2.8976501419e+01     1.160139    0.8004085  53.38  0.003005162    1.414    0.293
        21  -9.8765     96.0006    148.8191   1.1115954859e+02   3.2235279018e+01    0.2759166    0.2168353 -55.89 0.0007669053    1.204    0.170
        22 -12.2159     67.6984    143.9774   1.1814682951e+02   3.7905691097e+01    0.7170791    0.5083946  65.85  0.003012897    1.748    0.428
        23 -11.7854     84.3818    147.6172   1.1414159169e+02   3.4471661368e+01    0.3316068    0.2517496 -45.00 0.0004424014    1.296    0.228
        24 -14.4847     36.0660    214.3575   1.3607844262e+02   2.4509023456e+01      1.84506     1.472706 -33.35  0.007648867    1.833    0.454
        25  -9.3552    108.3312    134.8780   1.0464648658e+02   3.3429519727e+01    0.2942122    0.2083666   1.90   0.00121434    2.162    0.537
        26 -11.2238     57.9417    133.1767   1.1886053477e+02   4.1909589127e+01    0.4165028    0.2308186 -76.61  0.001678721    2.422    0.587
        27 -10.2967     95.4500    131.8023   1.0754675956e+02   3.6508722891e+01    0.2812688    0.2369561 -10.63 0.0004358268    1.393    0.282
        28 -12.2739    133.9431    231.2860   1.1666144027e+02   6.0569892906e+00    0.4771743    0.3031186  32.93  0.002348079    1.549    0.355
        29 -11.0041     54.4252    120.9972   1.1740429979e+02   4.5307753206e+01    0.5552359     0.154187 -65.15  0.001147233    8.611    0.884
        30  -9.1896    105.9457    122.2997   1.0228464629e+02   3.6847583780e+01    0.2017981    0.1897654  27.92 0.0002436861    1.108    0.097
        31 -10.4730    151.0047    228.4916   1.1247515481e+02   3.7311311604e+00    0.2239575    0.1293989  38.16  0.001042234    1.619    0.382
        32  -9.7439    167.8497    112.9290   8.4495408785e+01   2.5840526879e+01    0.3459198    0.2586428 -88.62  0.001208366    1.706    0.414
        33 -11.7483     57.0370    240.4799   1.3428826806e+02   1.5970619776e+01    0.4529475    0.2014603  60.09   0.00185181    2.408    0.585
        34 -12.1011    196.6577     38.0976   6.1647550829e+01   3.1864799161e+01    0.6904389    0.4124419 -86.73  0.003570493    1.803    0.445
        35 -12.6201    201.7660     33.4845   6.0021872077e+01   3.1326508248e+01    0.5881505    0.4159874  85.95  0.003558975    1.252    0.201
        36 -12.0676    164.7861    249.1231   1.1282615312e+02  -2.4724751979e+00    0.7824969    0.2029197  32.93  0.002370965    4.511    0.778
        37 -10.7296     17.6294     25.9193   1.0388175933e+02   6.7549008611e+01    0.2382271    0.1318263  39.14   0.00138953    2.504    0.601
        38 -11.3903    118.5720    249.0079   1.2250430410e+02   4.9944038460e+00    0.3541912    0.2161106  65.99  0.001692528    2.094    0.523
