#   1 NUMBER                 Running object number                                     
#   2 MAG_AUTO               Kron-like elliptical aperture magnitude                    [mag]
#   3 X_IMAGE                Object position along x                                    [pixel]
#   4 Y_IMAGE                Object position along y                                    [pixel]
#   5 X_WORLD                Barycenter position along world x axis                     [deg]
#   6 Y_WORLD                Barycenter position along world y axis                     [deg]
#   7 A_WORLD                Profile RMS along major axis (world units)                 [deg]
#   8 B_WORLD                Profile RMS along minor axis (world units)                 [deg]
#   9 THETA_WORLD            Position angle (CCW/world-x)                               [deg]
#  10 FWHM_WORLD             FWHM assuming a gaussian core                              [deg]
#  11 ELONGATION             A_IMAGE/B_IMAGE                                           
#  12 ELLIPTICITY            1 - B_IMAGE/A_IMAGE                                       
         1 -13.0874    236.8695     39.3571   2.3842471593e+01   2.2925399652e+01    0.9698326    0.7748669  40.62  0.006515273    1.588    0.370
         2 -13.0278    218.9662     52.6423   2.8590172561e+01   2.4861888240e+01     1.079163     1.039908 -57.79  0.007446477    1.123    0.109
         3 -10.5085      7.7591      3.2517   7.8926233929e+01   7.8399282255e+01    0.2220094    0.1495719 -55.08  0.001281287    1.466    0.318
         4 -10.7943    128.0236    229.2700   8.0559073451e+01   1.2694296830e+01    0.2224772    0.1788829  13.60  0.001566558    1.120    0.107
         5 -10.1075    134.6456    249.1377   8.1360366525e+01   9.0854101488e+00     0.190174    0.1479165 -72.33  0.001354586    2.170    0.539
         6 -15.4276      9.1845    240.2962   1.0672079784e+02   2.3408825386e+01     9.544851     6.101159 -89.10   0.05286779    1.753    0.430
         7 -12.6408      4.0097    197.9527   1.0685184449e+02   3.1675339105e+01    0.3273925     0.319208  59.14 0.0008538341    1.274    0.215
         8  -8.4606    198.5252    222.9855   6.6028729484e+01   4.9065877771e+00    0.1429501   0.09813043 -25.87 0.0005042115    1.501    0.334
         9  -9.0247     97.5282    219.4921   8.6149928599e+01   1.8033310716e+01    0.1232103   0.09754912  30.83 9.954118e-05    1.002    0.002
        10 -15.0909     11.7865    192.2491   1.0479553643e+02   3.2259093009e+01     3.240722     1.499203 -80.77   0.01158715    2.234    0.552
        11  -9.5685     71.1175    212.6603   9.1610679273e+01   2.2389691291e+01    0.2424782     0.149697  55.59 0.0006743272    1.624    0.384
        12 -10.4432     40.9379    211.8377   9.8670077930e+01   2.5754193742e+01    0.3201989    0.1733139  54.32  0.001058023    1.636    0.389
        13 -13.7090      9.3501    207.2335   1.0585176729e+02   2.9426784929e+01     2.531648     1.347338  -8.45   0.01228093    3.429    0.708
        14 -10.0383     79.8294    209.1156   8.9236446304e+01   2.2029761995e+01     0.260875    0.1930154  79.81 0.0007422469    1.660    0.398
        15  -8.7677    192.4956    193.9946   6.2697157238e+01   9.3852685226e+00    0.1438179    0.1072199 -59.89 0.0008106815    2.615    0.618
        16 -11.4925     47.4314    167.8529   9.3804280240e+01   3.4337044777e+01    0.3041958    0.2858012 -38.39 0.0004582607    1.252    0.201
        17  -8.4892    110.7437    167.5360   7.6344763386e+01   2.5997962500e+01    0.1839841    0.1176198  41.81 0.0003535826    1.454    0.312
        18  -9.8677     52.2775    158.9464   9.1522561386e+01   3.5861443734e+01    0.3829595    0.1966496  72.25  0.001608321    2.548    0.608
        19 -10.5359     60.8538    158.7110   8.8964932781e+01   3.4908957323e+01    0.2518617    0.2409432  20.03  0.000442254    1.125    0.111
        20 -11.7132     74.7526    138.1398   8.1864535785e+01   3.7943725672e+01    0.4453384     0.347446 -68.70 0.0004599554    1.359    0.264
        21 -13.0280     68.2802    143.8881   8.4773280886e+01   3.7461792669e+01     1.696007    0.7940989  61.17  0.003028488    3.279    0.695
        22  -8.7975     85.7506    152.3971   8.0807506495e+01   3.3021351628e+01    0.2128583    0.1870779  85.88 0.0008737919    1.252    0.201
        23 -11.1977    239.1646    147.5132   4.6653462186e+01   9.1367557450e+00    0.3814053    0.1285171 -32.42  0.001760618    2.527    0.604
        24 -10.2899     87.5108    140.8481   7.8395968477e+01   3.5407833926e+01    0.3083566    0.2846552 -62.67 0.0009226118    1.154    0.133
        25  -9.2097     91.6029    137.8523   7.6635288764e+01   3.5460263645e+01    0.2431821    0.1917305  21.65 0.0003871285    1.299    0.230
        26 -12.9301     45.6890    154.3098   9.3015281113e+01   3.7682892838e+01    0.5731523    0.4382328 -38.33  0.001563109    1.572    0.364
        27 -10.1413    104.6899    130.2901   7.1291630117e+01   3.4999270611e+01    0.5621777    0.3202204  36.22  0.002452037    1.661    0.398
        28 -11.9604     69.9830    152.7405   8.5500204302e+01   3.5141543005e+01     0.686778     0.446792  40.09  0.001294239    1.390    0.280
        29 -11.0981     80.3744    249.3285   9.2397660260e+01   1.5164310066e+01    0.3870953    0.1624311  40.23  0.002182759    1.775    0.436
        30 -11.2146    244.6098    125.5031   4.1629557985e+01   1.1136655157e+01    0.3423712    0.1263669 -30.05  0.001618451    2.277    0.561
        31 -10.6098     66.5024    126.4863   8.2613786075e+01   4.1949622137e+01    0.3408022    0.2301323 -37.25  0.001593681    1.756    0.430
        32  -9.8531     89.1546    125.5517   7.5040086551e+01   3.8730513311e+01    0.3372603    0.2612273  16.75 0.0006614083    1.420    0.296
        33 -12.0049     52.6139    115.1246   8.5580804696e+01   4.6640496759e+01     1.531105    0.4303339 -73.86  0.003694645    6.353    0.843
        34  -8.9881    102.1061    118.4162   6.9509370829e+01   3.8147057191e+01    0.2254896    0.2004984 -31.23 0.0003659307    1.193    0.161
        35  -9.4490     96.0000    243.9689   8.8732283152e+01   1.4260549350e+01    0.1473302   0.06689971 -62.11 0.0008052951    2.962    0.662
        36  -9.1271    204.4713    110.9198   4.4346111140e+01   1.9686609432e+01    0.2775511    0.1590388  30.51  0.001337796    2.113    0.527
        37  -9.4435    245.3058    109.9596   3.8401448598e+01   1.2985782892e+01    0.1967447   0.06287252 -44.92 0.0007042264    4.260    0.765
        38  -7.7520     36.3249     99.6815   8.9361421909e+01   5.2477786589e+01    0.1523319   0.09957358  59.92 0.0007045303    1.675    0.403
        39  -9.1798     56.0414     94.5432   8.0316278322e+01   5.1467263917e+01    0.2867278    0.1320898  35.74 0.0008822154    2.086    0.521
        40 -10.0966     53.0936     90.7372   8.0682461921e+01   5.2837060867e+01    0.4148368    0.2418903 -55.38  0.001492385    1.654    0.395
        41 -10.5727    244.9017     93.6103   3.5042377228e+01   1.5091465441e+01    0.3065931    0.1043324  50.99  0.001400826    3.373    0.704
        42  -9.2943     41.4839     92.0479   8.5853758681e+01   5.3923783402e+01    0.2116266    0.1942393  29.08  0.000451287    1.120    0.107
        43  -9.5707    166.2310     87.1911   4.5267115025e+01   3.1107941240e+01    0.2452348    0.1530425  13.20 0.0009509418    2.779    0.640
        44  -9.5905    184.6557     77.0500   3.9287656368e+01   2.8715606138e+01    0.2449955    0.1887902  22.70 0.0007233067    1.551    0.355
        45 -10.4407      6.0092     65.7691   9.8428503950e+01   6.3564992423e+01    0.2528007    0.1620282  80.22  0.001291973    1.633    0.388
        46 -10.5080      2.0423     62.0229   1.0009691641e+02   6.4680417529e+01    0.3286459     0.173907 -81.25  0.001472304    1.745    0.427
        47 -10.6599     13.3667     60.0636   9.3510323595e+01   6.4665576704e+01    0.4209359    0.2452146  50.81  0.001803852    1.975    0.494
        48 -10.9449     11.3562     53.3140   9.3398133250e+01   6.6501343108e+01    0.4098043     0.190422 -51.32  0.001855466    1.878    0.467
        49 -13.0981     39.2923    173.8177   9.6584786969e+01   3.3828490364e+01     1.491824     1.038442 -15.14 0.0005556162    1.996    0.499
        50  -9.4870    249.6285    248.2188   6.1299730435e+01  -3.0123417750e+00    0.1313915   0.06639052 -15.54 0.0008897132    1.661    0.398
        51  -8.9698     85.0001     50.4951   5.4988669916e+01   5.6476672920e+01     0.210817    0.1337434  70.87 0.0008095085    2.454    0.592
        52 -10.9060    102.0663    238.8643   8.7011092722e+01   1.4347775769e+01    0.2255277    0.1842648 -72.74  0.001440981    1.682    0.406
        53  -9.2481      2.4879     44.4935   9.7309936888e+01   6.9117509144e+01    0.1303595    0.1158536 -58.09  0.000810504    1.013    0.012
        54 -10.1447      3.0717     38.3358   9.5764437803e+01   7.0626163531e+01    0.3021301    0.1700158  35.82  0.001517298    2.000    0.500
        55 -10.8207      2.6257     21.4728   9.1932756094e+01   7.4695975880e+01    0.3486078    0.1521112 -73.95   0.00156011    2.313    0.568
