#   1 NUMBER                 Running object number                                     
#   2 MAG_AUTO               Kron-like elliptical aperture magnitude                    [mag]
#   3 X_IMAGE                Object position along x                                    [pixel]
#   4 Y_IMAGE                Object position along y                                    [pixel]
#   5 X_WORLD                Barycenter position along world x axis                     [deg]
#   6 Y_WORLD                Barycenter position along world y axis                     [deg]
#   7 A_WORLD                Profile RMS along major axis (world units)                 [deg]
#   8 B_WORLD                Profile RMS along minor axis (world units)                 [deg]
#   9 THETA_WORLD            Position angle (CCW/world-x)                               [deg]
#  10 FWHM_WORLD             FWHM assuming a gaussian core                              [deg]
#  11 ELONGATION             A_IMAGE/B_IMAGE                                           
#  12 ELLIPTICITY            1 - B_IMAGE/A_IMAGE                                       
         1 -16.8801    196.3479    111.0635   6.8526247760e+01   1.9312560200e+01     13.15103     8.401481 -53.68   0.05645013    1.783    0.439
         2 -15.3498    224.3687     84.5385   5.6848781594e+01   1.7552883074e+01     3.199654     1.022685 -51.11  0.008242818    5.432    0.816
         3 -15.8348    221.2322     24.2859   4.2024613746e+01   2.6941766819e+01     3.122676     1.747399   9.35   0.01085406    4.810    0.792
         4 -18.2114    244.9582     50.8840   4.5928252512e+01   1.8047351783e+01     6.625392     2.516394 -33.53   0.02096423    2.371    0.578
         5 -13.5698    249.2310     16.0316   3.7591040578e+01   2.1552889152e+01    0.3731635    0.3403674 -58.33  0.001342628    1.168    0.144
         6 -15.1953     20.3181     14.2373   8.9848083703e+01   7.0694569952e+01     2.818298     1.926064   9.93   0.01899103    1.434    0.303
         7 -11.5333    138.2862      6.3174   4.7663267350e+01   4.9508920866e+01    0.6033412    0.2784261  -4.96  0.002385719    3.146    0.682
         8 -12.6188    133.9422     16.0433   5.1894679952e+01   4.9658794580e+01     0.869933    0.4607016  -2.26  0.003591492    2.689    0.628
         9  -9.4222    200.8753     12.3212   4.1086357351e+01   3.3220051609e+01    0.2097047    0.1921604  -3.22 0.0009682756    1.329    0.248
        10 -11.3685    113.8801      2.9101   5.0995535889e+01   5.5667849944e+01     0.661772    0.2168988  64.99  0.002449816    3.024    0.669
        11 -10.7070    115.8159     12.4197   5.4308307439e+01   5.4363203750e+01    0.3527808     0.225994  51.99  0.001297198    1.382    0.276
        12 -12.2405    120.2315      8.9810   5.2030167060e+01   5.3649330162e+01    0.5253783    0.4504116 -30.54   0.00190674    1.297    0.229
        13  -9.6582    205.3622      7.8214   3.9458903255e+01   3.2588183079e+01    0.2714929    0.1343913  48.62  0.001223488    2.331    0.571
        14 -10.8356    249.2690      4.4830   3.5084509289e+01   2.2829354934e+01    0.1819773    0.1515035 -64.63 0.0002883096    1.052    0.049
        15 -12.2997    241.8181      3.9088   3.5481135745e+01   2.4513832372e+01    0.7289934    0.1703265  57.88  0.002586586    4.498    0.778
        16 -12.8474    234.5131      2.5488   3.5709854901e+01   2.6284556377e+01    0.5615951    0.2069582  57.46  0.002443726    2.892    0.654
        17 -10.8639    130.9035      5.9524   4.8830423792e+01   5.1352058084e+01    0.2656383    0.2000112   2.30  0.001387793    1.488    0.328
        18 -10.4580     92.9112      6.0413   5.7258110174e+01   6.0087637850e+01    0.3114555    0.1726184  -3.69  0.001509944    2.076    0.518
        19  -9.2466    158.8494      2.5670   4.3301978670e+01   4.4693653556e+01    0.2463768     0.163182  15.89 0.0009529566    1.943    0.485
        20  -9.8946    169.1011     25.0382   4.8805001265e+01   3.9829955245e+01    0.6536252    0.3725491  23.84   0.00209613    2.728    0.633
        21  -9.7245    238.5404    213.1198   8.2733556261e+01  -5.7544072539e+00    0.3053651    0.1426661  34.99  0.001428943    1.948    0.487
        22  -8.9953     96.3025    126.0045   9.6642849071e+01   3.7419289011e+01    0.2079149    0.1828541 -58.70 0.0005209623    1.073    0.068
        23 -10.8289    142.7352    122.9044   8.3550120513e+01   2.9051915997e+01    0.4465355    0.3307854  82.56  0.001912874    1.925    0.481
        24  -9.3090    249.2936    162.5910   7.0951665059e+01  -2.5120317570e-01    0.1750654    0.1167752  26.41 0.0005447232    1.564    0.361
        25 -10.5343    162.0688    112.4809   7.6194244271e+01   2.6957050658e+01    0.3219065    0.2532209 -57.81 0.0007342767    1.391    0.281
        26 -11.6596    168.9716    115.5918   7.5442952998e+01   2.4734507876e+01    0.5420325    0.4596764 -24.54  0.001783098    1.220    0.180
        27 -11.7437    164.4848    116.3330   7.6652892416e+01   2.5609584734e+01    0.4914482    0.3803769 -38.89  0.002316645    1.272    0.214
        28  -9.0734    117.8057    160.7406   9.8118074603e+01   2.5469340212e+01     0.198828    0.1629953  79.16 0.0003007495    1.335    0.251
        29 -10.8797    204.2794    189.6723   8.4701615820e+01   3.3948209281e+00    0.3843837    0.2498997  57.75  0.001675755    2.173    0.540
        30  -9.5994    181.0241    211.1420   9.3195933052e+01   3.9957451649e+00    0.3165652    0.1577435  56.30  0.001238302    3.186    0.686
        31 -10.9757    145.3140    147.1090   8.8637785599e+01   2.3188238979e+01    0.8086532    0.4340591 -70.59  0.002383721    4.362    0.771
        32 -10.1884    180.5744    188.3310   8.9213082648e+01   7.9758091768e+00    0.2437152    0.2155322  17.56  0.000379708    1.061    0.058
        33 -11.2317    156.6721    155.0239   8.7701726334e+01   1.9167984713e+01    0.9140167    0.5595257 -89.53   0.00249354    5.204    0.808
        34  -9.9897    145.7874    105.4750   7.8195184890e+01   3.2138019537e+01    0.2931926    0.2780434 -41.39 0.0006309553    1.038    0.036
        35 -10.8973    155.5241    101.8218   7.4825742601e+01   3.0659062232e+01    0.6252133    0.3202752  41.43  0.002150913    2.081    0.519
        36 -11.2848    246.0325    182.4359   7.5583271287e+01  -2.6693855710e+00    0.7455229    0.2560847  48.78  0.002694765    4.119    0.757
        37  -8.6195     65.4012    183.2062   1.1395044709e+02   2.8597984161e+01    0.1126389   0.09966668   1.17 0.0006807149    1.626    0.385
        38 -11.0918    133.6925    145.2681   9.1061591023e+01   2.5942653040e+01     1.354799    0.3162434 -54.23  0.002959868    6.738    0.852
        39 -12.4435    168.6432     96.4859   7.0345602612e+01   2.8620520915e+01    0.7870296    0.6499819  41.73  0.002601566    1.244    0.196
        40 -11.5817    205.8624    184.3174   8.3344500434e+01   3.9935716611e+00    0.4195999    0.2777199  30.30  0.001355876    1.451    0.311
        41 -11.2560    175.8221     93.2628   6.7906589036e+01   2.7512287238e+01    0.3369741    0.2905043 -63.24 0.0003198021    1.255    0.203
        42 -11.4455    192.2064    153.6705   7.9639602945e+01   1.2105478075e+01    0.4475257    0.3635622 -17.11   0.00192651    1.273    0.215
        43 -10.7902    173.4157    149.8385   8.2785206773e+01   1.6761979924e+01    0.3048852    0.2496679  35.82 0.0007660004    1.211    0.174
        44 -12.2447     48.3328    145.9649   1.1329556200e+02   3.9383243549e+01    0.4023379     0.352688  -7.71 0.0008706063    1.541    0.351
        45 -14.3228     60.8881    141.7722   1.0937924820e+02   3.8879675976e+01     1.833885     1.433483   3.90  0.006294513    1.805    0.446
        46 -12.0536    140.3441     79.3648   7.1926108060e+01   3.8671486842e+01    0.6306306    0.5383495  61.76    0.0025466    1.256    0.204
        47 -10.9485    126.5211     76.5292   7.4614261910e+01   4.2388656786e+01    0.4066587    0.2662801  30.39  0.001619317    1.778    0.438
        48 -10.6386    109.3844     75.5822   7.9133654768e+01   4.6259232609e+01    0.3796848    0.2773926  16.97 0.0002684569    1.668    0.400
        49  -8.8917     84.6602     76.6806   8.7195350769e+01   5.0690911162e+01    0.1514512    0.1091697 -11.66 0.0005382624    1.713    0.416
        50 -11.6936    125.4885     67.2110   7.1869461601e+01   4.4372625386e+01     0.614572    0.2503033 -35.35  0.002168349    2.500    0.600
        51 -10.6191    222.5576    206.8782   8.4473895223e+01  -2.3821685468e+00     0.327906    0.2274656 -58.56  0.001661059    2.641    0.621
        52  -8.8282     72.5685     58.4875   8.5335514248e+01   5.6363159979e+01    0.1394925    0.1226967 -22.90 8.970377e-05    1.014    0.014
        53 -12.5551    201.6823    174.6589   8.2218800190e+01   6.4162157334e+00    0.7643027    0.4714919  44.92  0.003353331    1.641    0.391
        54 -11.4678    125.2418     29.7102   5.8722217411e+01   5.0218331276e+01    0.3220662    0.2623343 -11.94  0.001001319    1.285    0.222
        55 -12.8425    125.0102     36.9522   6.1430472416e+01   4.9327037451e+01    0.6016251    0.5948504  39.22  0.001871886    1.094    0.086
        56 -12.1925    116.6413     33.5738   6.2253167207e+01   5.1731676917e+01    0.4704176    0.3369218 -39.58  0.002406253    1.512    0.339
        57  -9.0046     91.8746     37.8400   7.0964469854e+01   5.6455342410e+01    0.1760661     0.160584 -39.83 0.0003813741    1.269    0.212
        58 -10.0121    210.8934    202.0813   8.5772168751e+01   2.7094595903e-01    0.1846685    0.1701261  32.79  0.001176496    1.256    0.204
        59  -9.7213    172.4014     34.4921   5.1177022663e+01   3.7836139694e+01     0.363638    0.2049529  79.57  0.001516317    2.115    0.527
        60 -10.6752    167.1884     32.2325   5.1336423758e+01   3.9453266776e+01    0.4714665    0.2634976 -12.25  0.001944064    2.429    0.588
        61 -10.3047    192.1810    144.1276   7.7472692749e+01   1.3926460136e+01    0.2460118    0.2273681  58.24 0.0002775346    1.206    0.171
        62 -11.1626    179.2103     23.9755   4.6995591886e+01   3.7375067050e+01     0.597609    0.3863814  68.21  0.002971863    1.450    0.310
        63 -10.4418    242.4981    200.2696   7.9666464714e+01  -4.6318858994e+00    0.2230623    0.1927919   8.77 0.0002489734    1.155    0.134
        64 -11.6068    194.5113    198.0156   8.8199673991e+01   3.7718794695e+00    0.4056631    0.3829474 -75.17  0.002087648    1.406    0.289
        65 -10.7469    152.3340     21.5268   5.0419662989e+01   4.4491029493e+01    0.3433661    0.2276987  60.84  0.001117168    1.378    0.274
        66 -10.8380    158.9580    142.8816   8.4464436049e+01   2.1253183957e+01    0.3256193    0.2749123 -62.59  0.001052282    1.310    0.237
        67  -8.9671    172.0121     15.9748   4.5620051659e+01   4.0085756364e+01     0.207015    0.1521599  35.49 0.0006272203    1.540    0.351
        68 -11.4039    191.5358    192.2030   8.7709809563e+01   5.2796966532e+00    0.6067083    0.3462025 -62.40  0.002306481    3.689    0.729
        69  -9.9347    112.0147    248.1552   1.1167644941e+02   9.1625296250e+00    0.1703309    0.1477361  64.35 0.0002825909    1.131    0.116
        70 -13.1669      7.0179    156.2750   1.2444761985e+02   4.0865460273e+01     2.138544    0.6150994 -84.44  0.008014396    3.706    0.730
        71 -13.4889     21.1385    156.8080   1.2125121452e+02   3.9574178627e+01    0.8459278    0.6703071 -86.56  0.003589152    1.019    0.019
        72 -11.2492    147.6649    144.2272   8.7431375678e+01   2.3332430295e+01    0.4411748    0.3069222 -88.30  0.001568484    2.360    0.576
        73  -9.3440    135.7619    240.9465   1.0641492794e+02   6.6880634507e+00    0.1945514    0.1304284  74.19  0.001083569    2.040    0.510
        74  -9.8750    166.7835    134.1752   8.0611883029e+01   2.1394320612e+01    0.2289913    0.2133974 -74.13 0.0005863452    1.182    0.154
        75 -14.9859    236.0197     55.8027   4.8125234074e+01   1.9337523530e+01    0.5306721    0.4252114 -35.47  0.001893204    1.198    0.165
        76 -12.0345    159.9524    128.8851   8.0891291217e+01   2.4002171169e+01    0.5390499    0.4465102 -13.57  0.002294311    1.377    0.274
        77  -8.4448     66.2541    167.6588   1.1180130651e+02   3.2025771988e+01    0.1364354   0.09083623  78.52 0.0003419494    1.578    0.366
        78  -9.3560    163.1596     23.0782   4.9126173077e+01   4.1569246573e+01    0.2050336    0.1774738  31.70 0.0003631265    1.242    0.195
        79 -11.6086    196.5098    159.3718   8.0017951871e+01   1.0168037090e+01    0.6246733    0.3885414  68.36  0.001917103    3.014    0.668
