#   1 NUMBER                 Running object number                                     
#   2 MAG_AUTO               Kron-like elliptical aperture magnitude                    [mag]
#   3 X_IMAGE                Object position along x                                    [pixel]
#   4 Y_IMAGE                Object position along y                                    [pixel]
#   5 X_WORLD                Barycenter position along world x axis                     [deg]
#   6 Y_WORLD                Barycenter position along world y axis                     [deg]
#   7 A_WORLD                Profile RMS along major axis (world units)                 [deg]
#   8 B_WORLD                Profile RMS along minor axis (world units)                 [deg]
#   9 THETA_WORLD            Position angle (CCW/world-x)                               [deg]
#  10 FWHM_WORLD             FWHM assuming a gaussian core                              [deg]
#  11 ELONGATION             A_IMAGE/B_IMAGE                                           
#  12 ELLIPTICITY            1 - B_IMAGE/A_IMAGE                                       
         1 -11.7030    237.6193     32.0052   1.9697304743e+01   2.6002098896e+01    0.5961239    0.4693512 -73.00  0.003017136    1.159    0.137
         2  -8.5791     79.4796     15.3877   3.6329157179e+01   6.0032839448e+01    0.2676953    0.1838781 -67.25  0.001321322    2.034    0.508
         3 -10.0458    120.0760      8.9389   2.6271439162e+01   5.1564669261e+01    0.4161163    0.3103847  86.32  0.002758207    1.156    0.135
         4  -8.7160     97.9785      6.5962   2.9257916312e+01   5.6723693705e+01     0.163525    0.1456727  75.57  0.000114347    1.141    0.124
         5  -8.7637      6.4947      6.9886   6.5278353776e+01   7.4241555782e+01    0.1639359   0.08327672 -15.99 0.0008103593    2.574    0.611
         6  -8.7943    221.9009    245.2008   5.7011512563e+01  -4.6116461642e+00     0.188965    0.1280592   1.18 0.0009155118    1.301    0.231
         7  -7.4273     90.0012    250.7760   8.6480000238e+01   8.4506192872e+00    0.1824136   0.09746496  23.68   0.00046198    1.598    0.374
         8  -8.0845     61.3941    250.3530   9.3669031126e+01   1.1764220270e+01    0.2682126    0.1748946   6.19 0.0006464326    1.617    0.382
         9  -8.1414     57.8378    249.3884   9.4482997863e+01   1.2358166556e+01    0.2690282    0.1485897 -68.30  0.001312119    2.092    0.522
        10  -9.0587     30.4998    249.9520   1.0139507702e+02   1.5028060947e+01    0.5353671    0.2189743   7.19  0.001916082    3.722    0.731
        11 -12.8621     72.0617    217.3697   8.7297972279e+01   1.8080032516e+01     6.045856     2.053031  23.02   0.02068129    2.814    0.645
        12  -9.1213    248.3892    244.8027   5.2637774924e+01  -6.6690850201e+00    0.1581836   0.06842674 -33.23 0.0009545583    1.699    0.411
        13 -12.7829      9.5723    209.2578   1.0411327498e+02   2.6504148445e+01     1.844388     1.474563  64.13  0.007613746    1.199    0.166
        14  -8.4237     49.1413    238.7963   9.5773082088e+01   1.5646335634e+01    0.2164753    0.1884236 -83.79 0.0005903703    1.284    0.221
        15  -8.2598    100.3084    236.8238   8.2183932709e+01   1.0168146166e+01    0.2985659    0.1199262 -54.98  0.001204593    2.625    0.619
        16  -8.8440    114.9230    242.0129   7.9181773972e+01   7.3074159908e+00    0.2021127    0.1718256   3.41 0.0002871767    1.025    0.024
        17  -7.5574    145.5507    237.4992   7.1222204467e+01   4.5365013099e+00     0.134351    0.1130752  -1.12 3.698222e-05    1.032    0.031
        18 -11.2777      5.0995    249.3073   1.0751217579e+02   1.7440937287e+01     1.066095    0.3531811  19.78  0.004368639    2.883    0.653
        19  -8.5942    123.6465    230.1596   7.5382415935e+01   8.6806026838e+00    0.2039455    0.1146911 -40.60 0.0009526976    1.802    0.445
        20 -11.5055     21.9611    193.7821   9.9342855704e+01   2.9450777489e+01    0.6898214    0.5265546 -10.10  0.001249075    1.477    0.323
        21 -10.2481     41.1328    213.3022   9.5579990738e+01   2.2591220819e+01    0.5905249    0.3233975  73.07  0.001726406    2.430    0.588
        22  -8.9142     25.2709    214.0946   1.0011358533e+02   2.3947486036e+01    0.2480692     0.239812  73.27 0.0007444799    1.059    0.056
        23  -9.2904     22.2683    211.7778   1.0076669242e+02   2.4799946804e+01    0.2617539    0.2203127 -12.09  0.001054615    1.327    0.247
        24 -13.6210     32.8691    185.4122   9.5171953249e+01   3.0657683623e+01     5.224325     2.224755  68.24   0.01556905    4.328    0.769
        25 -13.4900      8.6200    235.9376   1.0597629015e+02   2.0151316846e+01     2.379864     1.310656  12.36  0.006295241    1.954    0.488
        26  -8.9627    123.9929    205.9962   7.1597679841e+01   1.3859686392e+01    0.2064619    0.1872154   3.79            0    1.035    0.034
        27  -7.7356     72.4235    203.2122   8.5378066386e+01   2.1513703452e+01    0.1981802     0.147213 -85.35 0.0006647508    1.653    0.395
        28 -11.3481     52.4956    229.0108   9.3966810948e+01   1.7557215043e+01    0.9819379    0.6113862  57.46  0.003422698    1.794    0.443
        29 -10.6609     13.5512    185.9976   1.0120828933e+02   3.2203490291e+01    0.6641145    0.3814978  73.72  0.002956136    1.967    0.492
        30  -9.2910      2.5704    181.1644   1.0417638771e+02   3.4278639884e+01    0.5181231    0.2917947  87.64    0.0019343    1.840    0.456
        31 -10.5921      5.6387    189.7468   1.0388101340e+02   3.1808057286e+01    0.7210443    0.2864762 -59.63  0.002161019    2.347    0.574
        32  -9.9727      1.9778    187.5918   1.0481239967e+02   3.2626209498e+01    0.5840968    0.2003096 -79.05   0.00214311    2.863    0.651
        33 -10.8368      7.8464    172.4447   1.0183419284e+02   3.6248219610e+01    0.6980304    0.5526577   1.72  0.002228912    1.359    0.264
        34  -9.1034      7.2877    182.5779   1.0284346914e+02   3.3579576041e+01    0.3283034    0.2212134  33.51  0.001331379    1.451    0.311
        35 -10.0382      7.9640    178.8528   1.0233556372e+02   3.4522681538e+01    0.4561283    0.2679831  45.18  0.002143494    1.702    0.413
        36  -9.9369      9.9142    194.6186   1.0298127312e+02   3.0220570060e+01    0.4483738    0.2413439  71.91   0.00196627    2.082    0.520
        37  -9.6515    128.8200    191.0775   6.7850905970e+01   1.6523166071e+01    0.2537805     0.215096 -23.98 0.0003242834    1.131    0.116
        38  -8.3286     67.4534    191.8788   8.5297400721e+01   2.5027250475e+01    0.2449099    0.1949518  36.14 0.0003865609    1.214    0.176
        39  -7.5509    134.7634    188.6616   6.5924019802e+01   1.6181828601e+01     0.193136    0.1281555  36.51 0.0002423934    1.538    0.350
        40  -8.7201     72.0905    177.4936   8.1730488308e+01   2.8160199075e+01    0.2794565    0.2260774 -33.27 0.0006371203    1.281    0.220
        41 -10.1791     52.5550    170.3300   8.6912796056e+01   3.2574905359e+01    0.5417349    0.3193755 -24.38  0.001808009    2.172    0.540
        42  -9.9721     58.5550    165.3895   8.4176689774e+01   3.3159688033e+01    0.3689302    0.3169034   3.96  0.000814006    1.177    0.150
        43  -8.1707    216.2260    168.2018   4.5639649184e+01   8.7036423649e+00    0.1745174    0.1389598 -29.72 0.0004827047    1.093    0.085
        44  -7.7514    110.4536    167.9557   6.8567840102e+01   2.4808612084e+01    0.2254779    0.1512764 -54.46  0.001004304    1.537    0.349
        45  -9.2537      1.5699    164.0392   1.0315486110e+02   3.8920043446e+01    0.4249282    0.1103085 -63.99  0.001440577    3.034    0.670
        46 -10.9157     49.8860    121.5069   7.9338334249e+01   4.5923197941e+01    0.5899228    0.4097283  56.12  0.002637776    1.785    0.440
        47 -10.1175     70.0673    157.2185   7.8974554335e+01   3.3779598052e+01    0.5555269    0.3582927 -57.85 0.0004315239    1.572    0.364
        48 -12.0223     68.0483    144.8894   7.7370894567e+01   3.7312505703e+01     1.458881    0.9448171  76.51  0.003963074    2.456    0.593
        49 -11.6155     61.8329    133.0678   7.7229903327e+01   4.1292986171e+01     1.160973    0.6798234  30.95  0.004895192    1.641    0.391
        50  -8.9692     52.8625    159.2070   8.5113635128e+01   3.5538751830e+01    0.3376608    0.2140847  60.24  0.001389754    2.000    0.500
        51  -8.0448     37.5372    160.4583   9.0568760001e+01   3.6945009510e+01     0.148743    0.1449206 -22.76 2.331631e-05    1.008    0.008
        52  -7.3531    229.3133    157.7115   4.1875393799e+01   8.8420149423e+00    0.1081878   0.08425778 -66.08 0.0002375078    1.585    0.369
        53 -10.2476     14.9923    246.9627   1.0501689074e+02   1.7113988597e+01    0.2893106    0.2408444  44.09 0.0003362886    1.030    0.029
        54 -11.4260     56.0914    152.5300   8.2900707716e+01   3.6929324939e+01    0.5657539    0.3586808 -27.35  0.001139262    1.861    0.463
        55  -7.4982     82.4923    153.4979   7.4221259167e+01   3.2896412048e+01    0.1570334    0.1502794   3.39 9.916657e-05    1.001    0.001
        56 -10.2446     77.9574    151.3115   7.5274187647e+01   3.4159264568e+01    0.5842453    0.4030545  -9.37  0.001172445    1.822    0.451
        57  -9.0960     47.6507    148.7437   8.5236474175e+01   3.8998995567e+01    0.3185299    0.2219034  73.82 0.0009184281    1.866    0.464
        58  -8.6785    142.6579    146.5635   5.5866309421e+01   2.4250939783e+01    0.3019853    0.2280521 -20.83 0.0008813559    1.535    0.348
        59  -9.1925     13.5499    145.9413   9.7209502933e+01   4.3044121128e+01    0.3992223    0.2361238 -33.15  0.001781681    1.789    0.441
        60  -8.7651     94.8958    138.2939   6.7174647297e+01   3.4676186444e+01    0.4240724    0.2973444   1.65  0.001806173    1.855    0.461
        61  -7.8054     42.2927    139.6907   8.5667157109e+01   4.2066673875e+01    0.1544439    0.1146543  58.97  0.000227236    1.585    0.369
        62 -10.2524     81.5240    137.1069   7.1226562442e+01   3.7224981408e+01    0.3150838    0.2831084 -36.45 0.0004578159    1.121    0.108
        63  -8.2471     37.9820    135.9204   8.6644607445e+01   4.3560972724e+01    0.2298518    0.2239662  22.57 0.0005529469    1.067    0.063
        64  -8.4919     28.0182    134.9678   9.0295027028e+01   4.4827430052e+01    0.2194571    0.2030224 -24.54 0.0003399217    1.038    0.037
        65  -8.9207      8.2614    133.4028   9.7679825164e+01   4.6799929607e+01    0.1987505    0.1271228  27.82 0.0008503663    1.613    0.380
        66  -8.7356    246.2258    132.2543   3.5427939818e+01   1.0821205003e+01    0.1847408   0.06706831 -50.60 0.0008866629    2.419    0.587
        67 -10.4261      2.2098    128.9996   9.9492380592e+01   4.8334305883e+01    0.5304396    0.2590482 -73.00  0.002054738    1.942    0.485
        68  -7.8277     92.7086    159.7980   7.2224664428e+01   2.9682104873e+01    0.2044937     0.178843  74.20 0.0004655761    1.356    0.262
        69  -7.6210    104.5757    118.5038   5.9719337179e+01   3.7563989341e+01    0.1496449    0.1463049  15.80  7.21531e-05    1.014    0.013
        70  -7.4429     82.7854    115.6181   6.5939346002e+01   4.2249676689e+01    0.2186488    0.1360066  44.19 0.0006136316    1.622    0.384
        71  -7.4350     79.4517    111.9709   6.6195768420e+01   4.3690755879e+01    0.2083558    0.1401062 -84.65 0.0008078648    2.502    0.600
        72  -7.9411     32.9687    112.3030   8.4303355920e+01   5.0303901116e+01    0.2511709   0.07174811  40.71 0.0007036873    4.182    0.761
        73  -7.7076    106.7132    129.4556   6.1638631116e+01   3.4662499062e+01     0.208136    0.1470737  23.19 0.0006889029    1.555    0.357
        74  -8.3925     51.1403    103.1734   7.4724069532e+01   5.0307821715e+01    0.2066733    0.1790973  57.69 0.0006890849    1.356    0.263
        75  -8.1062      4.8276     97.3838   9.3982726884e+01   5.6401289494e+01    0.1902063    0.1201249  -9.95 0.0003341499    1.578    0.366
        76  -8.1383    195.6243     90.1477   3.4274476408e+01   2.5249389164e+01    0.1663152    0.1341565 -52.46  0.000452392    1.116    0.104
        77  -6.9814    129.2564     90.2924   4.6209420978e+01   3.8346026601e+01    0.1298741    0.1118401   5.19 0.0001591659    1.491    0.329
        78  -7.4861    208.4553     87.5300   3.2116597599e+01   2.3419499494e+01    0.1170663    0.0985206 -60.07 8.286694e-05    1.051    0.049
        79  -8.1918    122.1666     86.8480   4.7028191450e+01   4.0473892420e+01     0.203327    0.1796443  83.08 0.0002814116    1.172    0.147
        80  -8.6761      3.0198     81.6572   9.2025281248e+01   6.0331291984e+01    0.2342824    0.1376093 -63.82  0.001026788    1.676    0.403
        81  -7.7446     35.8803     78.6536   7.5072807580e+01   5.7992970619e+01    0.1952213    0.1652364  16.87 0.0005366963    1.099    0.090
        82  -8.5605     93.9288     72.9852   5.0889893514e+01   4.8952368304e+01    0.2096075    0.1878504  47.62            0    1.019    0.019
        83  -7.3629    162.4567     68.6293   3.4607291396e+01   3.5004902347e+01    0.1253788    0.1103117  88.40 0.0001121322    1.037    0.036
        84  -8.2489    248.9721    250.0000   5.3288471610e+01  -7.4346620182e+00    0.1474622    0.0527291  22.16 0.0008102127    2.997    0.666
        85 -11.2859    209.4686     52.0285   2.5390821375e+01   2.8289996800e+01    0.5609916    0.3651657 -85.94  0.002908414    1.467    0.318
        86 -11.5524    218.7021     47.6864   2.3770158016e+01   2.7237314835e+01    0.7359869    0.4646116  82.73  0.005070802    1.539    0.350
        87 -11.2440    226.4621     40.5381   2.1900161318e+01   2.6811742565e+01    0.7099943    0.3275452  59.94   0.00198875    2.522    0.604
        88  -7.2772     92.0056     57.2501   4.6748605336e+01   5.1988090646e+01     0.169864    0.1063959  50.07            0    1.407    0.289
        89  -9.0576      6.4861     56.5360   8.4306381099e+01   6.5705407150e+01    0.2572765    0.2049769  28.27  0.001109652    1.391    0.281
        90  -8.2737    143.1149     52.0132   3.3847346430e+01   4.1518511888e+01    0.1846279    0.1632506  81.99 0.0002875481    1.043    0.041
        91  -8.3979    180.9834     31.9324   2.4292920928e+01   3.6158312304e+01    0.1710048    0.1359741 -79.97 0.0003014858    1.011    0.010
        92  -8.0926     80.1878    248.1099   8.8665848266e+01   1.0140078876e+01     0.287523    0.1638404 -66.29  0.001005348    2.122    0.529
        93  -9.2059     41.2723    247.0855   9.8490356405e+01   1.4597809965e+01    0.4552728    0.2734573  52.83  0.001725695    1.667    0.400
        94  -9.2531     40.1750    239.3544   9.8155741268e+01   1.6448280067e+01    0.5041537    0.2586292 -34.08  0.001479432    2.745    0.636
