#   1 NUMBER                 Running object number                                     
#   2 MAG_AUTO               Kron-like elliptical aperture magnitude                    [mag]
#   3 X_IMAGE                Object position along x                                    [pixel]
#   4 Y_IMAGE                Object position along y                                    [pixel]
#   5 X_WORLD                Barycenter position along world x axis                     [deg]
#   6 Y_WORLD                Barycenter position along world y axis                     [deg]
#   7 A_WORLD                Profile RMS along major axis (world units)                 [deg]
#   8 B_WORLD                Profile RMS along minor axis (world units)                 [deg]
#   9 THETA_WORLD            Position angle (CCW/world-x)                               [deg]
#  10 FWHM_WORLD             FWHM assuming a gaussian core                              [deg]
#  11 ELONGATION             A_IMAGE/B_IMAGE                                           
#  12 ELLIPTICITY            1 - B_IMAGE/A_IMAGE                                       
         1  99.0000    227.1358      5.6182   3.1294086916e+01   2.8651362050e+01     1.511989    0.5234157  65.79   0.00719285    2.645    0.622
         2 -15.3257    186.4936    105.9214   6.0867549741e+01   2.3129867531e+01     9.314469       7.1666 -77.79   0.04451434    1.728    0.421
         3 -14.1790    217.7121     30.5322   3.7575620224e+01   2.7878866007e+01     3.151211     1.672647 -43.53   0.01613965    1.703    0.413
         4 -13.7080    234.2247     30.7879   3.6030430388e+01   2.4355823364e+01     1.309069    0.7258611 -22.96  0.002074887    2.346    0.574
         5 -14.2069    227.1502     70.9752   4.5756661379e+01   2.0317518102e+01     1.597138    0.9188518 -48.56  0.005404879    1.591    0.371
         6 -14.8015    249.2912     39.4808   3.6489006028e+01   2.0247385737e+01       8.8187     1.674271 -30.40   0.01750294   11.664    0.914
         7 -13.2576    197.9027     80.5510   5.2364838350e+01   2.5104716553e+01     2.563687     1.374215  34.90   0.01009196    2.783    0.641
         8 -15.1650    246.1311     57.0645   4.0467825966e+01   1.8514011783e+01     1.573334     1.149611 -82.35  0.005660896    1.446    0.309
         9 -11.2938    129.2427     16.5454   4.6039325388e+01   4.9963234972e+01     0.616762    0.2262542 -37.71  0.002519376    2.950    0.661
        10 -11.9288    134.7796     16.7598   4.5089877250e+01   4.8647119533e+01    0.7062601    0.3964556  11.91  0.003095796    2.789    0.641
        11 -10.5077    135.5435     10.4778   4.2935426439e+01   4.9058627790e+01     0.279844    0.1998941  62.93 0.0006386898    1.233    0.189
        12 -10.5986    136.5921      5.3836   4.1143021698e+01   4.9254176312e+01    0.5041402    0.2388732 -14.55  0.002326528    2.681    0.627
        13 -13.9491    243.5168     17.0738   3.2410203935e+01   2.4083054531e+01    0.9914959    0.5779791 -18.41  0.001723935    2.576    0.612
        14  -8.6887    156.0000     12.0085   4.0243830883e+01   4.4089415845e+01    0.2326815     0.137545 -16.11 0.0009046756    2.090    0.522
        15  -9.8670    158.1349      5.6974   3.8142929067e+01   4.4159894711e+01    0.3689892    0.2288651   2.34  0.001447372    2.329    0.571
        16 -15.4573    220.8741     83.0723   4.9426091633e+01   1.9730773947e+01     8.543424     4.885906 -73.63   0.02012492    3.069    0.674
        17  -9.8918    115.9730     12.5251   4.7286363930e+01   5.3400251169e+01    0.2980166    0.2027355  54.72 0.0009733452    1.277    0.217
        18 -11.7068    120.3068      8.9951   4.5184706377e+01   5.2727009608e+01    0.4828716    0.4171991 -35.70  0.001938068    1.324    0.245
        19 -10.8561    205.4553      5.3621   3.2995377668e+01   3.3326644025e+01    0.3311687    0.2085211  -8.44  0.001397165    2.440    0.590
        20  -9.2139    239.2399      2.7359   2.9852563440e+01   2.6475844110e+01    0.2416177     0.225943  28.68  0.001617612    1.550    0.355
        21  -9.9902    211.1840      1.7413   3.1700178743e+01   3.2425990025e+01    0.1797536    0.1452314  82.82 0.0005104651    1.133    0.118
        22  -8.0063    171.7099      2.3799   3.5598520728e+01   4.1271469437e+01    0.1320534    0.0814966 -62.76  0.000701776    1.741    0.426
        23  -9.1519     79.5014     13.0118   5.6651283451e+01   6.1160903864e+01    0.1821807    0.1195631 -17.95  0.001029253    1.580    0.367
        24 -11.0795    236.3232    174.6183   6.7144756033e+01   1.2175591524e+00    0.4870533    0.3720966  68.75  0.002076345    2.428    0.588
        25 -10.6565    230.7139    167.5671   6.6693442113e+01   3.2966388441e+00    0.4607415    0.2430547 -44.31  0.002151881    1.909    0.476
        26  -8.4441     46.0100    176.9982   1.1116537585e+02   3.1724416239e+01    0.1518854     0.134031  88.77            0    1.012    0.012
        27  -9.7612    250.3280    174.0782   6.4657076725e+01  -8.2021849305e-01    0.2899301    0.1335794 -30.75  0.001354507    1.927    0.481
        28  -9.7569    201.0010    174.0223   7.3658030848e+01   7.1897748785e+00    0.2879587    0.2223572   1.82  0.001529371    1.343    0.255
        29 -13.0208      6.1498    165.5325   1.1965615591e+02   3.8148642133e+01    0.9046311    0.6159666 -78.03  0.004279433    1.192    0.161
        30  -9.7522    214.1479    169.0479   7.0049289508e+01   5.8136876193e+00    0.3969008    0.2062067  44.13   0.00123777    2.149    0.535
        31 -10.7908    242.9105    166.0356   6.4271851390e+01   1.6051441256e+00    0.3943685    0.2117657 -41.19  0.001949782    1.721    0.419
        32  -8.6121    203.8600    243.8916   8.5862835472e+01  -4.8080692353e+00    0.1810269    0.1341338   1.98 0.0003523159    1.187    0.158
        33  -8.6080    136.1950    242.3842   9.9137809563e+01   5.3178030340e+00    0.1942108      0.09855  43.39 0.0009593322    1.780    0.438
        34  -9.1440    222.7791    145.2473   6.3353941308e+01   8.5656512982e+00    0.1973319    0.1789542 -42.64  0.000586883    1.185    0.156
        35 -11.1796    180.0997    142.9376   7.1198041252e+01   1.7178163151e+01    0.5262075    0.4512412 -29.54  0.002610424    1.102    0.092
        36 -10.3254     26.2390    145.2898   1.1244392312e+02   4.1428253582e+01    0.2710308    0.1982856  11.13  0.001559773    1.743    0.426
        37  -9.6623    192.1794    143.9947   6.8907312203e+01   1.4573278691e+01    0.2305833    0.2133667  34.93 0.0004194664    1.161    0.138
        38 -13.1890    174.4677     80.1882   5.6464790175e+01   3.0490470302e+01     1.362496    0.9678334  51.81  0.002438315    1.434    0.303
        39  -9.9827    159.7843    143.0017   7.5778870180e+01   2.1251813189e+01    0.3848796    0.2881132  56.19  0.001578698    1.563    0.360
        40 -10.2307    146.3133    142.3703   7.8867430585e+01   2.4088609752e+01    0.4615258    0.2775017 -74.16  0.001480292    3.694    0.729
        41  -8.8261    202.9073    226.7613   8.3227686085e+01  -2.1317636661e+00    0.1975499    0.1721488 -73.16 0.0008002568    1.976    0.494
        42  -9.8403    155.6669    138.3004   7.5645848948e+01   2.3098117815e+01    0.2849424    0.1939345  54.01 0.0007685439    1.698    0.411
        43 -12.0250     37.8533    152.1803   1.1017579357e+02   3.8638319705e+01    0.4798389    0.3700734  -0.61  0.001428828    1.708    0.415
        44 -10.8020    140.7005    132.8210   7.8004095577e+01   2.7340936228e+01    0.5404006    0.3524332 -67.33 0.0006664059    2.196    0.545
        45  -9.9374    136.0044    129.5345   7.8402391613e+01   2.9023990521e+01    0.4152558    0.2178953 -40.22  0.001611469    1.911    0.477
        46  -9.5322    135.5155    125.5053   7.7531785168e+01   3.0025421378e+01    0.3171628    0.1946795 -42.38  0.001135063    1.586    0.369
        47 -10.1798    206.9965    133.9928   6.3706375970e+01   1.3588245125e+01    0.2175615    0.1986471 -32.88 0.0004395907    1.053    0.051
        48 -12.6540     45.2139    148.6786   1.0767478708e+02   3.8739929795e+01    0.8763007    0.6761374 -76.69  0.002614711    1.187    0.158
        49 -10.7550    191.7507    152.7169   7.0964203065e+01   1.2947598468e+01    0.5214363    0.3525533 -48.61  0.002472873    1.553    0.356
        50 -10.1201    158.1735    131.2175   7.3347191584e+01   2.4105615924e+01    0.3028079    0.2257039 -47.23 0.0006559587    1.335    0.251
        51 -10.7063    160.5499    128.1633   7.2041560716e+01   2.4258430487e+01    0.4631364     0.295502 -46.80  0.001600849    1.554    0.357
        52  -8.7938     94.0979    128.1688   8.9661855791e+01   3.7145834927e+01    0.2327626    0.1962825 -26.81 0.0006992884    1.244    0.196
        53  -8.7125    228.7283    220.9780   7.7335672257e+01  -4.9349165259e+00    0.1809845    0.1358921  66.95 0.0008794547    3.429    0.708
        54 -11.4025     18.0788    152.0425   1.1540887704e+02   4.0458125906e+01     0.383205    0.2525109  67.22  0.002161234    1.591    0.372
        55 -10.2397    222.6824    220.2075   7.8315769832e+01  -3.9792331157e+00    0.2170053    0.1810776   5.79 0.0003482725    1.109    0.098
        56 -10.2328    143.1304    123.0809   7.4981144297e+01   2.8995370009e+01    0.4721295    0.3388292  88.18  0.001898995    2.350    0.575
        57  -9.9538    135.1283    119.9105   7.6216417494e+01   3.1347531757e+01     0.395189     0.206369 -45.66  0.001140208    1.868    0.465
        58 -11.2086    135.1128    110.6842   7.3805386547e+01   3.3363591147e+01    0.7919241    0.3177398 -41.62  0.002688844    2.452    0.592
        59 -11.4440    135.0683    100.3225   7.0988014285e+01   3.5561323784e+01    0.7164817    0.3798638 -45.87  0.002356659    1.887    0.470
        60 -10.3961    162.2852    112.3671   6.7640082507e+01   2.7165188079e+01    0.2771158    0.2648268 -40.63   0.00079158    1.044    0.042
        61 -10.9805    164.6793    117.5921   6.8442195804e+01   2.5580854225e+01    0.4724625    0.2693545 -40.24  0.001960265    1.690    0.408
        62  -8.4453    154.2210    152.1927   7.9189705195e+01   2.0368503644e+01    0.1990185    0.1825292  83.95  0.000393589    1.302    0.232
        63  -8.4985    222.4904    117.5649   5.7194701786e+01   1.3552956529e+01     0.140849    0.1254668 -38.31 0.0001045243    1.036    0.034
        64  -9.5430    173.6458    150.4646   7.4332731157e+01   1.6917640178e+01     0.273505    0.1378423 -42.26  0.001085422    1.913    0.477
        65 -13.0648    241.8213     64.5887   4.2552946385e+01   1.8292481861e+01    0.7526419    0.3340212 -52.88   0.00137553    2.283    0.562
        66  -8.4905    109.4843    110.5729   8.0821379349e+01   3.8537122845e+01    0.1542103    0.1451207 -17.87 3.361627e-05    1.035    0.034
        67  -9.9587    134.1400    147.6976   8.3132001070e+01   2.5265558941e+01    0.5511991    0.3224583 -59.36  0.002199226    2.025    0.506
        68  -8.2197     78.5431    107.4908   8.9485167687e+01   4.4597053210e+01    0.1484288    0.1363933 -39.01 2.205607e-05    1.011    0.011
        69  -9.9051    148.7730    103.9313   6.8560989442e+01   3.1840567409e+01    0.3418553    0.2892992 -18.90 0.0005451752    1.245    0.197
        70  -9.1257    191.0277    220.8229   8.4562765599e+01   5.9374737986e-01    0.1811598    0.1658545  22.98 0.0003834562    1.230    0.187
        71 -10.0686    206.6562    103.0033   5.6439769665e+01   1.9338288847e+01    0.2827523    0.2197431 -46.36 0.0004011256    1.210    0.174
        72 -10.3750    112.8528    103.8778   7.8044092021e+01   3.9383013268e+01    0.3439986     0.248592   5.60  0.001506649    1.835    0.455
        73 -11.1775    159.0533     99.8022   6.5039857526e+01   3.0387049215e+01     0.799816    0.5399445   2.52  0.003174554    2.398    0.583
        74 -10.1595    132.2820    139.1257   8.1656124832e+01   2.7585014837e+01    0.9198662    0.3506662 -58.35  0.002486762    4.409    0.773
        75 -11.9839    174.8343     93.1364   5.9871796761e+01   2.8098941048e+01    0.8743553    0.5815793  39.25  0.004002885    1.651    0.394
        76  -8.9988    192.1535    216.1385   8.3522536170e+01   1.1955744378e+00    0.1912529    0.1541278  -0.35 0.0002483428    1.129    0.114
        77  -9.2568    146.4425    148.2251   8.0176759263e+01   2.2763006668e+01    0.2144241    0.1473264 -57.43 0.0009403387    1.632    0.387
        78  -8.7559    238.6263    212.3024   7.3986583308e+01  -5.0206258366e+00    0.1056463    0.1028991  72.06 0.0007029896    1.757    0.431
        79 -10.5459    142.3988     94.6740   6.7552126131e+01   3.5107254905e+01    0.3498258    0.3238868 -81.16 0.0006842469    1.224    0.183
        80 -11.4871    157.5184     90.9804   6.2965629865e+01   3.2429023044e+01    0.3721487     0.273232 -32.46  0.001767016    1.370    0.270
        81 -12.7422    235.1378     53.2910   4.0825649749e+01   2.1236726823e+01    0.3475079    0.2203352 -32.12 0.0004126555    1.584    0.369
        82  -9.0818    200.1513     90.6633   5.4524886221e+01   2.2896091999e+01    0.2511755     0.175919 -48.46 0.0007047205    1.379    0.275
        83 -10.2007     96.1193     88.6290   7.8711757135e+01   4.5867156694e+01     0.254188     0.220732 -32.54 0.0002297204    1.090    0.083
        84 -10.8398    126.9236     76.0738   6.5997554540e+01   4.2087630925e+01    0.3685504    0.3083108 -61.87  0.001402507    1.409    0.290
        85 -10.7487     24.2040    164.2617   1.1514673699e+02   3.6980224931e+01    0.4222215    0.1631573 -79.53  0.001732065    2.600    0.615
        86 -10.4613    247.2528    157.5120   6.1808109977e+01   2.3263601970e+00    0.5049644    0.3193117  65.19    0.0022799    3.270    0.694
        87 -10.4749    125.8373     61.3990   6.1653624182e+01   4.4882369005e+01    0.3442543    0.2032704 -39.21 0.0005977511    1.730    0.422
        88  -9.1595    158.9116    157.6116   7.9281251270e+01   1.8287646632e+01    0.4012309    0.2471688 -69.73  0.001461518    2.955    0.662
        89  -8.3237     72.5626     58.4776   7.6904226926e+01   5.5952752259e+01    0.1392602    0.1230877  -9.94 9.723495e-05    1.022    0.021
        90 -10.4312    178.8059     51.7947   4.7957591811e+01   3.3947233871e+01    0.5560195    0.3286949  42.97  0.002232246    1.919    0.479
        91 -10.2347    144.2310     50.5053   5.3953572177e+01   4.2320024267e+01    0.3533878    0.1277036  53.82  0.001264489    2.554    0.608
        92  -8.2476     24.2999     43.6848   9.1493936322e+01   6.4922384000e+01    0.1052345   0.09962305  88.20 0.0002292764    1.612    0.380
        93  -9.1182    127.6448     42.6970   5.5091258410e+01   4.7280386248e+01    0.1499315    0.1008907  26.93 0.0007039397    1.711    0.415
        94  -9.4221    157.9419     36.7262   4.7175439204e+01   4.0916918729e+01    0.1934192    0.1683673  66.91 0.0004082737    1.084    0.078
        95 -10.4610    163.1530     39.2596   4.7028402137e+01   3.9353501977e+01    0.5176263    0.3487862  48.85  0.001333692    1.468    0.319
        96 -10.3848    164.6286     31.8493   4.4664831371e+01   3.9918165589e+01    0.5255324    0.3231624 -49.58  0.001858324    1.749    0.428
        97  -8.6566    167.5875     29.1777   4.3455679336e+01   3.9528647716e+01    0.2691554    0.1873772 -19.27  0.001430881    1.690    0.408
        98 -10.3432    204.5097    153.4150   6.8556651940e+01   1.0409717034e+01    0.4935845    0.3544847 -71.68  0.002209383    2.370    0.578
        99 -10.6121    110.2061     39.1609   5.8152616148e+01   5.1678216390e+01    0.3291618     0.225912  -8.85  0.001651183    1.691    0.409
       100  -9.4031    205.2448     37.9343   4.0699765944e+01   2.9711976353e+01    0.2387895    0.1894166 -46.76 0.0009259092    1.200    0.167
       101 -11.8528    125.1534     30.9292   5.1704904155e+01   4.9355227243e+01    0.6091068    0.2476728  45.58  0.002466575    2.313    0.568
       102  -9.5148    171.3769     34.1934   4.4285962595e+01   3.8031013965e+01    0.3294437     0.216516 -36.89 0.0008046156    1.556    0.357
       103  -9.4213    171.0363     28.5506   4.2773467596e+01   3.8782944527e+01    0.2489471    0.1862601 -24.64 0.0009929033    1.496    0.331
       104 -12.1526     66.5755    141.8734   1.0051340758e+02   3.7877158988e+01     1.627048     1.095985  43.95   0.00690168    1.596    0.373
       105  -9.6625    188.0568     29.5333   4.0725391151e+01   3.4671848785e+01    0.2332927    0.1824095 -30.54 0.0007308102    1.383    0.277
       106  -9.2979    247.3239    211.4179   7.2299836353e+01  -6.0593256959e+00    0.2132767    0.1059588  27.69 0.0007789947    2.024    0.506
       107 -11.1740    133.4968     28.0181   4.8994616119e+01   4.7754211953e+01    0.3701912    0.2818985 -17.71  0.001222299    1.457    0.314
       108 -11.2130    133.5497     23.2298   4.7420588997e+01   4.8271274600e+01    0.3923003    0.2778582 -14.46  0.001881914    1.622    0.384
       109  -8.7280    192.9734    211.5164   8.2537299432e+01   1.8447423053e+00    0.1902344    0.1205529  31.82 0.0003425547    1.475    0.322
       110  -9.9322    159.8584    205.8354   8.8506284972e+01   8.2561764954e+00    0.2218759     0.212233  25.91 0.0003961581    1.121    0.108
       111  -8.9653    171.9278    204.6111   8.5680057913e+01   6.4784052748e+00    0.4761664    0.2757115  67.51  0.001248341    7.813    0.872
       112  -9.9832    159.5049     28.3678   4.4471227711e+01   4.1546003822e+01     0.247759    0.2193769 -80.14 0.0006405069    1.148    0.129
       113  -8.4884     78.4594     29.0315   6.3636066195e+01   5.9517159993e+01     0.188705    0.1056709  -2.28 0.0007890573    2.546    0.607
       114  -9.0362     92.2323     25.9461   5.8155508039e+01   5.7173792254e+01    0.2660581    0.1673879 -15.53 0.0007935043    1.725    0.420
       115 -10.1817    179.2617     24.2565   4.0480238275e+01   3.7331077215e+01    0.4534581    0.3316528  73.26  0.002577052    1.270    0.212
       116  -9.9547    194.4738    197.9664   7.9734988282e+01   3.9527348083e+00    0.3729398    0.2752162 -76.08  0.001718371    2.765    0.638
       117 -12.0518     52.3660    146.2505   1.0530763041e+02   3.8545048923e+01    0.7411523    0.4717733 -77.57  0.001906356    1.604    0.377
       118  -9.8312    191.6934    192.3937   7.9238625088e+01   5.4142815827e+00    0.5280851    0.3155012 -65.16   0.00194021    3.908    0.744
       119  -8.6199    245.4559    193.5159   6.9275156094e+01  -3.1494060280e+00    0.1290928    0.1023836 -12.38 4.489462e-05    1.004    0.004
       120  -8.9564     44.1321    192.8793   1.1334356382e+02   2.8211302593e+01    0.1818863    0.1623962 -74.05 0.0005137472    1.153    0.133
       121  -8.8574    182.0558    191.1137   8.1007721332e+01   7.2879536434e+00    0.2049192    0.1850387   5.56  0.001193055    1.029    0.028
       122 -11.2472    211.0338    187.4462   7.4393460175e+01   3.0862568943e+00    0.7527422    0.5005994  41.99  0.003941596    1.672    0.402
       123  -9.9770    220.2202    184.3837   7.2029931726e+01   2.1274342057e+00    0.2679448    0.2223069   5.24 0.0007527222    1.112    0.101
       124 -13.8818    247.3981     81.8398   4.5634215166e+01   1.4641020892e+01     1.736255    0.8072636 -53.71  0.006699954    2.315    0.568
       125 -10.3515    216.6746    182.3230   7.2287955894e+01   3.0534798403e+00    0.2358834    0.1850196 -41.05  0.001333988    1.358    0.264
       126  -9.3642    235.8999    187.5044   6.9782128853e+01  -8.1769874580e-01    0.2004256    0.1538722 -23.32 0.0006575728    1.117    0.104
       127 -11.7918    225.9542    175.6010   6.9198281935e+01   2.6998972560e+00    0.8267872    0.5111768  21.70    0.0041449    1.820    0.451
