#   1 NUMBER                 Running object number                                     
#   2 MAG_AUTO               Kron-like elliptical aperture magnitude                    [mag]
#   3 X_IMAGE                Object position along x                                    [pixel]
#   4 Y_IMAGE                Object position along y                                    [pixel]
#   5 X_WORLD                Barycenter position along world x axis                     [deg]
#   6 Y_WORLD                Barycenter position along world y axis                     [deg]
#   7 A_WORLD                Profile RMS along major axis (world units)                 [deg]
#   8 B_WORLD                Profile RMS along minor axis (world units)                 [deg]
#   9 THETA_WORLD            Position angle (CCW/world-x)                               [deg]
#  10 FWHM_WORLD             FWHM assuming a gaussian core                              [deg]
#  11 ELONGATION             A_IMAGE/B_IMAGE                                           
#  12 ELLIPTICITY            1 - B_IMAGE/A_IMAGE                                       
         1 -14.6242    242.2619     90.4111   8.0120825727e+01   1.2702512458e+01     7.522915     1.238411 -34.11   0.01949185    5.091    0.804
         2 -13.0349    230.5285     59.0738   7.3835577069e+01   2.0145700615e+01     1.983757    0.6509193 -39.92  0.007145075    2.616    0.618
         3 -14.0390    171.3722     57.1178   8.2500190644e+01   3.5317456345e+01     7.087745     3.241272  82.41   0.01435378    8.997    0.889
         4 -12.6454    219.6242     11.1059   6.2603804988e+01   2.8953200006e+01     2.662575    0.8072995 -58.17  0.007461508    5.439    0.816
         5 -15.3022    222.7440     34.5144   6.8385571532e+01   2.5412326434e+01     4.641031      2.25824 -85.30   0.01731241    3.029    0.670
         6 -13.9875    204.8255     57.7914   7.7064058795e+01   2.6645690059e+01     10.05691     3.752115 -58.14   0.02172087    7.792    0.872
         7 -15.1731    244.1110     16.1395   6.1724082736e+01   2.2542988234e+01      5.44788     1.814878  83.46   0.01568897    4.109    0.757
         8 -14.2606    247.5496     36.8619   6.6373971985e+01   1.9224745567e+01     1.569805    0.7611572 -39.75  0.005971733    1.763    0.433
         9 -12.4789    133.0954     23.4874   7.8683721493e+01   4.9691482752e+01     1.828452    0.8099521  74.84  0.006171412    3.532    0.717
        10 -11.9218    133.1041     18.0295   7.6649030566e+01   5.0308159659e+01    0.7620534    0.2925544  44.06   0.00283791    2.666    0.625
        11  -9.3798    115.7980     12.4200   7.8120251749e+01   5.5046731081e+01    0.3182919    0.2121569  53.84  0.001589963    1.383    0.277
        12 -10.9036    120.2847      8.8901   7.5735034405e+01   5.4340275498e+01    0.4253272    0.3812729  38.35  0.001353335    1.016    0.016
        13 -10.7293    140.2320      7.2477   7.1361535593e+01   4.9618957311e+01    0.3528237     0.224736 -31.63  0.001048321    1.657    0.396
        14 -10.5078    134.4286      8.6155   7.2882016201e+01   5.0936430030e+01    0.2732168    0.2311196  34.82  0.001452874    1.154    0.134
        15  -9.4429    145.3907      6.9372   7.0397603067e+01   4.8349041722e+01    0.2449037    0.2357068 -59.48  0.001161016    1.115    0.103
        16  -9.6814      2.8029      2.9733   1.1742677084e+02   7.4320676188e+01    0.1559143    0.1216614 -66.54  0.001100223    2.039    0.510
        17 -13.2572    204.5423    245.2503   1.1772699774e+02  -3.2816920966e+00     3.488291    0.3374886  40.66  0.008543947    8.778    0.886
        18 -12.1959    248.1248    250.0210   1.1127172709e+02  -1.0177659811e+01     1.516858     0.385701  44.58  0.004466862    4.354    0.770
        19 -11.8178    249.1957    243.6189   1.1012776918e+02  -9.6925494672e+00    0.7501593    0.4902337  28.65  0.004704709    1.203    0.169
        20 -10.3293     66.3984    144.2261   1.3105672978e+02   3.8256676813e+01    0.4492972    0.2684981 -78.33  0.001375594    1.653    0.395
        21  -8.6149    192.0884    144.2809   1.0179199772e+02   1.4517273818e+01    0.1965375    0.1866469  47.22 0.0003364575    1.073    0.068
        22  -8.4966    126.0752    143.7132   1.1621353228e+02   2.8463533483e+01    0.1921433    0.1767554  64.34 0.0002726173    1.053    0.050
        23  -9.1441     58.9575    248.9581   1.4318388198e+02   1.8017801308e+01    0.1587475    0.1141829  66.89 0.0003636845    1.033    0.032
        24  -8.4976    158.6698    142.3437   1.0839028991e+02   2.2081815237e+01    0.1562143    0.1185668 -89.95 0.0007050812    1.751    0.429
        25  -9.7977    191.0368    134.0764   9.9649423676e+01   1.6636437040e+01    0.2235225    0.2153321   9.51 0.0003145845    1.031    0.030
        26  -9.5196    148.3120    130.8589   1.0812033812e+02   2.6691263565e+01    0.4290559    0.2704551  81.44  0.001552963    2.912    0.657
        27 -10.0390    160.4709    127.9488   1.0465526348e+02   2.4641341366e+01    0.4044439    0.3293833  39.49   0.00201242    1.262    0.208
        28  -8.3342    123.7320    128.6184   1.1352554374e+02   3.2274164761e+01    0.1927438    0.1390071  54.88 0.0003272847    1.423    0.297
        29 -10.6640    201.8408    126.0055   9.5616307731e+01   1.5719052686e+01    0.4042011    0.2841297  83.28   0.00138779    2.215    0.549
        30 -13.6697    205.0607    110.5526   9.1190507452e+01   1.7763918054e+01     2.019595     1.353646  62.26  0.009197042    1.689    0.408
        31 -13.1294    187.3554    112.5745   9.5095295869e+01   2.1516505242e+01     2.051452      0.94947 -39.29  0.006094878    2.110    0.526
        32  -8.3799     36.9629    226.9814   1.4545038750e+02   2.4511314209e+01    0.1309563   0.09270021  68.22 0.0003803798    1.031    0.030
        33 -11.2582    225.2346    122.3644   9.0530468336e+01   1.1219804799e+01    0.4642969    0.3418471  35.05  0.001246565    1.462    0.316
        34 -10.3598    205.5600    122.1086   9.3970610504e+01   1.5587418521e+01    0.2824385    0.2377839 -81.49 0.0008839041    1.471    0.320
        35  -9.9234    140.6673    121.4496   1.0767580426e+02   3.0344338323e+01    0.4880566    0.2948156  87.19  0.001519704    3.973    0.748
        36 -12.0981     36.1511    115.9247   1.3471557436e+02   4.8429513993e+01     1.202414    0.4339133  41.16   0.00532301    2.954    0.661
        37 -11.4170     55.6847    120.4949   1.3000882055e+02   4.5205920116e+01    0.6889879    0.4414575  49.83  0.003703687    1.689    0.408
        38 -11.5416     18.1589    112.4219   1.3925374693e+02   5.0819723365e+01    0.8759967     0.519566  53.86  0.005115027    1.881    0.468
        39 -11.6046      6.5581    110.0440   1.4217942239e+02   5.2187513187e+01    0.7882544     0.590799  66.99  0.005031801    1.389    0.280
        40  -9.0157    165.8157    117.6304   1.0091531730e+02   2.5534306174e+01    0.2313561    0.2040004  57.37 0.0007740932    1.149    0.130
        41 -10.4159    167.7300    113.5758   9.9456948927e+01   2.5905384781e+01    0.4221801    0.2967377 -62.29 0.0009741293    1.699    0.411
        42  -9.6762    221.0699    119.8516   9.0641944517e+01   1.2544940639e+01    0.3133176    0.2180918  74.68  0.001224632    2.015    0.504
        43 -10.4601    134.2006    109.5734   1.0626154443e+02   3.4295838818e+01     1.005639    0.2972458 -43.36   0.00299141    3.400    0.706
        44 -13.1277      8.5585    210.9745   1.4941855366e+02   3.0485528026e+01     0.774936    0.5272605  78.74  0.004017763    1.049    0.046
        45  -8.3571    119.5148    110.5249   1.1026638293e+02   3.7153146686e+01     0.152398    0.1423481 -78.95 0.0001089798    1.059    0.056
        46  -9.9024    141.0930    102.7742   1.0274367782e+02   3.4223017350e+01    0.5148442    0.3126715  13.91  0.001587901    4.051    0.753
        47 -12.7086    194.6779     58.6470   7.8890173762e+01   2.9092479457e+01     2.317603     1.025609  34.12  0.006334095    5.099    0.804
        48 -10.2748    196.9938     99.0403   8.9700194739e+01   2.1721645708e+01    0.2403399    0.2288487 -44.27  0.001129697    1.020    0.019
        49  -9.7650    148.1235     96.8565   9.9412019582e+01   3.3837213111e+01    0.3960091    0.3071596   6.00  0.001302371    1.760    0.432
        50  -9.1620    134.6275     94.0961   1.0193035479e+02   3.7475221808e+01    0.2534049    0.2123012  70.51 0.0007750424    1.318    0.241
        51  -8.7941    208.3414     92.9177   8.6051481619e+01   2.0080212630e+01    0.2108888    0.1806022 -38.53 0.0003875624    1.114    0.103
        52  -8.9551     34.3222    214.2949   1.4510101271e+02   2.7180711123e+01   0.09265919   0.08246859 -65.99 0.0002862189    1.616    0.381
        53  -9.6390    157.4720     89.4661   9.5143562735e+01   3.3089990452e+01    0.3115271    0.2758588 -14.08   0.00134895    1.245    0.197
        54 -10.5138    160.3155     87.3157   9.3886945173e+01   3.2815163289e+01    0.3656906    0.2891087 -44.17 0.0009095487    1.247    0.198
        55  -9.1387    213.7456     88.2838   8.3925183952e+01   1.9576091438e+01    0.3821316    0.1709097 -47.27  0.001405599    2.353    0.575
        56  -8.9155    194.2038     88.1808   8.7292464391e+01   2.4326686099e+01    0.2172116    0.1786606 -66.04 0.0006809819    1.326    0.246
        57 -13.0101    238.6819     35.8814   6.7020516027e+01   2.1403416261e+01     0.608517    0.4245445 -53.71  0.001885605    1.302    0.232
        58  -8.8776    202.8861     80.5652   8.3675106922e+01   2.3499058331e+01    0.3238852    0.2164036 -70.37 0.0008604587    1.979    0.495
        59  -8.7143    206.7529     82.7942   8.3626586552e+01   2.2179084539e+01    0.2109179    0.1691306 -61.87 0.0005156806    1.324    0.245
        60 -10.1806    142.1429     85.4197   9.7539426927e+01   3.7513745480e+01    0.3077618    0.2830346  82.58 0.0005751198    1.156    0.135
        61 -12.3204    186.4961     86.9600   8.8398413683e+01   2.6440943045e+01     1.529482    0.5112693 -37.00  0.004185279    2.861    0.650
        62 -10.8982    181.7462     69.2359   8.4217169629e+01   3.0697364730e+01    0.4199223    0.3502574  40.88 0.0003739578    1.281    0.219
        63 -11.5973    156.7922     76.9744   9.1598012281e+01   3.5607458439e+01    0.4063607    0.3128648 -29.92  0.001925619    1.344    0.256
        64  -8.0776    140.3073     78.3259   9.5837387065e+01   3.9319239515e+01    0.1568028    0.1228851   8.41 0.0003418648    1.651    0.394
        65  -9.3088    222.8560     73.9840   7.8760522394e+01   1.9718443672e+01    0.2413081    0.2064147 -75.26 0.0003058562    1.229    0.186
        66 -13.8986     40.0256    185.8287   1.4186781267e+02   3.2249956178e+01     1.360546     1.065264 -23.59  0.001810869    2.406    0.584
        67  -8.2673     91.6968     66.3252   1.0543151355e+02   5.1930583764e+01    0.1399063    0.1130527 -78.58 0.0004941989    1.641    0.391
        68  -9.4592    147.1549     63.1813   8.9433801434e+01   4.0425880172e+01    0.2806917    0.2454178 -63.97 0.0005340334    1.230    0.187
        69 -10.2624    144.2211     59.1220   8.8773425579e+01   4.1833602663e+01    0.3781997    0.2794502 -53.95 0.0006979614    1.483    0.326
        70 -11.3324    132.6481     60.6238   9.2019775762e+01   4.4355073829e+01    0.5337534    0.3717339  22.99  0.002368233    1.845    0.458
        71  -8.9410    134.0000    147.9875   1.1522069652e+02   2.5978731401e+01    0.2426057    0.0830589 -49.98 0.0008065167    2.971    0.663
        72  -9.7532    180.9559    197.6459   1.1457770082e+02   7.3823387228e+00     0.204951    0.1893496 -27.72 0.0003366227    1.203    0.169
        73 -10.1904    115.3363     58.5532   9.5819336601e+01   4.8641938173e+01    0.4389359    0.2513028 -55.94  0.001761756    2.329    0.571
        74  -8.2236     72.5678     58.4296   1.0905852388e+02   5.6734038443e+01    0.1350976     0.120731 -31.69 0.0001215051    1.010    0.010
        75  -8.6788    175.4835     50.4788   7.9699021479e+01   3.5274481996e+01    0.1501377    0.1440512 -79.91 6.410949e-05    1.018    0.018
        76 -10.1500    180.7476     51.3904   7.9063266951e+01   3.3776177706e+01    0.4570227    0.3463803  77.44  0.001622565    1.392    0.281
        77  -9.7244    131.9490     52.8470   8.9537650427e+01   4.5830413727e+01    0.2218098    0.1947095  20.43 0.0002907893    1.202    0.168
        78 -10.5960    126.8110     51.0096   9.0161556177e+01   4.7336658022e+01     0.373076    0.1907994  64.40  0.001410402    2.517    0.603
        79 -12.5164    176.8344     75.5366   8.7000634732e+01   3.0867123511e+01     1.515489    0.8860532  67.71  0.004661179    1.998    0.499
        80 -10.0633     69.7974    145.5745   1.3041643977e+02   3.7478281731e+01    0.3481278    0.2453938  71.43  0.001193007    1.446    0.308
        81 -10.2582    188.2439     42.3238   7.5123683704e+01   3.3134152660e+01      1.02099    0.3741234 -43.71  0.003572869    2.731    0.634
        82 -10.5202    183.2077     36.4740   7.4135056341e+01   3.5233339851e+01    0.3734528    0.2610384 -53.52  0.001282637    1.480    0.324
        83  -9.5555    181.2849     32.6500   7.3260841467e+01   3.6230427603e+01    0.2709209    0.2060322 -51.20 0.0005983641    1.328    0.247
        84 -11.7050      5.7460     43.0964   1.3058287430e+02   6.6855357338e+01     0.376261    0.3155915   6.92  0.002858524    1.457    0.314
        85 -10.7641    246.2421    198.3911   1.0297408302e+02  -4.1164185045e+00    0.4033672    0.2065079  36.67  0.002139532    1.790    0.441
        86 -11.2040    109.0044     39.0627   9.0424574796e+01   5.3220532972e+01     0.393678    0.2057856  34.77  0.001627491    2.236    0.553
        87  -9.8533     23.8287     43.6227   1.2295097836e+02   6.5498972029e+01    0.1462443    0.1076049  35.47 0.0005449897    1.714    0.417
        88 -11.2004    142.0712     28.6664   7.8740315619e+01   4.6838592213e+01    0.3771839    0.3533605  25.72 0.0004900806    1.075    0.069
        89 -10.9800    145.0220     23.1143   7.6197642202e+01   4.6763865616e+01    0.4301797    0.2224892 -31.11  0.001170618    1.962    0.490
        90 -13.2940     51.3534    176.3661   1.3861191066e+02   3.2937205678e+01     1.000264     0.749626  81.02  0.002833494    1.097    0.088
        91  -9.1659    101.0106    176.0047   1.2769657175e+02   2.5897148180e+01    0.1838752    0.1615335  73.85            0    1.019    0.019
        92 -10.7882    215.2632    116.3444   9.0801474266e+01   1.4428591366e+01    0.5376934    0.3906053 -86.75  0.002424595    2.071    0.517
        93  -9.6566    234.8270    173.8839   1.0019240886e+02   1.1646425273e+00    0.2218198    0.1941387  50.46  0.001194914    1.371    0.271
        94  -9.0437    195.1966    198.6125   1.1204092743e+02   4.6333781268e+00    0.2503226    0.1573858 -72.89 0.0009569549    4.262    0.765
        95  -9.6619    216.1062    168.6975   1.0245863443e+02   5.4335514532e+00     0.296336    0.2199706  63.67  0.001076022    1.792    0.442
        96  -9.5363    211.9193    166.4423   1.0276533763e+02   6.6059755344e+00    0.3408754    0.2286995  68.95  0.001224109    2.398    0.583
        97 -11.1689     66.2747    162.1985   1.3363025503e+02   3.4156456976e+01    0.8698274    0.2941431  34.72  0.003418473    3.321    0.699
