#   1 NUMBER                 Running object number                                     
#   2 MAG_AUTO               Kron-like elliptical aperture magnitude                    [mag]
#   3 X_IMAGE                Object position along x                                    [pixel]
#   4 Y_IMAGE                Object position along y                                    [pixel]
#   5 X_WORLD                Barycenter position along world x axis                     [deg]
#   6 Y_WORLD                Barycenter position along world y axis                     [deg]
#   7 A_WORLD                Profile RMS along major axis (world units)                 [deg]
#   8 B_WORLD                Profile RMS along minor axis (world units)                 [deg]
#   9 THETA_WORLD            Position angle (CCW/world-x)                               [deg]
#  10 FWHM_WORLD             FWHM assuming a gaussian core                              [deg]
#  11 ELONGATION             A_IMAGE/B_IMAGE                                           
#  12 ELLIPTICITY            1 - B_IMAGE/A_IMAGE                                       
         1 -11.6830      5.9684     72.1278   1.1648181729e+02   6.1620095309e+01     1.594654    0.6969996 -84.31  0.007171583    2.122    0.529
         2 -12.8672    171.0754     76.2304   6.4278507432e+01   3.1751211223e+01     1.175994    0.8795472  -6.63  0.005571258    1.614    0.380
         3 -12.3061    168.5697     56.8873   5.8785910778e+01   3.5478926875e+01     2.886626     1.477775 -74.86  0.007904897    5.313    0.812
         4 -12.3348     81.6483     46.4784   7.6573753004e+01   5.7899101429e+01     1.805922     1.059771  20.25  0.006679023    3.051    0.672
         5 -11.8706     18.1022     35.4636   1.0176335533e+02   6.9739981633e+01     1.417427    0.8554372 -60.48  0.007653106    1.413    0.292
         6 -10.5845     21.1014     21.0577   9.3780195459e+01   7.2604648650e+01    0.6965908    0.4798439 -64.18  0.003917563    1.600    0.375
         7 -10.7040     10.2920     25.0970   1.0273193410e+02   7.2711743330e+01    0.7232056    0.4279729 -21.32   0.00386654    1.966    0.491
         8 -11.1479      3.4517     17.5529   1.0447741325e+02   7.4846695210e+01     1.502427     0.394864 -66.57  0.005248338    3.946    0.747
         9 -12.2056     56.9687     31.8890   7.9788695653e+01   6.5372305865e+01     1.523625     1.124307 -29.00  0.008135164    1.308    0.235
        10 -12.2362     69.2909     31.4049   7.4373918000e+01   6.3173902835e+01     1.520349    0.6080143 -46.30  0.005640584    2.644    0.622
        11  -9.8083     73.0214     25.4941   6.9978724057e+01   6.3419851499e+01    0.6676425    0.3267134 -51.10  0.002568324    2.720    0.632
        12 -10.9843    217.1864     30.2860   4.4574430762e+01   2.7336007008e+01    0.8601735    0.2959417 -53.24  0.002978033    3.464    0.711
        13 -10.4437    217.7404     20.5288   4.1837931645e+01   2.8290695381e+01    0.4054233    0.2859397 -21.35  0.002231273    1.378    0.274
        14  -9.7595     43.9283     16.6596   7.7870103593e+01   7.0327851622e+01    0.4125945    0.2871259  52.26  0.001250644    1.806    0.446
        15 -10.4962     45.6404      7.9139   7.1467707407e+01   7.1419853648e+01    0.7961589    0.4754796  16.90  0.003722792    2.276    0.561
        16  -9.6243     40.6709      4.4241   7.1633523762e+01   7.2799179079e+01    0.6407149    0.3581786  16.22  0.002810801    2.703    0.630
        17 -11.1146     57.6975     10.4129   6.7534149359e+01   6.8791305942e+01    0.9498183    0.5868131  22.35  0.004543488    1.986    0.496
        18 -11.9025    129.7773     11.6816   4.8900198913e+01   5.1460554744e+01    0.5037315    0.3461628   2.36 0.0009345946    1.709    0.415
        19  -9.3407     81.2506     12.9341   6.0492597854e+01   6.3418963678e+01    0.4446857    0.2603965 -45.82  0.001473346    1.931    0.482
        20  -9.9936    142.1483     12.3555   4.7269916533e+01   4.8135801793e+01    0.2943599     0.234661 -13.90 0.0005991797    1.313    0.238
        21  -9.9038     16.8056      9.6240   9.0390702713e+01   7.5339158104e+01    0.5289561    0.3502209 -69.57  0.002769927    2.283    0.562
        22  -9.2465     12.5104      2.7200   8.9149580127e+01   7.7086836577e+01    0.3578175    0.2739215  80.67  0.001986431    2.592    0.614
        23 -10.5360    213.6344      7.3032   3.8485203096e+01   3.0579737160e+01    0.4613805    0.3466103 -22.09  0.002670166    1.309    0.236
        24 -10.2983    216.9600      2.2268   3.6877174163e+01   3.0289517319e+01     0.566453    0.3239721 -76.62  0.002898701    1.819    0.450
        25  -9.6664     90.6450      6.3812   5.4335055389e+01   6.1951753550e+01    0.6082077     0.421961 -36.67  0.003120307    1.471    0.320
        26  -9.4474    143.4957      3.0012   4.3442672797e+01   4.8666555231e+01    0.3242719    0.2331984  -6.83   0.00111532    1.524    0.344
        27 -11.8927    145.8971     91.6210   7.3985255355e+01   3.4773658052e+01     1.438122    0.4869181 -39.96  0.004683274    2.822    0.646
        28 -12.4066    111.6498    242.1665   1.0768947005e+02   1.2906972047e+01    0.9228593    0.7550992  65.16  0.006471645    1.331    0.249
        29 -11.6103    159.7024     81.4465   6.8033483033e+01   3.3510245449e+01    0.4829237    0.3888569  20.92  0.002376949    1.468    0.319
        30 -10.3156    123.9994     82.3519   7.6569672320e+01   4.1527469732e+01    0.4792266    0.3023046  27.51  0.001399713    2.223    0.550
        31 -12.2760    135.6462     83.4232   7.3974850947e+01   3.8695533188e+01     1.116359     0.722387  85.44  0.004166281    2.764    0.638
        32  -8.5821    183.3208     86.6502   6.5044485010e+01   2.7196705928e+01    0.1547332    0.1101236 -62.21  0.000704849    1.743    0.426
        33 -11.2546    179.1991     72.8043   6.1821234085e+01   3.0406503704e+01    0.7467213    0.3167784 -32.64   0.00280928    2.181    0.541
        34 -12.2416    175.2863     65.0195   6.0166957513e+01   3.2575745178e+01    0.9211677    0.6731195 -53.81  0.004472638    1.425    0.298
        35  -9.6209     21.9537    238.6514   1.2376819253e+02   2.3570114466e+01    0.2230916    0.1251701  43.47 0.0008780013    1.324    0.245
        36 -10.9102    124.8799     67.2479   7.1454009603e+01   4.4327237847e+01    0.5308433    0.3925372  48.03  0.001017054    1.413    0.292
        37 -10.1535    134.9786     67.4285   6.9043037616e+01   4.1911656723e+01    0.3519323     0.217568 -36.89 0.0005047525    1.549    0.354
        38  -8.5744    235.6648     63.3534   5.1459891680e+01   1.9285804524e+01    0.1448718   0.08605564 -52.64 0.0007044643    1.792    0.442
        39  -8.6876     95.3048     76.6365   8.3000452428e+01   4.8823174186e+01     0.157955    0.1186717 -81.95 0.0007037535    1.736    0.424
        40 -10.2129    136.6060     61.3620   6.6613828922e+01   4.2616522939e+01    0.3698481     0.297378 -69.83  0.001409489    1.426    0.299
        41 -11.2476     95.1424     53.2111   7.4775484592e+01   5.3759398324e+01    0.5181704    0.4105923  82.07  0.002514766    1.624    0.384
        42 -10.4494    103.0290     37.4291   6.5917623672e+01   5.4803270946e+01     0.938062    0.2293873  48.95  0.002703896    4.032    0.752
        43  -9.5292    187.9951    232.1634   9.3085752139e+01   4.2389895069e+00    0.1937135    0.1132768 -27.70  0.001262912    1.963    0.490
        44  -9.1685    172.0034     50.0426   5.6031396536e+01   3.5652711339e+01    0.2160528    0.1998426 -45.59  0.001183422    1.017    0.017
        45 -10.6084    128.3304     47.7057   6.3612116651e+01   4.6981911122e+01     0.374178    0.2897006 -16.04  0.001089695    1.417    0.294
        46  -9.4230    228.8724     48.1427   4.8255777760e+01   2.2621331909e+01    0.2178463    0.1643717 -47.33  0.001242839    1.205    0.170
        47 -10.9654     68.0788     45.9186   8.1441037167e+01   6.0625462802e+01    0.5282692    0.4160069 -66.08  0.002729208    1.486    0.327
        48  -9.5201     15.0064     18.0000   9.6344608969e+01   7.3847596698e+01    0.1903642    0.1534841 -40.71  0.001218857    1.019    0.019
        49 -11.2448     73.7869    249.0868   1.1504586898e+02   1.6459370469e+01    0.8364201    0.1897271  36.97  0.003893604    2.952    0.661
        50 -11.3402    142.9247     81.3263   7.1625377661e+01   3.7433714488e+01    0.6721228    0.3787602 -26.73  0.002628048    2.105    0.525
        51  -8.2809     55.9047    220.0755   1.1648335723e+02   2.3205973030e+01    0.1656195    0.1095437  57.50            0    1.215    0.177
        52  -7.9340    101.1277    215.1046   1.0708548563e+02   1.8462088481e+01    0.1481253    0.1083581  53.67 0.0009819003    1.218    0.179
        53 -10.4908    138.9559     40.1148   5.8483189499e+01   4.5489112516e+01    0.5676547    0.4998203 -52.40  0.001638208    1.128    0.113
        54  -8.2170     55.9442    214.8307   1.1612111925e+02   2.4133778097e+01    0.1483718    0.1213188  45.76 -0.000430966    1.165    0.142
        55 -10.1915     12.3920    206.5755   1.2439477671e+02   3.0117456310e+01    0.4427297    0.2271061  33.51  0.002722134    1.795    0.443
        56 -11.1053    192.5295    194.7132   8.6797478661e+01   8.3104202254e+00     0.799482    0.4311056 -55.40  0.003595934    3.837    0.739
        57  -8.6058    139.0018    199.0013   9.7560173991e+01   1.5745966154e+01     0.173846    0.1486213  34.40  0.001170185    1.006    0.006
        58  -7.9053    189.7817     36.9445   4.9419774099e+01   3.3026996944e+01    0.1903355    0.1105173 -26.53 0.0004562846    1.619    0.382
        59 -10.6270     79.3408     41.1365   7.5106960358e+01   5.9388163945e+01    0.6152198    0.3135693 -36.24  0.002299201    1.898    0.473
        60 -10.7204    184.3801     77.9194   6.2414027007e+01   2.8381366534e+01    0.4118717    0.3718699  60.98  0.001246012    1.212    0.175
        61  -8.7455    139.9714     28.9657   5.4067915166e+01   4.6775481043e+01    0.2150481    0.2068017 -47.51 0.0003138726    1.009    0.009
        62 -11.3727    101.4539     69.2314   7.8658901966e+01   4.9159271700e+01    0.7127576    0.3624204 -49.97  0.002295458    1.970    0.492
        63  -8.2511     79.7110     22.5586   6.6096808803e+01   6.2445234978e+01    0.2438323    0.1633752 -18.58 0.0003529549    1.570    0.363
        64  -9.2913    221.8010     22.3559   4.2011982439e+01   2.7174154185e+01    0.2142746    0.1544366  49.69 0.0007657972    1.656    0.396
        65  -8.8562    133.0053    199.0246   9.8766462827e+01   1.6638064784e+01     0.172306    0.1473125  37.08 -0.003769674    1.007    0.007
        66  -7.9523     84.9540     21.3106   6.3750896201e+01   6.1455615728e+01    0.1838535    0.1792877  38.05 0.0004057995    1.083    0.077
        67 -10.0283     74.8541     17.3505   6.5000958932e+01   6.4259743296e+01    0.2579536    0.2296827  21.70 0.0002222709    1.108    0.097
        68 -11.4358    204.2836    187.9886   8.3627829422e+01   7.4595828371e+00    0.4995511    0.3867775 -55.96  0.003094252    2.071    0.517
        69 -11.3629    193.8675    171.8219   8.2591890300e+01   1.1327712026e+01     1.002309    0.7246101  51.53   0.00583868    1.706    0.414
        70 -11.7794    190.0634    162.3967   8.1508935860e+01   1.3370102093e+01     1.347499    0.9440309 -21.69  0.007664939    1.443    0.307
        71 -11.8471    198.6588    161.8822   7.9855349456e+01   1.2004788470e+01       1.1999    0.7815068 -52.87  0.006224179    2.200    0.545
        72  -8.0029    190.0342     15.5276   4.2789203072e+01   3.5434171252e+01    0.1974943    0.1002975 -67.86 0.0006024567    2.325    0.570
        73  -7.9118    236.3874    145.7649   7.0438940543e+01   8.0783650159e+00    0.1731164     0.101296 -19.45 0.0006476784    1.573    0.364
        74  -8.3484    223.0096    187.9574   8.0510382511e+01   4.7360240361e+00    0.1619491     0.127748   5.47  0.001128646    1.010    0.009
        75  -8.6348     68.7672    145.5491   1.0621170243e+02   3.6905013905e+01    0.2483426    0.1334767  29.43  0.001141789    2.082    0.520
        76  -7.9402     65.5113    142.4924   1.0665827111e+02   3.8060015465e+01    0.1358299    0.1200751  79.56 0.0008105379    1.003    0.003
        77  -7.9102    203.4788    111.5172   6.8017014241e+01   1.8898249345e+01    0.1414425    0.1235702 -10.03 6.807355e-05    1.073    0.068
        78  -7.5858    130.0119    107.0001   8.1994686511e+01   3.5085080296e+01    0.1776962    0.1618829 -47.06            0    1.069    0.065
        79 -10.4471    119.4517    101.4423   8.3251897501e+01   3.8450317632e+01     0.720982    0.6315631  -2.50  0.003729149    1.358    0.264
        80 -11.8041    128.5556     92.6004   7.8439327165e+01   3.8410926008e+01     1.179933    0.7398373 -29.90            0    1.847    0.458
