#   1 NUMBER                 Running object number                                     
#   2 MAG_AUTO               Kron-like elliptical aperture magnitude                    [mag]
#   3 X_IMAGE                Object position along x                                    [pixel]
#   4 Y_IMAGE                Object position along y                                    [pixel]
#   5 X_WORLD                Barycenter position along world x axis                     [deg]
#   6 Y_WORLD                Barycenter position along world y axis                     [deg]
#   7 A_WORLD                Profile RMS along major axis (world units)                 [deg]
#   8 B_WORLD                Profile RMS along minor axis (world units)                 [deg]
#   9 THETA_WORLD            Position angle (CCW/world-x)                               [deg]
#  10 FWHM_WORLD             FWHM assuming a gaussian core                              [deg]
#  11 ELONGATION             A_IMAGE/B_IMAGE                                           
#  12 ELLIPTICITY            1 - B_IMAGE/A_IMAGE                                       
         1 -15.2004      9.1434    153.2217   1.4153229436e+02   4.1363531481e+01     6.071121     2.041061  85.95   0.02866876    3.088    0.676
         2 -13.3912    194.2822     29.2902   6.8425759325e+01   3.2878862033e+01     1.523322     1.339075   2.30  0.007503368    1.136    0.120
         3 -13.6206    209.1875      9.8414   6.0485449946e+01   3.1040458573e+01     1.526326     1.020864  31.61  0.007424755    1.673    0.402
         4 -12.0179      2.2127      6.9139   1.2183782466e+02   7.3199872301e+01    0.5239398    0.3091229 -54.48  0.003374534    1.272    0.214
         5 -10.1772     81.3457    248.6668   1.3468435656e+02   1.7908657293e+01    0.1973163     0.102092  60.41  0.001400451    1.673    0.402
         6 -11.6746    140.2024    249.8283   1.2548566703e+02   1.0290344188e+01    0.4037046    0.1313206  40.76  0.002173152    2.229    0.551
         7 -10.7703    122.7598    250.2380   1.2829442603e+02   1.2557736664e+01    0.2274849    0.1123497  45.78  0.001534852    1.462    0.316
         8 -10.0159    111.5349    250.5469   1.3009425803e+02   1.3967021629e+01    0.2013854   0.07250565  41.09   0.00055228    2.028    0.507
         9 -11.0438     98.3377    248.3166   1.3200232100e+02   1.5909340929e+01    0.2093024    0.1980297  23.44  0.001941167    1.508    0.337
        10 -10.7366    101.0055    245.9879   1.3140468703e+02   1.5883537588e+01    0.1703048    0.1476658  49.76  0.000443018    1.248    0.199
        11 -11.4742     29.7240    250.0092   1.4251021175e+02   2.3224927633e+01    0.5335012    0.1116741  38.83  0.002929486    3.277    0.695
        12  -9.9573     33.6696    247.6786   1.4184431195e+02   2.3169315024e+01    0.1639492    0.1025072  54.20 0.0008677186    1.120    0.107
        13 -10.9201     35.2293    243.9148   1.4145815011e+02   2.3548699308e+01    0.2972035    0.1821261  36.25  0.002224183    1.714    0.416
        14 -10.4832      2.4532    248.5773   1.4632794544e+02   2.5877749816e+01    0.2268567    0.1342603 -88.19  0.002074106    1.595    0.373
        15 -10.1688     46.8254    249.0021   1.3995756610e+02   2.1666146863e+01    0.1700468   0.09287011  54.87 0.0006929707    1.267    0.211
        16  -9.5533    152.3038    248.3469   1.2340985966e+02   8.8133596612e+00   0.09871845   0.06869873  19.53 0.0004798483    1.692    0.409
        17 -10.0104     22.5164    244.9652   1.4337029197e+02   2.4612887080e+01    0.1890194   0.07794054  56.19 0.0005644699    1.649    0.394
        18 -10.4961      5.5558    240.9158   1.4568863984e+02   2.6701791385e+01    0.1451167   0.09882393  47.40  0.000267706    1.357    0.263
        19 -11.3681    183.9263    238.8239   1.1725601873e+02   5.4054960924e+00    0.2847893     0.168521  51.63  0.001137153    1.808    0.447
        20  -9.8103     12.6221    240.2752   1.4465109989e+02   2.6181221814e+01    0.1251861    0.1012811  32.90  0.001079383    1.752    0.429
        21 -10.7712    229.9841    230.7013   1.0883704635e+02  -4.1624121326e-01    0.3026134    0.2158749 -59.27  0.001705767    4.144    0.759
        22 -14.4465    103.9293    228.9003   1.2952773596e+02   1.7849721680e+01     5.225866          nan  43.50   0.01193915   12.171    0.918
        23  -8.8850    152.4894    212.9563   1.1938409260e+02   1.3196121958e+01    0.1330436    0.1150101 -47.00 0.0003952353    1.461    0.316
        24 -11.5969     62.4901    198.3989   1.3428517056e+02   2.7784677776e+01    0.2397123    0.2195368 -32.92 0.0006493272    1.663    0.399
        25 -11.1128     18.8662    199.0588   1.4208431267e+02   3.2114697594e+01    0.1891268    0.1275013  61.00  0.000321884    1.122    0.108
        26 -10.3296     15.1729    196.8755   1.4261887286e+02   3.2812590513e+01    0.1556682    0.1201226  55.40 0.0003907646    1.234    0.189
        27  -9.6463    191.9942    193.4844   1.0953181058e+02   9.4753296690e+00     0.334358    0.2102466 -68.73  0.001301432    5.550    0.820
        28 -11.6936    247.0768    248.2973   1.0869222434e+02  -4.2139707115e+00    0.4670095    0.1791845  35.46  0.002846731    1.836    0.455
        29 -14.0496     41.8856    224.6823   1.3952273953e+02   2.5735670339e+01    0.7708662    0.6660696 -67.96  0.004980049    1.611    0.379
        30 -11.8365     68.3456    190.3273   1.3252264826e+02   2.8502235445e+01    0.2177282     0.202443  81.46  0.000519004    1.256    0.204
        31 -10.3596      7.4860    226.4443   1.4497433146e+02   2.8684140875e+01    0.1362473    0.1111391  68.78 0.0007588234    1.294    0.227
        32 -12.6555     36.1086    232.6101   1.4082564642e+02   2.5111943196e+01    0.2221368    0.1894889  70.11 0.0007234939    1.316    0.240
        33 -10.6956     78.2902    177.5652   1.2934279772e+02   2.9577612030e+01    0.1944566    0.1753693  73.71 0.0003957839    1.120    0.107
        34 -13.1454     65.1394    175.6486   1.3180741213e+02   3.1553412064e+01    0.3904606    0.2420137 -46.81  0.001465974    2.217    0.549
        35  -8.9276     99.8536    176.5001   1.2483609754e+02   2.6856949003e+01    0.1884819     0.138738  70.63 0.0006001717    1.373    0.272
        36 -11.8717     85.8449    168.0149   1.2670699953e+02   3.0373406188e+01     0.577071    0.4942685  55.56  0.004037637    1.088    0.081
        37 -10.0183     98.3134    152.3030   1.2188534434e+02   3.1654001419e+01    0.2469928    0.2291085 -57.55 0.0008226452    1.192    0.161
        38  -9.0754    101.1381    148.1073   1.2060711170e+02   3.2061156065e+01    0.1785925    0.1689269 -20.11 0.0004453468    1.277    0.217
        39 -12.0028     86.8229    151.5121   1.2435971721e+02   3.3460037627e+01    0.2474685    0.2220166 -50.09 0.0005348682    1.289    0.224
        40 -12.4785     67.5226    143.4724   1.2771523519e+02   3.7632490164e+01    0.6213472    0.4213528  86.59  0.002581138    1.513    0.339
        41 -11.4101     64.6799    141.6766   1.2815065687e+02   3.8352828783e+01    0.3140189    0.2553163 -49.39 0.0008647316    1.425    0.298
        42 -12.3879     56.1522    225.0790   1.3722287800e+02   2.4166877870e+01     1.658708    0.5546111 -58.04  0.009014719    3.861    0.741
        43  -8.9817     39.6588    146.6972   1.3446363893e+02   4.0039703276e+01     0.106056   0.08233874 -44.93 0.0007039098    1.676    0.403
        44  -8.4156    191.8003    143.9726   1.0039599540e+02   1.6490635642e+01      0.16387    0.1062271 -31.38 0.0003379056    1.608    0.378
        45 -10.4523     96.9877    134.4900   1.1935326848e+02   3.5457148634e+01    0.2234612    0.1989134 -44.26 0.0005606402    1.240    0.193
        46 -10.5343     35.2389    133.5676   1.3419451867e+02   4.3209685682e+01    0.2301286    0.1696093  64.34 0.0005304228    1.263    0.208
        47  -9.0957     81.0265    132.8044   1.2296007778e+02   3.8119965359e+01    0.1877592    0.1507601  73.62 0.0004051722    1.240    0.193
        48  -8.4042     91.4193    131.5426   1.2020471628e+02   3.6906658196e+01    0.1288868    0.1166412  85.51 0.0002146823    1.044    0.042
        49 -11.3493     57.5111    132.5355   1.2868969858e+02   4.1129257223e+01    0.5687702    0.2228443 -79.10  0.002206386    3.513    0.715
        50  -8.9841    106.8284    123.8844   1.1499098231e+02   3.6102725076e+01    0.1784335    0.1743167  -7.41 0.0003347553    1.127    0.113
        51  -9.7398    109.8070    137.2392   1.1677721014e+02   3.2877071695e+01    0.3115557     0.217538 -19.53  0.001515969    2.287    0.563
        52  -8.1617    182.3350    117.6926   9.6311807167e+01   2.2614279803e+01     0.140014    0.1185224 -82.69 0.0003176195    1.672    0.402
        53 -10.6076    173.6051    222.3248   1.1690740950e+02   8.7959946669e+00    0.2778215     0.151164  38.23   0.00166523    1.418    0.295
        54 -10.2177    167.6759    112.7569   9.8171928052e+01   2.6578531631e+01    0.3050622    0.2624862 -81.77 0.0007477303    1.539    0.350
        55  -9.2612    203.4592    111.4966   9.0668517398e+01   1.9069242895e+01    0.1474614    0.1304524   7.14 7.378572e-05    1.022    0.022
        56  -8.3923     69.6198     84.2657   1.1677432808e+02   5.0352584543e+01    0.1330175   0.09955493  72.94 0.0005447804    1.684    0.406
        57  -9.1593    157.4722     76.4647   9.0455939189e+01   3.5275331490e+01    0.1539385    0.1449226   0.45 0.0001002498    1.008    0.008
        58  -8.8281     92.5526    214.7217   1.3024182634e+02   2.1434219786e+01    0.1283939   0.09182151  83.76  0.000428399    1.484    0.326
        59  -9.9040     34.0553     62.9297   1.2374404328e+02   5.9086670516e+01    0.2544602    0.1813354  47.68 0.0008929223    1.713    0.416
        60 -10.4670     24.4668     59.0791   1.2641598279e+02   6.0722816044e+01    0.4410726    0.1479069  42.39  0.001827892    3.947    0.747
        61 -10.2993     17.0952     56.2108   1.2858490056e+02   6.1872591292e+01    0.2298464     0.168476  41.33  0.001055419    1.691    0.409
        62 -13.0055      9.0519    207.1652   1.4406413110e+02   3.1607598951e+01    0.6287732    0.4963942  35.08  0.004243879    1.618    0.382
        63 -10.1727    162.6714    249.1372   1.2183800900e+02   7.2939286583e+00    0.1455329     0.118752  59.45  0.001194358    1.439    0.305
        64 -11.1691    107.3338    247.6133   1.3052562921e+02   1.4874824169e+01    0.2249684    0.1812862 -63.19  0.001946593    1.646    0.393
        65 -10.5583      2.8912     37.7844   1.3047413748e+02   6.6711355516e+01    0.2223176    0.1314783  84.40  0.001257063    2.131    0.531
