#   1 NUMBER                 Running object number                                     
#   2 MAG_AUTO               Kron-like elliptical aperture magnitude                    [mag]
#   3 X_IMAGE                Object position along x                                    [pixel]
#   4 Y_IMAGE                Object position along y                                    [pixel]
#   5 X_WORLD                Barycenter position along world x axis                     [deg]
#   6 Y_WORLD                Barycenter position along world y axis                     [deg]
#   7 A_WORLD                Profile RMS along major axis (world units)                 [deg]
#   8 B_WORLD                Profile RMS along minor axis (world units)                 [deg]
#   9 THETA_WORLD            Position angle (CCW/world-x)                               [deg]
#  10 FWHM_WORLD             FWHM assuming a gaussian core                              [deg]
#  11 ELONGATION             A_IMAGE/B_IMAGE                                           
#  12 ELLIPTICITY            1 - B_IMAGE/A_IMAGE                                       
         1 -12.7427     59.9862     32.7371   3.4192017188e+01   6.3677725365e+01      1.26103    0.7521465  -7.00  0.004121387    3.570    0.720
         2 -15.2837      6.9104     77.2306   7.6801204110e+01   6.2133037132e+01     5.540826     2.137701 -70.04   0.02142556    2.587    0.613
         3 -13.6420     81.3202     33.3132   2.7256136228e+01   5.8898811226e+01     1.431547     0.804969  46.47  0.005894866    1.709    0.415
         4 -15.0167     87.4994     10.1423   1.6751724825e+01   6.0153765728e+01     3.856542     1.188222  61.17    0.0158033    2.500    0.600
         5 -12.5270     33.7478     15.5936   3.8041123532e+01   7.1330835304e+01    0.6926005    0.4875511  54.82  0.002941384    1.465    0.317
         6 -13.8904      7.2363     24.2990   6.0802063891e+01   7.3916276008e+01      1.56032     1.274772  23.39  0.007701935    1.182    0.154
         7  99.0000     20.0942     13.3596   4.5252524502e+01   7.4021179347e+01     1.560115    0.6075442  33.74  0.006760607    2.407    0.584
         8 -13.1599     32.0790     32.7439   4.7580438881e+01   6.8988007000e+01     1.318405    0.9635644  48.84  0.006074398    1.456    0.313
         9 -10.9356    130.0850     28.4408   1.5424065948e+01   4.8226710253e+01     0.490239    0.2913805 -37.50  0.002663043    1.765    0.433
        10 -12.3289    241.7860     22.7550   4.4269626246e+00   2.7252844442e+01    0.4018528    0.1903179 -58.99  0.001536417    1.589    0.371
        11 -10.9626     50.1223     20.8469   3.2819445728e+01   6.7394722189e+01    0.5904387    0.4373258  43.44  0.003458158    1.174    0.148
        12 -10.9818    208.6210     18.7165   5.5064292431e+00   3.3205816558e+01    0.4229401    0.1995248 -70.06  0.002506686    1.950    0.487
        13 -10.4810    201.7510     12.9669   4.7703068566e+00   3.5057574956e+01    0.3551464    0.1628047 -30.47  0.002007289    2.414    0.586
        14 -11.8320    249.8982     14.8560   2.7095643290e+00   2.6851484862e+01    0.2980094    0.2227559 -24.19  0.002398866    1.952    0.488
        15 -10.5330    175.8671     11.9261   6.2654600651e+00   4.0150081109e+01    0.3521181    0.2637735  16.47  0.002158455    2.527    0.604
        16  -9.5472    188.1914      5.2022   3.9600746666e+00   3.8393548189e+01    0.1958019   0.08938535 -53.70 0.0004014722    1.716    0.417
        17 -11.1996    186.0125     10.8071   5.3054352551e+00   3.8254959704e+01    0.3308147    0.2476379 -89.87  0.002146234    1.217    0.178
        18 -10.4512    192.9412      7.8154   4.2319444761e+00   3.7226764719e+01    0.2309068    0.1485574  67.68 0.0009208831    1.721    0.419
        19 -10.7695    195.8435      3.4358   3.1568433619e+00   3.7111824787e+01    0.2311654    0.1818618 -86.29  0.001428273    1.222    0.181
        20  -9.7280    210.7839     11.8005   4.0251889465e+00   3.3550805094e+01    0.1611536   0.08755262 -60.44  0.001076335    1.401    0.286
        21 -14.8343     47.3611     43.9686   4.4371911814e+01   6.4356395166e+01     3.186461     2.083372  34.15    0.0159361    1.436    0.304
        22  -9.9929    242.3647     10.1864   2.2337162541e+00   2.8477036724e+01    0.1469669   0.05652625 -46.58 0.0008062166    1.726    0.421
        23 -10.0810    155.6943     10.0095   7.4336528250e+00   4.4543501046e+01    0.2085342     0.124459 -70.74 0.0009365102    1.475    0.322
        24 -11.2337    149.4557      8.5459   7.6187851885e+00   4.6036823631e+01    0.4899316    0.2012968  87.10  0.002299528    2.436    0.589
        25 -10.5224     57.8630      7.0067   2.3132285943e+01   6.7304136936e+01    0.1730955    0.1454153  59.75 0.0002523623    1.024    0.023
        26 -11.9711    137.9779      4.5057   7.6186375205e+00   4.8955027408e+01    0.4459661    0.2554313  74.40  0.001407439    1.502    0.334
        27  -9.5320    244.7994      4.8109   1.2243630529e+00   2.8638253744e+01     0.137688   0.07408977 -59.21 0.0005447259    1.282    0.220
        28 -11.0592    210.0197      1.9235   2.1469298876e+00   3.4673923250e+01    0.3989435    0.1270998  67.77  0.002114694    3.220    0.689
        29  -9.9671    169.0475      2.3834   4.5423673391e+00   4.2476100356e+01    0.1614766     0.115322 -84.24 0.0007164375    1.143    0.125
        30 -10.1917    130.4436      2.0080   7.6634067837e+00   5.0876874191e+01    0.2335708     0.139142 -83.15   0.00131294    1.491    0.329
        31 -13.7939    121.8855    108.5471   3.9042189026e+01   3.6645752700e+01     1.365116     1.042021  81.19  0.006726846    1.654    0.395
        32 -11.4446    155.3425     75.6380   2.3972153506e+01   3.5978944135e+01      0.55524    0.4063221  44.52  0.003108468    1.639    0.390
        33 -11.2712    144.8245     75.8086   2.5855892704e+01   3.8124252716e+01    0.4708886     0.335932 -62.32  0.002545851    1.404    0.288
        34 -11.1661    234.6982     75.4529   1.4283383121e+01   2.1948102851e+01    0.2718244    0.1830381  74.22  0.001952275    1.795    0.443
        35  -9.3797    218.5149     72.5099   1.5228766800e+01   2.4854803341e+01    0.1136533   0.08801888 -54.60 -1.477928e-05    1.009    0.009
        36 -11.0084    162.5796     71.0922   2.1725910981e+01   3.5235981294e+01      0.22267     0.188183  84.25 0.0003799577    1.161    0.139
        37 -10.6066     96.0409     71.4906   3.5977345342e+01   4.9401032855e+01    0.3414033    0.2470351  56.16 0.0008453227    1.332    0.249
        38  -9.1723    182.6944     71.6988   1.9055513772e+01   3.1224882045e+01    0.1087611   0.09785888   4.24 0.0005349194    1.595    0.373
        39 -10.2624    225.2514     67.0219   1.3566812724e+01   2.4523247445e+01    0.1624694    0.1190184 -50.93  0.001180385    1.060    0.057
        40  -9.8912    148.9814     65.0012   2.2388203966e+01   3.8994654498e+01    0.1516386    0.1325423 -68.09            0    1.037    0.036
        41 -10.4952    152.1995     87.6197   2.7413315250e+01   3.4595279627e+01    0.2599476    0.1924403 -69.95 0.0008039385    1.436    0.303
        42 -10.8321    214.7158     61.6404   1.3487741747e+01   2.6953503662e+01    0.3509409    0.1984127 -47.52  0.002145392    1.383    0.277
        43 -10.4187    170.9832     62.0784   1.8410227737e+01   3.4912102345e+01     0.274841    0.1714227  76.57   0.00106315    1.709    0.415
        44  -8.9386    165.3307     62.2905   1.9229752223e+01   3.6016591285e+01    0.1148776    0.1001001  27.75 0.0003244712    1.626    0.385
        45 -10.9550    250.1717     58.6614   1.0122933056e+01   2.1849753139e+01    0.1933251    0.1025797 -34.09  0.001255539    1.844    0.458
        46 -10.2703    174.8735     55.8810   1.6482931164e+01   3.5024103069e+01    0.2493707    0.1975263  48.83 0.0008564744    1.613    0.380
        47  -9.8832    177.1936     52.1604   1.5355562483e+01   3.5078503747e+01     0.202607    0.1398399 -62.22  0.001091557    1.271    0.213
        48  -9.4805    186.4740     52.4483   1.4386211007e+01   3.3239684974e+01     0.122202   0.09482574 -65.54 4.744522e-05    1.067    0.063
        49 -11.4682    145.9533     50.4714   1.9115823397e+01   4.1804464901e+01     0.382445    0.2417231 -74.74  0.001009483    1.745    0.427
        50 -11.1931    237.3100     49.4820   9.4072123583e+00   2.4877213928e+01    0.1798587    0.1623721  23.71  0.001403306    1.868    0.465
        51 -10.7612    133.9418     48.0831   2.0416945593e+01   4.4790730359e+01    0.1902267    0.1665964  89.24  0.000293262    1.026    0.025
        52 -11.3182    185.2625     44.0259   1.2660461395e+01   3.4577391931e+01    0.4051993    0.3132353 -76.85  0.002777444    1.126    0.112
        53 -11.0653    249.4780     31.3772   5.5128962502e+00   2.5144852530e+01    0.2135895    0.1842361 -66.87  0.001207427    1.331    0.249
        54 -12.1991    247.6087     40.6766   7.2040212953e+00   2.4368235362e+01     0.382227    0.2289872 -43.99  0.002486699    1.293    0.227
        55 -12.0929    241.1260     34.8027   6.5641206089e+00   2.6019682937e+01    0.3961714    0.2278205  71.76  0.002484468    2.007    0.502
        56 -11.3250    203.6713     42.9053   1.0727999328e+01   3.1288362344e+01    0.2738176    0.2001645  88.56  0.001188899    1.339    0.253
        57 -11.2132    190.0235     31.8656   9.5668974995e+00   3.5159538067e+01    0.3346573    0.2924585 -68.23  0.002023624    1.185    0.156
        58 -11.5881    197.2852     40.1514   1.0706152507e+01   3.2792896743e+01    0.2909233    0.2039635  71.40  0.001440294    1.525    0.344
        59 -11.4980    198.0861     35.2993   9.6247985149e+00   3.3235034489e+01    0.4338413    0.2861971 -89.43  0.002711446    1.444    0.308
        60  -9.9979    175.4276     42.5215   1.3343185768e+01   3.6705336102e+01    0.2093617    0.1434676 -50.83 7.724174e-05    1.268    0.211
        61 -11.3973    174.5010     37.4263   1.2263170880e+01   3.7535610508e+01    0.3313249    0.2838416 -14.93  0.001479892    1.671    0.402
        62 -10.8449    175.9580     33.0128   1.1097606269e+01   3.7781948741e+01    0.3184488    0.1714028 -88.50  0.001137604    1.936    0.484
        63 -10.5509    157.5009     43.0645   1.5585631800e+01   4.0334856579e+01    0.2239482    0.1614322  64.36 0.0007215161    1.415    0.293
        64 -11.4049    192.1084     40.3285   1.1203432598e+01   3.3737443334e+01    0.3141113    0.2043909 -32.90  0.001496347    1.691    0.408
        65 -10.3773    225.7768     39.4263   8.3669051613e+00   2.7916674303e+01    0.1970994    0.1396282 -57.62 0.0005585865    1.033    0.032
        66  -9.7515    148.1389     40.4520   1.6161971286e+01   4.2692195977e+01    0.1852826    0.1133579  69.46  0.001010753    1.543    0.352
        67 -11.6354    216.0337     38.3035   8.8418318659e+00   2.9681430832e+01    0.3117756    0.1703863  71.81  0.001312978    1.970    0.493
        68  -9.6404    159.4914     36.4342   1.3683547800e+01   4.0764291806e+01    0.1219157    0.1038554 -79.27 0.0002237048    1.053    0.050
        69 -10.0082    135.0135     34.2667   1.6360856450e+01   4.6396835617e+01    0.3271385    0.1290296 -46.37  0.001439187    2.438    0.590
        70 -12.2163    121.8477    127.2047   4.3385224031e+01   3.2656260965e+01    0.4619698    0.2801608  46.13  0.002090803    1.711    0.416
        71 -10.8156    194.0059    248.9962   4.8964463726e+01   2.8274040126e-01    0.1885836    0.1023401 -14.36  0.001147408    1.717    0.417
        72  -9.3748    224.4400     29.4702   6.5981300362e+00   2.9291113717e+01    0.1052886   0.07798929 -59.31 0.0001206378    1.042    0.040
        73 -11.5218    232.6265     30.3512   6.2673558361e+00   2.7856660642e+01    0.2870884     0.169795 -60.31  0.002081296    1.279    0.218
        74 -10.4046    108.9649     27.4569   1.8665885754e+01   5.3229152801e+01    0.2174903    0.1911697  13.58 0.0008942967    1.525    0.344
        75 -10.8461    121.7626     25.1735   1.5723096549e+01   5.0521023969e+01    0.4996217    0.2838617 -66.46  0.002501656    1.958    0.489
        76 -10.8048    241.4005    213.0022   3.6326968579e+01   1.3492208853e+00    0.1643118      0.11244  41.37  0.001166411    2.436    0.589
        77 -12.3845    235.2112     21.2540   4.4953504411e+00   2.8445729361e+01    0.4287132    0.3007919  62.92  0.002760199    1.929    0.482
        78 -10.0731    189.8451     24.0437   7.8948737839e+00   3.6095016414e+01    0.1987862    0.1361437 -43.72  0.001065312    1.354    0.261
        79 -10.6928    226.2128    196.3928   3.6026942087e+01   5.0845894553e+00    0.1296751    0.1000545  32.24 0.0008221759    1.693    0.409
        80 -10.5041    178.8761     20.6161   8.0067200451e+00   3.8623219457e+01    0.3235364    0.1787569 -41.49  0.001873362    1.630    0.387
        81  -9.3477    139.5986     21.2085   1.2081933265e+01   4.6904046629e+01    0.1435213    0.1201626 -25.98 0.0005789922    1.513    0.339
        82 -11.6199    245.6151    183.4168   3.1316922296e+01   5.1069095796e+00    0.2607643    0.1770758  14.95  0.001281872    1.753    0.429
        83 -10.7053    250.1204    172.8761   2.9109960915e+01   6.1679167336e+00    0.1591403    0.1183763 -41.01   0.00124323    1.240    0.193
        84 -10.4923     46.9628     30.1580   3.8610999988e+01   6.6713333122e+01    0.1968253    0.1855138 -20.64 0.0002834345    1.187    0.158
        85 -11.9117    248.8315    153.2720   2.6160614511e+01   9.0951063442e+00    0.3547737    0.1474259 -31.17  0.001876971    2.410    0.585
        86 -12.1764    245.3241    145.8262   2.5363040913e+01   1.0554939489e+01    0.3674541     0.251501  -6.20  0.002492691    2.015    0.504
        87 -11.4544    170.7491    113.3699   2.9923603476e+01   2.6530807557e+01    0.4612588    0.1692837 -46.62  0.001867309    2.459    0.593
        88 -11.7884    146.6936     96.0927   3.0485849470e+01   3.4176170143e+01    0.7325389    0.3604758  65.36  0.002869562    2.946    0.661
        89 -11.4954    141.8508     98.0585   3.1937191100e+01   3.4771779612e+01    0.7534331    0.4667484  84.85  0.003081299    2.825    0.646
        90 -11.0267    136.9661     96.5137   3.2592944021e+01   3.6040200770e+01    0.3263974    0.2582697 -85.35  0.001475103    1.445    0.308
        91 -11.5992    138.9873     93.0085   3.1303270250e+01   3.6289626274e+01    0.4605088    0.4329201 -24.62  0.001929886    1.214    0.176
        92 -11.5905    246.5650     95.4323   1.6732945930e+01   1.7561914746e+01    0.2668153    0.1318834 -40.94  0.001683361    1.520    0.342
        93 -10.8096     81.6606     94.3392   4.7170631770e+01   4.7610822400e+01    0.2434541    0.1815196  75.24  0.001114071    1.734    0.423
        94 -11.7722     90.2094     94.5325   4.4399288182e+01   4.5913813071e+01    0.2882802    0.2143254 -51.75  0.001295295    1.380    0.275
        95 -12.6347     33.1576     88.5020   6.5605504549e+01   5.6796229901e+01    0.6170979    0.3591247  34.19  0.002754357    1.662    0.398
        96  -9.6973    235.3423     87.3109   1.6356867382e+01   2.0237839935e+01   0.09820557   0.08001436 -15.95 0.0004264591    1.698    0.411
        97 -10.3560    249.8711     85.8700   1.4801331166e+01   1.8407654700e+01    0.1576735     0.116046 -39.93  0.001060339    1.215    0.177
        98 -10.7024     84.2316     85.9952   4.3973862200e+01   4.8939176915e+01     0.380133    0.1880355  32.40  0.001417144    2.450    0.592
        99 -11.1936    168.4448     77.7747   2.2402521924e+01   3.3019017447e+01    0.6375357     0.267134 -46.78   0.00286811    2.139    0.533
       100 -11.1174    171.5363     72.3469   2.0704413316e+01   3.3264391836e+01    0.6580546    0.2707052 -46.90  0.002993217    2.157    0.536
       101 -12.3665     92.1776     76.5335   3.8652548728e+01   4.9254513283e+01     1.137959    0.5486391  54.69  0.004488219    2.207    0.547
