#   1 NUMBER                 Running object number                                     
#   2 MAG_AUTO               Kron-like elliptical aperture magnitude                    [mag]
#   3 X_IMAGE                Object position along x                                    [pixel]
#   4 Y_IMAGE                Object position along y                                    [pixel]
#   5 X_WORLD                Barycenter position along world x axis                     [deg]
#   6 Y_WORLD                Barycenter position along world y axis                     [deg]
#   7 A_WORLD                Profile RMS along major axis (world units)                 [deg]
#   8 B_WORLD                Profile RMS along minor axis (world units)                 [deg]
#   9 THETA_WORLD            Position angle (CCW/world-x)                               [deg]
#  10 FWHM_WORLD             FWHM assuming a gaussian core                              [deg]
#  11 ELONGATION             A_IMAGE/B_IMAGE                                           
#  12 ELLIPTICITY            1 - B_IMAGE/A_IMAGE                                       
         1 -12.8048     11.4010     47.4890   9.0777059547e+01   6.6322857754e+01     1.744649    0.9317769 -75.05  0.006600425    4.937    0.797
         2 -13.0703     37.8953     49.6326   7.8508903208e+01   6.3246634452e+01    0.9439322    0.8728126 -17.23  0.006240813    1.252    0.201
         3 -12.2840    128.5606     10.8671   3.6690571518e+01   5.0428684258e+01    0.4185188    0.2835626 -81.49  0.002394371    1.681    0.405
         4 -11.3557    128.4432     24.9626   4.0936968577e+01   4.9085123742e+01    0.3876486    0.2478703 -16.90  0.002072773    2.015    0.504
         5 -11.0903    128.9792     18.4957   3.8896857824e+01   4.9622533523e+01    0.2828744    0.2125909  -7.63 0.0005451802    1.719    0.418
         6 -10.5638     15.0729     13.6502   7.5198699468e+01   7.1566368388e+01    0.1963078    0.1419578 -20.71 0.0004424129    1.241    0.194
         7 -11.5438     22.8352     23.7800   7.5586851173e+01   6.9258453038e+01    0.5264108    0.2406234 -27.69  0.002638501    2.235    0.553
         8 -11.1620     19.9871     15.9564   7.3539093993e+01   7.0692337185e+01    0.6005009    0.3098752  -0.94  0.002982466    2.475    0.596
         9 -11.8105    159.8844     22.7391   3.5371123934e+01   4.2120437994e+01    0.3567364    0.2759365  23.24 0.0006677471    1.815    0.449
        10 -11.0406     59.4763     20.4387   5.7531729435e+01   6.4149498985e+01    0.3384741    0.2109611  -8.03  0.001216457    1.837    0.456
        11 -11.0190     60.2651     13.7457   5.4365130525e+01   6.4718308806e+01    0.3793412    0.2476647  58.36  0.001598823    1.788    0.441
        12 -11.2541     29.8126     19.1641   6.9874541619e+01   6.9022164332e+01    0.3375865    0.2093871 -16.61 0.0004308577    1.558    0.358
        13 -10.5605     34.2707     15.8893   6.6152281557e+01   6.8813129556e+01    0.3140842    0.1951711   3.20  0.001519335    1.639    0.390
        14 -12.1301     40.8456     16.7773   6.3516416182e+01   6.7715989932e+01    0.8779097    0.4177333  37.28  0.004634657    1.820    0.451
        15 -11.6333     39.9626     10.9405   6.1169307942e+01   6.8515407133e+01     0.783635    0.3118694  36.89    0.0038378    2.133    0.531
        16 -12.1078      3.7782     16.3766   8.3223567220e+01   7.2271294311e+01    0.3678951    0.2473874  27.25  0.001482492    1.695    0.410
        17 -12.0940    237.9626     17.5930   2.6727113828e+01   2.6399485779e+01    0.2784726    0.1730117 -77.33 0.0004293436    1.356    0.262
        18 -10.7462     73.8050      6.5433   4.6992153331e+01   6.2746518090e+01    0.2596132    0.2080211  -7.17  0.001201124    1.387    0.279
        19 -10.3268     74.2964      2.0484   4.5023904556e+01   6.3004840254e+01    0.2712549    0.1491125  68.64  0.001408827    2.103    0.525
        20 -11.4019     77.7170     10.4673   4.7458570403e+01   6.1613737938e+01    0.7183781    0.2381563  46.44  0.002516062    2.373    0.579
        21 -11.5260     72.1566     16.7394   5.1641798980e+01   6.2139717971e+01    0.6421533    0.2413623  47.75  0.002914207    2.151    0.535
        22 -10.4261     70.5756     13.2669   5.0718273448e+01   6.2791596904e+01    0.2236883    0.1559884  27.87  0.001064334    1.309    0.236
        23 -10.2926    117.0671     13.9833   3.9646394195e+01   5.2758029087e+01    0.3731729    0.1932092  29.71  0.001705521    2.738    0.635
        24 -10.5908    118.2389      8.1323   3.7586399433e+01   5.3004150082e+01    0.2532378    0.1883088  -8.24 0.0007184981    1.701    0.412
        25 -11.5401    119.8723      3.9191   3.5998420705e+01   5.2977410286e+01    0.3622718    0.1648042  73.29  0.001220193    2.086    0.521
        26 -10.2170     98.1064     13.1459   4.3285980172e+01   5.7054201567e+01    0.3562579    0.1971732  72.66  0.001270002    2.066    0.516
        27 -11.5046    233.9709     11.1131   2.5820631718e+01   2.7859872792e+01    0.2208071    0.1395926 -41.22 0.0006572576    1.572    0.364
        28 -12.0645    234.3343      5.5162   2.4788509811e+01   2.8387091912e+01    0.2306861    0.2060607 -89.91  0.001104552    1.374    0.272
        29 -11.0784    164.4108      9.2042   3.1408639800e+01   4.2460863332e+01    0.3344876    0.1631332 -31.77  0.001776496    2.278    0.561
        30 -10.2747    164.6916      5.3397   3.0432625669e+01   4.2754064793e+01    0.2258155    0.1413425 -54.38 0.0009212629    1.611    0.379
        31  -9.0822     30.8423     12.1924   6.6051354810e+01   6.9749641949e+01    0.1840147    0.1343551  33.18 0.0005569632    1.365    0.268
        32 -10.1189     25.5520      8.5320   6.6919431166e+01   7.0914441860e+01    0.4743928    0.2246592  49.04   0.00212386    3.737    0.732
        33 -10.5489    175.6217     11.0849   3.0648230206e+01   3.9799134191e+01    0.2326914    0.1518169  69.40 0.0009502812    1.345    0.257
        34  -9.8134    107.7571     10.7324   4.0390608481e+01   5.5135799502e+01    0.1581675    0.1310925  85.66 0.0004399858    1.295    0.228
        35 -10.1157      5.6834     11.2773   7.9671857296e+01   7.2849207239e+01     0.135173    0.1081843 -32.15 0.0002626962    1.472    0.321
        36 -11.0145      8.8545      8.6736   7.6437265269e+01   7.2896442476e+01    0.3920879     0.188022  25.60   0.00217568    1.865    0.464
        37 -11.2731    148.7035      1.9145   3.1380139344e+01   4.6624849549e+01    0.2432181    0.1565343  70.32 0.0003918901    1.276    0.216
        38 -11.4722    146.4798      7.4917   3.3137847213e+01   4.6650996593e+01    0.3917974    0.3261464 -32.35  0.002375518    1.427    0.299
        39  -9.6557    150.5475      5.5420   3.2106967061e+01   4.5902209990e+01      0.16733   0.09954046  82.16 4.467059e-05    1.522    0.343
        40 -11.0856    241.0276      9.0903   2.5010472520e+01   2.6773529422e+01    0.1683799     0.116821 -69.52 0.0005049952    1.072    0.067
        41 -12.6464    214.0281      5.7645   2.6187967103e+01   3.2274639444e+01    0.6870042     0.364642 -70.81  0.004137581    1.691    0.408
        42 -10.8945    194.2782      1.6829   2.6860299006e+01   3.6704334963e+01    0.3959659    0.1221551  73.50  0.001809029    2.756    0.637
        43 -10.7162    191.1953      7.1996   2.8291616647e+01   3.6821878254e+01    0.3230253    0.2576427 -64.74   0.00142832    1.152    0.132
        44 -10.0595    187.3322      5.6749   2.8300637617e+01   3.7790429534e+01    0.2000397   0.09891741 -40.92 0.0007509352    1.977    0.494
        45 -10.3153    155.8677      6.4676   3.1706496643e+01   4.4623557293e+01    0.2699414    0.1648317  36.26 0.0008368167    2.245    0.555
        46  -9.7186    100.4661      6.9645   4.0602263014e+01   5.7063820265e+01    0.2328736    0.1416398  16.88  0.001248251    2.157    0.536
        47 -10.2888     91.6506      6.9343   4.2536968272e+01   5.8983628622e+01    0.2828283    0.1353583  58.14  0.001448243    1.700    0.412
        48 -10.4117      9.7068     15.7459   7.9335597040e+01   7.1829813395e+01    0.2867447     0.159207  -8.71 0.0008252316    1.766    0.434
        49  -9.5373    109.4326      5.4704   3.8321363623e+01   5.5197333354e+01    0.1236306    0.1005581  55.69 0.0001809573    1.043    0.041
        50 -10.8094     97.8765      4.3016   4.0214936805e+01   5.7841498794e+01    0.2816577    0.1762535  21.52  0.001150487    1.931    0.482
        51 -11.2483     19.2479      3.2922   6.7590949281e+01   7.2348538543e+01    0.6299148     0.256817  22.42  0.002994658    2.699    0.630
        52 -11.5448     11.2276      2.9693   7.2046111841e+01   7.3361756589e+01    0.2779832    0.1769233   6.47 0.0005970522    1.283    0.221
        53 -10.6402    202.5521      3.4860   2.6585639553e+01   3.4819292985e+01    0.2837192    0.2018195  51.54  0.001896105    1.810    0.448
        54 -10.4579    178.8657      3.9644   2.8690171966e+01   3.9770716715e+01    0.2010772    0.1411967  83.50 0.0004607695    1.177    0.150
        55 -10.0508    126.2676      2.7092   3.4624218289e+01   5.1628670191e+01    0.2139818    0.1619795 -34.74   0.00113136    1.551    0.355
        56 -10.4382     68.1766      3.6399   4.7437390771e+01   6.4109875204e+01    0.1690352    0.1525452  24.13  0.000936877    1.167    0.143
        57 -11.8184     28.5306      2.9104   6.2533421713e+01   7.1106415858e+01    0.4647534    0.2139076  32.55  0.001269588    1.814    0.449
        58 -10.7684    243.0104      2.7310   2.3787788839e+01   2.7085278596e+01    0.1793951    0.1216468 -54.50 0.0006107058    1.236    0.191
        59  -9.2445    111.7007    164.3186   8.3076243945e+01   2.5428319377e+01    0.1566678    0.1239326  75.69 0.0002850998    1.618    0.382
        60 -10.6550    247.6449    250.0979   6.8958134873e+01  -1.1293079524e+01    0.1836998    0.1359721  14.75  0.001315555    1.373    0.272
        61 -11.4175    237.8202    245.8168   6.9982500996e+01  -9.6835459834e+00    0.2119131    0.1531021  23.57 0.0008605857    1.506    0.336
        62 -12.2463    232.5753    245.1890   7.0819810436e+01  -9.0301639783e+00    0.5562983    0.2202593 -31.49  0.002731229    2.277    0.561
        63 -11.6811     88.9757    249.3934   1.0177371979e+02   9.1125645759e+00    0.3594839    0.2620626  30.95 0.0009298035    1.244    0.196
        64 -10.2204     72.4148    250.1459   1.0553204530e+02   1.1121710090e+01    0.2208343    0.1709394   9.94  0.001106234    1.559    0.359
        65 -13.1912     19.0890    237.1208   1.1602590466e+02   2.0001373453e+01     1.688978    0.4672647  54.16   0.00637382    3.627    0.724
        66 -11.7281      5.1859    235.6247   1.1881838867e+02   2.1644204401e+01    0.3842033    0.3214585  47.90  0.002683418    1.213    0.176
        67 -13.0383      6.5930    245.0142   1.1902669343e+02   1.9517072477e+01    0.7616668    0.5888047  68.05  0.003550574    1.022    0.022
        68 -12.6745     22.4919    248.6646   1.1604139853e+02   1.7199965372e+01    0.8224106    0.2509447  33.67  0.003692117    2.699    0.630
        69 -12.2312     15.9758    246.5231   1.1723388981e+02   1.8302346421e+01    0.6138422    0.2962978  60.31  0.002068823    1.853    0.460
        70  -8.9463    200.6385    162.3107   6.1541522538e+01   9.8749048676e+00     0.137282    0.1131018 -82.04 0.0007040994    1.746    0.427
        71 -12.5552     21.2790    157.3477   1.0856234052e+02   3.9280237962e+01    0.6751601    0.4542693   9.64 0.0009251073    1.820    0.451
        72  -9.5970    216.2711    154.9794   5.7136814733e+01   8.6891318186e+00    0.1928218     0.153777 -37.96 0.0003302531    1.078    0.072
        73 -11.1991     10.0479    152.4454   1.1130482756e+02   4.1424854525e+01    0.3381075    0.2236377  51.13 0.0009377972    1.645    0.392
        74 -10.1881    177.3237    150.4862   6.3773756164e+01   1.6462217157e+01    0.3000031    0.2355998  86.83  0.001119851    1.870    0.465
        75 -10.5837    207.0646    146.4922   5.7024434717e+01   1.1874196564e+01    0.2195245    0.1728078 -39.49 0.0006419194    1.112    0.101
        76  -9.3303     19.3156    145.7026   1.0772662364e+02   4.2492685309e+01    0.1390378   0.09688493  65.91 0.0002617927    1.608    0.378
        77 -10.0482    220.1961    143.8247   5.4172739458e+01   1.0135361570e+01    0.1869969    0.1483072 -20.59 0.0006086414    1.311    0.237
        78 -10.0340      3.0325    143.6570   1.1245259901e+02   4.4154596955e+01    0.1723912    0.1587979 -60.57 0.0004067599    1.125    0.111
        79 -10.4563      2.6639    136.7331   1.1181549372e+02   4.5957263065e+01    0.4260032    0.1197251 -64.39  0.001634796    2.541    0.607
        80  -9.9093     55.0466    137.9243   9.5041090060e+01   4.0937125608e+01    0.3326856    0.1682182  53.13  0.001134499    2.734    0.634
        81 -10.8240     17.5206    137.0247   1.0715483228e+02   4.4900066562e+01    0.2562087    0.2098232  42.67 0.0001684453    1.373    0.272
        82  -9.7661     21.0000    134.9134   1.0573578824e+02   4.5183158308e+01    0.1935238    0.1536998  81.07 0.0006295705    1.352    0.261
        83 -12.1770      9.1835    136.3548   1.0972654677e+02   4.5656544691e+01    0.2764354      0.20283 -65.91 0.0002583108    1.142    0.125
        84  -9.3190    143.7440    137.0333   6.8492536872e+01   2.5969348925e+01    0.2031474    0.1313401 -47.08 0.0005549131    1.498    0.332
        85  -9.9770    249.1263    133.8329   4.7766754809e+01   7.2941627332e+00    0.1873796    0.1483928 -52.48 0.0004688994    1.193    0.162
        86  -9.5178    122.7137    134.6723   7.3471463333e+01   3.0676672874e+01    0.1616027    0.1227366 -15.73  0.000305404    1.610    0.379
        87 -10.4619     59.2512    131.9875   9.2492902708e+01   4.1954126327e+01    0.2434001    0.1938696 -31.78 0.0005657212    1.283    0.221
        88 -11.0594     54.2828    132.2762   9.4211709277e+01   4.2511065978e+01    0.3984481    0.2736808  33.96  0.001079799    1.548    0.354
        89  -9.7031     47.9457    133.4839   9.6563011527e+01   4.2951814835e+01    0.2108653     0.146183  25.80 0.0009280225    1.557    0.358
        90  -9.9649     79.8420    132.4869   8.5839012086e+01   3.8856787475e+01    0.2202932    0.1541113  29.86 0.0006128066    1.491    0.329
        91 -11.2938     36.6811    130.2453   9.9773897562e+01   4.5007312365e+01    0.4678582    0.2784608 -36.76  0.001681549    1.763    0.433
        92 -11.3795     74.0308    128.8002   8.6908770537e+01   4.0692868293e+01    0.3976555    0.3049884 -56.65 0.0009729103    1.263    0.208
        93 -11.4324     23.9265    125.7869   1.0337486222e+02   4.7321798958e+01    0.3191613    0.2335608  19.46  0.001117704    1.540    0.351
        94 -11.1527     10.7958    122.5931   1.0738163841e+02   4.9096962132e+01    0.3034358    0.2512219  62.24  0.001110687    1.388    0.279
        95 -10.5377     17.3206    125.3459   1.0556151393e+02   4.7945240676e+01    0.2593359    0.1646188 -46.20  0.001055984    1.428    0.300
        96  -9.7242    220.2391    123.9809   5.0040363266e+01   1.3789990154e+01    0.1961973    0.1532944 -43.65 0.0004470967    1.094    0.086
        97  -9.6277    243.5829    122.5251   4.6326474466e+01   1.0094560479e+01    0.1289754    0.1028786 -44.52 0.0001257587    1.013    0.013
        98 -10.6124     14.4698    125.4833   1.0654862433e+02   4.8111672477e+01    0.2305264     0.194651 -24.60  0.001371703    1.266    0.210
        99  -9.4977      3.2993    122.3201   1.0988132604e+02   4.9607777154e+01    0.1423006   0.07940066 -45.36 0.0004019489    1.621    0.383
       100 -10.8293     73.2350    117.6568   8.4595434387e+01   4.3615724986e+01    0.4527689    0.2743928 -76.56  0.001545509    2.590    0.614
       101 -10.0636      1.3957    118.8439   1.1007459473e+02   5.0588362455e+01    0.1967149    0.1081571 -69.84 0.0004724037    1.511    0.338
       102  -9.9263     33.2738    117.7540   9.8696296554e+01   4.8566279784e+01    0.2956323    0.1964614  60.61  0.001390607    2.002    0.500
       103 -10.4346     23.4226    117.7807   1.0222131994e+02   4.9421298021e+01     0.208122    0.1635223  -4.16 0.0004821875    1.418    0.295
       104  -9.5602    179.4867    115.9622   5.5441431771e+01   2.3147965150e+01    0.2251892    0.1365015 -43.14 0.0006435807    1.536    0.349
       105  -9.6000     85.8597    115.8251   7.9929319871e+01   4.2016875461e+01    0.2046133    0.1861478 -86.07 0.0005269448    1.280    0.219
       106 -11.1765     16.3534    115.0733   1.0429161616e+02   5.0641759632e+01     0.398643    0.2289294 -28.01  0.001138027    1.912    0.477
       107  -9.8410    214.1410    115.1377   4.9126411354e+01   1.6503823656e+01    0.1995231    0.1735976 -25.86 0.0004610826    1.235    0.190
       108 -10.6056     94.6508    112.1930   7.6159284418e+01   4.1330129874e+01    0.3056576    0.2854051   0.82  0.001614504    1.067    0.063
       109 -11.6885     37.1929    110.2278   9.5772415264e+01   5.0086096916e+01    0.4471551    0.3196362  61.51  0.002200686    1.867    0.464
       110 -11.8070     55.0586    109.6355   8.9072557066e+01   4.8173147765e+01    0.3155819    0.2681451 -38.60  0.000376406    1.078    0.072
       111 -10.8996    249.3831    112.2469   4.3566667206e+01   1.0889691000e+01     0.231311    0.1756252 -54.59 0.0005546194    1.154    0.134
       112 -11.9159     14.5168    108.8590   1.0392262676e+02   5.2332396782e+01    0.5097417    0.3266921  -4.31  0.002427171    1.806    0.446
       113 -10.3108      1.3032    108.3251   1.0866553016e+02   5.3227630822e+01    0.2787568    0.1134923 -68.86  0.001119777    2.026    0.506
       114 -10.1653      2.3225    105.3131   1.0784891252e+02   5.3923171050e+01     0.218112    0.1264853 -53.42 0.0004564444    1.380    0.275
       115 -10.4882     25.9067    102.1250   9.8359503998e+01   5.3142976880e+01    0.2240026    0.1924706 -74.44  0.000280959    1.255    0.203
       116 -11.6272     23.5244    106.1054   1.0005894995e+02   5.2356080114e+01    0.3922747    0.3496811  16.72  0.002377316    1.258    0.205
       117 -11.1371    120.0648    101.5909   6.5711229442e+01   3.8703046622e+01    0.7784558    0.3007082 -32.39  0.002120315    4.456    0.776
       118 -10.9386     51.9066    103.8492   8.8847101465e+01   4.9988035224e+01    0.2335931    0.1800979 -27.43 0.0005922999    1.276    0.216
       119 -10.4071     37.9361    103.6525   9.4073727120e+01   5.1638676095e+01    0.2634357      0.17267 -47.03  0.001021499    1.339    0.253
       120  -9.7408     70.5028    102.4505   8.1705218330e+01   4.7704922886e+01     0.149581    0.1392066 -20.92 0.0001398579    1.007    0.007
       121 -11.5081     19.4165    100.9190   1.0062457112e+02   5.3953449404e+01    0.2739035    0.1963573 -23.49 0.0001356782    1.407    0.289
       122 -11.6174    144.2623     97.9925   5.8533563648e+01   3.4240982124e+01    0.5460294    0.4489233  61.95  0.001766744    1.287    0.223
       123 -11.9356     63.3066     98.4153   8.3232174306e+01   4.9729491708e+01    0.5846837    0.3047941  22.73  0.002392277    2.171    0.539
       124 -10.8931     50.6728     99.1420   8.8148154255e+01   5.1271967922e+01    0.3113832    0.2139129  -3.00  0.001008686    1.689    0.408
       125 -12.4421     10.5988     90.6604   1.0211106261e+02   5.7025860767e+01    0.2954454    0.2545609 -20.10 0.0003704575    1.166    0.143
       126  -9.9070     10.0344     99.0329   1.0390314237e+02   5.5043748576e+01    0.1905519    0.1707164 -72.78  0.000621406    1.184    0.156
       127 -11.6964     14.8318     96.3106   1.0152039755e+02   5.5399728760e+01     0.675809    0.1871661 -51.15  0.002573433    2.590    0.614
       128 -12.4913    158.1158     89.6847   5.3271888834e+01   3.2768297440e+01     1.255388    0.5699753 -55.38  0.004425993    2.944    0.660
       129  -9.6032     37.9442     95.0000   9.2062529205e+01   5.3724575521e+01    0.2192366   0.07935406  23.47 0.0008044566    2.956    0.662
       130  -8.9064    113.3212     93.2972   6.5288592248e+01   4.1836475774e+01    0.1536878    0.1189386   3.54 0.0003503797    1.619    0.382
       131 -10.4176     66.7280     93.3890   8.0601330260e+01   5.0369463151e+01     0.265227    0.1792856  24.27 0.0003002527    1.531    0.347
       132 -11.3025     57.6806     90.2174   8.3108156675e+01   5.2410288573e+01     0.547123    0.3375613   2.75  0.002377795    2.118    0.528
       133  -9.6688     31.1618     93.0116   9.4292253173e+01   5.4873307167e+01    0.2425593    0.1178323 -39.57  0.001056521    1.917    0.478
       134  -9.6936    127.5053     92.4901   6.1184708368e+01   3.8985339129e+01    0.1485288    0.1465585  16.81 3.295156e-05    1.007    0.007
       135  -9.2134     46.6718     92.2912   8.7940693592e+01   5.3372698685e+01    0.1349019    0.1116736  64.11 0.0004657251    1.622    0.383
       136 -10.5338     37.7436     90.1477   9.0945451333e+01   5.4884733788e+01    0.4227249    0.1759246 -41.11  0.001343978    2.262    0.558
       137 -10.5252     25.5196     90.8885   9.6083646554e+01   5.5882306210e+01    0.2526653    0.2172927 -59.22 0.0007113376    1.183    0.155
       138 -11.6552     22.0192     87.4381   9.6733636034e+01   5.6981722779e+01    0.4322256    0.2311615 -47.42  0.001334605    1.551    0.355
       139  -9.9589      5.4818     97.9679   1.0547725406e+02   5.5560471815e+01    0.1916266    0.1659558 -14.80 0.0005408924    1.233    0.189
       140 -10.3415     96.6717     88.9881   6.9048407698e+01   4.6080017956e+01     0.273773    0.1581366  40.10  0.001172561    1.714    0.417
       141 -10.0916     83.0616     88.6315   7.3423584885e+01   4.8697773144e+01    0.2209139    0.1939294 -30.34 0.0005727099    1.106    0.096
       142 -10.8818     78.3193     87.6086   7.4763852399e+01   4.9747845604e+01    0.3424562    0.3160398   5.89   0.00102809    1.037    0.035
       143 -11.7908      4.9865     83.7744   1.0306770399e+02   5.8963246946e+01    0.5515436    0.2783443 -34.25  0.002089812    1.805    0.446
       144 -10.2276     65.2351     87.2408   7.9400725714e+01   5.1962161940e+01    0.2366194    0.2335654  75.41 0.0009511781    1.220    0.180
       145 -10.8393     67.4680     83.6930   7.7519773198e+01   5.2378296367e+01    0.3208593    0.2338865  -3.05  0.001575531    1.557    0.358
       146 -10.3901     46.5165     87.6811   8.6776712982e+01   5.4448079208e+01     0.393546    0.2135063  28.59  0.001799949    1.901    0.474
       147  -9.7810    121.0963     86.8140   6.1268813084e+01   4.1481320047e+01     0.222022    0.2052552  89.63 0.0005622139    1.207    0.172
       148  -9.9850    115.8274     83.5943   6.1768448410e+01   4.3230846123e+01    0.3441969     0.198945  29.68  0.001382516    2.177    0.541
       149 -10.3933     14.8581     84.0562   9.8969388386e+01   5.8300567841e+01    0.1974751    0.1631637 -39.43  0.000462331    1.006    0.006
       150 -10.2008     74.1091     82.3535   7.4680958293e+01   5.1571858472e+01    0.2588471    0.1900656 -29.99 0.0005959793    1.360    0.265
       151  -9.8528     62.8166     82.4932   7.8912887324e+01   5.3354993251e+01    0.2093316    0.1376547  29.97  0.001010887    1.526    0.345
       152  -9.9538     42.3312     82.2479   8.6980902805e+01   5.6166623500e+01    0.2137859    0.1633284  45.79 0.0006798206    1.636    0.389
       153 -11.6436     30.8887     80.5265   9.1302149816e+01   5.7777635120e+01     0.436428    0.2729145 -38.05    0.0022597    1.412    0.292
       154  -9.3282    146.6844     81.2907   5.3482104504e+01   3.6843510411e+01    0.1461124    0.1128666 -82.18 0.0002632819    1.594    0.373
       155 -11.8217      6.8460     51.3372   9.4308077355e+01   6.5890338212e+01     0.470429    0.4308527  56.46  0.003242343    1.591    0.372
       156 -13.2162      4.8247     63.2466   9.8557369754e+01   6.3555618927e+01    0.7624444     0.580803 -45.94  0.004874994    1.117    0.105
       157 -11.1557     13.0824     58.0736   9.3180978098e+01   6.4103057427e+01    0.4048321    0.2493494  50.31  0.002013239    2.749    0.636
       158 -12.1684     37.1028    243.3198   1.1263131105e+02   1.6773854177e+01    0.6942343     0.332263  88.61  0.002613524    2.429    0.588
       159 -14.1146     16.5676     67.4404   9.4150725984e+01   6.1884452825e+01     0.614402    0.5061198 -62.05  0.001005846    1.369    0.269
       160 -12.0810     13.6089     77.1308   9.7926532515e+01   5.9967759242e+01    0.4281867     0.326599   9.79 0.0003417625    1.399    0.285
       161 -12.3080      8.3749     73.6366   9.9427268744e+01   6.1084209658e+01    0.7107176    0.3785336  -7.88  0.003152709    2.063    0.515
       162  -9.5035    183.6302     80.6764   4.6250493420e+01   2.8745629694e+01    0.1377192    0.1097004  18.15 0.0007034464    1.805    0.446
       163  -9.7103    126.8625     80.2246   5.7859583906e+01   4.1463231110e+01    0.2046218    0.1728887  17.07 0.0005753489    1.342    0.255
       164  -9.4918    122.7666     79.6264   5.8738153743e+01   4.2473057564e+01    0.1952617    0.1371892  57.38 0.0003306382    1.494    0.331
       165 -10.1157    115.4816     79.5418   6.0663824353e+01   4.4068945075e+01    0.1466021    0.1404319  25.85 3.129867e-05    1.013    0.013
       166 -10.4901     60.0862     78.3587   7.8712264606e+01   5.4637515906e+01    0.3614621    0.2540829   1.56  0.001051857    1.600    0.375
       167 -12.3359    166.5808     83.7682   5.0058284693e+01   3.1952539285e+01    0.8358076    0.6541777  44.34  0.003481892    1.379    0.275
       168 -12.8682     44.7235     74.8293   8.3843130294e+01   5.7483716901e+01    0.3510249    0.2790752  35.33 0.0005238231    1.419    0.295
       169 -10.4490     42.7459     68.2580   8.2660667525e+01   5.9090470482e+01    0.2976089    0.2110744  -8.27   0.00159596    1.431    0.301
       170 -10.7912     36.0954     68.2556   8.5553164706e+01   5.9876672526e+01    0.4991131     0.277835  49.98  0.001696974    3.037    0.671
       171  -9.1376    184.2967     76.6507   4.5174327022e+01   2.9269493044e+01    0.1449868   0.09806624 -69.34 0.0007034275    1.681    0.405
       172  -9.7046    145.5019     74.5234   5.1882998114e+01   3.8288971893e+01    0.2470345    0.1423098 -26.20  0.001030769    2.240    0.554
       173 -10.5985     91.1475     74.4344   6.6362399248e+01   5.0030237777e+01    0.2600973     0.204879 -37.35 0.0005715871    1.294    0.227
       174 -10.8083     76.2582     74.2428   7.1372701725e+01   5.2833040316e+01    0.3555648     0.226983  23.44 0.0007941959    1.687    0.407
       175 -10.9876     51.8604     62.4323   7.6891754099e+01   5.9012966447e+01    0.3053177     0.244494  20.22  0.001398001    1.195    0.163
       176 -10.1069     47.6902     60.6963   7.8060681089e+01   5.9927249769e+01    0.3409701    0.1903219  15.16  0.001570888    2.042    0.510
       177 -11.1208     54.0391     74.0257   7.9767772742e+01   5.6412899963e+01    0.3334491    0.2451132  46.47  0.001734521    1.678    0.404
       178 -11.8307     50.5145     68.2194   7.9366766741e+01   5.8079001588e+01    0.4627545     0.321028 -34.83  0.001311501    1.346    0.257
       179 -10.7434    207.5367     73.0656   4.0924466604e+01   2.4951743514e+01    0.2159529    0.1810179  74.76 0.0003686514    1.228    0.186
       180 -10.6811    100.8710     71.7656   6.2480001245e+01   4.8570422831e+01    0.3872944    0.2501769  69.82 0.0009550004    2.515    0.602
       181 -11.5108    156.3996     82.5678   5.1763625641e+01   3.4434864705e+01    0.8240673    0.4113061  37.56  0.003130745    2.719    0.632
       182 -10.1964    194.9668     69.8956   4.1955507166e+01   2.8060787649e+01    0.1941772    0.1752494 -74.80 0.0003747806    1.034    0.033
       183 -10.2143    167.8659     69.6241   4.6212166542e+01   3.4037113454e+01    0.1991186    0.1851076 -37.76 0.0003400097    1.168    0.144
       184 -10.5239    130.8284     67.8890   5.3295900457e+01   4.2723543441e+01    0.3974286    0.2870281 -16.30  0.001440567    1.770    0.435
       185  -9.8943    127.5231     66.4106   5.3644459298e+01   4.3711170746e+01    0.2042364    0.1891435  -2.70  0.000107558    1.178    0.151
       186 -11.2516     77.6055     69.7356   6.9431862346e+01   5.3453821184e+01    0.4166559    0.2658128  42.62 0.0009217161    1.582    0.368
       187 -12.5740    122.5393     63.7449   5.4057369232e+01   4.5261917969e+01    0.4376551    0.3694526 -66.74 0.0004565834    1.367    0.269
       188  -9.2253     68.6911     69.7491   7.2683816747e+01   5.4999820834e+01    0.1397931    0.1023187   0.89 0.0006898102    1.512    0.339
       189  -9.0918    230.2720     68.6528   3.7221658300e+01   2.1165493531e+01    0.1301223    0.0777164 -63.02 0.0003818538    1.623    0.384
       190 -11.4843     95.1355     65.7065   6.2287100965e+01   5.0813092287e+01     0.595458    0.3304664  30.12  0.001530048    2.091    0.522
       191 -12.3430     30.7254     63.5754   8.6514807144e+01   6.1414892727e+01    0.6816965    0.5296668 -31.58  0.004094294    1.112    0.100
       192 -11.4675     23.8809     41.5791   8.2303952622e+01   6.6283513889e+01    0.6210666    0.4826657  58.64  0.003164678    2.368    0.578
       193 -11.9034     30.4670    233.9412   1.1337020908e+02   1.9532687564e+01    0.5530363    0.2139216  85.97  0.002077235    3.717    0.731
       194 -11.6207     35.5695     42.2662   7.6835027113e+01   6.4812036519e+01    0.5418852    0.3045531  11.57  0.002512542    1.938    0.484
       195 -11.4073     26.5019     55.5277   8.5909351060e+01   6.3443243688e+01    0.3432562    0.2386009 -45.90  0.001319233    1.387    0.279
       196 -11.8319     26.6150     49.3098   8.3743483960e+01   6.4608432506e+01    0.8052069    0.5458241  60.72  0.003770354    3.335    0.700
       197 -12.9466     28.2986     37.6459   7.8568120425e+01   6.6464131802e+01    0.4465182    0.3090805   2.52  0.001961811    1.304    0.233
       198 -11.5329     24.4811     34.5307   7.9264076953e+01   6.7409070562e+01      0.28267    0.1853552   3.39  0.001233327    1.405    0.288
       199  -9.3564    143.8053     64.3824   4.9418760249e+01   4.0338345897e+01    0.1923099    0.1238041  47.39 0.0003537335    1.541    0.351
       200 -10.2518    152.1579     63.5823   4.7522033202e+01   3.8553516620e+01     0.345553    0.1009001  48.50  0.001120507    3.511    0.715
       201 -10.2560     76.9959     63.0298   6.7407317682e+01   5.4784817944e+01    0.2705126    0.2117952  32.08 0.0009161301    1.205    0.170
       202  -9.8784    202.6660     61.0744   3.8910997122e+01   2.7775714542e+01    0.1812919    0.1476928 -50.79 0.0004337613    1.156    0.135
       203  -9.5097    113.4434     60.9519   5.5514883991e+01   4.7725294308e+01    0.1861334    0.1190244 -61.92 0.0006798992    2.285    0.562
       204 -11.0160     85.6799     58.6389   6.2944284129e+01   5.3894082281e+01    0.4936005    0.2353063 -21.80  0.001716657    3.603    0.722
       205 -11.6770     58.4485     59.2928   7.3115766311e+01   5.8604498508e+01    0.6215357    0.4072652  -3.31  0.003038463    1.838    0.456
       206  -9.5191    168.8223     60.3721   4.3688244478e+01   3.5254039921e+01    0.1844037    0.1177575  52.13 0.0003117229    1.590    0.371
       207  -9.4297     98.3094     60.2670   5.9537042324e+01   5.1075574059e+01     0.140999    0.1040898  18.30 0.0006945505    1.539    0.350
       208  -9.2445     93.2676     60.6763   6.1207194974e+01   5.2044376422e+01    0.1313471    0.1130601 -80.30 0.0006967167    1.567    0.362
       209 -10.6466    148.1511     57.6964   4.6681760200e+01   4.0366261388e+01    0.3882389    0.2361921 -67.13  0.001714159    2.272    0.560
       210 -10.0738     69.2733     58.1544   6.8526058212e+01   5.7014175395e+01    0.3576212    0.1689563 -50.99  0.001423756    2.866    0.651
       211  -9.9741    124.6414     58.0299   5.1813836648e+01   4.5686543961e+01    0.1827874    0.1741269 -28.20 0.0004736508    1.123    0.110
       212 -10.8872    132.5402     55.4724   4.9252586836e+01   4.4275951769e+01    0.3965935    0.3335886  -1.00  0.002217037    1.447    0.309
       213 -11.9719    129.4994     49.2191   4.8049844748e+01   4.5868272583e+01    0.4355231    0.3678846  16.89  0.001145501    1.390    0.280
       214 -10.6594    131.3866     41.9182   4.5465263533e+01   4.6415501061e+01     0.292328    0.2254953 -59.58 0.0008834318    1.464    0.317
       215 -10.7991     75.2253     55.7173   6.5501576371e+01   5.6361495334e+01    0.2515387    0.2020092 -30.25 0.0002739107    1.277    0.217
       216  -9.5483    230.5970     54.8030   3.4418312831e+01   2.3099619399e+01    0.1751471   0.09004722 -50.03 0.0009472684    1.628    0.386
       217 -13.0542    105.6225     52.4359   5.4870205516e+01   5.0742928478e+01     0.518376    0.3169268  46.75 0.0007128553    1.497    0.332
       218 -10.4741    104.3195     47.1066   5.3456613995e+01   5.1796194778e+01    0.3774965    0.1965303  35.28  0.001549829    2.163    0.538
       219  -9.3914     82.3918     54.1423   6.2477183306e+01   5.5265230517e+01    0.1829833    0.1284181 -47.79 0.0007384197    1.697    0.411
       220 -10.7613     87.9506     51.4585   5.9729471241e+01   5.4587746659e+01    0.3813422    0.1867616 -35.59  0.001685378    2.176    0.540
       221  -9.7721     55.7934     53.1264   7.1996578212e+01   6.0106632397e+01    0.2759655    0.1611881  10.55  0.001243219    2.201    0.546
       222  -9.4210    173.3013     52.3324   4.0950870954e+01   3.5412443454e+01    0.1268152    0.1030165  28.17 0.0007034162    1.652    0.395
       223  -9.7687    120.0051     52.2109   5.1126560930e+01   4.7597142694e+01    0.2279094    0.1410181  32.69 0.0007707714    1.911    0.477
       224  -9.8230     48.3456     55.8869   7.6110833113e+01   6.0726153165e+01    0.1844361    0.1502572 -13.30  0.000506704    1.092    0.084
       225  -9.8566    237.4651     50.4659   3.2910205906e+01   2.2406315325e+01    0.1194563   0.09250661 -64.90 4.556952e-05    1.021    0.020
       226 -10.2666     52.5352     49.8036   7.2126941092e+01   6.1174485843e+01    0.2014783    0.1759402  34.74 0.0007974168    1.315    0.240
       227  -9.7195    200.0689     49.2705   3.6608920630e+01   2.9995944780e+01    0.1714316    0.1411202 -83.23 0.0003125556    1.081    0.075
       228  -9.4239     68.5391     48.5327   6.5332676053e+01   5.8730486925e+01    0.1373797    0.1165894  11.63 0.0008079574    1.050    0.048
       229 -11.5582     58.5358     46.6200   6.8472861813e+01   6.0746339922e+01    0.5709971    0.3101554 -58.83  0.002087613    4.424    0.774
       230 -13.0202     57.9664     34.1253   6.3808794488e+01   6.2700083209e+01    0.4051982     0.279121  20.14  0.001257791    1.361    0.265
       231 -12.3025     45.6172     38.7946   7.0865745480e+01   6.3989190715e+01    0.6642691    0.4059731  51.14  0.001141448    2.481    0.597
       232 -10.6904    151.5053     46.0754   4.2865598666e+01   4.1235315281e+01    0.2347802     0.200735  66.24 0.0003345234    1.081    0.075
       233 -10.2907     78.8448     46.9275   6.1093380791e+01   5.7064425637e+01    0.1986947    0.1753009  16.19 0.0004230005    1.026    0.025
       234 -10.2931    143.2090     45.5565   4.4220280587e+01   4.3216083112e+01    0.2141713    0.1873117 -48.48 0.0005728029    1.211    0.174
       235 -10.6447    112.6483     45.3235   5.0725820142e+01   5.0211649789e+01    0.4131465    0.2270759  33.89  0.001709722    2.177    0.541
       236 -10.5688     97.5425     38.6674   5.2419767951e+01   5.4394548621e+01    0.3676613    0.3303811  37.44  0.001568845    1.019    0.019
       237 -11.1242     91.6515     43.3433   5.5742912179e+01   5.5012584768e+01    0.4528736    0.2682545 -46.30   0.00189544    2.075    0.518
       238  -9.9922     95.4838     42.7924   5.4433337350e+01   5.4285519284e+01    0.2323274      0.18471   9.28 0.0002892131    1.381    0.276
       239 -10.1795    139.1462     42.7538   4.4185307784e+01   4.4521703284e+01    0.2278313    0.1772308 -53.52 0.0006631552    1.383    0.277
       240 -10.2491    108.5049     41.9168   5.0642610845e+01   5.1586334647e+01    0.4500899    0.1556195  44.17  0.001657945    2.837    0.647
       241  -9.8963    148.5193     40.4702   4.1843331431e+01   4.2653711635e+01    0.2666904    0.1289111 -34.46  0.001223042    2.219    0.549
       242 -11.3772     80.9438     35.6204   5.6225502472e+01   5.8226358117e+01    0.4625529    0.2882233 -57.99  0.002037884    2.824    0.646
       243 -11.4418     69.2546     37.9241   6.1059315219e+01   6.0167572916e+01    0.5003808    0.2759556  -6.44  0.001687015    3.001    0.667
       244  -9.2010    142.5205     40.5642   4.2930800159e+01   4.4024826474e+01    0.1332434    0.1184894  77.98 0.0002608777    1.044    0.043
       245 -10.6617    100.5423     35.5819   5.0545340583e+01   5.4137478342e+01    0.2770236     0.205139 -89.98 0.0007069412    1.945    0.486
       246 -10.9571     79.6238     30.0361   5.4530123261e+01   5.9186742639e+01    0.4263688    0.2080018 -25.60  0.001990433    2.356    0.576
       247 -11.1990     52.0023     40.2470   6.8691589483e+01   6.2791352675e+01    0.3950813    0.2899922 -28.61  0.001319817    1.361    0.266
       248 -11.1862    225.1251     37.9326   3.1600554517e+01   2.6401559092e+01      0.28826    0.1759968 -89.02 0.0004049844    1.609    0.378
       249 -11.2784    221.7442     32.0463   3.0737969562e+01   2.7798571886e+01    0.2526492    0.1639391 -47.35 0.0003228663    1.381    0.276
       250 -10.0064    152.3550     38.9126   4.0771542896e+01   4.1967111616e+01    0.1741283    0.1622943 -64.35  0.000449919    1.124    0.111
       251  -9.8163     86.0176     38.6367   5.5755119649e+01   5.6808411833e+01    0.1841642     0.144633  43.06 0.0002886737    1.145    0.127
       252  -9.9824    248.3139     38.3140   2.9722395783e+01   2.2026778096e+01   0.09201982   0.08930876  26.56 0.0004152499    1.639    0.390
       253  -9.0639    160.2752     38.2569   3.9341996629e+01   4.0233660166e+01    0.1198537   0.09449503  42.02            0    1.463    0.316
       254  -9.7470      1.3477     37.5272   9.2887542066e+01   6.8881658978e+01    0.1835844   0.09434573 -50.77 0.0004642644    1.720    0.419
       255 -10.2646    109.5518     35.1190   4.8134121188e+01   5.2213695981e+01     0.331181    0.2259791 -72.32  0.001626105    2.225    0.551
       256  -9.1933    172.2409     35.7877   3.6995950871e+01   3.7828112944e+01    0.2014718    0.0780955  56.10 0.0006035307    2.417    0.586
       257  -9.6070    134.5038     35.0860   4.2828387513e+01   4.6548664435e+01    0.1833379    0.1304661 -34.96   0.00101777    1.552    0.355
       258 -11.4136     17.7530     30.9919   8.1386129240e+01   6.8696136300e+01    0.4305605    0.2271148  29.17  0.002392696    1.913    0.477
       259 -10.1870     12.4995     32.5433   8.4876541197e+01   6.8933231471e+01    0.2039988    0.1777175  11.65  0.000787635    1.356    0.263
       260 -10.5157      9.2830     34.3850   8.7358550434e+01   6.8886602175e+01    0.2479169    0.1447183 -23.73  0.001092153    1.476    0.323
       261 -11.1964      8.1550     31.1696   8.6774370433e+01   6.9531600861e+01    0.2925747    0.1931991 -14.59 0.0003917745    1.261    0.207
       262 -11.6470     74.8572     35.6583   5.8235197414e+01   5.9415905629e+01    0.3588632    0.2246134  22.48 0.0005765588    1.747    0.428
       263  -9.2713    184.3394     33.6830   3.4950296292e+01   3.5400446777e+01     0.134239   0.08237666 -71.08 0.0002839424    1.706    0.414
       264 -10.0461    247.2032     32.6254   2.8780320067e+01   2.2936856541e+01    0.1380743   0.09264768  68.94 0.0005119048    1.634    0.388
       265 -10.1385    232.8235     32.2135   2.9826835506e+01   2.5638156755e+01    0.1370892    0.1253199 -80.47 0.0004251421    1.299    0.230
       266 -10.2567    205.9395     32.0432   3.2222363328e+01   3.0992316268e+01    0.1771384    0.1480921 -78.75 0.0002941998    1.042    0.040
       267 -10.1005    166.5943     32.2777   3.6889649221e+01   3.9523799269e+01    0.1586299    0.1257758 -19.79  0.000947843    1.612    0.380
       268 -10.3437     97.8352     31.1604   4.9714557864e+01   5.5254828376e+01    0.2473773    0.1730791  49.86 0.0009528031    1.244    0.196
       269 -11.1533    102.5923     28.7820   4.7680145910e+01   5.4492159919e+01    0.4431603     0.286244  75.06  0.001009123    1.934    0.483
       270 -10.3390     49.8651     28.8681   6.4938686975e+01   6.4761485778e+01    0.4292672    0.2183123 -13.68   0.00188306    2.861    0.651
       271 -10.5472    237.6171     29.1673   2.8874239095e+01   2.5110033690e+01    0.1432393   0.09960604 -33.30 0.0009380719    1.717    0.418
       272 -11.7536    111.8214     27.4329   4.5072880068e+01   5.2593328796e+01    0.2821873    0.2131212 -28.33  0.001664781    1.507    0.337
       273 -10.4679    204.5537     26.3932   3.1162822048e+01   3.1953332896e+01    0.2193996    0.1347066 -61.00 0.0005591603    1.467    0.318
       274 -10.7808    174.9922     26.4737   3.4371348561e+01   3.8311858304e+01    0.2307304    0.1668702 -43.96  0.001413111    1.422    0.297
       275 -12.4305    226.4460    245.1836   7.1937518490e+01  -8.3539448056e+00    0.6671153    0.3227043 -15.39  0.003189726    2.498    0.600
       276 -13.3457     74.3577    238.0307   1.0386425279e+02   1.3420005769e+01    0.8916569    0.7406609 -77.23  0.005456198    1.279    0.218
       277  -9.6280    109.5254    242.5007   9.6294616847e+01   7.6860136220e+00    0.1350609    0.1171274  42.33  1.74537e-05    1.097    0.088
       278 -10.3488     69.1558     26.2129   5.6468290949e+01   6.1687084328e+01    0.4072212     0.149795  38.72  0.001681536    2.558    0.609
       279 -10.0622    195.5902    238.2635   7.6761880629e+01  -3.5400859888e+00    0.2626574    0.1638382 -12.59  0.001403958    1.660    0.398
       280 -10.7800    244.1437    237.0925   6.7432720507e+01  -9.0868052826e+00    0.2107212    0.1365906 -32.84 0.0009415504    1.365    0.267
       281  -9.7665    134.7834    238.2402   8.9927357400e+01   4.9214291703e+00    0.2074775   0.09471061 -41.79 0.0007964334    2.437    0.590
       282 -11.2112      8.3268     24.7771   8.4121498765e+01   7.0576527661e+01    0.3967398    0.1486298  18.68  0.001902102    2.616    0.618
       283 -11.1920     14.1397     22.9302   7.9993144715e+01   7.0327246986e+01    0.2582678    0.1573201 -10.63 0.0004202033    1.499    0.333
       284 -11.1609     60.2154     26.5841   5.9843320031e+01   6.3291737060e+01     0.295702    0.2049022   1.77 0.0001787559    1.534    0.348
       285 -10.0462      1.5052     25.7357   8.8529169895e+01   7.0949791794e+01    0.1974916   0.08884732 -43.42 0.0004344371    1.847    0.459
       286  -8.9780    219.2920     25.3345   2.9619417136e+01   2.9087781579e+01   0.09979109   0.08940688  42.66 0.0005275754    1.637    0.389
       287 -10.4747    193.5047     25.0185   3.1962638413e+01   3.4438377384e+01    0.1805401    0.0731028 -55.23  0.000810362    2.556    0.609
       288 -12.1911    165.1648     22.7250   3.4676027492e+01   4.0927890885e+01    0.2869343    0.2035809  64.32 0.0002387937    1.283    0.221
       289 -10.1639    159.9810    235.7102   8.3885318901e+01   1.7752497995e+00    0.1914954    0.1564111  13.84 0.0004128804    1.080    0.074
       290 -10.9833     99.6503     22.9650   4.6379118630e+01   5.5766201081e+01    0.3893479     0.228208  45.35  0.001770198    1.489    0.328
       291 -10.3286     93.9911     22.3061   4.7558873110e+01   5.7060621688e+01    0.2531987    0.2059273  59.71  0.000742866    1.186    0.157
       292 -10.1193    186.0091     22.0630   3.2085130765e+01   3.6384304586e+01    0.2061604    0.1195689 -68.24  0.001126085    1.748    0.428
       293  -9.8181    177.3769    234.8413   7.9977259973e+01  -5.1175626418e-01    0.1883292    0.1099186 -31.88 0.0009463969    1.717    0.418
       294 -10.4597     86.9819    233.0158   1.0036177689e+02   1.2819921364e+01    0.2302128    0.1463003  58.73   0.00113707    1.747    0.428
       295 -10.0990     54.0470     22.5887   6.0540076896e+01   6.4858627761e+01    0.1838497    0.1058217  41.64 0.0003048265    1.549    0.355
       296  -9.3756    226.5590     21.5084   2.8286634954e+01   2.8110353038e+01    0.1142199   0.08765271 -71.20 8.708867e-05    1.007    0.007
       297 -10.3462    120.3647     20.9934   4.1235110978e+01   5.1339167791e+01    0.1575595    0.1545538 -12.32 0.0002174607    1.184    0.155
       298 -10.2744     67.2337     21.1164   5.5051203334e+01   6.2633774828e+01    0.2802756    0.1605363  51.02  0.001494994    1.650    0.394
       299 -10.1164     38.2656    232.4895   1.1153776013e+02   1.9010882267e+01    0.2055061    0.1576729 -83.26 0.0004408124    1.261    0.207
       300 -10.1773     24.1850    232.2757   1.1461681427e+02   2.0554229529e+01    0.1926363    0.1803825 -71.45 0.0006791307    1.259    0.206
       301  -9.1664     58.4668    229.4944   1.0666272995e+02   1.7321706879e+01    0.1317782    0.1166398  61.15 9.562891e-05    1.008    0.008
       302 -10.2072    221.2295    234.5765   7.1144676014e+01  -6.1288799319e+00     0.170395    0.1014142  12.00 0.0009445774    1.662    0.398
       303 -11.5450      6.0625     20.5056   8.3650058615e+01   7.1445181461e+01    0.2563041    0.1716419  11.91 0.0006356421    1.343    0.255
       304 -11.4334      4.3059    226.1126   1.1847978939e+02   2.3813103588e+01    0.3930939    0.2015823 -75.54  0.002155613    1.762    0.433
       305 -10.7386    120.8657    225.8118   9.1347239563e+01   9.5059922646e+00    0.2175972    0.1839081  -1.57 0.0009048446    1.245    0.197
       306 -10.2125    173.6332     20.3118   3.3051822752e+01   3.9292220980e+01    0.1329547    0.0794927 -72.31 0.0007037937    1.764    0.433
       307  -9.6765     88.0477     20.5152   4.8469190996e+01   5.8509944582e+01    0.2027921    0.1114402  56.27   0.00103708    1.624    0.384
       308 -10.4964     54.5724     18.5485   5.8577430328e+01   6.5235634162e+01    0.1990796    0.1681139  74.76 0.0006427523    1.916    0.478
       309 -10.6408    108.0233     17.4472   4.2582308809e+01   5.4466780158e+01    0.2836614    0.1614666  41.05  0.001483587    1.709    0.415
       310  -9.7390     98.0342    242.4420   9.8922781179e+01   9.3010359925e+00    0.2120626    0.1184006  31.26 0.0006303638    1.615    0.381
       311  -9.9188    123.6724    221.6702   9.0055827884e+01   9.9689605776e+00    0.1467545    0.1057402 -12.81 0.0007051131    1.708    0.415
       312 -10.8876     20.8863    220.7239   1.1452529491e+02   2.3498955462e+01    0.2545525    0.1347601  85.72  0.001272376    1.892    0.471
       313 -10.6394     88.4531    241.3466   1.0099237311e+02   1.0839439042e+01     0.234928    0.1214528 -55.26  0.001119437    2.091    0.522
       314 -11.9818     10.3134    216.9000   1.1662298317e+02   2.5373670313e+01    0.3507923    0.2432103  39.59  0.001882436    1.415    0.293
       315 -10.2780    194.9758     16.8644   3.0035439978e+01   3.5028948605e+01    0.1740089    0.1394802 -82.59 0.0003653814    1.011    0.011
       316 -10.8674    165.0944     17.1203   3.3285462134e+01   4.1532325095e+01    0.1778845    0.1481036  61.32  0.000335517    1.229    0.186
       317  -9.3360    151.3291     17.6717   3.5209023795e+01   4.4591442064e+01    0.1307518   0.08441149 -72.23 0.0007051147    1.708    0.415
       318  -9.5863    143.4771     16.5229   3.6016385824e+01   4.6497338376e+01    0.1254661    0.1060606  68.08 0.0002512976    1.058    0.055
       319 -11.1685    247.5006     15.0234   2.5646297185e+01   2.4953091626e+01    0.1594204   0.08641281 -44.09  0.001037486    1.604    0.376
       320  -9.8685     38.2002    217.2179   1.1025387551e+02   2.2520920141e+01    0.1899485    0.1322868  60.42 0.0007826483    1.345    0.256
       321 -11.4918     29.3936    215.7236   1.1219147160e+02   2.3810275646e+01    0.3059259    0.2712547   3.59  0.001297162    1.428    0.300
       322 -11.4034    235.9499    214.2972   6.4952110177e+01  -4.6462525261e+00    0.2468772    0.1492987 -30.12 0.0005859651    1.358    0.263
       323  -9.8213    136.4917    215.5182   8.6015202051e+01   9.3200611802e+00    0.2580627    0.1335463  20.15  0.001024727    2.314    0.568
       324  -9.7676     83.9740     13.6948   4.6992733065e+01   6.0028043772e+01    0.1730785    0.1335495  50.83 0.0003355409    1.117    0.105
       325  -9.5439    169.6220    213.1993   7.7977094913e+01   4.6784446813e+00     0.199531    0.1191433 -34.21 0.0007421591    1.673    0.402
       326 -10.1879     20.5818    212.1968   1.1396063924e+02   2.5521510871e+01    0.2338933    0.1674728  41.18  0.001384372    1.359    0.264
       327  -9.8450    169.6584     12.6761   3.1667065942e+01   4.0959062696e+01    0.1201722   0.08294481  45.95  0.000705088    1.729    0.422
       328 -10.2761     10.9474    208.0352   1.1588234334e+02   2.7394983564e+01    0.1972177    0.1852163 -45.34 0.0005464347    1.320    0.243
       329 -11.1072      1.5027    210.9979   1.1820819627e+02   2.7499536295e+01    0.3211117    0.1546804 -78.82  0.001538425    1.808    0.447
       330 -12.0619      5.5409    208.5861   1.1715347498e+02   2.7729524644e+01    0.4789177    0.2660442 -80.88  0.002333353    1.579    0.367
       331 -11.6000    238.0022    210.2398   6.3872572349e+01  -4.2349486592e+00     0.268985    0.2390559 -59.35  0.001540396    1.762    0.432
       332  -9.2296    208.5169    211.4922   6.9544942997e+01  -6.4425211954e-01    0.1361447     0.108384 -13.01 -5.346909e-06    1.063    0.059
       333 -10.4020    246.6667    203.3188   6.1161269326e+01  -4.1525912622e+00     0.385083    0.1920991 -53.07  0.001704162    3.162    0.684
       334  -9.1544    188.3022    204.7091   7.2400013985e+01   3.5069008947e+00    0.1221294    0.1129736  78.36 0.0003261052    1.568    0.362
       335 -11.1022     19.8501    200.4717   1.1320270684e+02   2.8412750394e+01    0.6227247    0.1485682 -71.97  0.002144144    3.578    0.721
       336 -10.5391    175.3385    202.3361   7.4744943513e+01   5.9599251524e+00    0.2414564    0.2255822   4.66 0.0004688844    1.124    0.110
       337  -9.4188    117.4649    201.5124   8.8371556768e+01   1.5442663464e+01     0.145676     0.140376  19.81 0.0003437942    1.015    0.015
       338  -9.2993    238.6722    200.6679   6.2035097665e+01  -2.7395810472e+00    0.1332843   0.08168126 -14.07  0.000705158    1.715    0.417
       339  -9.5414    223.0286    200.5235   6.4786045371e+01  -6.8236506529e-01    0.1561967    0.1146373  58.65 0.0008090432    2.452    0.592
       340 -11.5571     16.0102    193.0272   1.1352742122e+02   3.0593148914e+01    0.4842234    0.2580401  25.27  0.002416283    2.061    0.515
       341 -10.2491    244.7248    188.0663   5.8713353363e+01  -1.3940964102e+00    0.1833286    0.1317748 -29.09 0.0004501514    1.099    0.090
       342  -9.5827    212.0413    187.7641   6.4431907407e+01   3.1691520644e+00    0.1645582    0.1114347  32.22 0.0006783003    1.607    0.378
       343  -9.4228      2.3194    187.3372   1.1645936325e+02   3.3115515596e+01    0.1305168   0.08414484 -49.27 0.0004324809    1.707    0.414
       344 -11.4166     15.7577    181.9537   1.1263131213e+02   3.3390535579e+01    0.4759434    0.2599928  75.19  0.001817897    1.964    0.491
       345  -9.8841     58.7198    181.9537   1.0102902631e+02   2.8875739943e+01    0.2081147    0.1851794 -70.93 0.0008013268    1.072    0.067
       346 -10.4772    167.9467    183.2746   7.2734763666e+01   1.1120515338e+01    0.2111607    0.1904782   8.35 0.0008339502    1.084    0.077
       347  -9.8868    244.5784    178.1854   5.6903188608e+01   3.0161327824e-01    0.1946362   0.09626428 -32.12 0.0009538026    1.782    0.439
       348 -10.6595     46.5912    177.4042   1.0379570466e+02   3.1510248436e+01    0.2977899    0.2552885  78.22  0.001057092    1.148    0.129
       349  -9.9425     34.1597    173.8708   1.0682950484e+02   3.3765688199e+01    0.2000967     0.170434  80.66 0.0002788822    1.128    0.114
       350 -10.8325     18.0636    172.8552   1.1115424372e+02   3.5519438980e+01    0.3342131    0.1939201  51.72  0.001603035    1.798    0.444
       351 -11.9923     51.2952    162.2803   1.0032321005e+02   3.4941927334e+01    0.7009675     0.515694  81.66  0.003457536    1.524    0.344
       352 -11.0626     35.4550    161.1156   1.0485951476e+02   3.6982671591e+01    0.3938169    0.2402497   8.00 0.0003577041    2.117    0.528
       353 -10.3708      5.0150    168.5256   1.1427285597e+02   3.7640453219e+01    0.1767919    0.1307386  23.67 0.0009055239    1.573    0.364
       354 -12.0282     36.6841    165.6624   1.0509564132e+02   3.5659495487e+01    0.5678017    0.4297743  79.95   0.00247799    1.372    0.271
       355 -11.8004     44.1532    162.3410   1.0245444240e+02   3.5742355246e+01    0.5427433    0.3078628  31.62  0.002480496    1.838    0.456
       356  -9.9153    185.6682    164.3202   6.4977064964e+01   1.2049302699e+01    0.1415464    0.1177127 -84.12 0.0003928653    1.695    0.410
