#   1 NUMBER                 Running object number                                     
#   2 MAG_AUTO               Kron-like elliptical aperture magnitude                    [mag]
#   3 X_IMAGE                Object position along x                                    [pixel]
#   4 Y_IMAGE                Object position along y                                    [pixel]
#   5 X_WORLD                Barycenter position along world x axis                     [deg]
#   6 Y_WORLD                Barycenter position along world y axis                     [deg]
#   7 A_WORLD                Profile RMS along major axis (world units)                 [deg]
#   8 B_WORLD                Profile RMS along minor axis (world units)                 [deg]
#   9 THETA_WORLD            Position angle (CCW/world-x)                               [deg]
#  10 FWHM_WORLD             FWHM assuming a gaussian core                              [deg]
#  11 ELONGATION             A_IMAGE/B_IMAGE                                           
#  12 ELLIPTICITY            1 - B_IMAGE/A_IMAGE                                       
         1 -16.7092    154.3524     71.7646   8.4057186794e+01   3.6369270527e+01     4.508249     3.208343 -43.08    0.0141797    1.411    0.291
         2 -15.9049    188.8064     19.7139   6.2273579653e+01   3.4814484427e+01     2.693614     2.170478  33.58  0.009873157    1.533    0.348
         3 -10.9902    123.7970     92.3610   9.8297330008e+01   3.9771233750e+01    0.3562953    0.2488046  21.11  0.001451234    1.875    0.467
         4 -16.6030    225.2620    239.3132   1.0556603654e+02  -2.9871345077e+00     5.534223     1.365254  35.68   0.02450794    3.459    0.711
         5 -16.5405    142.9171    230.9450   1.2001011352e+02   8.8802988563e+00     3.201705     1.488814  26.47   0.01240667    1.898    0.473
         6 -19.3918     36.4584    139.9615   1.3687467050e+02   4.2285678004e+01     20.43311     1.800926 -74.37   0.03931817   10.884    0.908
         7 -11.8561     62.9322    216.9497   1.3619729593e+02   2.2042138577e+01    0.2856629    0.1872899  45.92 0.0007351066    1.171    0.146
         8 -11.0993     65.5212    214.0222   1.3539132528e+02   2.2286124816e+01    0.2637323    0.1614921  52.46 0.0005840249    1.364    0.267
         9 -10.7562     95.6171    208.7112   1.2791724557e+02   1.9340274764e+01     1.669995     0.516157  34.95  0.006728427    2.472    0.595
        10 -14.2316    134.8934    205.4613   1.1846831646e+02   1.4122954853e+01     1.484854    0.7519791  29.30  0.007177679    1.730    0.422
        11 -13.2669    151.2097    197.7440   1.1370228113e+02   1.2883412988e+01    0.9740613    0.5941045  29.16  0.003925366    1.398    0.285
        12 -13.7751    151.4693    187.2858   1.1198873438e+02   1.4635188875e+01     1.767415    0.6102841  38.13  0.006855903    2.463    0.594
        13 -14.0578    107.8697    198.1923   1.2380412389e+02   1.9562886344e+01     1.272585    0.7543625  16.18  0.005982521    2.134    0.531
        14 -14.4524    115.5690    187.4333   1.2050667409e+02   2.0469396478e+01      1.33368    0.8125674  17.72  0.004282102    1.970    0.492
        15 -14.5982    112.3401    176.7898   1.1976905176e+02   2.3141366055e+01     1.439678    0.7430509  41.01   0.00437659    1.673    0.402
        16  -9.2661     72.6571    214.3709   1.3377950619e+02   2.1331748380e+01    0.2069973    0.1093305  53.55  0.001093841    1.698    0.411
        17 -10.6832    116.1058    211.8863   1.2354559602e+02   1.5822595685e+01    0.2611085    0.1846354  55.97 0.0007037476    1.516    0.340
        18  -9.8496     82.2215    212.0193   1.3136607981e+02   2.0540468221e+01    0.3588986    0.1874496  37.35  0.001244574    1.486    0.327
        19 -11.5977     11.3097    206.1399   1.4727162179e+02   2.9525545930e+01     0.492652     0.169177  30.48  0.002473875    2.321    0.569
        20  -9.3718    164.4355    205.5446   1.1203900171e+02   9.5631588500e+00    0.1301183    0.1038482  21.28 9.767554e-05    1.007    0.007
        21 -12.0323     72.7345    203.0578   1.3279537284e+02   2.3527915290e+01    0.3758961    0.3070769 -54.57  0.001467598    1.528    0.346
        22 -11.3734     87.2438    200.7935   1.2907732032e+02   2.2035374126e+01    0.5137749    0.3344707  76.56  0.002746184    1.897    0.473
        23 -10.0074     63.8132    204.0590   1.3501633947e+02   2.4452557140e+01    0.1945158     0.130724  53.65 0.0005346434    1.255    0.203
        24 -11.1343    193.3890    192.9334   1.0409888138e+02   6.9976916719e+00    0.4115628    0.3528051 -34.00  0.002688332    1.460    0.315
        25 -11.6123     82.1326    192.8925   1.2950134355e+02   2.4341958550e+01    0.4394987     0.346987  43.21  0.001842669    1.048    0.046
        26 -12.0235     81.5535    187.6170   1.2907712877e+02   2.5526130378e+01    0.6679403    0.4887151  28.97  0.003765069    1.302    0.232
        27 -10.0976     91.4660    194.4655   1.2735592092e+02   2.2706584741e+01    0.2551156    0.1813798  52.63   0.00143664    1.287    0.223
        28 -11.6859     96.7921    191.5575   1.2569491009e+02   2.2520830810e+01    0.4962533    0.2885515  28.16  0.002143476    1.616    0.381
        29 -14.6156    133.9000    189.7896   1.1644039050e+02   1.7071524351e+01     1.559673    0.8912445  38.10   0.00564868    1.477    0.323
        30 -10.5467     92.4387    185.5949   1.2606414050e+02   2.4391754783e+01    0.2591975    0.1937769  59.89 0.0007169624    1.332    0.249
        31 -11.7326     97.9156    181.8479   1.2418455302e+02   2.4358408929e+01    0.5451486    0.3497331  39.10  0.002616846    1.321    0.243
        32  -9.8174     87.6224    182.9567   1.2698047307e+02   2.5654606291e+01    0.2232769      0.17871  23.14  0.000877339    1.296    0.228
        33 -11.0952    206.0590    180.9975   9.9553215988e+01   6.7557098924e+00    0.2723572    0.2198572  34.46  0.001276176    1.360    0.265
        34 -10.8105    210.2843    178.8411   9.8371736902e+01   6.4069950779e+00     0.317697    0.2071944  23.16  0.001820686    1.373    0.272
        35 -11.6860    196.1878    171.1697   9.9608375402e+01   9.8001618457e+00    0.6471466    0.4219833 -53.88  0.003186015    2.422    0.587
        36 -11.1223     89.7371    175.6365   1.2550839240e+02   2.6927848601e+01    0.3817549    0.2538466 -32.29  0.001733843    2.148    0.534
        37 -11.4887     92.4688    170.4962   1.2408552655e+02   2.7648651604e+01    0.4033141    0.3447663  29.77  0.001472291    1.150    0.130
        38 -12.8692    137.7083    171.8907   1.1262601458e+02   1.9830600432e+01    0.7550648    0.5251929  44.52  0.002851663    1.360    0.265
        39 -11.8962    137.2171    164.6705   1.1146529640e+02   2.1344802115e+01     1.316897     0.501397  52.31   0.00380216    4.528    0.779
        40 -10.7815    121.3170    165.1368   1.1558516927e+02   2.4067054383e+01    0.4488553    0.2456694  53.44  0.001786594    2.120    0.528
        41 -10.6987     97.7731    161.6553   1.2133748664e+02   2.8797541078e+01    0.2452848    0.2184319  59.04 0.0003564556    1.089    0.082
        42 -17.3362     82.6176    248.6701   1.3423407525e+02   1.4143148243e+01     4.090877    0.5182768  32.28   0.01272067    5.312    0.812
        43 -12.6139     87.2696    156.3339   1.2348764264e+02   3.1690951402e+01    0.3722576    0.2876379 -28.17  0.001145613    1.679    0.404
        44 -11.4566    102.1820    154.8538   1.1900831254e+02   2.9618954670e+01    0.5673481    0.3781284 -36.04  0.002271125    1.896    0.473
        45  -9.2825      3.1329    155.6470   1.4770999105e+02   4.1147878124e+01    0.1449609    0.1138278   1.44 0.0004356333    1.658    0.397
        46 -11.0250     10.4511    152.7893   1.4556601281e+02   4.1320959882e+01    0.2687286    0.1817331   0.90  0.001514219    1.981    0.495
        47 -11.1515    134.0000    144.9828   1.0847133795e+02   2.6017185647e+01    0.8138671    0.2215548 -54.92  0.001977415    6.120    0.837
        48 -10.9826    174.8857    149.0953   9.9562991269e+01   1.7275571991e+01    0.2106537    0.2015583  59.15 0.0006139317    1.281    0.219
        49 -10.9050    145.7914    146.1142   1.0570099519e+02   2.3487307003e+01    0.2717796    0.2314042  46.79  0.000306898    1.183    0.155
        50 -16.9655    104.5598    239.0576   1.2891145145e+02   1.2879600119e+01     1.389541    0.9510761 -52.42  0.006649118    1.940    0.485
        51 -11.1014    111.8232    139.3665   1.1341042858e+02   3.1483243407e+01    0.5123843     0.295559 -27.94  0.001872106    2.833    0.647
        52 -11.5219    100.8028    139.8183   1.1671974004e+02   3.3368980950e+01    0.2896275     0.265761  16.19 0.0004950951    1.166    0.142
        53 -10.5578    106.0897    130.8840   1.1335586495e+02   3.4539264069e+01    0.3493102    0.3155895  82.09  0.001293665    1.184    0.155
        54 -10.3404    105.7149    126.5914   1.1255294368e+02   3.5633617241e+01    0.2938615    0.2377651 -35.52 0.0008018886    1.384    0.278
        55 -10.4841    117.7168    130.0736   1.0975898709e+02   3.2504020142e+01    0.3174326    0.2497082 -30.03  0.001105993    1.464    0.317
        56  -9.5251     80.3506    120.2995   1.1939004190e+02   4.1666415614e+01    0.1548222    0.1199545 -17.78 0.0007037041    1.691    0.409
        57 -11.0637      1.1894    250.6828   1.5022632240e+02   2.2321508185e+01   0.09896285   0.04750616  58.66 0.0003677241    1.469    0.319
        58  -9.9995    112.1532    119.1449   1.0890818927e+02   3.6152080561e+01    0.2305361    0.2125096   5.51 0.0002757044    1.177    0.150
        59 -11.6849     80.4714    219.9095   1.3246251154e+02   1.9300552565e+01    0.3358502    0.1993714  45.94 0.0008085204    1.335    0.251
        60 -10.5316    168.6497    113.6324   9.2702436718e+01   2.5133562073e+01    0.3128335    0.2569559 -80.35  0.001068443    1.640    0.390
        61  -9.8438    205.4371    110.2647   8.4637358101e+01   1.7849876315e+01    0.2510454    0.1636191  36.46 0.0006776482    1.648    0.393
        62  -9.3912     82.2900    106.6451   1.1576631791e+02   4.4820490749e+01    0.1619958    0.1188866  74.94 0.0005380528    1.679    0.404
        63 -10.1362     78.3416    232.5109   1.3394389762e+02   1.7333511511e+01    0.1969899    0.1683995  24.76 0.0004905208    1.286    0.222
        64  -9.5970     87.0229    224.3656   1.3138195122e+02   1.7647444437e+01    0.1933497    0.1354816  20.89  0.001168717    1.490    0.329
        65  -9.6118     83.5303     76.5503   1.0706769803e+02   5.2052302017e+01    0.1538945    0.1528839  17.02 9.501462e-05    1.005    0.005
        66 -10.3789    112.8323     65.0795   9.2764993612e+01   4.8132193506e+01    0.2426165    0.2159337  85.95 0.0004874672    1.259    0.206
        67  -9.8251     57.3286    220.5578   1.3770222126e+02   2.2025560060e+01    0.2274079   0.07961037  37.43 0.0009020775    2.012    0.503
        68 -10.0367     62.9206    210.5256   1.3572833001e+02   2.3279895925e+01     0.201005    0.1602732  20.27 0.0006043434    1.409    0.290
