#   1 NUMBER                 Running object number                                     
#   2 MAG_AUTO               Kron-like elliptical aperture magnitude                    [mag]
#   3 X_IMAGE                Object position along x                                    [pixel]
#   4 Y_IMAGE                Object position along y                                    [pixel]
#   5 X_WORLD                Barycenter position along world x axis                     [deg]
#   6 Y_WORLD                Barycenter position along world y axis                     [deg]
#   7 A_WORLD                Profile RMS along major axis (world units)                 [deg]
#   8 B_WORLD                Profile RMS along minor axis (world units)                 [deg]
#   9 THETA_WORLD            Position angle (CCW/world-x)                               [deg]
#  10 FWHM_WORLD             FWHM assuming a gaussian core                              [deg]
#  11 ELONGATION             A_IMAGE/B_IMAGE                                           
#  12 ELLIPTICITY            1 - B_IMAGE/A_IMAGE                                       
         1 -15.1927      3.8055    135.7200   1.4802298136e+02   4.6066721719e+01     5.421072    0.7514475 -75.65   0.01671668    6.034    0.834
         2 -13.9074    193.2283     22.6553   7.2691200644e+01   3.3987791802e+01     1.535007      1.30523  33.03  0.008364998    1.277    0.217
         3 -13.4309    207.9676      5.4793   6.5950126721e+01   3.1970178495e+01     1.052596    0.7935066  68.10  0.005799524    1.260    0.206
         4 -12.7086      2.4353     18.5091   1.2777357292e+02   7.0677962755e+01    0.9436862    0.1545411 -57.17  0.003294528    4.894    0.796
         5 -12.7063      2.6241      5.7175   1.2260772408e+02   7.2888199115e+01    0.7964841    0.3372952 -44.75  0.004739914    1.679    0.404
         6 -12.0845    172.1055      3.3357   6.9460440013e+01   4.1490486319e+01    0.4552496    0.3024121 -82.92  0.002206669    1.715    0.417
         7 -11.4723    248.0056    245.0187   1.1503903664e+02  -8.5783903841e+00    0.2156418    0.1516277 -28.51  0.001057622    1.770    0.435
         8 -13.1871    143.6111    241.9035   1.3180648835e+02   8.0618675868e+00     0.766188    0.4835272 -80.69   0.00450624    2.534    0.605
         9 -11.0095     29.6485    244.2230   1.5033227419e+02   2.3078936311e+01    0.3561458    0.1351139  70.97  0.002079078    2.454    0.592
        10 -11.4431     29.1171    249.3604   1.5066054886e+02   2.2324227782e+01    0.2864584    0.1554463  49.46  0.002182298    1.480    0.325
        11 -11.2219     13.1109    242.6311   1.5267582670e+02   2.5039843094e+01    0.2844854     0.121916 -86.64  0.001956097    2.005    0.501
        12  -9.0777     66.5214    243.4617   1.4464082905e+02   1.8888451116e+01    0.1070209   0.07419709  65.06 0.0001159189    1.038    0.037
        13 -12.7473     51.3700    219.0502   1.4537494736e+02   2.4844831810e+01    0.7789117    0.4652959 -86.29  0.005355213    1.513    0.339
        14 -12.4676    120.3175    231.8008   1.3467642969e+02   1.3176849311e+01    0.4717628    0.2278983  61.18  0.002435044    2.271    0.560
        15 -12.2659    113.8223    231.6267   1.3578072548e+02   1.4193786291e+01    0.4497153    0.1361484  43.71  0.002028976    2.637    0.621
        16 -11.7244    100.4541    229.5751   1.3787978411e+02   1.6506598791e+01    0.4997618   0.07519983  43.79  0.001711018    4.725    0.788
        17 -11.1330      3.8169    228.0592   1.5343631340e+02   2.8318590967e+01    0.2586834    0.1712424  44.69  0.002141013    1.631    0.387
        18  -9.8449     74.6684    229.8761   1.4229018385e+02   2.0044855611e+01    0.2195612    0.1199359  68.82 0.0007058415    1.685    0.407
        19 -12.8228     38.0212    238.2321   1.4875256539e+02   2.3129367058e+01    0.2794274     0.220761  79.20 0.0007769484    1.247    0.198
        20 -13.4248    125.2279    248.2679   1.3554879937e+02   9.9887251841e+00    0.9078607    0.3584871  37.80  0.004531818    2.520    0.603
        21  -9.5738     28.6457    221.6919   1.4928723896e+02   2.6942961360e+01    0.0849632    0.0761762 -66.40 0.0005436728    1.721    0.419
        22 -11.2275      2.2101    238.9917   1.5409512707e+02   2.6671304885e+01    0.2661991   0.09219411 -80.29  0.001698771    2.463    0.594
        23 -10.2349     37.9007    213.7851   1.4727933198e+02   2.7335858424e+01    0.2098387    0.1043303  58.50  0.001345245    1.598    0.374
        24 -13.9865     42.8139    231.4765   1.4760645402e+02   2.3706972436e+01    0.7824743     0.460195  54.75  0.003459258    1.315    0.240
        25 -10.1394     21.5836    211.3074   1.4984365416e+02   2.9510110551e+01    0.2091304    0.1177387  67.66  0.001483271    1.349    0.259
        26 -12.3402     10.3757    206.9692   1.5144840713e+02   3.1380980576e+01    0.4552164    0.3085963  36.79  0.002849515    1.848    0.459
        27 -11.8014    183.1123    235.5090   1.2428900503e+02   2.5545406764e+00    0.3764338     0.237058 -72.23  0.001858907    3.739    0.733
        28 -11.4026     63.4952    202.9075   1.4193849430e+02   2.6279219357e+01    0.2159631    0.1758703 -80.66   0.00058094    1.270    0.213
        29 -11.7021     69.6247    194.1175   1.3995731732e+02   2.7151249269e+01    0.2236267    0.1877427 -85.66 0.0004606804    1.191    0.160
        30 -13.2875     10.5335    157.7464   1.4835517817e+02   4.0927867998e+01     1.762308    0.5819764  81.86  0.006663227    4.572    0.781
        31 -11.5469    237.5860    247.9049   1.1710033514e+02  -7.3325557954e+00    0.2229932    0.1829028  21.04  0.001757341    1.187    0.158
        32  -9.8844     98.7374    154.7000   1.2875067667e+02   3.0946649173e+01     0.215328    0.2064926 -51.83 0.0007954965    1.242    0.195
        33 -11.6285     87.4749    153.8528   1.3117035454e+02   3.2884764291e+01    0.2515872    0.2276451 -54.91 0.0005289563    1.270    0.212
        34  -9.0896    101.5926    150.2224   1.2734953807e+02   3.1439451546e+01    0.1752125    0.1218182 -50.32 0.0003371472    1.510    0.338
        35 -12.0443     67.2243    143.7734   1.3433169830e+02   3.7949305854e+01    0.5842991    0.3559917  64.53  0.002677851    1.782    0.439
        36  -9.5805    109.8187    138.9128   1.2335877438e+02   3.2482015158e+01    0.3341858    0.2215887 -21.89  0.001182345    2.754    0.637
        37 -10.3303     97.4276    136.1010   1.2580018545e+02   3.5196844964e+01    0.2256978    0.2134229  54.96 0.0004667907    1.150    0.130
        38 -12.9410     66.3197    179.0609   1.3902330391e+02   3.0565568808e+01    0.4379577    0.2686212 -48.01  0.001722485    2.193    0.544
        39 -10.2856     55.7143    131.5423   1.3528560594e+02   4.2116726543e+01    0.2440983    0.1829609  71.92 0.0008530301    1.337    0.252
        40  -8.8147    107.2444    124.9721   1.2115011671e+02   3.5979694274e+01    0.1663364    0.1151574 -55.99 0.0002126022    1.386    0.279
        41 -10.5342     79.6183    180.5491   1.3649829030e+02   2.8458486404e+01    0.2130287    0.1776354  79.47 0.0004197826    1.020    0.020
        42  -8.7731    168.2983    113.6277   1.0399967185e+02   2.5755098647e+01    0.1586812    0.1210002 -74.59 0.0007028889    1.742    0.426
        43  -9.1209     48.6131    100.3125   1.3187064071e+02   4.9980207290e+01    0.1317337   0.08947472  75.52 0.0007016552    1.822    0.451
        44 -11.4964     86.2534    171.7445   1.3400917993e+02   2.9293900583e+01    0.4253362    0.3407886 -46.09  0.002622727    1.581    0.368
        45 -12.8885    140.7494    249.1842   1.3308464779e+02   7.5052532216e+00    0.6446181    0.2426732  46.51  0.003367249    2.007    0.502
        46 -12.4606     18.4168    248.2995   1.5215395493e+02   2.3609208271e+01    0.5237292     0.241052  40.49   0.00365248    2.140    0.533
        47 -11.1164     97.5506    249.5077   1.4016382290e+02   1.3821440878e+01    0.2325452   0.08278919  43.43  0.001225875    2.220    0.550
        48 -11.2983     82.2568    249.7246   1.4261418987e+02   1.5874323569e+01    0.3253932     0.079571  40.41  0.001388191    3.772    0.735
