#   1 NUMBER                 Running object number                                     
#   2 MAG_AUTO               Kron-like elliptical aperture magnitude                    [mag]
#   3 X_IMAGE                Object position along x                                    [pixel]
#   4 Y_IMAGE                Object position along y                                    [pixel]
#   5 X_WORLD                Barycenter position along world x axis                     [deg]
#   6 Y_WORLD                Barycenter position along world y axis                     [deg]
#   7 A_WORLD                Profile RMS along major axis (world units)                 [deg]
#   8 B_WORLD                Profile RMS along minor axis (world units)                 [deg]
#   9 THETA_WORLD            Position angle (CCW/world-x)                               [deg]
#  10 FWHM_WORLD             FWHM assuming a gaussian core                              [deg]
#  11 ELONGATION             A_IMAGE/B_IMAGE                                           
#  12 ELLIPTICITY            1 - B_IMAGE/A_IMAGE                                       
         1 -12.0673     42.9426     20.6131   9.0514107908e+01   6.7501813759e+01    0.6066671    0.3442311  29.41  0.001458288    1.959    0.490
         2 -11.7160    216.6753     13.4929   4.6838802577e+01   2.8395879287e+01    0.5353674    0.4401979  28.87 0.0008682073    1.437    0.304
         3 -13.6891    186.0761      6.6886   4.8101243798e+01   3.7050180913e+01     1.037936    0.6597596 -69.38  0.004855484    1.759    0.432
         4 -11.0137    200.8214     10.1291   4.7503387972e+01   3.2821508326e+01    0.2136936    0.1786009 -64.92 0.0003741795    1.167    0.143
         5 -12.0829     43.7956      8.3280   8.4107517810e+01   6.9368857410e+01      0.29293    0.2601179  11.85 0.0008897706    1.216    0.178
         6 -10.6717    109.7974      8.7984   6.1757066421e+01   5.6609463615e+01    0.1863779    0.1666054 -66.79   0.00104111    1.352    0.260
         7 -12.0306     58.2053      8.1623   7.7763252294e+01   6.7190634044e+01    0.4025094    0.3063706  33.75  0.002485079    1.342    0.255
         8 -11.1495     54.6534      2.6938   7.6276484957e+01   6.8499862946e+01    0.2709125    0.2301091  74.16  0.001679046    1.911    0.477
         9 -12.2690    164.8298      3.0526   4.9552991802e+01   4.3064881701e+01    0.5117838    0.4356667 -30.21   0.00285702    1.235    0.190
        10 -11.9729    226.8118    221.3672   9.3144509955e+01  -1.5842280553e+00    0.3181613    0.1678667 -25.83  0.001889906    2.178    0.541
        11 -10.0611    173.8201    221.3769   1.0216857940e+02   6.8479847399e+00    0.1921888   0.09162189 -46.29  0.001019474    2.720    0.632
        12 -11.1907    239.8034    215.4167   9.0114272954e+01  -2.9405902507e+00    0.3489823    0.1256177 -41.38  0.001508053    4.511    0.778
        13 -10.3792    148.7656    222.7683   1.0681800957e+02   1.0699648525e+01    0.1568398    0.0964085 -66.96  0.000889512    2.464    0.594
        14 -11.2848    223.4655    213.5121   9.2467233350e+01  -2.1516594931e-01    0.2763437    0.1470969  14.97  0.001401355    2.431    0.589
        15 -10.8664    115.9034    209.3019   1.1127778628e+02   1.7963614753e+01    0.2572598    0.1563914 -74.34   0.00147468    2.114    0.527
        16 -10.7467     41.6432    201.2022   1.2459237170e+02   2.9426302255e+01     0.199049    0.1555137 -83.28 0.0005684553    1.310    0.237
        17 -10.3570    112.7854    198.1809   1.1056272859e+02   2.0337574083e+01    0.2144388    0.1121503  69.44 0.0009546257    2.856    0.650
        18 -12.4569    159.7587    191.5771   1.0043089235e+02   1.3538794194e+01     0.661562    0.4635108  78.25  0.003155062    2.199    0.545
        19  -9.6010    133.3334    195.6787   1.0619257227e+02   1.7427368403e+01      0.12932   0.08699335  67.52 0.0003737989    1.702    0.412
        20  -9.9993    215.1264    193.7044   9.0603225679e+01   3.4975255463e+00    0.2107768    0.1381412 -46.32 0.0009089996    2.102    0.524
        21 -10.2215    109.4840    186.0024   1.0968998495e+02   2.3044026816e+01     0.173656     0.101871  88.29 0.0008101118    2.574    0.612
        22 -10.9066    223.9855    183.5048   8.7268463724e+01   3.2602057787e+00    0.2170025    0.1752141 -42.19  0.001203253    1.610    0.379
        23 -10.1889    183.0509    182.7191   9.4508778576e+01   1.0706897052e+01    0.3034634    0.1625203 -27.44  0.001413618    2.507    0.601
        24 -10.1667    191.6108    177.8191   9.2029472917e+01   9.8613095704e+00    0.1715521    0.1239493 -49.12 0.0009524151    1.733    0.423
        25  -9.9063    105.6609    175.3328   1.0905825172e+02   2.5667838594e+01    0.1371856   0.08789398  70.00 0.0007051716    1.746    0.427
        26 -11.3403     55.3629    167.5658   1.1901713807e+02   3.4373986416e+01    0.3851235    0.2019678  84.02  0.001965404    2.112    0.526
        27 -10.1892     44.3297    168.3341   1.2147445471e+02   3.5509148943e+01    0.1071188   0.08636396 -46.65 0.0007052058    1.725    0.420
        28  -9.9913    138.3117    163.9824   1.0027292834e+02   2.2183775181e+01    0.2078172    0.1095288 -72.77 0.0007042569    4.218    0.763
        29 -10.2800     92.4994    160.0087   1.0979637313e+02   3.0806366876e+01    0.1860942     0.105131  89.26 0.0008105437    2.573    0.611
        30 -10.5042    121.2424    169.2657   1.0481815292e+02   2.4236514610e+01    0.1979081    0.1084345 -68.50 0.0008919709    2.405    0.584
        31 -11.8033    106.2873    157.8161   1.0633052870e+02   2.9040340325e+01    0.5755364     0.331337  70.91  0.002547842    2.419    0.587
        32 -10.5462     22.8322    159.6327   1.2537754394e+02   3.9520653636e+01    0.1599707   0.08104982  48.41 0.0009473391    1.767    0.434
        33 -10.9264    167.6722    157.3565   9.2877237948e+01   1.7747538493e+01    0.2960109    0.2287959  79.94  0.001527697    1.770    0.435
        34 -10.6816    218.2970    156.0582   8.2945146716e+01   7.9861228897e+00    0.3142524    0.1520553 -38.92  0.001424188    2.224    0.550
        35 -11.6310    118.5505    156.1261   1.0327486719e+02   2.7277820547e+01    0.3957266    0.2898008 -63.43  0.001979209    1.455    0.313
        36 -10.6374     40.0823    152.5206   1.2091498147e+02   3.9285544148e+01    0.2336403    0.1354125  82.57  0.001274491    1.647    0.393
        37  -9.9492     23.4956    153.5305   1.2475529403e+02   4.0731975175e+01    0.1162944   0.08814371  79.64 4.022105e-05    1.036    0.034
        38 -10.5128    189.7620    150.3107   8.7039135591e+01   1.4500832471e+01    0.3181114    0.1869395 -53.41  0.001404701    2.311    0.567
        39 -10.7193    233.6300    147.1900   7.8466527197e+01   6.3012034265e+00     0.191428    0.1165495 -17.25 0.0009387131    1.730    0.422
        40 -10.3442    148.6765    145.2510   9.4510922752e+01   2.3730517333e+01    0.3305029     0.202601  84.84  0.001136078    3.910    0.744
        41 -10.9879    106.7656    145.4709   1.0416923015e+02   3.1512886668e+01    0.4019171     0.228015  79.34  0.001523882    3.267    0.694
        42 -10.2805     56.3232    146.6522   1.1645591466e+02   3.8685899398e+01    0.1349451   0.08061649  71.31 0.0007049459    1.743    0.426
        43 -10.2644     88.3219    144.6502   1.0845263110e+02   3.4691713967e+01     0.142413   0.09369238  74.91 0.0007048643    1.745    0.427
        44  -9.9513    145.3092    155.6391   9.7263378299e+01   2.2426964504e+01    0.1420117    0.1065204  81.76 0.0007040789    1.741    0.426
        45 -10.2125    181.5096    141.4846   8.6796505586e+01   1.7672346055e+01     0.247868    0.1316922 -50.32  0.001028402    2.316    0.568
        46 -10.0434     35.9609    138.7822   1.2046852985e+02   4.2691263407e+01    0.1596258    0.1314447  77.38 0.0003009338    1.069    0.065
        47 -10.4817     82.8705    131.7884   1.0768373526e+02   3.8336405179e+01    0.2701378    0.1664041  87.80  0.001248796    2.125    0.529
        48 -10.3039    131.5121    131.0104   9.5477606384e+01   2.9955891554e+01    0.2076465    0.1258225 -73.61 0.0008105558    2.638    0.621
        49 -12.0419     99.0889    128.3382   1.0291395151e+02   3.6495501521e+01    0.6035327    0.3492847  89.04   0.00228777    3.181    0.686
        50 -10.5503     69.4772    127.6411   1.1045536277e+02   4.1193809988e+01     0.211436     0.195577  52.23 0.0004630912    1.190    0.160
        51 -10.0436    117.3344    125.6704   9.7781054695e+01   3.3805174164e+01    0.1501093    0.1096225  81.16 0.0003372239    1.725    0.420
        52 -10.7053     58.8157    123.6625   1.1264141212e+02   4.3488584240e+01    0.2934177    0.1397674 -88.71  0.001096775    3.452    0.710
        53 -10.8526     43.6610    123.7822   1.1669509958e+02   4.5226092482e+01    0.3231094    0.1727748  66.65  0.001591744    2.178    0.541
        54 -11.0248     27.6718    121.5899   1.2065254228e+02   4.7304488500e+01    0.5226542    0.2031177  82.78  0.001821045    4.579    0.782
        55 -11.7954    193.1617    118.1547   7.9131068131e+01   1.9125700024e+01    0.5743511    0.4283031 -63.47  0.002100222    1.785    0.440
        56 -11.0382    140.5957    117.2905   9.0230315445e+01   3.0889171291e+01    0.4153131    0.2550671 -54.86  0.001825136    1.800    0.444
        57 -10.0634     70.9807    119.9807   1.0875564152e+02   4.2714010528e+01    0.2832297    0.1412318  72.73 0.0009599812    4.141    0.759
        58 -10.2288      2.4403    115.4850   1.2666485456e+02   5.0604829794e+01    0.1140862   0.08633038 -86.81  0.000807438    1.007    0.007
        59 -10.7669    108.3583    112.4021   9.7159707825e+01   3.8334118310e+01    0.5448258    0.2368518 -63.66  0.001782642    3.554    0.719
        60 -10.9633     78.4831    112.2142   1.0523535143e+02   4.3387990264e+01    0.4086464     0.232411 -84.77  0.001674532    2.682    0.627
        61 -11.7978    159.7101    110.2880   8.4112028425e+01   2.8083353270e+01    0.7711895    0.4125196 -58.88  0.002789174    2.798    0.643
        62 -11.2068     91.8298    111.1813   1.0133200622e+02   4.1509404560e+01    0.5141147     0.179725 -60.15  0.001725458    3.317    0.699
        63 -10.7334    174.2661    111.0942   8.1178119766e+01   2.4630358564e+01    0.3498711    0.2379042 -41.77  0.001021553    1.504    0.335
        64 -11.1571    121.6232    111.6511   9.3548265627e+01   3.5949070089e+01    0.3964885    0.1943222 -52.99  0.001582447    2.135    0.532
        65 -12.0284     14.9282    110.0963   1.2279200038e+02   5.0933279964e+01     0.568334     0.300265  87.21  0.002952691    1.809    0.447
        66 -10.3890    222.3408    109.6786   7.1824009048e+01   1.4018575441e+01    0.1426125    0.1120288 -66.81 0.0003832541    1.721    0.419
        67 -12.5497    140.4982    105.2746   8.7281441164e+01   3.3326968275e+01    0.4676698    0.4059381  83.86  0.002424964    1.297    0.229
        68 -11.9566     44.2588    100.7754   1.1300803749e+02   5.0407990217e+01    0.5788388     0.307463 -89.96  0.002598638    2.515    0.602
        69 -11.8723    150.1447    102.6296   8.4310884067e+01   3.1710607050e+01    0.3374741    0.2445718 -68.98  0.001509907    1.801    0.445
        70 -11.7879    127.4825    100.6723   8.9315858169e+01   3.7049272586e+01    0.3987181    0.2612022 -53.60  0.001466224    1.594    0.373
        71 -11.7695    107.7094     98.5241   9.3992262567e+01   4.1462943546e+01    0.5833271     0.406759 -80.66  0.002424346    1.983    0.496
        72 -10.9488     81.8755    100.5222   1.0178571183e+02   4.5508716311e+01    0.2278515    0.1861369 -85.99 0.0008018991    1.297    0.229
        73 -10.3868     94.4093     97.2063   9.7386426727e+01   4.4173599171e+01    0.2093369    0.1310841 -63.64 0.0009471668    1.726    0.421
        74 -11.1486     63.1540     96.2841   1.0642775616e+02   4.9177970179e+01    0.3672459    0.2006758  89.16  0.001377999    3.457    0.711
        75 -12.7925    170.0958     90.6885   7.6649999995e+01   2.9281683721e+01    0.4654289      0.37066  75.38 0.0008780372    1.480    0.324
        76 -11.8101    115.8007    102.5023   9.2819638186e+01   3.9043579152e+01    0.5905856    0.1440682  44.20  0.001686653    4.144    0.759
        77 -10.7881     34.0721     88.1670   1.1394764092e+02   5.4314663071e+01      0.42261    0.1493431 -73.49  0.001604801    3.202    0.688
        78 -11.7043     42.5586     87.7119   1.1113039528e+02   5.3578024271e+01    0.4570927    0.2777817 -21.61  0.001486576    2.687    0.628
        79 -10.9602     45.4621     81.9662   1.0899747777e+02   5.4574518581e+01    0.2799393    0.1826924 -73.65 0.0008634499    1.503    0.335
        80 -10.1741    151.5245     87.4721   7.9832267030e+01   3.4294027440e+01      0.27814    0.1505671 -26.62  0.001007224    2.326    0.570
        81 -11.3147     86.7790     86.9444   9.7021014147e+01   4.7736312116e+01    0.3801585    0.2635632  71.85  0.001788491    1.985    0.496
        82 -10.1491    140.8454     83.6946   8.1268020234e+01   3.7497800463e+01    0.3112142    0.1982979 -63.80  0.001244181    2.186    0.543
        83 -11.0793    104.4052     83.2055   9.0797202571e+01   4.5362767633e+01    0.3930299    0.2444702 -72.44  0.001556751    2.562    0.610
        84  -9.6120      1.5269     77.5023   1.2292444051e+02   5.9074600591e+01    0.1161471   0.08862599 -72.21  0.000588889    1.018    0.018
        85 -11.1586     81.8842     72.8008   9.4621917056e+01   5.1614068277e+01    0.4223613    0.2727256 -84.65  0.001714169    2.872    0.652
        86 -10.2375    116.3440     73.6632   8.4585635301e+01   4.4893669603e+01    0.1549241    0.1190798 -82.48 0.0007049465    1.770    0.435
        87 -11.5771    223.2039     71.1161   6.1843400325e+01   1.9524219805e+01    0.3344026    0.2809558 -50.76  0.001097764    1.219    0.180
        88 -10.1504     94.5149     70.5623   8.9979385449e+01   4.9865725950e+01    0.2740675     0.130978 -55.85  0.001037599    2.476    0.596
        89 -10.4849     51.8088     70.6992   1.0416887303e+02   5.6373494133e+01    0.2338642    0.1750812 -58.36  0.001264826    1.174    0.148
        90 -10.7729     39.8050     52.5511   1.0364005185e+02   6.1659867589e+01    0.3361406    0.1678347 -43.61 0.0008876402    1.789    0.441
        91 -11.6625     19.4837     59.3824   1.1336676433e+02   6.1986350439e+01    0.3907419    0.2141565 -53.82  0.001435038    1.453    0.312
        92 -13.6786     29.9485     59.7689   1.0943215743e+02   6.1058348267e+01      1.14454    0.7979192  42.55  0.004274363    1.727    0.421
        93 -12.5393    232.7065     61.3004   5.7944383315e+01   1.8645442127e+01    0.5722581    0.3626055  84.15  0.002609149    2.091    0.522
        94 -11.9197     21.1089     52.9309   1.1122989883e+02   6.3270902686e+01    0.6641142     0.292223 -68.68  0.003189006    2.177    0.541
        95 -11.4152      8.7063     57.8410   1.1720891697e+02   6.3027774624e+01    0.5599139    0.1994061  42.74   0.00253065    3.720    0.731
        96 -10.0967    194.9920     67.7433   6.5359690633e+01   2.6933459431e+01     0.199977    0.1300895  58.43 0.0008881855    1.559    0.358
        97 -12.5343    149.3396     52.3091   6.9372158388e+01   4.0990049574e+01    0.3575444    0.3076769  52.48 0.0004609712    1.150    0.130
        98 -11.4961     75.2140     45.6657   8.7889448042e+01   5.8202809646e+01    0.3942136    0.2330867 -50.67 0.0009265174    1.752    0.429
        99 -11.1853     69.3075     41.9823   8.8631559789e+01   5.9863662361e+01    0.4857324    0.3149385  65.35  0.002191369    2.738    0.635
       100 -10.9882    157.0124     45.0020   6.5305831746e+01   4.0147504718e+01    0.2655999    0.2102958  57.32  0.000358198    1.243    0.195
       101 -11.2832      7.5274     43.3041   1.1457777592e+02   6.6229275505e+01    0.4823206    0.2422034  39.44   0.00269888    2.564    0.610
       102 -12.1146     41.8939     37.5441   9.7864508049e+01   6.4498702756e+01    0.5420961    0.3536177   8.62  0.001043013    1.953    0.488
       103 -10.9379     47.4440     35.9341   9.4918816978e+01   6.4141275508e+01    0.2890944    0.1945895 -14.99 0.0007702962    1.763    0.433
       104 -11.2398    120.1408     34.3186   6.9752548600e+01   5.0913318758e+01    0.3202617    0.2819578  61.19 0.0007996731    1.203    0.169
       105 -10.4388     73.9143     32.7910   8.3267966172e+01   6.0736699431e+01    0.2437341    0.1983389  64.08  0.001366137    1.658    0.397
       106 -11.2610    106.1570     30.3055   7.1886600273e+01   5.4711515211e+01    0.4132323    0.2503637  62.80  0.001539686    1.977    0.494
       107 -10.2807    101.2974     27.3052   7.2025735298e+01   5.6217571776e+01    0.1895761    0.1632272 -50.15 0.0003976596    1.331    0.249
       108 -10.0783     68.4469     25.2492   8.2026045987e+01   6.2925741646e+01    0.2466261    0.1182927 -32.02 0.0008943108    2.005    0.501
       109 -11.8713    219.9258    248.6703   9.8162885344e+01  -3.2935568063e+00    0.3904702    0.1682561  42.46  0.002286475    1.845    0.458
       110  -9.9249     46.5401     16.4988   8.6968252682e+01   6.7712524768e+01    0.1911751    0.1511401   7.54 0.0006598682    1.265    0.209
       111 -10.9920    239.7153     20.6547   4.6580296455e+01   2.1977595487e+01    0.2588518    0.2204889 -84.22 0.0006276043    1.167    0.143
       112 -11.8998    201.5321     20.2419   5.0407108946e+01   3.1564931844e+01    0.3540744     0.188332 -83.12  0.001388394    2.498    0.600
       113 -11.4260    215.3282     18.6835   4.8421583306e+01   2.8182649218e+01     0.279173    0.2207996 -64.51  0.001298094    1.246    0.197
       114  -9.5038    188.6393    247.7223   1.0306742340e+02   1.3861885921e+00     0.112109   0.06714375  24.22 0.0003917408    1.665    0.399
       115 -10.1266     89.2257     18.1413   7.1631579810e+01   6.0056502030e+01     0.245495    0.1872587 -89.75  0.001232393    2.108    0.526
       116 -10.6199     30.6676     18.9048   9.5552110149e+01   6.9239376558e+01    0.2018954    0.1210081 -32.35  0.000733924    1.470    0.320
       117 -12.2829     23.4863    239.9936   1.2976489627e+02   2.4767021712e+01    0.5218307    0.1552304  60.58  0.002903857    2.616    0.618
       118 -10.1868      8.3085    240.3403   1.3211148107e+02   2.6207209496e+01   0.07672939   0.06732994 -80.38 0.0002625586    1.687    0.407
       119 -10.9058     12.7247    227.4485   1.3096080122e+02   2.7856834289e+01    0.1832017    0.1194361  68.68 0.0005737077    1.051    0.048
       120  -9.8858    104.4554    225.0240   1.1505252122e+02   1.7142561086e+01    0.1451291    0.1082749 -70.64 0.0009260657    1.577    0.366
       121 -11.2389     95.3046    224.6534   1.1665827474e+02   1.8508082182e+01    0.2295195    0.1513463  68.63  0.001535001    1.424    0.298
       122 -11.5662    231.3095    223.5857   9.2757064383e+01  -2.4963456339e+00    0.2552788    0.1334435  41.99  0.001440521    1.656    0.396
