#   1 NUMBER                 Running object number                                     
#   2 MAG_AUTO               Kron-like elliptical aperture magnitude                    [mag]
#   3 X_IMAGE                Object position along x                                    [pixel]
#   4 Y_IMAGE                Object position along y                                    [pixel]
#   5 X_WORLD                Barycenter position along world x axis                     [deg]
#   6 Y_WORLD                Barycenter position along world y axis                     [deg]
#   7 A_WORLD                Profile RMS along major axis (world units)                 [deg]
#   8 B_WORLD                Profile RMS along minor axis (world units)                 [deg]
#   9 THETA_WORLD            Position angle (CCW/world-x)                               [deg]
#  10 FWHM_WORLD             FWHM assuming a gaussian core                              [deg]
#  11 ELONGATION             A_IMAGE/B_IMAGE                                           
#  12 ELLIPTICITY            1 - B_IMAGE/A_IMAGE                                       
         1 -13.2912     10.4582     26.1959   1.0842563452e+02   6.9592422093e+01    0.8897643    0.4976966  31.01  0.005386634    2.211    0.548
         2 -13.6237     21.5643     22.6871   1.0159580423e+02   6.9443723598e+01    0.6987555    0.4271584 -27.51  0.004187209    1.596    0.373
         3 -12.8859    203.0157     28.0889   5.2240986037e+01   3.0290388332e+01    0.6882722    0.5042841 -65.38  0.003442232    1.458    0.314
         4 -13.1828    217.6939     10.8062   4.5699492366e+01   2.8427609101e+01    0.7184059    0.6219187 -69.06  0.003288815    1.085    0.078
         5 -10.9831      1.7553      4.4546   1.0503048457e+02   7.4268668922e+01     0.315447   0.09867911 -54.72  0.001529815    2.449    0.592
         6 -11.5061     93.4791    224.7992   1.1685883493e+02   1.8682016815e+01    0.4322025    0.2707312 -77.93  0.002840383    1.842    0.457
         7 -14.1803    246.5183    239.5393   9.2504891312e+01  -6.2624401169e+00     1.409617    0.6239105 -21.80  0.008332343    2.622    0.619
         8 -12.5253    178.1714    249.0038   1.0474256316e+02   2.7433481129e+00     1.240243    0.2283595  43.53  0.004611749    4.085    0.755
         9 -13.1983    197.3000    246.8008   1.0132850612e+02   1.3106569414e-01    0.8333313    0.6429953  21.54  0.006224297    1.179    0.152
        10 -12.9770    208.0265    242.8651   9.9066748776e+01  -1.0505894516e+00    0.7479094    0.6056362  64.72  0.005407941    1.950    0.487
        11 -13.3345    110.3648    186.2054   1.0937881001e+02   2.2826302173e+01     1.111921    0.7296594  44.34  0.005595922    1.338    0.253
        12 -13.8130    165.2856    225.5855   1.0403987277e+02   7.6119145955e+00     1.149787    0.7548392  33.53  0.006018248    1.317    0.240
        13 -13.5430    127.5235    248.0167   1.1310742097e+02   1.0380746217e+01     2.028968    0.3684095  41.59  0.007656581    4.028    0.752
        14 -14.8784    120.7646    226.7350   1.1214275942e+02   1.4410507775e+01     2.374828     1.072985  51.80   0.01278931    1.889    0.471
        15 -14.0441     27.2175    191.2923   1.2655795070e+02   3.2758580037e+01     1.713647    0.8909344 -69.62   0.01093036    1.886    0.470
        16 -13.8446     28.1847    219.0889   1.2793729270e+02   2.7646362285e+01     1.947932    0.6703963  65.42   0.01025301    2.706    0.630
        17 -16.0126     13.4731    240.7399   1.3124001472e+02   2.5573737452e+01      1.96809    0.6709012  61.82   0.01230074    2.136    0.532
        18 -13.6560     44.6112    246.8620   1.2665892571e+02   2.1358529291e+01    0.7913266    0.2726294  57.40  0.004646074    2.204    0.546
        19 -15.1547     65.1874    245.1778   1.2325955020e+02   1.9197912951e+01      1.64733    0.6533693  46.22  0.008435859    1.788    0.441
        20 -13.5248     48.6391    226.4852   1.2486205371e+02   2.4146756193e+01     1.157861    0.5933582  75.88  0.007460266    1.832    0.454
        21 -11.5874     88.8650    231.3326   1.1824416950e+02   1.8279687060e+01    0.4672402     0.226849  64.80   0.00202597    2.187    0.543
        22  -9.7981     83.0497    229.6676   1.1912531212e+02   1.9327681529e+01    0.1548126    0.1111395  53.77 0.0007058959    1.070    0.066
        23 -10.1703     73.9568    229.0237   1.2066389857e+02   2.0626262331e+01     0.173207    0.1249495  62.39  0.001115651    1.052    0.049
        24 -13.9341    120.8135    198.7590   1.0889415505e+02   1.8914993701e+01      1.89323    0.9462323 -48.09  0.009696067    2.495    0.599
        25 -11.3197    178.0424    213.1539   1.0005465876e+02   7.1932800040e+00     0.635002    0.2743703  54.81  0.002661153    3.208    0.688
        26 -11.2336     76.2419    220.2835   1.1957128425e+02   2.1767391218e+01    0.4863463    0.2243958  59.46  0.002717044    1.960    0.490
        27 -10.6429     77.1086    211.3979   1.1865987427e+02   2.3170232719e+01    0.4035253    0.3107537 -64.94  0.002893903    1.557    0.358
        28 -12.4200    235.8247    220.1596   9.1252548992e+01  -2.8783607115e+00    0.2370537    0.2115078  -2.51  0.001500462    1.370    0.270
        29 -13.6263    230.7980    214.0822   9.1104499973e+01  -1.4747639308e+00    0.7266729    0.3914772  -1.75  0.003746365    2.631    0.620
        30 -13.0326    238.1780    206.8168   8.8713008668e+01  -1.8376351435e+00    0.3930359    0.3181648  -3.70  0.002827791    1.218    0.179
        31 -11.3214     29.1518    237.6940   1.2866878110e+02   2.4471494395e+01    0.7304617    0.2089896  63.93  0.002877832    3.381    0.704
        32 -11.5912    130.6380    215.2794   1.0904862817e+02   1.4644377742e+01    0.3878906    0.3046143  77.33  0.002619539    1.425    0.298
        33 -12.8541    209.3119    209.5574   9.3991748035e+01   2.4688027595e+00     0.804084    0.4846555  31.08  0.004784624    1.392    0.282
        34 -10.9139     91.6785    212.5884   1.1604716882e+02   2.0956588208e+01    0.4689597    0.1438302  40.68  0.002101862    2.680    0.627
        35 -11.1577     69.4232    210.4779   1.2001159679e+02   2.4342214643e+01    0.3520295    0.2370826 -68.38   0.00218561    1.643    0.391
        36 -11.6241     71.9970    201.5390   1.1875115020e+02   2.5604878018e+01    0.6267238    0.2723701 -49.28  0.002925902    3.693    0.729
        37 -10.6415     93.8361    207.5956   1.1514341670e+02   2.1505985222e+01    0.2847052     0.184283  43.78  0.001330774    1.338    0.252
        38  -9.8549     89.1998    207.5674   1.1602448691e+02   2.2173356985e+01    0.2047228    0.1712215  29.12  0.001140853    1.528    0.346
        39 -11.2830     42.5394    200.3161   1.2425839807e+02   2.9432107026e+01    0.6274126    0.4470939 -87.19  0.003514731    1.286    0.222
        40 -10.6220     81.3064    199.2606   1.1672790239e+02   2.4760942618e+01    0.2302314    0.1991715  50.55  0.001273325    1.237    0.192
        41 -15.2008    216.3298    183.3875   8.8318461677e+01   4.5725683977e+00     2.218738     1.480421 -30.59   0.01293755    1.625    0.385
        42 -13.3458     92.5312    185.9696   1.1303174892e+02   2.5623217672e+01     1.112082    0.7075556 -88.62  0.006176434    1.798    0.444
        43 -11.9100     84.9163    182.3015   1.1418701721e+02   2.7440467030e+01    0.4560317    0.3195714  85.55  0.002176687    1.440    0.305
        44 -12.9684    166.2113    182.5575   9.7511976977e+01   1.3776349211e+01    0.8458898    0.6358378  26.51  0.004902318    1.353    0.261
        45  -9.1120     66.4748    184.4718   1.1824283865e+02   2.9544224133e+01    0.1150776   0.09934782  71.77 0.0008065689    1.124    0.110
        46 -12.1925     72.4036    178.1673   1.1635724587e+02   2.9998337610e+01    0.6088591    0.4316431 -43.48  0.002700245    2.028    0.507
        47 -10.3992    135.2690    182.8673   1.0378118649e+02   1.9264578567e+01    0.2412502    0.1579445  53.06  0.001317729    1.397    0.284
        48 -10.9180     14.0321    180.9609   1.2847771143e+02   3.6005282162e+01    0.2566517    0.1441357 -88.15  0.001080499    1.464    0.317
        49 -11.3619    104.0459    200.7701   1.1243205717e+02   2.1187617835e+01    0.4432641    0.3401558 -28.58  0.002696337    2.141    0.533
        50 -13.5069    152.0590    163.1584   9.7005811394e+01   1.9728276993e+01    0.8439511    0.7271206 -68.04  0.004963669    1.336    0.252
        51 -12.8235     88.4084    159.5058   1.1051494564e+02   3.1509792317e+01    0.9109807    0.6229548  88.56  0.003574027    1.587    0.370
        52 -12.0943     68.2066    164.0520   1.1568014028e+02   3.3430976807e+01    0.3898627    0.2152125 -48.79  0.001658357    2.320    0.569
        53  -9.8085     80.5231    167.8369   1.1339704554e+02   3.0951085328e+01    0.1658585    0.1155424 -68.41 0.0007921531    1.437    0.304
        54 -11.4548     86.5007    201.8010   1.1596876420e+02   2.3575330032e+01    0.5014124    0.3290017  36.26  0.002525514    1.585    0.369
        55 -11.5440    123.0017    175.0845   1.0516406196e+02   2.2801256516e+01    0.4574752    0.3793055  44.05   0.00281218    1.134    0.118
        56 -13.3125     99.0948    146.0109   1.0593252670e+02   3.2667992327e+01    0.8634498    0.6681992 -33.36  0.004418491    1.722    0.419
        57 -10.8005      1.9528    145.7816   1.2891332243e+02   4.4100753630e+01    0.3106959    0.1221207 -86.40  0.001650512    2.111    0.526
        58 -12.1782     88.6833    144.1870   1.0814812978e+02   3.4718498813e+01    0.2772708    0.2655024 -46.46 0.0003931102    1.259    0.206
        59 -10.4143     64.6697    141.6909   1.1366557684e+02   3.8692622508e+01    0.2957728     0.240628  59.90  0.001339526    1.165    0.141
        60 -12.7355    198.6304    196.7133   9.3785300050e+01   5.9010956379e+00    0.6283112    0.4397456  47.51  0.003770852    1.395    0.283
        61 -12.8165      6.9719    134.5140   1.2699141134e+02   4.6121866684e+01    0.7217825    0.4759406 -79.08   0.00493337    1.224    0.183
        62 -10.7913     70.4910    144.9965   1.1269984829e+02   3.7190197871e+01    0.5151817    0.2863802  63.82  0.002521042    2.007    0.502
        63 -10.5456     98.3018    129.4347   1.0316646223e+02   3.6382243249e+01    0.2684484    0.2261556 -32.96 0.0008220989    1.449    0.310
        64 -12.0334      2.3344     91.3466   1.2429550408e+02   5.5929406271e+01    0.5190401   0.09397877 -76.35  0.001686034    4.888    0.795
        65 -12.9962      2.8725     75.2920   1.2213954218e+02   5.9480763618e+01     0.765219    0.1212684 -67.01  0.002883219    3.544    0.718
        66 -12.2519    193.7983     34.5403   5.5404541939e+01   3.1911882037e+01    0.3626321    0.2733002  44.45  0.001062516    1.392    0.282
        67 -14.3149     26.8579    159.1425   1.2437574817e+02   3.9196605906e+01     2.675107     1.687207  44.10   0.01753924    1.548    0.354
        68 -10.8178    186.0911    236.1808   1.0181930828e+02   3.0096192232e+00    0.3250778    0.2107174  15.84  0.002043117    1.813    0.448
        69 -13.8028    147.0512    228.1668   1.0759864665e+02   1.0152835635e+01       1.2484     1.055387  86.18  0.009140315    1.474    0.322
        70 -12.2398    209.4803     20.4281   4.9249464391e+01   2.9495999687e+01    0.4257888    0.2809909  33.10  0.001103819    1.879    0.468
        71 -12.0449    102.1980    229.8422   1.1576519424e+02   1.6655561331e+01     0.739129    0.4207779  64.03  0.004543684    1.737    0.424
