#   1 NUMBER                 Running object number                                     
#   2 MAG_AUTO               Kron-like elliptical aperture magnitude                    [mag]
#   3 X_IMAGE                Object position along x                                    [pixel]
#   4 Y_IMAGE                Object position along y                                    [pixel]
#   5 X_WORLD                Barycenter position along world x axis                     [deg]
#   6 Y_WORLD                Barycenter position along world y axis                     [deg]
#   7 A_WORLD                Profile RMS along major axis (world units)                 [deg]
#   8 B_WORLD                Profile RMS along minor axis (world units)                 [deg]
#   9 THETA_WORLD            Position angle (CCW/world-x)                               [deg]
#  10 FWHM_WORLD             FWHM assuming a gaussian core                              [deg]
#  11 ELONGATION             A_IMAGE/B_IMAGE                                           
#  12 ELLIPTICITY            1 - B_IMAGE/A_IMAGE                                       
         1 -14.5683    154.9956     51.3382   8.7521805007e+01   4.0089234314e+01     1.644198     1.321346  17.25  0.005047509    1.334    0.251
         2 -14.5557    166.2079     35.5416   8.0072027934e+01   3.9433049632e+01     1.147915    0.9029606  -8.83  0.004328885    1.299    0.230
         3 -13.9225    180.3125      4.5008   6.7740004247e+01   3.9042570511e+01    0.9744286    0.6266688  71.15  0.003990151    1.553    0.356
         4 -10.3397    125.0000    245.9975   1.3322383589e+02   1.2796715770e+01    0.1166426   0.06064261 -54.77            0    2.589    0.614
         5 -19.8047     68.4396    168.0133   1.3678462626e+02   3.2655098014e+01     16.44003     6.126466 -69.15   0.07274111    2.939    0.660
         6 -11.3136    211.6117    201.8165   1.1225546293e+02   6.5791898773e+00      0.14325    0.1029658 -35.06 0.0009500775    1.745    0.427
         7  -9.2064     20.4071    202.5098   1.4964654345e+02   3.0960194427e+01    0.1011898   0.07939848  63.53 0.0004027016    1.040    0.039
         8 -12.1471    182.2194    189.2301   1.1545780597e+02   1.2488671712e+01    0.2680751     0.244321   6.87  0.000722055    1.207    0.172
         9 -13.3713    178.0022    196.8404   1.1745793801e+02   1.2094880701e+01     0.523491    0.2628761  41.98  0.002083599    1.844    0.458
        10 -13.1251    180.3867    193.7332   1.1652579760e+02   1.2156182421e+01    0.6571743    0.4808464 -76.93  0.003327745    3.498    0.714
        11 -11.6747    158.8457    194.3752   1.2073508783e+02   1.5307584050e+01     0.237903     0.199796  80.91 0.0009393182    1.850    0.459
        12 -12.1282    135.4181    195.9289   1.2561080643e+02   1.8532438609e+01     0.296256    0.2194342  78.26   0.00131505    2.089    0.521
        13 -10.7706     20.8859    236.3603   1.5087029660e+02   2.5325587008e+01    0.1276452    0.1077557 -88.75 0.0009917625    1.394    0.283
        14  -9.9832      7.0467    197.5025   1.5203891533e+02   3.2942337998e+01    0.1398877   0.08498187  35.76    0.0010071    1.514    0.339
        15 -11.8881    170.0269    195.1969   1.1870573118e+02   1.3512740715e+01    0.2230724    0.1731976 -38.77  0.000857139    1.530    0.347
        16 -10.2892      1.4721    196.1462   1.5307060214e+02   3.3607854061e+01   0.08306389   0.06594066  12.71 0.0006431817    1.725    0.420
        17 -11.2384    166.1216    189.4070   1.1855612136e+02   1.4928973565e+01    0.2466622    0.1945718  72.49  0.001461227    2.107    0.525
        18 -10.2632     14.5698    189.4691   1.5023615945e+02   3.3815028304e+01    0.1019532   0.08330142  68.41 0.0002090443    1.077    0.072
        19 -13.2276    207.5921    183.7706   1.0992817060e+02   9.3275376891e+00    0.3779653    0.3391464   4.33  0.001140367    1.277    0.217
        20 -13.0582    210.4975    181.5340   1.0902667573e+02   9.1645331985e+00    0.3891112    0.2612272 -12.37  0.001849148    1.440    0.305
        21 -10.5532    157.5443    184.7274   1.1950801351e+02   1.6947124029e+01     0.148536    0.1222257 -55.65 0.0009418007    1.589    0.371
        22 -10.9044    108.3678    182.5182   1.2949337670e+02   2.4659841822e+01    0.2390803    0.1754822  64.93 0.0006186204    1.548    0.354
        23 -11.8730    197.7500    176.4148   1.1038517043e+02   1.1803319915e+01     0.361046    0.2831243 -44.99  0.001492335    1.736    0.424
        24 -12.2589    178.6186    174.6744   1.1366926451e+02   1.5108629373e+01    0.3636749    0.2376861 -17.23  0.001775878    1.723    0.420
        25 -11.9226    145.3445    169.5156   1.1954273908e+02   2.1320957809e+01     0.488376    0.3565306  65.78  0.002655721    1.947    0.486
        26 -11.8483    226.8142    168.5940   1.0387600080e+02   8.2485167184e+00    0.4162588    0.2340529 -48.70  0.001916796    3.493    0.714
        27 -12.1335    230.0931    166.7039   1.0297690458e+02   7.9708732147e+00    0.2732646    0.1658659 -33.11  0.001584574    1.751    0.429
        28 -10.9572    206.1237    170.1054   1.0771897665e+02   1.1308814796e+01    0.4426312    0.2220145  17.10  0.001949544    2.701    0.630
        29 -11.3320    113.0391    169.1956   1.2660492030e+02   2.6409676389e+01    0.2639857    0.1972701  47.71 0.0004864268    1.262    0.208
        30 -11.4164    138.4235    172.1372   1.2145637389e+02   2.1981072443e+01    0.4421352    0.2994883  83.64  0.002044138    3.041    0.671
        31 -10.8133     22.1500    166.8470   1.4744018537e+02   3.7590074350e+01    0.2100392    0.1474513  21.24 0.0008175732    1.690    0.408
        32 -10.3335    123.5194    166.4718   1.2382275509e+02   2.5318295710e+01    0.2251722    0.1049428  46.29 0.0006711689    2.120    0.528
        33 -11.0736    200.2537    164.1325   1.0764830390e+02   1.3065434028e+01    0.2717866    0.2563146 -41.19  0.001304241    1.483    0.326
        34 -10.0035    117.5624    235.2352   1.3353751644e+02   1.5139422632e+01     0.112454   0.06085988  49.92 0.0006873878    1.750    0.428
        35 -10.7441    123.5834    158.5006   1.2250467986e+02   2.6781039892e+01    0.3254507     0.219652 -82.12  0.001269367    2.432    0.589
        36 -10.4832     25.8523    231.9725   1.4985461348e+02   2.5569959262e+01    0.1155146     0.110071  74.62 0.0005521665    1.402    0.287
        37 -12.4703    134.3819    148.5782   1.1824414408e+02   2.6856614978e+01    0.6106021    0.2773791 -59.87  0.002243406    3.620    0.724
        38 -12.9609    133.5685    142.8562   1.1733425492e+02   2.8071098467e+01    0.6763252    0.2820162 -56.73  0.002446344    3.479    0.713
        39 -11.1744    174.4046    148.5777   1.0954982628e+02   1.9824681086e+01     0.290204    0.2366421 -36.02  0.001130084    1.324    0.244
        40 -10.2633    116.9251    231.0175   1.3324754290e+02   1.5804394979e+01     0.159827    0.1035665  55.22 0.0005294966    1.610    0.379
        41 -11.0407    220.5636    228.4990   1.1481170729e+02   2.5446976596e+00    0.2120665   0.09530071 -36.70  0.001241892    2.810    0.644
        42 -12.8111    143.7486    145.4087   1.1549217532e+02   2.5820488443e+01    0.5122583    0.3544913 -73.82  0.002381974    2.464    0.594
        43 -13.3520      6.5277    139.7145   1.4957866442e+02   4.4480845957e+01    0.4213247    0.4061687 -84.21  0.003334088    1.256    0.204
        44 -11.8811     23.7226    140.8570   1.4524082744e+02   4.2962158265e+01    0.2184737     0.154378  40.44 0.0007094563    1.405    0.288
        45 -13.1467    135.5268    122.9349   1.1265903264e+02   3.1548282546e+01    0.6703635    0.2631139 -48.98  0.002465113    2.789    0.641
        46 -12.2242      2.4010    125.7450   1.4984006073e+02   4.7823204496e+01    0.2325262    0.1766539  75.21    0.0011221    1.112    0.101
        47 -10.5618    101.0374    224.5225   1.3559304494e+02   1.8724317931e+01    0.1524166    0.1220051  44.44 0.0008133545    1.035    0.034
        48 -11.4062    160.3623    128.3004   1.0814825617e+02   2.5834007096e+01    0.3805922    0.2594968 -30.57  0.001912952    1.497    0.332
        49 -12.9315     19.4016    127.3548   1.4528213174e+02   4.6322199015e+01    0.3781756    0.2498223 -73.61  0.001896657    1.330    0.248
        50 -10.4222    239.3131    126.6747   9.3267563890e+01   1.1376874116e+01    0.1185853   0.09694049 -46.07 0.0002873915    1.663    0.399
        51 -10.7215    110.0893    222.9792   1.3373485926e+02   1.7826007056e+01     0.160879    0.1274277  45.19 0.0004732286    1.082    0.076
        52 -12.6637      3.5395    130.8134   1.4983592322e+02   4.6625801870e+01    0.3533607    0.2067529  76.34  0.002154191    1.486    0.327
        53 -11.7457    134.5370    104.6281   1.0846590387e+02   3.5316111086e+01    0.5815542    0.1692859 -44.10  0.001812774    3.446    0.710
        54 -12.9249      4.3773    111.8346   1.4834894932e+02   5.0873346070e+01    0.4629942    0.3564915  11.14  0.003132013    1.646    0.392
        55 -10.7060     20.6693    218.9591   1.5027392458e+02   2.8119745232e+01    0.1648265   0.07383093  53.25 0.0008293747    1.673    0.402
        56 -10.5737    139.4489    216.8603   1.2749865298e+02   1.4847750566e+01    0.2492947    0.1743953  86.44  0.001449337    2.735    0.634
        57 -10.9102    139.6739    248.8781   1.3094957876e+02   1.0633591900e+01    0.2608659    0.2195502 -43.26   0.00221075    1.597    0.374
        58 -10.2310    155.0846    104.8445   1.0361791837e+02   3.1079934676e+01    0.1989016    0.1962277 -55.22 0.0002499848    1.160    0.138
        59 -10.7806    205.4500    110.1613   9.4926131631e+01   1.9862332031e+01    0.2949748    0.1883491  34.95 0.0009183762    1.585    0.369
        60 -10.6569     11.9285    213.3503   1.5166409152e+02   2.9792057735e+01    0.1047811   0.08310669  28.42 0.0003461698    1.473    0.321
        61 -10.4157    113.0419    211.5061   1.3197725510e+02   1.9187499377e+01    0.1690795   0.09527203  30.33  0.000989491    1.600    0.375
        62 -10.6079    124.2348     94.8905   1.0853904116e+02   3.9306337145e+01    0.2119286    0.2018077 -60.75 0.0004467173    1.140    0.123
        63 -11.8563    165.7148    207.3479   1.2130839140e+02   1.2478125089e+01    0.2593646      0.20834  34.42  0.001025728    1.160    0.138
        64 -12.1468    164.6998    204.3526   1.2107303518e+02   1.3031710099e+01    0.2783625    0.2258469 -84.05   0.00127087    2.193    0.544
        65 -11.8267    170.1014    204.9474   1.2014693861e+02   1.2167755440e+01    0.2240279    0.1883972 -48.35 0.0004679274    1.610    0.379
        66 -10.6167     13.5456    246.4950   1.5240542791e+02   2.4426819280e+01    0.1207807   0.07548177 -75.44 5.485589e-05    1.869    0.465
        67 -13.0724    169.9581     27.9769   7.6904251331e+01   3.9378268817e+01    0.5010222    0.3668827 -12.40  0.001124697    1.394    0.283
        68 -10.4695     13.4280     59.8766   1.3884936198e+02   6.2733907586e+01    0.1812119    0.1671306  64.09   0.00039755    1.248    0.199
        69 -10.9530     13.7189    243.6723   1.5229766039e+02   2.4829713019e+01    0.1189496   0.07603524 -64.08 0.0005713075    2.084    0.520
        70 -10.5695    142.4108     33.0319   8.3525413615e+01   4.5764472254e+01    0.2743709    0.2091775  83.53 0.0007461405    1.607    0.378
        71 -11.1532     22.4585    241.2283   1.5077112349e+02   2.4449172596e+01    0.1341329    0.1190345 -64.85  0.001211282    1.604    0.377
        72 -10.8949    189.5206     14.9884   7.0126308893e+01   3.5793207837e+01     0.213915    0.1315133 -21.22 0.0008283571    1.572    0.364
