#   1 NUMBER                 Running object number                                     
#   2 MAG_AUTO               Kron-like elliptical aperture magnitude                    [mag]
#   3 X_IMAGE                Object position along x                                    [pixel]
#   4 Y_IMAGE                Object position along y                                    [pixel]
#   5 X_WORLD                Barycenter position along world x axis                     [deg]
#   6 Y_WORLD                Barycenter position along world y axis                     [deg]
#   7 A_WORLD                Profile RMS along major axis (world units)                 [deg]
#   8 B_WORLD                Profile RMS along minor axis (world units)                 [deg]
#   9 THETA_WORLD            Position angle (CCW/world-x)                               [deg]
#  10 FWHM_WORLD             FWHM assuming a gaussian core                              [deg]
#  11 ELONGATION             A_IMAGE/B_IMAGE                                           
#  12 ELLIPTICITY            1 - B_IMAGE/A_IMAGE                                       
         1 -11.1458      7.0671     56.0328   1.1350988248e+02   6.3589925533e+01     1.212506    0.6453876 -75.24  0.006657732    1.950    0.487
         2 -13.3169     90.2588     57.4310   8.2864904558e+01   5.3491433498e+01     2.496327     1.245103  28.90 0.0008409528    2.703    0.630
         3 -11.8419     74.5965     47.3266   8.4475203163e+01   5.8089802775e+01     2.600861     1.045892 -36.20    0.0103947    2.418    0.586
         4 -13.1351    102.0032      7.3166   5.9232262608e+01   5.8320102416e+01     3.421383    0.4337068  53.01 0.0009501056    4.575    0.781
         5 -12.4947     55.1495     66.1064   9.7879005752e+01   5.7181597284e+01     1.875498    0.7972324 -45.53  0.004651634    2.015    0.504
         6 -12.4961     90.5292     28.6166   7.1612746099e+01   5.8209093262e+01      2.43001     1.109735 -21.12  0.009033702    2.650    0.623
         7 -12.3415     33.0919     44.1853   9.9516105777e+01   6.4100092700e+01      1.54387    0.8118709 -12.70  0.007083192    2.922    0.658
         8 -13.1751    113.0218     23.8216   6.3279953177e+01   5.4027217181e+01     2.541152     1.364926   3.10  0.007649849    3.043    0.671
         9 -12.4335    128.9924     21.5550   5.8644532240e+01   5.0528554211e+01     1.221299    0.8277065  16.07  0.004212315    1.747    0.428
        10 -11.3857     44.6446     15.5325   8.2763940199e+01   6.7733880814e+01     1.688287     1.084765  46.21  0.009706389    2.138    0.532
        11 -12.8325     56.3890     37.3848   8.7434448330e+01   6.2625820215e+01     1.079153    0.6591331  27.51  0.005821026    1.773    0.436
        12 -13.5530     67.6482     30.8691   8.0411238342e+01   6.2011211351e+01     1.625801     0.792609  40.40  0.002050589    2.147    0.534
        13 -12.7885     32.7241     73.1247   1.0787010607e+02   5.8040956863e+01     3.335381      1.22906 -32.52   0.01060568    5.388    0.814
        14  -9.6909    173.5814     10.2163   4.7061438347e+01   4.0381539764e+01    0.3205155    0.2467541  27.49  0.001200578    1.522    0.343
        15 -11.1687    150.6246     36.3539   5.9426301641e+01   4.3261016123e+01      1.49438    0.8664796  85.47  0.005682648    2.677    0.626
        16  -9.7189    167.5149     12.8243   4.8724498482e+01   4.1692334368e+01    0.6435955    0.2666409  73.38  0.002440032    2.509    0.601
        17 -10.8457    164.0612      5.5632   4.6893035486e+01   4.3299292655e+01     0.896522    0.5573066  60.40  0.002454497    1.435    0.303
        18 -11.9739    159.1615     19.7443   5.2268321405e+01   4.3118124408e+01     1.093093    0.6747372   7.64  0.001739311    2.301    0.565
        19 -11.4145    117.0784     48.1701   7.1514129076e+01   4.9613114317e+01       1.2245    0.5734752 -27.36  0.004676347    2.390    0.582
        20 -11.1407     16.4126     33.5415   1.0324064077e+02   6.7565853881e+01    0.8056211    0.2976697 -56.65  0.002406303    2.380    0.580
        21 -11.3629     11.6258     25.7072   1.0274795788e+02   6.9369504377e+01    0.6615017    0.2090605 -37.99  0.002738453    2.707    0.631
        22 -10.5505    204.1275     26.4825   4.7897027264e+01   3.0658089527e+01     0.655035     0.410317 -16.78  0.003053754    1.946    0.486
        23 -10.2431    227.1599      6.6675   4.0339398916e+01   2.7210927924e+01    0.4643432    0.3078978  17.59  0.001847242    2.494    0.599
        24 -10.0781    205.7475     15.7513   4.4763231894e+01   3.1505843955e+01    0.5580383    0.3419327  34.36  0.002555993    2.257    0.557
        25 -10.4856    221.5007     11.9744   4.2169526875e+01   2.8004091767e+01    0.3924431    0.2834098 -70.05  0.001006301    1.297    0.229
        26 -10.2408    213.7450     12.0805   4.2947746146e+01   2.9905053719e+01    0.5550269    0.2905778  76.65  0.001741254    1.843    0.458
        27 -11.3164    217.2050     36.2811   4.8956326750e+01   2.6111425108e+01    0.9082789    0.6672575  24.35  0.004499298    1.882    0.469
        28 -10.6644    211.0035     31.5281   4.8436458045e+01   2.8282218047e+01    0.8764108    0.5484865  34.98  0.003945679    2.187    0.543
        29 -10.4278    210.8247     17.5470   4.4694364595e+01   3.0022427921e+01    0.3964216    0.2675407  61.79  0.001213927    1.459    0.315
        30 -11.4141    150.1917     14.9309   5.2151254923e+01   4.5948573144e+01    0.9695387    0.7527438  48.57  0.003733475    1.213    0.176
        31  -9.4078     31.4911     12.1416   8.7170112723e+01   6.9857501517e+01    0.3945412    0.1938079 -23.62  0.001717971    2.058    0.514
        32 -10.3201     24.7186     20.9445   9.4481782417e+01   6.9150855446e+01    0.5089234    0.2402193 -22.84  0.002475574    2.516    0.603
        33 -11.6280     30.1946     25.0038   9.3603005150e+01   6.7923480240e+01     1.006876    0.3000465 -42.90  0.004341369    2.673    0.626
        34 -10.5278     23.4704     26.4491   9.7340740877e+01   6.8307686704e+01    0.4908253    0.3218175 -51.17   0.00167676    1.482    0.325
        35 -12.1549     25.0075      6.0479   8.7328892383e+01   7.1464397092e+01    0.7279875    0.3264669 -35.51  0.001883292    1.845    0.458
        36 -11.5882     18.8295     13.6809   9.4207409988e+01   7.0894113327e+01    0.4941526    0.3117468 -18.95  0.002007904    1.413    0.292
        37 -12.1680     13.1455      6.1899   9.3673588118e+01   7.2574209899e+01     1.158652     0.503895 -35.23  0.006538954    1.813    0.448
        38 -11.7628      2.1006      2.5090   9.8124626303e+01   7.3984070210e+01    0.3520488    0.2898217 -55.50  0.001850106    1.669    0.401
        39 -12.5870      2.7770     17.2223   1.0405696682e+02   7.1460760125e+01    0.4975905    0.3327728 -56.26  0.001710563    1.457    0.313
        40 -12.0198      4.4266      9.1942   9.9877293954e+01   7.2743628350e+01    0.3446369    0.3079976  15.71  0.001215894    1.518    0.341
        41  -9.3994    248.5198      1.7908   3.7552473710e+01   2.2767225344e+01    0.2306207    0.1683611  70.35 0.0007903351    1.419    0.295
        42 -10.9302    244.4552     18.4693   4.1692939235e+01   2.1812873401e+01    0.8512864    0.3707155  81.07  0.003677701    2.533    0.605
        43 -10.7178    243.6529     12.7089   4.0412224053e+01   2.2666861796e+01    0.3328347    0.2676562 -36.15 0.0004707334    1.271    0.213
        44 -10.2962    243.9666      4.8936   3.8581773048e+01   2.3464329535e+01    0.3456189    0.2315255 -32.19 0.0009185624    1.507    0.337
        45 -11.1386    236.9515     30.0962   4.5185980213e+01   2.2130608638e+01    0.8149159      0.48244  -9.93  0.003590737    2.597    0.615
        46 -10.5451    215.2729     23.1424   4.5695825923e+01   2.8252705622e+01    0.5755699    0.4065785 -51.33  0.002043963    1.334    0.250
        47 -10.0182    175.5688     20.0343   4.9821009671e+01   3.8814610042e+01    0.6175984    0.4193878 -72.21  0.002904127    1.686    0.407
        48 -10.3631    185.5037     24.1200   4.9652403503e+01   3.5749616620e+01    0.6643022    0.2665688 -34.81  0.002604069    2.380    0.580
        49 -11.2572     50.8122     24.8349   8.4421926579e+01   6.5487313994e+01    0.8887907     0.467137  19.32 0.0009916677    2.411    0.585
        50 -10.2287    230.7088     18.6206   4.2965674101e+01   2.5016993013e+01    0.5442162    0.3636871 -31.90  0.002646794    1.500    0.333
        51  -9.6263    232.2680     10.5817   4.0856871722e+01   2.5564470441e+01    0.3249032    0.2032914 -84.27  0.001703569    1.574    0.365
        52  -8.8899    233.8163      7.2000   3.9912827730e+01   2.5569689449e+01    0.2212734    0.2101738  21.71 0.0005799718    1.358    0.264
        53 -10.3537    199.6213      6.0017   4.2757405243e+01   3.4098031715e+01    0.7518195    0.3750899 -40.05  0.003097781    1.927    0.481
        54  -8.0762     82.6817      2.8715   6.2508939392e+01   6.2820599967e+01     0.302474    0.1984296  39.90  0.001716376    1.351    0.260
        55 -10.3218     78.0466      8.9989   6.6848506904e+01   6.3099918033e+01    0.2797292    0.2312542   9.72 0.0009701705    1.041    0.039
        56  -9.2939     77.3947      4.8104   6.5058488524e+01   6.3667783273e+01    0.2676241    0.1617994  13.68 0.0009914284    1.771    0.435
        57  -9.4661    249.7676      7.3721   3.8716579485e+01   2.1879953198e+01    0.2967706    0.1898279 -69.51  0.001117719    1.426    0.299
        58  -9.0928    139.2864      8.0806   5.1635734522e+01   4.9391907961e+01    0.2191235     0.175735  43.35  0.001092039    1.170    0.146
        59 -11.1543    139.1125      2.3540   4.9601186731e+01   4.9948244593e+01    0.3594373    0.3380338 -45.43            0    1.179    0.152
        60 -11.7924     58.3992      4.7797   7.1692379605e+01   6.7070474121e+01     1.789873     0.682076  43.66  0.008302478    2.525    0.604
        61  -9.1056    183.3399     14.6847   4.7131989824e+01   3.7380983908e+01    0.3914022     0.238073  20.37  0.001689065    2.471    0.595
        62  -9.8797    217.7707      5.4158   4.0848747915e+01   2.9622655623e+01    0.8462313    0.2302049  60.39  0.003089262    3.236    0.691
        63 -10.6972    213.3753      4.6699   4.1057715720e+01   3.0783108848e+01     0.781095    0.2797087  86.73  0.002576237    3.739    0.733
        64  -9.0381    190.9434      7.5161   4.4121193046e+01   3.6162135523e+01    0.2480109    0.1529025  64.42 0.0009806391    1.487    0.328
        65  -8.6651    189.4782      4.4781   4.3418028411e+01   3.6838579282e+01    0.2216396    0.1474061 -62.47  0.001049738    1.547    0.354
        66  -9.9694    181.9456      5.2852   4.4515361577e+01   3.8699714693e+01    0.4928497    0.3627807  89.54  0.002407082    1.312    0.238
        67  -8.5701     67.6631      5.3099   6.8555576027e+01   6.5420847681e+01    0.2587393    0.1612374  -8.08  0.001435778    1.580    0.367
        68  -8.8726     71.7813      4.7863   6.6880882565e+01   6.4728808677e+01    0.3316159    0.2382726 -56.41  0.001353311    2.357    0.576
        69 -10.2789     22.7877    137.1921   1.2134804963e+02   4.4035349772e+01    0.2945399     0.238679 -11.54    0.0019307    1.851    0.460
        70  -9.7595    235.5110    249.3833   9.3015043350e+01  -9.4604215647e+00    0.3441986    0.1447862  38.41  0.001891904    1.923    0.480
        71  -9.2511    209.8577    250.2125   9.7473896854e+01  -5.7814398886e+00    0.2643288    0.1102989  42.14  0.001380044    1.970    0.492
        72  -8.8978    161.8446    250.3691   1.0589317225e+02   1.6851339713e+00    0.1771127    0.0883483  35.18 0.0009507324    1.760    0.432
        73  -9.7825    151.4387    249.8835   1.0767878083e+02   3.3985778224e+00    0.2270784    0.1549618  58.95  0.001230899    1.487    0.328
        74  -9.1462    124.9991    249.9814   1.1237030422e+02   7.5107441736e+00    0.1708126    0.1329471  20.80  0.001132102    1.726    0.421
        75 -12.0491    100.1488     77.7487   8.6499667679e+01   4.7585893381e+01     1.477463    0.8146344  51.86  0.006171699    2.135    0.532
        76  -9.7383    107.8591    248.3492   1.1521979174e+02   1.0355960321e+01    0.2982465    0.1314168  68.28  0.001188612    4.201    0.762
        77 -13.2422     41.1878    123.6165   1.1480065484e+02   4.5469348299e+01     2.233056     1.474888  68.45  0.003301388    1.669    0.401
        78 -12.8605    113.3615     67.9837   7.9463730666e+01   4.6891121472e+01     2.306937     1.079668  49.70  0.008909891    2.270    0.559
        79 -11.7098     21.6750     55.7887   1.0767628922e+02   6.2704118852e+01       1.2812    0.4533551 -47.08  0.005985508    2.158    0.537
        80 -12.6523     14.4121    104.7139   1.1959922140e+02   5.2237232480e+01     2.135324    0.7153136 -47.89  0.007084043    2.979    0.664
        81  -8.9406     30.7426    247.6520   1.2806849066e+02   2.0609730760e+01    0.1692819    0.1058644 -73.20  0.001249717    1.730    0.422
        82  -9.6278      3.2370    247.0265   1.3224038471e+02   2.3593213529e+01    0.2018339    0.1188855 -70.36  0.001016083    1.950    0.487
        83 -11.2727     33.3243     59.5343   1.0413648842e+02   6.0942015278e+01    0.7147713    0.3665614 -25.30  0.002795913    2.583    0.613
        84  -9.1873     58.5011    246.9941   1.2354761407e+02   1.7409441523e+01    0.1559164    0.0693239  77.06  0.000810602    2.581    0.613
        85 -11.6137     65.3453     75.4830   9.7047294905e+01   5.3815130878e+01     1.033084    0.7527113 -26.48   0.00204242    1.487    0.328
        86  -9.5561     91.6772    245.5664   1.1779193668e+02   1.3168861494e+01    0.1919228    0.1162196  78.32  0.001178318    1.769    0.435
        87 -10.1186    142.1407    243.6769   1.0860863756e+02   5.7794348636e+00     0.283969    0.2110194  28.00  0.001038077    1.463    0.316
        88  -8.7624    122.4744    242.4487   1.1202019063e+02   9.0693884175e+00    0.1189511   0.09340324  51.17 0.0001265363    1.035    0.033
        89  -8.8031    211.0000    240.0353   9.5781125787e+01  -4.7563180743e+00    0.1617488   0.06621546 -36.92 0.0007970615    2.905    0.656
        90 -10.4784     14.7284    237.4963   1.3009423291e+02   2.4084117497e+01    0.2985046    0.1549362  86.36   0.00110626    1.555    0.357
        91  -9.5086     54.6949    237.6586   1.2354845012e+02   1.9503127040e+01    0.2235867    0.1128541  45.73  0.001378656    1.635    0.388
        92 -10.4505    191.3924    235.9811   9.8657410516e+01  -1.1229232976e+00    0.2936116    0.2090104  35.82  0.001424274    1.127    0.112
        93  -9.6622    182.7231    235.6531   1.0017844090e+02   3.3606062646e-01    0.3622124    0.1214017  46.65  0.001514493    2.739    0.635
        94  -9.7277     31.7115    134.6640   1.1881539174e+02   4.3806674734e+01    0.2622287     0.198044  46.94  0.001094461    1.454    0.312
        95  -9.7817     60.9624    134.3129   1.1116816479e+02   4.0624202300e+01       0.1811    0.1669601  77.20 0.0005501623    1.128    0.114
        96  -8.8941      1.5988    133.0223   1.2609773938e+02   4.6617570533e+01    0.1664693    0.1103794 -81.33 0.0004714052    1.128    0.113
        97  -8.6586     87.6455    132.6675   1.0380226804e+02   3.7179232401e+01    0.1445248    0.1107574 -25.61 0.0007044916    1.787    0.440
        98  -9.7177     72.9558    129.6423   1.0716356008e+02   4.0118618977e+01    0.2827173    0.1834302 -58.28 0.0004050655    1.397    0.284
        99  -9.6848     61.8252    124.1441   1.0921151688e+02   4.2944187760e+01    0.3360946    0.1886745  36.19  0.001477831    1.976    0.494
       100 -10.5189     60.2895    120.3566   1.0895763650e+02   4.4047376159e+01    0.6216652    0.4012185  -8.13  0.002737511    2.975    0.664
       101 -10.3198     65.7277    130.9861   1.0934653517e+02   4.0794783325e+01    0.2934745    0.2879167   5.48  0.000838882    1.260    0.206
       102 -10.3176     66.8099    125.0254   1.0799544141e+02   4.2075719094e+01    0.4289545    0.2566301 -50.64  0.002111701    1.612    0.380
       103 -10.3220     68.5292    120.9635   1.0675766146e+02   4.2814354107e+01    0.5984228    0.2333556 -56.81  0.002406443    2.218    0.549
       104  -9.4820     79.9466    129.0130   1.0515829741e+02   3.9244008661e+01    0.2060917    0.1829832 -76.49 0.0003082136    1.012    0.012
       105  -8.4640     81.2315    124.7948   1.0398328013e+02   4.0055189594e+01    0.1896726    0.1631795 -35.35  0.001050715    1.337    0.252
       106  -9.2324     75.0907    124.9947   1.0571003351e+02   4.0922876981e+01    0.2428304    0.1935338  68.65 0.0007776492    1.330    0.248
       107 -10.4942     91.2546    121.2920   1.0049638972e+02   3.9290796734e+01    0.4611833    0.3952969 -43.87   0.00198218    1.214    0.177
       108  -8.8258     77.3302    120.2468   1.0414864761e+02   4.1728542887e+01    0.2350365    0.1762938  21.66 0.0007971058    1.698    0.411
       109  -9.5438    105.6535    118.1492   9.5842276620e+01   3.7509894259e+01    0.4527866    0.3085927  88.42  0.001921525    2.146    0.534
       110  -9.6537     98.8688    113.3230   9.6574675440e+01   3.9860215840e+01    0.4054718    0.3470175  79.70  0.001957024    1.276    0.216
       111 -12.0830     81.7349     75.1755   9.1491540587e+01   5.1399645717e+01    0.4512869    0.3358279  48.65 0.0002673155    1.544    0.352
       112  -9.0194    219.4017    231.0916   9.2923066316e+01  -4.9774675706e+00    0.2035576    0.1794496  67.63 0.0009826091    1.781    0.439
       113 -11.8522     24.2348     68.3106   1.0981184135e+02   5.9811703665e+01     0.756434    0.3251094 -34.54  0.003137873    2.763    0.638
       114  -8.4423    142.6512    114.6755   8.5344566958e+01   3.0755475613e+01    0.1619034    0.1263406   2.52 0.0007049202    1.749    0.428
       115  -9.8844    107.8404    109.5054   9.3144604947e+01   3.9100427951e+01    0.7257619    0.2221753 -50.27  0.002268256    3.126    0.680
       116  -8.8687    104.2681    109.0012   9.4012408547e+01   3.9885064200e+01    0.2107827    0.1867516 -56.83 0.0004952063    1.068    0.064
       117  -8.5895     82.0172    114.4789   1.0160531257e+02   4.2390244682e+01    0.1966247    0.1305836   3.05 0.0008098062    2.733    0.634
       118  -9.6948     60.5803    111.2615   1.0714428400e+02   4.6184547013e+01    0.4872167     0.230433 -48.83  0.001423197    1.997    0.499
       119  -9.3463     74.7277    107.2187   1.0211542504e+02   4.5210896311e+01    0.2831729     0.241595   0.49 0.0009839904    1.475    0.322
       120 -11.0490     69.2041    105.6368   1.0340793372e+02   4.6373880452e+01    0.8895463    0.3709969 -38.05  0.002986333    3.708    0.730
       121 -10.7620     77.0486    101.8077   1.0017051079e+02   4.6139438658e+01    0.5506307    0.3384197  33.52  0.001686593    1.847    0.459
       122  -9.7911    131.9355    110.8309   8.7044949921e+01   3.3927585620e+01    0.5786307    0.3828216  47.22  0.002561433    1.544    0.352
       123  -9.4679    136.3665    106.9293   8.4879663212e+01   3.3820032437e+01    0.3875294    0.2275428  51.23 0.0004820107    1.782    0.439
       124  -9.7422    130.4210    104.7529   8.5822920759e+01   3.5587387099e+01    0.2725657    0.2394282  35.13 0.0002797966    1.201    0.167
       125 -10.0470    133.5211    102.4861   8.4402516715e+01   3.5406113998e+01    0.4372916    0.2802107 -49.23  0.001060593    1.553    0.356
       126  -9.1277     90.8988    112.8191   9.8702066068e+01   4.1350657144e+01    0.2215877    0.2079372 -80.11  0.001255397    1.048    0.046
       127  -9.2723     54.9474    113.1033   1.0914403806e+02   4.6440378905e+01    0.2878668    0.1715044  52.65 0.0009591503    1.947    0.486
       128  -7.9953    211.4915    109.4730   6.9242884578e+01   1.5822229639e+01    0.1511727    0.1431382 -17.93 0.0004478748    1.030    0.029
       129  -9.8271    149.1729    107.2167   8.1782548920e+01   3.0884928762e+01    0.5290469    0.2493859 -39.16  0.001918953    2.168    0.539
       130  -9.5485    113.8601    107.3460   9.0936350343e+01   3.8429956576e+01    0.3009612    0.2188496 -43.40 0.0008211195    1.349    0.258
       131 -11.1862     47.5866    105.2330   1.0983266768e+02   4.9157630934e+01    0.6596735     0.505056   0.34  0.001747038    1.787    0.440
       132  -9.6666     55.8884     96.0398   1.0537183499e+02   5.0366264780e+01    0.2845183    0.2122676  12.17 0.0009793015    1.732    0.423
       133 -10.6962     48.7309     98.1338   1.0806926333e+02   5.0706444681e+01    0.6746019    0.3126414  38.03   0.00312553    2.424    0.587
       134 -11.4159     50.9720     93.0837   1.0627841726e+02   5.1635038374e+01    0.7159873    0.3294613 -61.98 0.0004841347    1.930    0.482
       135 -11.4684     57.0711     83.6148   1.0203531456e+02   5.3087149132e+01    0.5061018    0.4536242  -5.61  0.001149227    1.265    0.209
       136 -11.1136    142.0277    101.9072   8.2086401813e+01   3.3633517821e+01    0.4858148    0.3587008  26.79  0.001238218    1.629    0.386
       137  -9.2719    171.2243    102.4993   7.5423926399e+01   2.6665977632e+01    0.4032565    0.2669247  28.22  0.001383238    1.945    0.486
       138  -8.5684    105.5091    102.9491   9.2116206937e+01   4.1038914296e+01    0.2297952    0.1423261 -49.06 0.0005896016    1.528    0.346
       139  -8.9962     96.1490    103.1838   9.4857509924e+01   4.2694151188e+01    0.2104903    0.1911007 -27.32 0.0005100432    1.182    0.154
       140  -9.1763     62.8699    102.5232   1.0463762782e+02   4.7963762713e+01    0.2337861    0.1840421 -82.24  0.001254322    1.338    0.253
       141  -8.8659    152.0549    101.5680   7.9546753370e+01   3.1398721820e+01    0.2672088    0.2100143 -53.00 0.0005663284    1.308    0.236
       142 -10.5350    157.4624     95.6404   7.6612196295e+01   3.1329390334e+01    0.7481793    0.5325558  43.81  0.003359071    1.441    0.306
       143  -9.4347    151.3809     96.2850   7.8226336302e+01   3.2641125645e+01    0.3908031    0.2849347  66.34  0.001727367    1.598    0.374
       144  -8.8502     39.9700    102.5145   1.1162985674e+02   5.0598081454e+01    0.1680498    0.1300972  32.71  0.000485277    1.538    0.350
       145 -10.2955      4.7905     99.4548   1.2170136399e+02   5.4061704390e+01    0.4626886    0.1846138 -57.87  0.002394341    1.910    0.476
       146  -9.2826      2.7921     94.9210   1.2170387831e+02   5.5206776923e+01    0.4137671   0.08370642 -59.74   0.00169842    2.931    0.659
       147  -9.1779    110.9235    100.6315   8.9976488422e+01   4.0520739093e+01    0.2390865    0.1938756 -39.30 0.0003862212    1.224    0.183
       148  -8.7223     58.0911    101.5731   1.0589399084e+02   4.8796213293e+01    0.1745871     0.136295  31.34  0.000987357    1.491    0.329
       149 -10.2515     88.1359     97.1521   9.5670979506e+01   4.5457856540e+01     0.528685    0.3282917 -55.40  0.001731203    1.522    0.343
       150  -9.5683     82.6189     84.8666   9.4048129891e+01   4.9142975613e+01    0.5269161    0.3303601 -12.78  0.002090186    2.844    0.648
       151 -10.2669     74.9719     89.8026   9.7811443045e+01   4.9226126110e+01     0.794508    0.2805678  40.78  0.002931002    3.095    0.677
       152  -9.3467     82.3227     89.6187   9.5453300245e+01   4.8126151735e+01    0.3954843    0.2345979  52.46  0.001064339    2.079    0.519
       153 -10.6266     87.6583     89.7226   9.3829891466e+01   4.7224321628e+01    0.6173462    0.3838649 -42.32  0.001974784    1.535    0.348
       154  -9.6490     92.0180     88.5075   9.2157148794e+01   4.6746630601e+01    0.3383585    0.2479165  81.66  0.001177153    2.018    0.504
       155  -9.4446     67.0359     98.4646   1.0244140954e+02   4.8360880513e+01    0.2937289    0.2263722   8.08 0.0008822716    1.696    0.411
       156  -9.2872     63.6640     98.3175   1.0345252046e+02   4.8848607828e+01    0.3220998    0.2127503  57.50  0.001600932    1.888    0.470
       157 -10.0868     44.4955     93.1195   1.0836237674e+02   5.2337775388e+01     0.264753    0.2215499  88.01 0.0003113509    1.296    0.229
       158 -10.0941     39.0303     97.1285   1.1090410807e+02   5.1956606922e+01    0.3976185    0.2497382 -30.25  0.001744895    2.020    0.505
       159 -10.8015     41.7062     79.4428   1.0622286772e+02   5.5767089561e+01    0.7582308    0.5814307 -20.00  0.004163106    1.508    0.337
       160 -10.2044     36.7396     75.8573   1.0709712560e+02   5.7061731631e+01    0.2414367    0.1838836 -49.13 0.0004245908    1.098    0.089
       161  -9.9146     39.5273     92.4695   1.0982218255e+02   5.2995176182e+01    0.2383901    0.1717318 -44.66 0.0007148116    1.320    0.242
       162 -11.1312     34.4974     91.1938   1.1118574076e+02   5.3769503413e+01    0.6594721    0.3509921   7.44   0.00225534    3.022    0.669
       163 -10.7107    115.5955     95.1290   8.7156151113e+01   4.0806065590e+01    0.6824895    0.3853999  50.18  0.002822228    1.914    0.478
       164 -11.4767    123.3194     92.5066   8.4288279650e+01   3.9761598423e+01    0.7253173    0.4425513  47.08  0.003110272    1.696    0.411
       165 -11.2773    119.7208     86.6684   8.3558763649e+01   4.1765756398e+01      0.67211    0.3464278  54.41  0.001317213    2.273    0.560
       166  -9.0712     34.1303     99.0519   1.1278774489e+02   5.1971272857e+01    0.2194756    0.1905147 -21.63   0.00143253    1.392    0.282
       167  -9.3624    226.8965     95.5298   6.3078623822e+01   1.4710682921e+01    0.2924937     0.210935  60.52 0.0008060816    1.530    0.347
       168  -9.5930    140.1472     95.4377   8.0738715319e+01   3.5420628044e+01     0.392276    0.2892578  46.12 0.0007886781    1.382    0.276
       169  -8.5142    189.0885     94.8217   6.9614509682e+01   2.3802238672e+01    0.2098502    0.1838138   8.66 0.0004044963    1.289    0.224
       170 -10.2500    103.9721     92.6376   8.9760677978e+01   4.3645451972e+01     0.459411        0.303  37.64  0.001753751    1.638    0.389
       171 -10.8544    107.0133     86.3731   8.7072238856e+01   4.4425568075e+01    0.5865585    0.3719464 -25.19   0.00144503    2.041    0.510
       172  -9.0207    213.9554     89.9487   6.3769019379e+01   1.8662709210e+01    0.2504215    0.1807596 -67.26  0.001139683    1.707    0.414
       173  -8.8884    187.7436     89.7987   6.8495027924e+01   2.5054603413e+01    0.2220885    0.2106494 -11.09 0.0005818071    1.094    0.086
       174  -7.9731    194.3261     89.6814   6.7199128484e+01   2.3456798599e+01    0.1616157    0.1200388 -70.45 0.0007045926    1.678    0.404
       175 -10.1008    164.1287     75.0647   6.9072718583e+01   3.3631017819e+01    0.5259123     0.451091  73.76  0.002605183    1.254    0.202
       176  -8.7097     20.5772    232.3091   1.2890994196e+02   2.4397513507e+01    0.1279165    0.0808995 -78.63  0.000930127    1.522    0.343
       177 -10.3090    145.9023     85.7809   7.6490251904e+01   3.6049169216e+01    0.9094322    0.5317613 -24.96  0.003471194    2.180    0.541
       178 -10.6155    143.5728     58.2213   6.8344382924e+01   4.1696734319e+01    0.2661327    0.2606958  56.21 0.0002880642    1.036    0.035
       179 -10.4702    153.4148     44.5054   6.1608063651e+01   4.1394829284e+01    0.8601993    0.6216083 -66.10  0.003967652    1.719    0.418
       180  -9.4336     12.7675    231.9339   1.3015043482e+02   2.5270404531e+01    0.2110067    0.1054556  55.22  0.001446724    1.489    0.328
       181  -8.6169    226.9296    231.5149   9.1680828312e+01  -6.1963465118e+00    0.1786398   0.09642256  36.45  0.000532532    1.537    0.349
       182  -9.0627    135.6806    230.5170   1.0820643485e+02   8.8834072551e+00    0.1923779    0.1147484 -55.43  0.001088936    2.025    0.506
       183 -12.5884    145.7637     74.7656   7.3158860414e+01   3.8210603619e+01     1.456279    0.8875662  74.89  0.005372089    2.592    0.614
       184 -11.3377    150.4958     67.6209   6.9795688082e+01   3.8361722638e+01     1.302249    0.5451356 -34.10  0.004551573    2.441    0.590
       185 -11.9831    148.8527     53.4369   6.5555454438e+01   4.1173885477e+01     1.768983    0.4615233  52.43  0.001843616    3.487    0.713
       186 -10.7400    140.6817     52.0543   6.6944944138e+01   4.3422693381e+01    0.8461155    0.4403095  62.76  0.003286776    2.189    0.543
       187 -10.1851    144.7022     48.8891   6.4951272589e+01   4.2928959925e+01     0.377769    0.2532961  54.69 0.0007853098    1.458    0.314
       188 -10.8592    166.1803     68.4205   6.6614861156e+01   3.4291222707e+01    0.6062583    0.3676786  70.91  0.002412226    2.053    0.513
       189 -11.5219    165.0941     59.3074   6.4012357357e+01   3.6103982483e+01     1.055079    0.4975469 -30.13  0.003927016    2.239    0.553
       190 -10.2087    160.8930     50.6272   6.2098661359e+01   3.8559398750e+01    0.4770072    0.3622738  63.28  0.001507477    1.320    0.243
       191 -10.7259    142.3299     43.1727   6.3519107849e+01   4.4385691633e+01     0.677617    0.4547809 -13.70  0.002352403    1.763    0.433
       192 -10.4107    136.2116     41.7321   6.4397120483e+01   4.6108482857e+01    0.4287077     0.404744 -79.12  0.001292883    1.167    0.143
       193  -9.1763    202.2408    228.9999   9.5644281116e+01  -1.9627997871e+00    0.2006902    0.1439794  35.24 0.0003372585    1.149    0.130
       194  -8.7239     94.0513     97.4588   9.3987863471e+01   4.4374913735e+01    0.2036195    0.1474993  39.21 0.0003975811    1.488    0.328
       195  -8.6140     52.4760     81.5434   1.0305698724e+02   5.4111613091e+01    0.3096442     0.195479 -47.48 0.0008166135    1.369    0.270
       196  -9.8608      3.0571     83.7262   1.2004941420e+02   5.7722182712e+01    0.4705638    0.2394724 -46.91  0.002392188    1.773    0.436
       197 -10.3178      6.7113     86.2699   1.1926461390e+02   5.6949529490e+01    0.5930788    0.2220327 -35.81  0.002549017    3.613    0.723
       198  -8.4670      8.0000     82.9721   1.1832880594e+02   5.7620617353e+01    0.2418877    0.1190674 -66.94 0.0009343082    1.528    0.345
       199  -9.7579      5.6035     77.7570   1.1826544181e+02   5.8924377848e+01    0.2799121    0.1889501 -86.72  0.001768694    1.479    0.324
       200 -10.1902      3.5310     73.4642   1.1824480605e+02   5.9986939690e+01    0.5118854    0.1760214 -42.12  0.002372643    2.810    0.644
       201  -8.3545    101.9773     88.0000   8.9023382238e+01   4.5043844507e+01    0.2363479   0.08628771  42.25 0.0007970324    2.905    0.656
       202  -9.0994    223.8354     84.8729   6.0842776160e+01   1.7186182141e+01    0.2810679     0.180278  72.70 0.0009900474    1.933    0.483
       203  -8.7324    139.5174     83.5034   7.7383999906e+01   3.8001011407e+01    0.2454854    0.1996602 -87.84 0.0009791401    1.543    0.352
       204  -8.8596    134.3058     83.3583   7.8665934974e+01   3.9232082252e+01     0.298068     0.150266  43.36  0.001014489    2.066    0.516
       205  -9.9761    134.0387     80.1494   7.7751661462e+01   3.9934002235e+01    0.5206791    0.3439163  65.84   0.00190553    1.910    0.476
       206  -8.8093     75.9707     83.7324   9.5853595692e+01   5.0443705596e+01    0.2498382    0.1799441 -66.98  0.001254117    1.543    0.352
       207 -10.1419    160.6871     81.6092   7.1793182336e+01   3.3278103677e+01    0.5057923    0.3478965  55.81  0.001620608    1.488    0.328
       208  -8.7560    123.3622     80.1169   8.0568343372e+01   4.2334973417e+01    0.2387295    0.1811109 -21.87  0.000677796    1.483    0.326
       209  -9.8669    190.5130     76.8706   6.4336297716e+01   2.6662874671e+01    0.4575225    0.2459224  35.20  0.001657435    2.573    0.611
       210  -9.7266    214.8129     76.5227   6.0074984483e+01   2.0706273218e+01    0.4327598    0.3237579 -54.58  0.001877874    1.362    0.266
       211  -9.1532    248.3913     76.2651   5.5183442036e+01   1.2991829077e+01    0.2073704    0.1132384 -42.13  0.000673566    1.618    0.382
       212  -8.8423    131.9904     75.1776   7.6726548138e+01   4.1378593775e+01    0.3249953    0.2147601 -50.35  0.001416135    1.608    0.378
       213  -8.6600    219.2483     74.6093   5.8875311016e+01   1.9946964739e+01    0.2932755    0.1585546 -43.96   0.00106245    1.752    0.429
       214  -8.8266    204.5154     75.4883   6.1480072233e+01   2.3400253684e+01    0.2791251    0.1290014  46.96  0.001032144    2.350    0.575
       215  -9.0366    180.5389     69.0000   6.3927820987e+01   3.0536833127e+01    0.4826435    0.1909136  52.57  0.001508791    2.469    0.595
       216  -9.3126    176.6646     68.3418   6.4478638840e+01   3.1636915260e+01    0.4246738    0.3146816 -85.89  0.001896012    1.707    0.414
       217 -10.0426     83.9878     67.9681   8.8487455279e+01   5.2530521770e+01    0.4986577    0.2899007  29.87  0.002248578    2.013    0.503
       218  -8.1284    221.0020     68.7663   5.7071227519e+01   2.0454412658e+01    0.1736918     0.123575  63.23 0.0008358284    1.479    0.324
       219  -8.7942    204.1310     68.0785   5.9500134089e+01   2.4711576019e+01    0.2217049    0.1965403  20.68 0.0004576264    1.298    0.229
       220  -8.4667    186.9624     66.4598   6.1989701629e+01   2.9321599332e+01    0.2110754    0.1343814 -87.06    0.0004705    2.346    0.574
       221  -8.5942    238.2658     65.5662   5.3862172526e+01   1.6880875685e+01    0.1899458    0.1294559  48.48 0.0009358352    1.660    0.398
       222  -9.2458    138.2448     59.1438   6.9919091581e+01   4.2837186247e+01    0.3277503    0.2053774  48.38 0.0006111817    1.578    0.366
       223 -10.1933    129.2203     61.0632   7.2823248537e+01   4.4641382251e+01    0.6958232    0.3869291  71.89  0.002376479    3.241    0.691
       224 -11.6434     40.9495     50.3123   9.8330651727e+01   6.2088410186e+01     1.615128    0.6032171  17.00  0.005441621    5.412    0.815
       225 -12.8691     13.3520    125.4339   1.2243469393e+02   4.7518118721e+01     1.108579    0.5723733 -64.58 0.0007171886    1.542    0.351
       226  -9.4877    206.9959     60.6983   5.7003275379e+01   2.5160686743e+01    0.3217103    0.2107086 -33.84 0.0008041589    1.484    0.326
       227 -10.8173    194.1562     54.6358   5.7320268099e+01   2.9352008232e+01     1.162545    0.6929345 -37.48   0.00512507    1.620    0.383
       228  -9.3090    201.9632     48.3120   5.4304903129e+01   2.8290697506e+01    0.3072794    0.2495962  21.62 0.0007474583    1.530    0.346
       229  -9.0888    187.0694     61.7492   6.0592945637e+01   3.0060806503e+01    0.3791059    0.2423306 -62.72 0.0006896222    1.937    0.484
       230  -9.8848    172.4992     47.5373   5.8903471447e+01   3.6025445051e+01    0.4576072    0.3905682  71.45    0.0019975    1.170    0.145
       231 -10.3496    177.7992     51.4524   5.9158200228e+01   3.4063024608e+01    0.4794011     0.396933  33.67  0.001260028    1.334    0.250
       232 -11.3110    185.3906     55.7725   5.9123300256e+01   3.1435445842e+01    0.4177607    0.3577387  27.04 0.0005675096    1.328    0.247
       233 -11.1615    183.4706     51.7979   5.8269327495e+01   3.2539881676e+01    0.4633335    0.2867611  52.52 0.0005613639    1.605    0.377
       234  -8.9522    211.9001     59.8921   5.6040532747e+01   2.4060373176e+01    0.2190468    0.2001219  19.00 0.0004075022    1.264    0.209
       235  -9.4271    201.5391     59.8807   5.7629316362e+01   2.6662737224e+01    0.2620235     0.240239 -88.07 0.0005612512    1.091    0.083
       236  -8.2871    203.4964     56.0254   5.6241770392e+01   2.6758441125e+01    0.2138212    0.1454536 -30.24 0.0004104346    1.484    0.326
       237  -9.5670    222.8248     56.1609   5.3494560324e+01   2.1936516569e+01    0.3739553      0.27881  66.90  0.001923349    1.389    0.280
       238  -9.0264    227.0154     53.3387   5.2204787765e+01   2.1337282910e+01    0.1955794    0.1900433  24.33 0.0003664278    1.184    0.156
       239  -9.6596    243.8864     55.7963   5.0745743865e+01   1.7033415796e+01    0.4805028    0.1983147 -38.42  0.001869244    2.070    0.517
       240  -8.4039    158.6749     58.6776   6.5140440390e+01   3.7843683814e+01    0.1608928    0.1189464  21.48 0.0007047604    1.684    0.406
       241  -9.0115    126.7759     51.0196   6.9981072250e+01   4.6925675956e+01    0.2837429    0.2010232  51.37 0.0004229002    1.409    0.290
       242 -10.6887    121.5308     54.5202   7.2587048733e+01   4.7548014736e+01    0.6695967    0.3920599  53.94  0.002904852    1.783    0.439
       243  -8.7239     50.2528    227.4117   1.2359579130e+02   2.1904066500e+01    0.1561598   0.07885132  52.40 0.0006729211    1.556    0.358
       244  -8.5046     13.0615     56.7601   1.1132518339e+02   6.3087567699e+01    0.2388897    0.1505943  22.63  0.001489271    1.961    0.490
       245 -10.0119    233.5405     55.3756   5.1897263023e+01   1.9488283195e+01    0.2889398    0.2748334  56.58  0.001027391    1.177    0.151
       246  -9.4867     42.3352     54.0472   9.8986859073e+01   6.1184943727e+01    0.2011951     0.158317  -6.68 0.0006171288    1.370    0.270
       247  -8.8036    224.4506     48.7703   5.1345341973e+01   2.2613648447e+01    0.2832606    0.1219126 -36.93  0.001134591    2.084    0.520
       248  -9.8655    220.2338     43.7811   5.0569281387e+01   2.4345670872e+01    0.5200734      0.20553 -40.62   0.00180363    2.267    0.559
       249 -10.4346    173.9993     57.3864   6.1673240259e+01   3.4124654787e+01    0.4197743    0.2699242 -20.19 0.0005266083    1.820    0.450
       250  -9.8951    206.9675     45.8983   5.2909073693e+01   2.7364158365e+01    0.2987172    0.2363259  80.71 0.0004222708    1.284    0.221
       251  -9.8159    130.5446     40.7284   6.5369739353e+01   4.7630927960e+01    0.8088331    0.2719834 -27.03  0.002562459    3.481    0.713
       252  -8.9964    127.0089     39.7087   6.5855693467e+01   4.8625143869e+01    0.3194728    0.2074758  -7.14  0.001401915    1.955    0.488
       253  -8.3135     22.1820     40.3387   1.0291728413e+02   6.5812755727e+01    0.2506093    0.1888255  79.21  0.001059998    2.296    0.564
       254 -10.0280     16.8844     44.7740   1.0657779156e+02   6.5324913601e+01    0.3541893    0.1685395 -56.84 0.0006903261    1.687    0.407
       255  -9.6515     10.1749     41.9313   1.0864896293e+02   6.6333786395e+01    0.4510734    0.2945636  -7.22  0.002693729    1.763    0.433
       256  -8.7388    136.8537    224.6568   1.0724267906e+02   9.6583058665e+00    0.1617513      0.15184  48.11 0.0006713026    1.165    0.142
       257  -9.5057     12.0108     33.9993   1.0541725393e+02   6.7782115327e+01    0.1767318    0.1469885 -11.72  0.001029183    1.275    0.216
       258  -8.7883    111.9865    225.4819   1.1208254966e+02   1.3547939645e+01    0.1871678   0.07917855  57.21 0.0008103186    2.572    0.611
       259 -11.0738      4.5573     26.6473   1.0652285490e+02   6.9634324671e+01    0.3718737    0.2339485 -27.01  0.002496413    1.425    0.298
       260 -10.4602    226.8582     28.9505   4.5946377657e+01   2.4687214144e+01    0.6190056    0.3886691 -48.84  0.002845432    1.467    0.318
       261  -8.5890     53.3287    224.2942   1.2282370112e+02   2.2100933141e+01    0.0924888    0.0894365 -59.51 0.0005555979    1.629    0.386
       262  -9.0398     41.1777    221.0348   1.2474904573e+02   2.4185320420e+01     0.162132    0.1130002 -54.59  0.001072272    2.050    0.512
       263  -9.1102    201.3847     20.3622   4.6529446673e+01   3.2089661171e+01    0.2683283    0.1828482  33.65 0.0007912728    1.893    0.472
       264  -8.6826    224.4924    215.4944   8.9437209795e+01  -3.8147602526e+00    0.1236459    0.1026027  19.73 0.0008099839    1.056    0.053
       265  -9.3560     26.8617    212.1312   1.2670544352e+02   2.7498688778e+01    0.1839479    0.1125277  69.66  0.001242144    1.254    0.203
       266  -9.2787     13.5062    211.5637   1.2901571079e+02   2.8980569978e+01    0.2213769   0.08463356 -81.14  0.001222295    2.214    0.548
       267  -9.6621    244.2053    204.5148   8.4047753768e+01  -5.5586336150e+00    0.1979776    0.1395325   4.46  0.000527287    1.319    0.242
       268  -9.7274    233.8634    200.1003   8.5027765384e+01  -3.3064858100e+00    0.2319365    0.1619445 -18.87  0.001369171    1.411    0.291
       269  -8.4519    169.5064    200.4850   9.7247650285e+01   8.0377659898e+00    0.1346586    0.1183281  43.88 0.0007440918    1.053    0.050
       270  -9.6082    179.1764     44.5490   5.6808735895e+01   3.4722926865e+01     0.271654    0.2455601 -22.41 0.0006415462    1.174    0.148
       271  -8.6284    249.0383     44.4663   4.7427245868e+01   1.7453335805e+01    0.1838696    0.1019619  42.76 0.0008090902    2.494    0.599
       272  -7.9607    227.6457     43.7482   4.9648591311e+01   2.2543052399e+01    0.1364422    0.1053144  37.79 0.0006592486    1.601    0.375
       273  -8.3082    167.6662     41.7264   5.7947853479e+01   3.8121711481e+01    0.1539652    0.1105141  33.23  0.000174546    1.598    0.374
       274  -9.1778    191.2268     39.8519   5.3474399029e+01   3.2246291522e+01    0.2798417    0.2139889  22.64 0.0006745026    1.659    0.397
       275 -11.0202    192.7464     32.4817   5.1100551334e+01   3.2831419857e+01    0.4202892    0.3745828  12.26 0.0004571477    1.322    0.244
       276 -10.5389    181.3110     36.7645   5.4084464656e+01   3.5245348088e+01    0.6727958    0.4937305 -10.40  0.003253719    1.645    0.392
       277  -8.8989    174.2518     38.8711   5.5891068140e+01   3.6803042812e+01      0.31253    0.1645517  41.22  0.001230642    2.212    0.548
       278  -9.3602    198.0392     37.2703   5.1736091012e+01   3.0835254235e+01    0.2171136    0.1882458  47.29 0.0005840287    1.240    0.194
       279  -9.1602    124.4419     35.7163   6.5011762197e+01   4.9805305003e+01    0.2622294    0.2067835  15.82  0.001346468    1.368    0.269
       280  -9.2048     27.3428    193.7243   1.2538181141e+02   3.1130254927e+01     0.203865    0.1280246 -73.07   0.00132492    1.466    0.318
       281  -8.0883    140.4388     23.4287   5.6947376268e+01   4.7480042554e+01    0.1438821    0.1308061  40.85 0.0001676334    1.046    0.044
       282 -10.5208    135.9061     33.9831   6.1699283221e+01   4.7275540032e+01    0.5875052    0.3635444   9.46  0.002420149    2.356    0.576
       283  -8.9089    139.8031     26.9188   5.8327136014e+01   4.7219123024e+01    0.2303954    0.1876573  -9.66 0.0003220438    1.321    0.243
       284 -10.4750     36.6717     27.1140   9.1532229204e+01   6.6873567946e+01    0.2107668    0.1711122  -3.66 0.0002927232    1.172    0.147
       285  -9.5625     32.9883    191.6867   1.2413513302e+02   3.0949713310e+01    0.2188224    0.1094117 -53.17  0.001127033    2.642    0.621
       286  -9.5582     11.1053    192.2703   1.2835474849e+02   3.3031874926e+01    0.2303002     0.143029  38.87  0.001561219    1.775    0.437
       287 -10.1642     32.1781     33.3342   9.6025570849e+01   6.6246578948e+01    0.2927567    0.1519884 -41.78  0.001010191    1.552    0.356
       288  -8.4439    215.8138    189.4068   8.6277671400e+01   1.3436664488e+00    0.1911328    0.1115823  31.00  0.000940021    1.654    0.395
       289 -10.0772     23.2366     33.7559   1.0019822626e+02   6.6990069006e+01    0.2133503    0.1888987  -9.03 0.0005496261    1.230    0.187
       290  -9.1755      1.5209    188.0954   1.2989369978e+02   3.4734635205e+01    0.1676678   0.08201757 -83.22  0.001031989    1.590    0.371
       291  -8.7109    245.1992    187.4093   8.0647109122e+01  -3.4593708297e+00    0.1632867    0.1163879  44.74 0.0006952962    1.579    0.366
       292  -9.9244     11.6572    184.9131   1.2779602747e+02   3.4494851295e+01    0.2368096    0.1244437 -64.51  0.001024111    1.879    0.468
       293  -8.7780     18.1598    182.2467   1.2635023467e+02   3.4445478360e+01    0.1656767   0.09925085  69.49 0.0005291051    1.383    0.277
       294 -10.4179      1.6680    178.6928   1.2933714094e+02   3.6658819229e+01    0.3737135     0.122874 -83.57  0.001819389    2.510    0.602
       295  -8.6774     37.6702    179.4259   1.2216498682e+02   3.3040774220e+01    0.2190068   0.09695562  42.15  0.001140772    2.135    0.532
       296  -8.9210     80.0258    176.4876   1.1267853792e+02   2.8239252655e+01     0.250556    0.1695691 -53.11  0.001365922    1.653    0.395
       297 -10.2453    246.1687     33.3378   4.5057919287e+01   1.9579531574e+01    0.5547893     0.262881  62.56  0.001753883    2.171    0.539
       298  -8.5585      7.6217    174.7800   1.2793002624e+02   3.6980904902e+01    0.1621294    0.0807501  88.75 0.0009404396    1.622    0.384
       299  -7.9079     65.6532    173.2799   1.1547741281e+02   3.0972509713e+01    0.1362578   0.08326475  68.37 0.0007010894    1.639    0.390
       300  -8.9050    245.5080    170.5392   7.7215833802e+01  -1.1311276675e+00    0.1315577    0.1143307  -1.96 0.0008089133    1.045    0.043
       301 -10.7569     32.9188    165.3415   1.2187540156e+02   3.6648981302e+01     0.284424    0.2186692  52.47 0.0007875374    1.332    0.249
       302  -9.9406     18.7703    165.4686   1.2495092852e+02   3.8003886825e+01    0.2661927    0.1581945  68.16  0.001216416    1.496    0.331
       303  -9.2293    242.3167     24.8585   4.3397863074e+01   2.1533729080e+01    0.3292282    0.1663177 -32.97   0.00125121    1.849    0.459
       304  -9.4801     10.2790    164.3459   1.2666042181e+02   3.8998196696e+01    0.1837807    0.1517073  73.51 0.0005510374    1.187    0.157
       305  -8.8192    176.7374     14.6248   4.7991085530e+01   3.9104259650e+01    0.2454785    0.1232654  68.52  0.001015891    1.845    0.458
       306  -9.8366    172.5882     31.5516   5.3875118953e+01   3.8206359629e+01    0.5141348     0.293722  32.34  0.002079138    2.354    0.575
       307 -10.4002    168.2602     24.0884   5.2206489088e+01   4.0253530750e+01    0.6484188    0.2224046  50.38  0.002268814    2.790    0.642
       308 -10.3469      2.1609    160.2479   1.2807146529e+02   4.0544903460e+01    0.4839467    0.1697676 -82.92  0.002357916    2.329    0.571
       309  -8.6534    188.5580     19.9256   4.8001904322e+01   3.5444922147e+01     0.274677     0.202404  40.80 0.0007777717    1.524    0.344
       310 -11.0891    179.8605     27.3613   5.1441952659e+01   3.6830229819e+01    0.7403768     0.408125  58.81   0.00329533    1.692    0.409
       311 -10.7138     18.7303    158.7447   1.2439527478e+02   3.9495503969e+01    0.3718577    0.1817496  37.09  0.001087029    2.183    0.542
       312  -8.6484    198.5562     32.0472   5.0176243124e+01   3.1386926997e+01    0.2097849    0.1392942 -30.99 0.0004567031    1.534    0.348
       313  -8.3410     36.7039     32.3375   9.3640685953e+01   6.5956384208e+01     0.109378   0.09575517 -70.05 0.0007030551    1.653    0.395
       314  -9.3346    146.9667     29.0695   5.7645280407e+01   4.5145432409e+01    0.3504625     0.288645  82.37   0.00136579    1.319    0.242
       315  -9.7264    147.9700     23.8829   5.5648855859e+01   4.5521464919e+01    0.3415974    0.2191018  55.91 0.0009954482    1.437    0.304
       316 -10.0872    249.1564     25.5379   4.2937590181e+01   1.9886892696e+01    0.3329603    0.2759299  37.45   0.00182787    1.591    0.371
       317  -8.8647      9.3382    158.2784   1.2640283636e+02   4.0405359563e+01    0.2074979    0.1115037 -33.04 0.0009660557    4.080    0.755
       318  -9.8213      4.7137    136.3876   1.2564883301e+02   4.5644824458e+01    0.3712858    0.2512155 -26.59  0.001868299    2.319    0.569
       319 -10.8628     14.0584    151.7455   1.2482955154e+02   4.1465629276e+01    0.4272303     0.295527 -85.17  0.002841677    1.111    0.100
       320  -9.5929      8.0084    151.4108   1.2615416709e+02   4.2031563688e+01    0.4245825    0.1206224 -68.58  0.001931359    2.586    0.613
       321  -9.1073    236.7240    135.5649   7.1106561649e+01   5.9284854391e+00    0.2642986    0.1327624  43.82  0.001143233    2.088    0.521
       322  -9.2405    198.8582     16.4201   4.5727163189e+01   3.3185237759e+01    0.2458041    0.1612384  64.46  0.001236652    1.439    0.305
       323  -8.8140     85.7173     15.9835   6.7634417788e+01   6.0807686759e+01    0.2629921    0.1842671  71.03   0.00133732    2.158    0.537
       324  -9.1994     67.3855     13.0528   7.2439540968e+01   6.4569281545e+01    0.2371641    0.1743491  50.62  0.001337062    1.633    0.388
       325  -9.9679      5.4625    147.4850   1.2640802281e+02   4.3101070209e+01    0.2038312    0.1788284  35.30  0.001027875    1.508    0.337
       326 -11.0821      6.0192    142.7309   1.2588991498e+02   4.4122705536e+01    0.4353842    0.2835149 -72.50  0.001142597    1.248    0.199
       327 -10.1929     35.8895    151.8054   1.1980315161e+02   3.9408784215e+01    0.3088949    0.1938016  60.20 0.0004310551    1.560    0.359
       328 -10.4778     30.8892    151.3038   1.2092246023e+02   4.0030469285e+01    0.2675442    0.1765925 -65.71  0.000934303    1.362    0.266
       329 -11.4127     17.9690    145.6869   1.2337940154e+02   4.2502945406e+01    0.6734857    0.3246715  78.03  0.002722255    2.186    0.542
       330 -10.1925     23.2060    146.6110   1.2224058582e+02   4.1831749678e+01    0.2463957    0.1706292  85.90  0.001267247    1.213    0.175
       331  -9.4646     66.2687    148.3026   1.1197913397e+02   3.6614160449e+01    0.2796324    0.2289034  10.80  0.001601189    1.742    0.426
       332 -11.2425     30.1615    142.8898   1.2017572043e+02   4.2039427042e+01    0.5174231    0.3510689 -47.82  0.002793481    1.726    0.421
       333  -9.9196     46.4640    144.5242   1.1636806726e+02   3.9953823334e+01    0.4320438    0.2920564 -32.08  0.002278655    2.267    0.559
       334 -10.6012     40.4325    146.5045   1.1809953396e+02   4.0155705765e+01    0.3658743    0.2528702  40.15  0.001310931    1.599    0.374
       335 -10.6961     38.0334    143.2640   1.1829191770e+02   4.1164207422e+01    0.3764183    0.2813906 -22.48  0.001832174    2.093    0.522
       336 -10.0312     70.5167    142.6199   1.1002989030e+02   3.7372627418e+01    0.2600955     0.214644  79.64 0.0007406218    1.150    0.131
       337 -10.4325     80.0220    141.3042   1.0737607971e+02   3.6310595014e+01    0.2833053    0.1996075 -65.25   0.00144389    1.306    0.234
       338  -8.8048     23.4276    132.7708   1.2069043536e+02   4.5004584908e+01    0.3073841   0.09545457 -70.20  0.001104658    2.519    0.603
       339  -9.6398     19.2963    139.7006   1.2246827635e+02   4.3758048354e+01    0.1938851    0.1340881  79.18 0.0004014193    1.291    0.225
