#   1 NUMBER                 Running object number                                     
#   2 MAG_AUTO               Kron-like elliptical aperture magnitude                    [mag]
#   3 X_IMAGE                Object position along x                                    [pixel]
#   4 Y_IMAGE                Object position along y                                    [pixel]
#   5 X_WORLD                Barycenter position along world x axis                     [deg]
#   6 Y_WORLD                Barycenter position along world y axis                     [deg]
#   7 A_WORLD                Profile RMS along major axis (world units)                 [deg]
#   8 B_WORLD                Profile RMS along minor axis (world units)                 [deg]
#   9 THETA_WORLD            Position angle (CCW/world-x)                               [deg]
#  10 FWHM_WORLD             FWHM assuming a gaussian core                              [deg]
#  11 ELONGATION             A_IMAGE/B_IMAGE                                           
#  12 ELLIPTICITY            1 - B_IMAGE/A_IMAGE                                       
         1 -12.2457     43.5478     45.2692   5.6578071903e+01   6.6948387250e+01    0.8313432    0.6909402 -86.14 0.0006458274    1.486    0.327
         2 -12.2573    119.7263     38.6322   2.7386001467e+01   5.0057056872e+01    0.7883853    0.4159499 -46.31  0.002549403    1.826    0.452
         3 -10.7483     63.9060     34.5183   4.1217581381e+01   6.4746315599e+01     1.079477    0.5587705  37.50  0.004252731    2.356    0.575
         4 -11.8197     57.3077     31.0579   4.2185139616e+01   6.6828867074e+01    0.8738384    0.4911841 -26.95  0.003068406    2.192    0.544
         5 -12.4236    104.8272     13.3290   1.9803769811e+01   5.7066799791e+01    0.6301166    0.4790897 -65.70  0.002001225    1.267    0.211
         6 -13.1295    105.3715     20.4259   2.2773512354e+01   5.6162849733e+01    0.3805038    0.3200175 -79.32 0.0004818241    1.106    0.096
         7 -12.5384    113.7645     25.4047   2.3348243406e+01   5.3364411871e+01    0.8846702    0.4210872  55.13   0.00244741    2.088    0.521
         8 -10.9938    182.9686     25.3369   1.5254807768e+01   3.6283723128e+01    0.3443319    0.2558574 -77.98  0.001599304    1.241    0.194
         9 -10.9150    122.4571      5.2657   1.4214952367e+01   5.3174058058e+01    0.3628685    0.2230433 -37.99 0.0002573516    1.564    0.360
        10 -10.0321    120.3924     16.0681   1.8639955543e+01   5.2678885170e+01    0.4295375    0.2546761  -2.45  0.001868221    2.567    0.610
        11 -10.1606    121.1736     11.5740   1.6795178343e+01   5.2928160198e+01    0.9121535    0.1711247  71.20  0.002707268    4.242    0.764
        12 -11.2448    136.4545     22.3804   1.8893960714e+01   4.7821906530e+01    0.6153496    0.4357366  89.28  0.002516639    1.323    0.244
        13 -11.3105    127.6666     16.4378   1.7840746583e+01   5.0741156804e+01    0.5036346    0.3997211  -0.13   0.00158671    1.656    0.396
        14 -11.3987    135.1162     14.8388   1.6398801861e+01   4.8984652073e+01    0.5732351    0.3030824  62.93   0.00267276    1.859    0.462
        15 -11.1292      2.2451      3.3498   6.4542797543e+01   8.1436690670e+01    0.6226044    0.2672014 -40.89  0.002889111    2.316    0.568
        16 -11.0653      6.3386     10.7855   6.5625981552e+01   7.9567019638e+01    0.5857266    0.5407884 -67.18  0.003763551    1.319    0.242
        17 -10.2031     12.8195      2.1630   5.0321004419e+01   8.0147339750e+01    0.3229769    0.2178539  33.66  0.001299001    1.384    0.277
        18 -11.8764     26.3749     28.4625   5.8827827782e+01   7.3342957247e+01    0.5844194    0.4934135  -8.49  0.003160847    1.238    0.192
        19 -10.5046     12.7161      8.4712   5.6520923601e+01   7.9149275055e+01    0.4947354    0.2147383 -48.03  0.001302114    2.484    0.597
        20 -11.8483     20.3789     21.8845   5.9504555403e+01   7.5556889812e+01    0.8013421    0.4121388 -38.92  0.002363624    2.035    0.509
        21 -10.0674     29.4905      1.9739   3.6338334857e+01   7.6983634732e+01    0.2859629    0.1981334 -39.20  0.001147661    1.616    0.381
        22  -9.6987     25.8711      3.8037   4.0502933356e+01   7.7515596333e+01    0.1744538    0.1505642  38.77 0.0002269031    1.063    0.059
        23 -10.3228     22.2237      2.9579   4.2464661242e+01   7.8343349965e+01    0.2295479    0.2145159   7.28 0.0006604915    1.079    0.073
        24 -12.2378     15.9780     14.1626   5.7957180808e+01   7.7660153805e+01    0.9301351    0.4935372 -22.38  0.003816827    2.983    0.665
        25 -12.0953     22.5926     10.8836   4.9374846258e+01   7.7135118135e+01    0.5653533      0.38485  30.36  0.001914175    1.449    0.310
        26 -11.8847    126.0089     28.3732   2.2488706181e+01   4.9799886104e+01    0.5321061    0.3960536 -87.71  0.002791731    1.279    0.218
        27 -12.1395     48.0791     12.7695   3.5024082929e+01   7.1586975330e+01    0.8393417    0.3629035  61.68   0.00340732    2.341    0.573
        28 -11.9307     35.5498     18.2083   4.5678011599e+01   7.3534858434e+01    0.7749283    0.3219247 -30.64   0.00296721    2.992    0.666
        29 -11.3418     67.4589     18.7188   3.1237689656e+01   6.6192822551e+01    0.5515154     0.400888 -77.21  0.001750608    1.654    0.396
        30 -11.7158    165.9552     16.7560   1.4160782094e+01   4.1154428780e+01     0.347777    0.2285053  74.33  0.001088046    1.533    0.348
        31 -10.5637    147.5901     16.4328   1.5664287572e+01   4.5660174906e+01    0.6053438    0.2453737  46.16  0.002178482    3.815    0.738
        32 -11.6607    239.9396     16.2744   9.8684995603e+00   2.5949619538e+01    0.3519841    0.2292079  67.07  0.002410351    1.995    0.499
        33 -11.4142    218.7631     13.0213   1.0046378715e+01   3.0179163861e+01    0.5775753    0.2119608  68.52  0.002861131    3.058    0.673
        34 -10.8954    225.6942     13.7013   9.8990522092e+00   2.8792764226e+01    0.2153103    0.1650714 -39.97 0.0003478396    1.202    0.168
        35 -11.5680    228.6817     15.9487   1.0268639267e+01   2.8004556222e+01    0.2927743    0.2170261  75.30 0.0003596981    1.637    0.389
        36 -11.1768     85.8411     14.3340   2.3861313397e+01   6.1978599080e+01    0.4309697    0.3322571 -11.71  0.001627046    1.541    0.351
        37 -10.6279    190.7538     13.2006   1.1501749723e+01   3.5898338032e+01    0.3320943    0.1392028 -42.65  0.001256211    1.788    0.441
        38 -11.2480    192.8712      7.6538   9.9542813583e+00   3.6003393580e+01    0.5367689    0.2888421 -12.19  0.002622058    2.677    0.626
        39 -11.7904    212.1740      9.3148   9.4734787280e+00   3.1847011453e+01    0.5207072    0.3380168  -6.74  0.002423611    2.338    0.572
        40 -10.8136    218.5949      3.6403   7.9087596869e+00   3.1150000508e+01    0.2536596    0.2229913 -68.48 0.0006446715    1.267    0.211
        41 -11.4844    223.7872      2.5839   7.4946026533e+00   3.0260639362e+01    0.5176236    0.2154769 -77.80 0.0003960788    2.353    0.575
        42 -10.3212    168.7095      9.7056   1.1893376814e+01   4.1231177145e+01    0.4093104    0.1735459  61.46  0.001845615    2.570    0.611
        43  -9.3668    163.4897      9.5172   1.2190793748e+01   4.2483702003e+01    0.2446766    0.1396281 -44.22  0.000645466    1.469    0.319
        44  -9.7928    163.5651      6.2071   1.1197227341e+01   4.2785532942e+01    0.3868125     0.231796  24.49  0.001770615    3.043    0.671
        45  -9.3831    145.3349      9.5561   1.3600973868e+01   4.6920356495e+01    0.1978975    0.1617055  16.80 0.0007636528    1.681    0.405
        46 -11.4907    246.9952      6.2449   7.5444956174e+00   2.5744898487e+01    0.3751607     0.241657 -11.94  0.002403599    2.223    0.550
        47 -11.3553    243.2199      4.4251   7.2845983289e+00   2.6569296180e+01    0.2967153    0.1775371 -63.97  0.001534582    1.365    0.267
        48 -10.8457    232.1686      6.9481   8.1692267117e+00   2.8281897712e+01    0.2760735    0.1688389 -60.92  0.001158255    1.284    0.221
        49 -11.6338    233.3656      2.6038   7.1971768828e+00   2.8488539258e+01    0.4283501    0.1580234 -57.09  0.002338893    2.011    0.503
        50 -10.6927    184.8230      6.5682   1.0076509120e+01   3.7865616742e+01    0.4291959     0.148641 -42.05  0.001889195    2.084    0.520
        51 -10.3711    187.3527      2.4408   8.8612549324e+00   3.7703144132e+01    0.3302093     0.169033 -71.76  0.001768173    1.724    0.420
        52  -9.7207     77.9045      7.3390   2.1964564721e+01   6.4739314529e+01    0.3364844    0.2141135 -71.34  0.001006882    1.774    0.436
        53 -11.0398     73.8162      3.1837   2.0542454275e+01   6.6161096750e+01    0.7323249      0.26971  57.64   0.00294852    2.286    0.563
        54  -9.9589    157.2240      3.4297   1.0759306190e+01   4.4564421250e+01    0.2877791    0.1418702 -80.01  0.001090225    1.905    0.475
        55 -10.0635    152.7705      1.4285   1.0417139567e+01   4.5825738802e+01    0.2691675    0.1368672  89.77  0.000685616    1.813    0.448
        56  -9.1063     89.4122      6.8585   1.9414193879e+01   6.1759098862e+01    0.1798179    0.1327325   7.55 0.0009309567    1.725    0.420
        57 -10.2967     61.9863      6.7050   2.5733516634e+01   6.8880015550e+01    0.3209105    0.2058721  57.72  0.001064183    1.388    0.280
        58 -10.2480    177.3625      5.9652   1.0310352004e+01   3.9598100310e+01    0.2557295    0.1582183 -79.78 0.0003884079    1.454    0.312
        59 -10.8120    141.7302      3.5030   1.1864345833e+01   4.8383746538e+01    0.4300385    0.2215808  82.78  0.002074683    1.780    0.438
        60 -11.6273    133.8909      2.7549   1.2228686404e+01   5.0436864623e+01    0.4794717    0.3096873  86.97  0.002565071    1.389    0.280
        61  -9.0883    128.6581      1.2637   1.2128162205e+01   5.1904478907e+01     0.137692    0.1174935 -81.26 0.0005380009    1.039    0.038
        62 -11.0924    113.2263      2.6360   1.4152356911e+01   5.5814001354e+01    0.4463126    0.2967341 -83.42  0.001863853    1.370    0.270
        63 -11.1090    105.7441      2.0599   1.4770802720e+01   5.7833539477e+01    0.5646471    0.2989483 -81.47   0.00256558    1.890    0.471
        64 -10.5062     41.7014      3.9100   3.1366298065e+01   7.4062760680e+01    0.3314047    0.2275639  33.15 0.0009879626    1.503    0.335
        65 -11.1205    206.1185      2.7548   8.1597852813e+00   3.3709014418e+01    0.4086803    0.2061886 -82.02  0.002101967    1.885    0.469
        66 -10.5383    153.9127      6.4523   1.1925354502e+01   4.5091629107e+01    0.2585574    0.1875449  40.34  0.001427679    1.861    0.463
        67  -9.1231     33.7132      1.4630   3.3364293084e+01   7.6122184191e+01    0.1796507    0.1085301  47.04  0.000828655    1.480    0.324
        68  -9.7756     49.9955    123.1125   7.6371870019e+01   4.5742530343e+01    0.2824761    0.2222263 -11.98  0.001321953    1.613    0.380
        69  -8.9899    188.5019    250.0015   6.0997638130e+01   1.0656500404e+00    0.1156176   0.09671696 -65.41  0.000810695    2.624    0.619
        70 -10.8286     50.4872    249.5048   8.9127173427e+01   1.5702919799e+01    0.3135357     0.106194  39.26  0.001514174    2.076    0.518
        71  -9.0101     56.2414    122.1860   7.3831207011e+01   4.5113408352e+01    0.2259928    0.1731078  63.81  0.001054316    1.352    0.260
        72 -10.1836     44.6166    119.8187   7.7885946936e+01   4.7383168356e+01    0.3160556    0.2429068  87.00 0.0007389699    1.328    0.247
        73 -10.0033     43.4305    116.2006   7.7723570849e+01   4.8555464964e+01    0.3247189    0.2502101  42.81 0.0009182921    1.274    0.215
        74 -10.5340     36.7635    117.0566   8.0584202856e+01   4.9136206780e+01    0.4999192    0.3073731 -13.73  0.001970207    2.431    0.589
        75 -10.2995      7.5123    114.9346   9.2610488192e+01   5.2421078303e+01     0.395936    0.1954352 -64.73 0.0009873757    1.867    0.464
        76 -12.2478      2.5209    111.6852   9.4487434517e+01   5.3648883317e+01    0.6268567    0.3759181  88.81  0.002311171    1.540    0.351
        77 -11.2102      5.0175    105.1468   9.2839276262e+01   5.5369417747e+01     0.493346    0.3552316  22.67  0.002421838    1.471    0.320
        78  -9.4767     79.7867    115.0650   6.3771162196e+01   4.3148721462e+01    0.4142094    0.2895898 -89.88  0.001735711    1.841    0.457
        79  -8.7910     67.4857    114.9747   6.8140488997e+01   4.5316353848e+01    0.2218451    0.1360687  86.77  0.000807855    2.378    0.579
        80 -11.7055      7.1421     88.7551   9.0049987971e+01   5.9906990989e+01    0.6917847    0.4663039  10.92  0.002847212    1.634    0.388
        81 -10.8990     26.6322     86.1574   7.9524401582e+01   5.9013128195e+01     1.140402    0.5783528  20.63  0.004607854    2.124    0.529
        82 -10.9421     42.1329     92.5843   7.3419635221e+01   5.5331620574e+01     1.454454    0.4740664 -56.05  0.001043848    2.741    0.635
        83 -12.0909     41.4117     86.2658   7.2198775052e+01   5.7159538405e+01       1.3404    0.8410866 -10.62  0.005189291    2.516    0.603
        84 -11.2456     16.3551    109.0207   8.8156354560e+01   5.3468767775e+01    0.6513473    0.3396956 -58.58  0.001503939    1.814    0.449
        85 -12.2158      9.4601     97.0624   8.9908953219e+01   5.7399309461e+01    0.5936536    0.5223002   3.55            0    1.266    0.210
        86 -12.6308     17.6055    100.6811   8.6493703557e+01   5.5754569567e+01    0.4680618    0.4031132   8.11 0.0005222014    1.289    0.224
        87 -11.8656     25.1935    107.7768   8.4065237694e+01   5.3034294562e+01     1.558764    0.7687089 -13.52  0.005158301    3.584    0.721
        88 -11.2180     22.5519     94.4933   8.3157411262e+01   5.7077162984e+01    0.3704475    0.3193114 -22.51  0.001080484    1.295    0.228
        89 -10.9168     17.9482     91.2441   8.4892034561e+01   5.8413019051e+01    0.4233308    0.3119645  64.13  0.001005657    1.406    0.289
        90 -11.7248     21.4476    114.5500   8.6630474293e+01   5.1447176208e+01    0.8373004     0.348772   8.95  0.001756369    3.206    0.688
        91 -11.2493     28.2760    112.9983   8.3504070363e+01   5.1230472755e+01    0.4537523    0.3501752 -34.32  0.001437086    1.486    0.327
        92  -9.3793    104.6156    112.9770   5.5311085725e+01   3.8880067301e+01    0.2180614    0.1940191 -60.51 0.0004227827    1.104    0.095
        93  -9.9288     48.4853    112.2111   7.4922932775e+01   4.8995551572e+01    0.3581594    0.2610423  34.47  0.001585242    1.375    0.273
        94 -11.4407     80.1148    108.2289   6.1978578073e+01   4.4853998972e+01    0.4626064    0.3486824  33.30 0.0008170522    1.399    0.285
        95  -9.5023    101.9403    109.4976   5.5206925688e+01   4.0252086918e+01    0.2401987    0.1561385  40.43 0.0005392978    1.583    0.368
        96  -9.4488    181.9066    104.9922   3.6078564517e+01   2.4738988621e+01    0.2852764    0.1909821   7.47  0.001266699    2.660    0.624
        97  -9.8291     45.8267    104.9890   7.4553419374e+01   5.1381121215e+01    0.5204592    0.1295168 -53.44  0.001473391    3.619    0.724
        98  -8.7265    143.3050    105.6617   4.3509311597e+01   3.2402461485e+01     0.153365    0.1141932 -74.98 0.0007040318    1.675    0.403
        99 -10.2293     89.0669    104.7935   5.8028207511e+01   4.3992487548e+01    0.4725579    0.2197248  40.73 0.0009463395    2.168    0.539
       100  -9.9785     85.5694    103.5246   5.8863596572e+01   4.4999915428e+01    0.2761977    0.2360534 -59.45 0.0005972996    1.152    0.132
       101 -10.6729     51.9148     99.1638   7.0647689690e+01   5.2104018615e+01    0.7003612    0.3150565 -46.15  0.001313335    2.451    0.592
       102  -8.5823    120.3336    101.3070   4.7823924334e+01   3.8243057018e+01    0.1539764    0.1255644   0.18 0.0003388464    1.668    0.401
       103  -9.8702     64.6817     98.6787   6.5266450685e+01   5.0142703883e+01    0.4474677    0.1833602 -53.07  0.001542963    2.349    0.574
       104 -11.6500     68.9241     95.5913   6.2765462946e+01   5.0191344221e+01    0.5150546    0.3953546  34.63 0.0004976423    1.355    0.262
       105  -8.7858     28.2788    100.3018   8.1449173642e+01   5.4852587938e+01    0.1535111     0.108861 -40.40 0.0003230717    1.545    0.353
       106 -10.0762     67.2454     81.6022   5.9279817248e+01   5.4051618131e+01    0.4448572    0.3290899  21.85  0.001988821    1.652    0.395
       107 -10.3658     80.0921     84.1660   5.5131475400e+01   5.0854953484e+01    0.6874602    0.3983493 -42.85  0.002761268    1.831    0.454
       108 -11.1784     74.7413     78.4730   5.5279056497e+01   5.3316257225e+01    0.6835389     0.547361  55.22  0.003288105    1.263    0.208
       109 -10.7522     77.9683     96.6962   5.9663272749e+01   4.8201267454e+01    0.5460434    0.3198221  55.73   0.00137122    1.956    0.489
       110 -10.6848     79.9389     93.0438   5.7898938396e+01   4.8725643510e+01    0.8937259    0.5250155  52.35  0.003586934    1.819    0.450
       111  -9.6879     31.2539     95.8437   7.9225145676e+01   5.5788701195e+01    0.5507683    0.3334045  68.91  0.002276846    1.974    0.493
       112 -11.3962    125.7414     94.7614   4.4615120187e+01   3.8453133025e+01    0.2860634    0.2540499 -52.15 0.0002479966    1.076    0.071
       113 -10.2670    121.6331     93.7689   4.5359923133e+01   3.9578748491e+01     0.888997    0.2455045 -48.84  0.002468636    3.829    0.739
       114 -11.4397     98.3051     91.0847   5.1141332288e+01   4.5344987845e+01    0.2897937    0.2457636  54.85 0.0001603648    1.185    0.156
       115 -10.7474     89.2513     89.5251   5.3595378820e+01   4.7657195659e+01    0.4962297    0.3761865 -44.48  0.002297986    1.350    0.259
       116  -9.9908     89.4952     84.9931   5.2102307912e+01   4.8664915821e+01    0.4116552    0.3035557  89.85 0.0009347469    1.749    0.428
       117 -10.1593     49.5342     91.4783   6.9775940933e+01   5.4556392661e+01    0.4378063    0.2885107  45.72  0.001930099    1.541    0.351
       118  -9.6251     66.4169     88.7533   6.1810439409e+01   5.2410316399e+01    0.3560447    0.2540236   7.16  0.001333107    2.072    0.517
       119  -9.7511    103.9127     87.3746   4.8309097980e+01   4.4941933133e+01    0.2630802    0.1905942 -41.62  0.001189395    1.415    0.293
       120 -10.4148    143.2593     84.5570   3.7747530856e+01   3.6528184161e+01    0.2618068    0.2338934 -52.91 0.0003621802    1.039    0.038
       121  -9.6588    133.6730     84.9283   3.9901547317e+01   3.8646382199e+01    0.2953337    0.1974068  80.04  0.001214948    1.976    0.494
       122 -10.3377    112.9155     83.1092   4.4441734925e+01   4.3809949498e+01    0.4371728     0.269624  64.74  0.001451337    1.888    0.470
       123  -9.4371     46.7628     75.4743   6.6528314449e+01   5.9220040896e+01    0.2974546     0.283582  39.89  0.001018335    1.071    0.066
       124 -11.2088     53.3498     76.1949   6.3607996473e+01   5.7943999360e+01    0.6936466    0.4342485 -60.56  0.002995449    1.614    0.380
       125 -10.9122     58.0597     77.7975   6.1979963165e+01   5.6710672296e+01    0.5067586    0.3434356 -80.58 0.0005733156    1.912    0.477
       126  -9.6355      1.4089     80.1265   9.2066775541e+01   6.2642046433e+01    0.3257455    0.1210918 -75.07 0.0009543835    2.357    0.576
       127  -9.8772    102.9572     79.4484   4.6073682132e+01   4.6884322671e+01    0.3048157    0.2237743 -45.24 0.0006399923    1.353    0.261
       128  -8.5856     88.6930     73.2781   4.8467921691e+01   5.1477873506e+01    0.1979592    0.1913372  33.31 0.0004212903    1.135    0.119
       129 -10.1384     93.1025     72.8415   4.6869321289e+01   5.0566681126e+01    0.3974282    0.2643024 -76.49  0.001003462    2.115    0.527
       130 -10.0300     87.9889     77.4776   5.0149209188e+01   5.0707440836e+01    0.6012756    0.3417966  61.17  0.002294455    2.136    0.532
       131 -10.1075     93.5193     76.6999   4.8060030191e+01   4.9638361076e+01    0.6810551      0.23432  48.09   0.00215374    2.918    0.657
       132 -11.6213     14.0155     74.7033   8.4050217987e+01   6.3363906504e+01    0.5751576    0.3682135 -85.40  0.002084943    1.602    0.376
       133  -8.8997    158.6077     76.4572   3.2581870006e+01   3.4509741463e+01    0.1453111    0.1265124 -54.38 0.0001525317    1.023    0.023
       134  -9.5779    103.4991     74.9913   4.4438570662e+01   4.7697798583e+01    0.3086088    0.2153744  68.64  0.001356614    1.607    0.378
       135  -9.9885     24.8616     74.3096   7.7767867215e+01   6.2462768053e+01    0.3429086    0.2150318 -58.42 0.0006577492    1.485    0.327
       136 -10.8666      2.0923     71.5634   9.0564578947e+01   6.4985102833e+01    0.4567641    0.2300626 -73.12  0.001542752    1.776    0.437
       137 -12.6043      6.4198     61.5947   8.6131269967e+01   6.7461962615e+01    0.9205525     0.582064 -29.83  0.003024383    1.682    0.405
       138 -10.0055    186.9822     72.1957   2.7237365399e+01   2.9074976443e+01    0.3778426    0.2046747 -37.68   0.00184303    1.574    0.365
       139  -9.8356     81.1959     72.9691   5.0973424830e+01   5.3214212021e+01    0.4137501    0.2103427 -39.96  0.001074008    2.177    0.541
       140 -10.1377     78.3882     67.5125   5.0028796975e+01   5.5038347687e+01    0.5229018    0.3530983  71.79  0.002183754    1.921    0.480
       141 -11.8019     36.2103     71.3202   7.0680558362e+01   6.1867936438e+01    0.7612347    0.4758244   4.90  0.002571982    2.222    0.550
       142 -11.8458     40.6452     69.1529   6.7627764340e+01   6.1788504170e+01    0.5955261    0.3669605 -63.60  0.001690563    1.649    0.394
       143  -9.7118    153.5185     72.6402   3.2372518904e+01   3.6318358533e+01    0.3239167    0.1535108  47.06  0.001278102    2.531    0.605
       144  -9.7018     14.7400     67.1791   8.2021698972e+01   6.5358230866e+01    0.5373033    0.2751648   1.72  0.002161437    2.460    0.594
       145 -11.0543    122.8259     68.9157   3.7392413798e+01   4.4267260433e+01    0.5089465     0.300232  51.13  0.001704831    1.760    0.432
       146  -9.5123    217.9148     66.4737   2.2430974005e+01   2.3892629926e+01    0.1577647     0.121548  76.07 0.0005600182    1.549    0.354
       147 -10.5411     88.3090     56.3232   4.2258317988e+01   5.5047371103e+01    0.6185627    0.2806393 -40.40  0.001960064    2.249    0.555
       148  -9.3046     91.7819     57.5750   4.1651500461e+01   5.3972603887e+01    0.2459128    0.1809862 -81.68 0.0007784085    1.669    0.401
       149 -10.0992     96.4489     65.2763   4.3124559345e+01   5.1347133913e+01    0.2664292    0.2571312  59.83  0.001323189    1.091    0.084
       150 -10.7518     92.3002     62.7068   4.3454799392e+01   5.2847274204e+01     0.441927    0.3023913  69.97  0.001359791    1.660    0.398
       151 -10.3794    201.5145     64.8048   2.3690374474e+01   2.7232496810e+01    0.2569679    0.1966096  76.66 -0.0001613931    1.493    0.330
       152  -8.8394    192.4798     65.5369   2.4878699302e+01   2.8940643798e+01    0.1356143     0.109548 -51.84 0.0004919723    1.034    0.033
       153  -9.0826     52.1652     65.6665   6.0550980407e+01   6.0751241674e+01    0.2108724    0.1426759  27.99 0.0006971849    1.638    0.390
       154 -10.2223    157.9920     63.3233   2.8928566677e+01   3.6824165889e+01    0.4136689    0.2071577  47.27  0.001115135    2.476    0.596
       155  -9.8942     58.1679     62.2828   5.6420687549e+01   6.0423612533e+01    0.4449417    0.2569126 -68.01  0.001687558    2.417    0.586
       156 -10.4022     63.7462     61.1558   5.3474828628e+01   5.9562370084e+01    0.4790584    0.3681665  29.54  0.002287024    1.456    0.313
       157  -9.1370    105.7962     63.4155   3.9769144674e+01   4.9452870599e+01    0.3270132    0.1439741  51.48  0.001192694    2.262    0.558
       158 -10.4408    106.2463     58.2946   3.7786734816e+01   5.0294523503e+01    0.4647415    0.2962314 -74.89  0.001587971    2.150    0.535
       159  -9.2048     50.9967     56.6802   5.7638549083e+01   6.3064888424e+01    0.4279808    0.2645383 -55.33  0.001131274    1.670    0.401
       160  -9.1385    113.4717    249.4838   7.5345474782e+01   8.9840347799e+00    0.1177846   0.09177941  18.10 0.0002744578    1.035    0.033
       161 -11.3825     40.3393     56.9628   6.3436540986e+01   6.4848965525e+01    0.3660188    0.2669112  36.70 0.0006144354    1.376    0.273
       162 -11.0998     43.0278     62.0551   6.3893163642e+01   6.3187427708e+01    0.3801299    0.3115038 -49.97  0.001760509    1.204    0.169
       163 -10.2649     50.9802     61.4835   5.9560572353e+01   6.1958447979e+01    0.3303454    0.2453954  64.41  0.001458535    1.597    0.374
       164 -10.9353     46.4039     59.2922   6.1050982276e+01   6.3284005759e+01    0.4388278    0.3149027  66.35  0.001501744    1.763    0.433
       165 -10.2215    234.3000     62.0459   2.0016015938e+01   2.1596371394e+01    0.1751544     0.122324 -42.06 0.0006663336    1.067    0.063
       166  -9.4637    228.5993     62.2273   2.0523822594e+01   2.2553632540e+01    0.1730092   0.09838181 -26.78 0.0009536014    1.722    0.419
       167  -9.6685     83.9916     61.2187   4.5626705604e+01   5.5098918854e+01    0.2824919    0.1970631 -61.94 0.0007461971    1.604    0.377
       168 -11.7062     75.7936     54.1936   4.5738399290e+01   5.8400810926e+01    0.5780199    0.4279223  -7.08  0.001490053    2.052    0.513
       169 -11.8368     72.9972     48.3110   4.4253370610e+01   6.0183134479e+01     1.200813    0.3745377 -49.67  0.001952328    4.063    0.754
       170  -9.5993    113.9131     61.1700   3.6878997753e+01   4.7873804060e+01    0.2549871    0.1984459 -71.98   0.00123111    1.357    0.263
       171 -11.0670     32.0684     52.7609   6.6674663761e+01   6.7113025996e+01     1.146074    0.4720567  20.51  0.003735017    3.569    0.720
       172  -9.4966     29.5098     60.4971   7.1057801067e+01   6.5549327787e+01    0.3199363    0.2261035 -54.60  0.001359618    1.353    0.261
       173  -9.8170     25.5032     59.8372   7.3300553926e+01   6.6212540732e+01    0.6453981    0.2883706  32.00  0.002555051    2.194    0.544
       174 -10.8799     25.1710     56.0908   7.2267045167e+01   6.7202861962e+01    0.5497633    0.3642285  16.90  0.001966095    1.640    0.390
       175 -10.1721    124.7957     56.4419   3.2762041459e+01   4.5991011940e+01    0.3162923    0.2501897 -29.90  0.001047381    1.391    0.281
       176 -11.0227    118.1309     55.7568   3.3972589520e+01   4.7775396648e+01     1.065485    0.4589027 -59.66  0.003164255    3.938    0.746
       177 -10.1498    122.9285     44.5129   2.8933444552e+01   4.8368953355e+01    0.2752844    0.2563092  85.43 0.0007174728    1.079    0.073
       178 -10.4886    112.4917     50.5168   3.3357153684e+01   5.0079053900e+01    0.3460829    0.3001828 -75.14  0.001003223    1.108    0.098
       179 -10.8312    112.1837     42.4008   3.0351332229e+01   5.1447874105e+01    0.5208893    0.2638537  60.73  0.001682358    1.892    0.471
       180 -10.6442    110.3518     38.8419   2.9360552007e+01   5.2452841680e+01     0.470192    0.3474365  13.38  0.001527915    2.025    0.506
       181  -9.2320    213.4967    248.5016   5.6677663878e+01  -1.0638430219e+00    0.1029704   0.07147878  -2.52 -0.0003150572    1.004    0.004
       182 -10.7382    116.1464     48.8428   3.1913420909e+01   4.9424047063e+01    0.3552124    0.3171989  65.06 0.0009499618    1.140    0.123
       183 -11.0949    117.7119     44.6859   3.0042609823e+01   4.9678130712e+01    0.6248502      0.37224 -65.62  0.002636885    1.984    0.496
       184  -9.7378     80.1890     58.8342   4.6026543710e+01   5.6461572298e+01    0.2796889    0.2196671 -20.52 0.0007535065    1.609    0.378
       185 -10.5933    157.5842     55.0074   2.6541976670e+01   3.8212701667e+01     0.511953     0.320006 -68.02  0.002408768    1.739    0.425
       186  -9.5984     66.7958     54.4905   4.9429474657e+01   6.0348514111e+01    0.3704839    0.2003462 -61.20  0.001367318    2.532    0.605
       187  -9.5716    201.1233     53.3606   2.0923970116e+01   2.8892187488e+01    0.2081684     0.153342 -31.41 0.0003713193    1.317    0.241
       188  -9.5795    139.9418     54.1999   2.9111858286e+01   4.2595100546e+01    0.2853039    0.1869667  72.99 0.0008122862    1.579    0.367
       189 -11.0113     61.2808     47.6153   4.8770454699e+01   6.2933618706e+01    0.8895795    0.5354909 -30.66  0.003738134    2.058    0.514
       190  -9.6358     55.5401     50.5284   5.2754628153e+01   6.3532141124e+01    0.1466037    0.1445711  59.13 8.365951e-05    1.002    0.002
       191  -9.0874     97.4029     53.2230   3.8273900268e+01   5.3403154293e+01    0.2295004    0.1338984 -50.87 0.0009519235    1.780    0.438
       192 -10.2613    145.5727     49.3677   2.6627738465e+01   4.1952815791e+01    0.5453103    0.2814893 -16.68  0.001950024    3.339    0.701
       193  -9.0066     93.5115     52.5541   3.9139589499e+01   5.4484732244e+01    0.1521565    0.1442804  83.25 0.0002112292    1.021    0.020
       194 -10.1599    240.1302     50.7946   1.7176442472e+01   2.2015857914e+01    0.1988667    0.1427518 -30.42 0.0007689512    1.311    0.237
       195  -9.6954     11.1964     50.1721   7.9974736772e+01   7.0117659779e+01    0.4178401   0.06592941 -55.88  0.001242317    3.924    0.745
       196 -10.4487    131.8423     49.9184   2.9144129662e+01   4.5280121459e+01    0.2750061    0.2283234  67.52  0.001186343    1.215    0.177
       197 -10.6402     82.7931     47.2046   4.0278203394e+01   5.8066073923e+01    0.4163701    0.3071917 -18.52  0.001926668    1.756    0.431
       198  -9.8859     26.0247     48.9812   6.9084605258e+01   6.8846078146e+01    0.3107136    0.1915509 -52.08 0.0007664184    1.549    0.355
       199 -10.8414     20.6342     46.3099   7.1777031025e+01   7.0151108462e+01    0.5154324    0.3153287 -50.72  0.001977605    1.543    0.352
       200 -10.5821     26.1829     43.0393   6.6481519137e+01   7.0224287982e+01    0.3364412     0.263959  48.19  0.001216858    1.393    0.282
       201 -10.2805     23.0324     37.2765   6.6088225554e+01   7.1958814574e+01    0.5234621    0.2135426  42.54  0.002009572    2.707    0.631
       202  -9.4854      1.9873     49.0549   8.6586088857e+01   7.1015614994e+01    0.2064147    0.1912359 -52.16 0.0006362117    1.012    0.012
       203 -10.4790    200.8835     45.4146   1.8977699570e+01   2.9988093232e+01    0.2615269    0.1817771  86.21 0.0009758875    1.555    0.357
       204 -10.3589    138.6890     44.5174   2.6144495625e+01   4.4374819004e+01    0.4964034    0.2605646  43.53  0.001991895    2.587    0.613
       205  -9.3040    179.7040     45.0868   2.0939357447e+01   3.4547731211e+01    0.1887695    0.1437209 -46.06 0.0005757003    1.122    0.108
       206  -9.3864     34.4170     45.2449   6.2014225840e+01   6.8507179026e+01    0.2020695    0.1394509 -64.98 0.0009564954    1.652    0.395
       207 -10.5092    155.8840     42.6636   2.3048393692e+01   4.0405703475e+01    0.2961451    0.2785761 -27.73  0.001242533    1.253    0.202
       208  -9.4475     91.1692     41.4907   3.5216550551e+01   5.6964310602e+01    0.2781655    0.2065158 -87.26   0.00116864    1.535    0.348
       209  -9.7942     56.8006     41.9404   4.8114572804e+01   6.4998896045e+01     0.318323    0.2012264  51.98   0.00111529    1.580    0.367
       210  -9.2707     17.6947     41.4445   7.2008192902e+01   7.1649902384e+01    0.2569749    0.1452891 -40.29  0.001170796    1.800    0.445
       211 -10.9934      4.5413     35.7367   8.0698967409e+01   7.4208884605e+01    0.6770756    0.4095069 -67.88  0.003417689    1.612    0.380
       212 -10.1253     10.5054     31.5273   7.3657533621e+01   7.4713036176e+01    0.3464601     0.206432 -23.27   0.00163937    1.936    0.483
       213  -9.9302      6.9043     30.7910   7.6626146055e+01   7.5206874542e+01    0.8073348    0.3361168  -5.56  0.002670746    4.263    0.765
       214  -9.8147    231.5533     38.8152   1.5152659404e+01   2.4937344040e+01     0.296412   0.08192928 -33.89  0.001297371    2.576    0.612
       215 -10.4411     80.3492     39.3341   3.7560615002e+01   6.0012879551e+01    0.5009226    0.3095589  76.04  0.001963472    2.007    0.502
       216 -11.3759     78.6914     34.3298   3.5737033491e+01   6.1219761514e+01    0.6438176    0.4042574  44.15  0.002926848    1.676    0.403
       217  -9.0080    194.4976     38.0198   1.7662153892e+01   3.2253157335e+01    0.1560177    0.1102336   0.36 0.0008051115    2.282    0.562
       218 -11.9848    152.9753     35.9586   2.1339722722e+01   4.2013376701e+01    0.2743746     0.235533 -54.76 0.0003208804    1.071    0.066
       219  -9.6978    174.1470    246.7100   6.3109566176e+01   2.8971265006e+00    0.2547998   0.08096431  25.45  0.001213401    2.757    0.637
       220  -9.5530     42.8709     28.1705   4.7800919474e+01   7.0411689403e+01    0.2162454     0.178303  25.85 0.0002641067    1.256    0.204
       221 -11.9574    126.3063    241.6398   7.1819195421e+01   8.7840819934e+00    0.3411751    0.3129368 -54.22  0.002548434    1.449    0.310
       222 -11.4649     48.7171     30.5729   4.6046025243e+01   6.8786970790e+01    0.8051251    0.3184571  44.02  0.003029487    2.479    0.597
       223  -9.2647    206.2994     37.4394   1.6572340868e+01   2.9892071757e+01    0.1511611    0.1047887 -74.10 0.0003382537    1.394    0.283
       224 -10.7860    176.2412     34.8513   1.8462085046e+01   3.6656103415e+01    0.6343305    0.2183192 -42.39  0.001672167    2.264    0.558
       225 -10.0028    170.1941     30.1914   1.7718573256e+01   3.8623290049e+01    0.3873061    0.2021761 -60.26  0.001344693    1.806    0.446
       226  -9.2426    132.5156     37.0200   2.4575584155e+01   4.6994412893e+01    0.3180411    0.1444502 -70.33  0.001033406    3.544    0.718
       227  -8.9072     13.2472     36.1010   7.3313356159e+01   7.3381347682e+01    0.3196759    0.0754048 -54.43  0.001062638    3.349    0.701
       228  -9.0254    214.1410     34.9047   1.5401269781e+01   2.8646671693e+01    0.1433447    0.1345425 -46.57 0.0002784758    1.291    0.226
       229  -9.7367    139.0753     33.2162   2.2281700109e+01   4.5832446520e+01    0.3145511    0.2449227 -19.55  0.001240222    1.525    0.344
       230 -10.2837     72.8396    237.8470   8.3238637032e+01   1.5472933817e+01    0.2432866     0.198576  19.67  0.001629501    1.147    0.128
       231 -11.1391    147.0525    238.1462   6.7174139479e+01   6.9843265114e+00    0.4003919    0.2562136  29.68  0.002564466    1.372    0.271
       232 -11.2560    106.0076     33.0408   2.7953628252e+01   5.4407627929e+01    0.4631185    0.3250456  23.06  0.002107865    2.082    0.520
       233 -10.5215    167.3463    237.9468   6.3230630771e+01   4.7866493624e+00     0.209542    0.1363696  13.54 0.0007551869    1.269    0.212
       234 -10.4752    240.5759     32.4403   1.3256224362e+01   2.4089250107e+01    0.2094103    0.1838329 -32.56  0.001338955    1.347    0.258
       235  -9.9770    168.5812     23.8317   1.6020398133e+01   3.9751194207e+01    0.2805247    0.2108962  72.89  0.001090701    1.397    0.284
       236 -11.6335    160.0230     29.8784   1.8649146049e+01   4.1070915990e+01    0.4001513    0.3435423 -50.50 0.0005058197    1.109    0.098
       237 -11.9019    164.2968     27.6568   1.7545280068e+01   4.0316506368e+01     0.376387    0.2588381 -59.72 0.0004341781    1.261    0.207
       238 -10.6783    188.9471     28.4319   1.5618513136e+01   3.4606277205e+01     0.459598    0.3309054  -5.21  0.002543771    2.019    0.505
       239  -9.0926     15.4073    233.7918   9.6437255496e+01   2.2005222931e+01    0.1476842    0.1060674 -68.89 0.0009436074    1.704    0.413
       240  -9.3509    187.3900     22.8590   1.4259416307e+01   3.5587791029e+01    0.2181071    0.1754429 -18.71 0.0006754003    1.504    0.335
       241 -10.3763    197.1876    231.8643   5.7079475236e+01   2.4832347854e+00    0.1587695    0.1005702  -7.78  0.001079156    1.369    0.270
       242 -10.4798    148.2122     28.4410   1.9517299572e+01   4.4138034819e+01    0.4321694     0.316021 -30.53  0.002332124    1.421    0.296
       243  -9.4427    247.3006    231.3180   4.9291461683e+01  -2.0716369610e+00    0.1020399   0.05396931  -9.20 0.0007022413    1.619    0.382
       244  -8.9682    189.7268    229.6576   5.8052346602e+01   3.5386649107e+00    0.1137612   0.06783585  -9.57 0.0003810643    1.616    0.381
       245 -10.8808    148.3115     22.5738   1.7597755242e+01   4.4804997532e+01    0.4111453    0.2262135  66.70  0.001055157    1.794    0.443
       246  -9.3281     19.0315    123.3038   8.8654376746e+01   4.9157184257e+01    0.2021433    0.1793442  53.68 0.0003944877    1.091    0.083
       247  -8.5766    166.6803    225.6909   6.1702117756e+01   6.6128166049e+00    0.1203489   0.07535235  -5.49 0.0004182048    1.641    0.391
       248  -9.1159     75.5406    224.4662   8.1450415103e+01   1.7702575895e+01    0.1278584    0.1063177  31.78 0.0001450932    1.015    0.014
       249 -10.7831     67.7241    240.7626   8.4641625065e+01   1.5495884521e+01    0.2846394    0.1862812  18.43  0.001023604    1.414    0.293
       250 -10.6168     32.5703     31.1564   5.5986697761e+01   7.1787414575e+01    0.2497404    0.2314385 -37.14 0.0003084484    1.099    0.090
       251  -9.4539     49.6861    222.6711   8.7612336313e+01   2.0945002780e+01    0.1205864   0.09392066 -19.62 0.0007044072    1.673    0.402
       252  -8.9595     44.5433    215.4961   8.8403475233e+01   2.2994048236e+01    0.1302358    0.1081923  42.05 0.0001676387    1.016    0.015
       253  -9.3971    164.5052    211.8989   6.0136068310e+01   8.9652188464e+00    0.1795584    0.1375879  16.28 0.0005049297    1.144    0.126
       254  -9.8464     17.1104    205.8562   9.4951130094e+01   2.7800139647e+01    0.3028838    0.1379892  67.46  0.001407163    2.149    0.535
       255  -9.3864     61.5207    206.6009   8.3322380372e+01   2.3029981488e+01     0.208377    0.1136878  27.99 0.0005945928    1.595    0.373
       256 -11.4255      5.3410    200.7647   9.7859134087e+01   2.9957217374e+01    0.7752324    0.1694615 -70.34  0.002696168    4.426    0.774
       257  -9.6553     78.4829    203.9282   7.8662879923e+01   2.1546871450e+01    0.2539662    0.1539946  41.26 0.0005182895    1.453    0.312
       258  -9.5095    233.6704    196.4884   4.5972843264e+01   3.2757346803e+00    0.1846925   0.07897081 -34.50  0.001064643    1.907    0.476
       259 -11.8621      5.3456    185.7499   9.7349089823e+01   3.3519784257e+01    0.4910237    0.4729393 -19.99  0.002431367    1.301    0.231
       260 -11.9819      2.9849    181.7150   9.7880783017e+01   3.4690994766e+01     0.617286    0.3487601 -71.39  0.003124732    1.848    0.459
       261 -10.3452     51.9094     48.1783   5.3477433985e+01   6.4749192181e+01    0.3125476    0.2551582  32.23 0.0006470281    1.264    0.209
       262  -8.7917    221.6788     30.3115   1.3853719470e+01   2.7738200256e+01    0.1300373   0.06402777 -55.08 0.0007037534    1.650    0.394
       263  -8.4481     86.3252    185.6657   7.4387636495e+01   2.4529755781e+01    0.1491852   0.09900176  58.87 0.0007051227    1.714    0.416
       264  -9.0613     97.2412     26.0033   2.6846187515e+01   5.7632334212e+01    0.1856049    0.1224803 -31.21 0.0007745579    1.601    0.375
       265 -10.2840    155.1722     24.6676   1.7546579178e+01   4.2869921830e+01    0.4352504    0.2240315 -75.32  0.001443018    2.091    0.522
       266  -9.5063    155.2330     20.9742   1.6383032132e+01   4.3276332253e+01    0.2347005    0.1609567 -20.89 0.0007702211    1.681    0.405
       267  -9.6951    212.4923     24.0079   1.2929533524e+01   3.0224598525e+01    0.1842153   0.09828475 -33.71 0.0008430725    1.568    0.362
       268  -9.9794     90.6306     23.1622   2.7057777825e+01   5.9716535104e+01    0.2893521    0.2218132  62.52  0.001155098    1.223    0.182
       269  -9.5161     28.1617    175.8470   9.0118881481e+01   3.3986152528e+01    0.2231146    0.1674107  57.10 0.0006369131    1.180    0.152
       270 -10.5594     38.8159     22.1917   4.6395210857e+01   7.2240935072e+01    0.2595752    0.2313424  -2.35 0.0003730956    1.172    0.147
       271  -9.6739     51.4587    172.6244   8.2761843897e+01   3.2242645499e+01    0.4274161    0.1806528 -87.91   0.00144535    3.462    0.711
       272  -9.4848    223.5992     22.1639   1.1896448377e+01   2.8286911611e+01    0.1909497    0.1264539 -67.67 0.0005372594    1.337    0.252
       273 -10.7568    178.9744     20.7191   1.4294080437e+01   3.7704042859e+01    0.4259484    0.2423662  45.19  0.002054124    2.603    0.616
       274  -9.1526      5.1595     21.9310   7.4138271273e+01   7.7366481709e+01    0.1842164     0.169943  41.61 0.0005687634    1.235    0.190
       275  -9.7612    216.0745     20.2281   1.1842994833e+01   2.9937516971e+01    0.2177261    0.1348631 -42.56 0.0009416385    1.226    0.184
       276  -9.7500    230.1466     27.0453   1.2644416768e+01   2.6538410681e+01    0.1667018    0.1396579 -36.29  0.001215189    1.277    0.217
       277 -10.4579    201.0298     24.9938   1.3876201156e+01   3.2434679059e+01    0.3083932    0.2397766   5.60  0.001855615    1.972    0.493
       278  -9.4023     39.4967    173.9215   8.6522307135e+01   3.3295166588e+01    0.2080911    0.1367932 -79.36 0.0007513388    1.561    0.359
       279 -10.8664    246.2292     19.6384   1.0314927925e+01   2.4515882974e+01     0.223115    0.1298002 -26.38  0.001417592    1.686    0.407
       280 -11.2097    163.4573     19.4643   1.5172981895e+01   4.1455152633e+01    0.2540943    0.2134775 -80.76 0.0004840284    1.112    0.101
       281 -12.6507     22.7786    149.2421   8.9745540071e+01   4.1546209947e+01    0.7714129    0.4276074 -43.75  0.002440036    2.208    0.547
       282  -9.7109     46.4246     19.9747   4.0708215055e+01   7.0982458894e+01    0.2685657    0.1948172  71.64  0.001358041    1.647    0.393
       283  -8.7099      1.4737     20.5572   7.7434779543e+01   7.7967998349e+01    0.1302493    0.1134169 -27.14 0.0002188947    1.033    0.032
       284 -11.0243     16.5655    147.8115   9.1787785244e+01   4.2489609703e+01    0.3629899    0.3217175  37.36  0.001563794    1.144    0.126
       285 -12.5685      9.8356    165.3446   9.5120423891e+01   3.8331784848e+01    0.7481447    0.5790569 -69.50  0.002909741    1.363    0.266
       286 -10.4774     18.9953    165.0093   9.2199308839e+01   3.7651422525e+01    0.3928232    0.3124162 -10.99  0.002123973    1.575    0.365
       287 -10.6291     14.0853    159.1361   9.3402819031e+01   3.9629545954e+01    0.3224514    0.2663274  82.93 0.0006555871    1.126    0.112
       288 -10.0247    205.1709    163.2531   4.4572243941e+01   1.1320291420e+01     0.219456     0.164486 -29.37 0.0006260386    1.121    0.108
       289 -10.6185     28.0321    161.7236   8.9049415123e+01   3.7670933549e+01    0.4268237    0.2912618 -59.43  0.002132561    1.563    0.360
       290  -9.9180    186.9983     15.0705   1.2216773064e+01   3.6522950755e+01    0.2006273    0.1766639  85.88 0.0005431369    1.281    0.219
       291  -9.2859     38.0385    160.4934   8.5688601846e+01   3.6948890430e+01    0.2243165     0.138616  25.53  0.001033624    1.595    0.373
       292 -10.8575      9.3239    155.2514   9.4741736674e+01   4.1049336208e+01    0.3303253    0.2488157  83.01  0.001245038    1.216    0.178
       293 -10.0409     74.8460     19.4512   2.9340404715e+01   6.4243978664e+01    0.3740542    0.2289956  26.99  0.001479838    2.289    0.563
       294 -10.5243    143.6710     25.1556   1.8971764372e+01   4.5668193942e+01    0.3488573    0.2506762 -74.40  0.001164312    1.287    0.223
       295  -9.6922    104.2909    154.9395   6.4585456304e+01   2.8911413283e+01    0.2579865    0.2432707 -21.34  0.001431782    1.110    0.099
       296 -10.5669     30.7825    152.5256   8.7303039655e+01   3.9865858789e+01    0.3761882    0.2839118 -82.79  0.001936148    1.290    0.225
       297 -10.4233      4.2024    153.5253   9.6357282735e+01   4.1888033645e+01    0.3087861    0.1579582  38.67  0.001087005    1.717    0.418
       298 -10.0666     62.0634    151.4887   7.6726414313e+01   3.6336501044e+01    0.3980813    0.2636832   3.98  0.001176017    2.059    0.514
       299 -11.1337     47.2203    146.9594   8.1044394721e+01   3.9513971784e+01    0.7298927     0.431219 -43.86  0.003100582    2.006    0.502
       300 -11.8211     12.5805    136.8579   9.2385670774e+01   4.5850676513e+01     0.929749    0.6314756 -63.72  0.004614873    1.471    0.320
       301 -10.6180      8.4705    148.0393   9.4613742960e+01   4.3068279238e+01     0.382416     0.212078 -76.65   0.00128049    1.706    0.414
       302  -9.4625     65.5671     10.4889   2.6996061362e+01   6.7603594516e+01     0.274672    0.1257315  65.22 0.0007611259    1.981    0.495
       303 -10.7839      5.7853    142.7757   9.5247477514e+01   4.4704660021e+01    0.3553012    0.2328413  60.67 0.0007891386    1.379    0.275
       304 -11.0091      2.0039    141.0409   9.6501041074e+01   4.5433451995e+01    0.5035853    0.2105893 -88.95  0.002007471    2.241    0.554
       305 -10.1967    104.0117    147.2242   6.3189393770e+01   3.0780853580e+01    0.2494946    0.2103334 -44.76  0.001285121    1.218    0.179
       306 -10.9483     33.0716    144.3919   8.5663144662e+01   4.1856630159e+01    0.3931991    0.2960657  46.42  0.001342017    1.238    0.192
       307 -10.4081     80.2721    138.1778   6.8554368630e+01   3.7054588281e+01    0.3602163    0.2796853  54.69 0.0009552005    1.303    0.232
       308 -10.3899     40.3605    138.0417   8.2276315342e+01   4.2800680475e+01    0.3121125    0.2432785 -88.88   0.00066201    1.257    0.204
       309  -9.9666     32.4128    137.6525   8.5129131437e+01   4.3801653767e+01    0.3900296    0.2482317  25.78  0.001022493    1.588    0.370
       310 -11.4005     24.4309    136.5888   8.7961103021e+01   4.4904607342e+01     0.750519    0.4105431  34.94  0.002539437    1.707    0.414
       311 -10.7357     30.3840    132.7210   8.5296202459e+01   4.5400856331e+01    0.4529295    0.3767218  21.12  0.001502452    1.289    0.224
       312  -9.0701    217.4888    138.5708   3.7971149195e+01   1.3362435632e+01    0.1218814   0.09787802 -27.13 8.581742e-05    1.013    0.012
       313  -9.5643     47.4256    133.7603   7.9089820137e+01   4.3118965382e+01    0.3911834     0.135635 -65.26  0.001308487    2.698    0.629
       314  -9.7432     73.4193    132.8876   6.9783073034e+01   3.9557428064e+01    0.4014759    0.1854499 -37.84   0.00126212    3.376    0.704
       315  -9.6399     39.1021    133.4801   8.2120861905e+01   4.4222256092e+01    0.3051036    0.1564226  16.80 0.0007800744    2.287    0.563
       316 -10.5279      3.0717    147.8990   9.6467732141e+01   4.3486737648e+01    0.3636014    0.1998029 -84.58  0.001076008    1.690    0.408
       317 -11.0404     10.0108    127.6415   9.2644651406e+01   4.8636869695e+01    0.5996854    0.3110649 -69.82  0.002101712    1.787    0.440
       318  -9.2779     50.8354    129.8292   7.7209413402e+01   4.3759486819e+01    0.2143318    0.1685479  73.76 0.0003924971    1.297    0.229
       319  -9.4784     26.5490    127.8236   8.6182731889e+01   4.7175626940e+01    0.2250344    0.1399575 -76.23  0.001007387    1.530    0.346
       320  -9.6769     22.9102    127.0054   8.7514923241e+01   4.7756086385e+01    0.2191323    0.1967114  77.25 0.0003377492    1.017    0.016
       321  -9.8066     32.9885    125.6714   8.3383972991e+01   4.7117507252e+01    0.3326854    0.1596571  70.59  0.001158834    2.703    0.630
       322 -10.0296      2.0715    125.8415   9.5631373829e+01   4.9665117448e+01    0.3076752     0.200024  67.94  0.000992928    1.421    0.296
       323 -11.6450    104.3362    122.2369   5.7679576297e+01   3.6720179973e+01    0.3900008    0.3349411  67.31  0.000810387    1.238    0.192
