#   1 NUMBER                 Running object number                                     
#   2 MAG_AUTO               Kron-like elliptical aperture magnitude                    [mag]
#   3 X_IMAGE                Object position along x                                    [pixel]
#   4 Y_IMAGE                Object position along y                                    [pixel]
#   5 X_WORLD                Barycenter position along world x axis                     [deg]
#   6 Y_WORLD                Barycenter position along world y axis                     [deg]
#   7 A_WORLD                Profile RMS along major axis (world units)                 [deg]
#   8 B_WORLD                Profile RMS along minor axis (world units)                 [deg]
#   9 THETA_WORLD            Position angle (CCW/world-x)                               [deg]
#  10 FWHM_WORLD             FWHM assuming a gaussian core                              [deg]
#  11 ELONGATION             A_IMAGE/B_IMAGE                                           
#  12 ELLIPTICITY            1 - B_IMAGE/A_IMAGE                                       
         1 -14.2211    214.7000     32.2600   4.1042858860e+01   2.7831252407e+01     2.235173      1.26329  34.19   0.00967559    2.957    0.662
         2 -13.7318    236.4531     11.4736   3.4242716050e+01   2.5380088753e+01    0.7642564    0.6288536 -63.16  0.002616898    1.054    0.051
         3 -10.0891      2.1898      3.2009   9.1293147009e+01   7.3878629694e+01    0.2472633   0.04870214 -42.05  0.001023553    3.514    0.715
         4  -9.9108     91.9765      1.6827   5.1816521572e+01   6.0282023620e+01    0.2041063    0.1621549  67.71 0.0008162069    1.418    0.295
         5 -11.5550     37.8676    230.8017   1.2109786963e+02   2.1506794000e+01    0.2541128     0.192653 -72.60 0.0003889697    1.410    0.291
         6 -14.6302     89.6724    246.3871   1.1247772072e+02   1.2025544750e+01     5.395713    0.9978733  33.97    0.0145074    7.217    0.861
         7 -12.6570     31.1640    247.7385   1.2337173992e+02   1.9055611379e+01     0.810129    0.4503463  35.21   0.00518334    1.833    0.454
         8 -14.5284    120.7404    229.8473   1.0438311496e+02   1.0443710481e+01     5.011367     0.607685  40.62   0.01353604    5.715    0.825
         9 -13.2684     87.6811    228.7326   1.1109503568e+02   1.5582178328e+01     1.422239    0.7289122  66.34  0.006599605    2.526    0.604
        10 -14.7607      7.7564    237.8558   1.2689425995e+02   2.3263027231e+01     3.741163     1.149283 -80.11   0.01887599    2.948    0.661
        11 -12.3542     30.2654    220.1786   1.2181731698e+02   2.4446639026e+01    0.4474456    0.3030806  55.89  0.002063941    1.238    0.193
        12  -9.8969     93.7237    220.5874   1.0893164239e+02   1.6309762051e+01    0.2091725    0.1829268  61.02 0.0005763919    1.025    0.024
        13 -10.8513     61.4273    235.1319   1.1693255995e+02   1.7863352325e+01     0.330454    0.1806065  73.27  0.001041806    1.963    0.491
        14 -12.2898     16.5838    216.5210   1.2419269868e+02   2.6573818607e+01    0.3608781    0.3097476  52.68  0.001476403    1.299    0.230
        15 -10.6795    184.0273    215.7278   8.9033439398e+01   2.5904250576e+00    0.1987925    0.1589563  26.27 0.0007292993    1.091    0.084
        16 -10.3612    192.7185    192.5259   8.3016594770e+01   5.0658889134e+00    0.4985754     0.363032 -52.94  0.002585061    1.753    0.429
        17 -11.7992     56.2745    181.0129   1.1270210372e+02   3.0008325952e+01    0.4021125      0.27206 -37.27  0.002018242    2.030    0.507
        18 -11.8099     62.1056    175.1821   1.1058317868e+02   3.0639546864e+01     0.295518    0.2537611 -47.00 0.0005015496    1.333    0.250
        19  -9.5150    137.5125    170.5037   9.1100054258e+01   1.9629780681e+01     0.147411    0.1424806  32.97 2.602506e-05    1.007    0.007
        20 -12.8684     58.0381    132.1446   1.0518679385e+02   4.1617586809e+01     3.614079     1.100515 -72.47  0.006668977   11.387    0.912
        21 -13.2820     68.0806    144.1462   1.0439965149e+02   3.7363911495e+01    0.9535045    0.6310997  78.47  0.002345042    1.929    0.482
        22 -13.3839     59.4026    161.4411   1.0942246474e+02   3.4258021540e+01    0.5376598    0.2982816 -45.63  0.001721788    2.044    0.511
        23  -9.0132    157.3828    160.2160   8.4229991400e+01   1.8015461718e+01    0.2054014    0.1438781 -56.68 0.0004716025    1.639    0.390
        24 -11.9014     32.8370    156.4564   1.1561223758e+02   3.8399528768e+01     0.395123    0.2491841 -86.31  0.001363786    1.480    0.324
        25 -14.2097     10.5885    207.4532   1.2479999995e+02   2.8996123505e+01     0.974565    0.7900992  74.01  0.003227496    1.100    0.091
        26  -9.0127    124.9927    153.9926   9.0893044663e+01   2.5689048020e+01     0.227357    0.1816854  82.31 0.0004891296    1.575    0.365
        27 -10.2946    133.9939    145.6212   8.6771708052e+01   2.5873603878e+01    0.9316552    0.2067938 -53.43  0.001919394    7.279    0.863
        28 -10.4044     95.0863    143.9939   9.6836021106e+01   3.3359243917e+01    0.3180839    0.2847412 -58.00 0.0008757217    1.078    0.072
        29  -9.7205     98.4525    141.0360   9.5299979122e+01   3.3513376278e+01    0.3265272    0.2291487 -16.63   0.00141772    2.063    0.515
        30 -12.1257     83.4416    142.5793   9.9806301188e+01   3.5549829320e+01    0.3196321    0.2578795 -51.09   0.00059315    1.199    0.166
        31 -11.4195     28.4399    143.5086   1.1523024909e+02   4.1933360827e+01    0.2580835    0.2031657 -61.00  0.001051211    1.178    0.151
        32 -10.9227     75.7674    136.6172   1.0084938257e+02   3.8151447837e+01    0.4468395    0.2318601  64.75  0.001518383    3.596    0.722
        33  -9.4535    159.0642    135.1154   7.8093001614e+01   2.3032167266e+01    0.2440563    0.1962834 -85.66 0.0007914438    1.706    0.414
        34 -10.3769     34.4100    237.9980   1.2220983205e+02   2.0507847225e+01    0.2163837    0.1108585  53.77 0.0006200647    1.562    0.360
        35 -10.7327    107.0417    131.7412   9.0872098018e+01   3.4242249001e+01    0.3836932    0.3606243  35.01  0.001166244    1.095    0.087
        36 -11.4023     72.7052    164.9266   1.0649480658e+02   3.1669511703e+01    0.3405263    0.2490797 -69.03 0.0004135477    1.298    0.230
        37 -10.4261     94.7196    128.4223   9.3646838625e+01   3.7194331955e+01    0.3144576    0.2559003  -5.48  0.001120392    1.499    0.333
        38 -11.2500     67.3545    128.5508   1.0175996303e+02   4.1311528784e+01    0.3272044    0.2157304  67.02  0.001495943    2.009    0.502
        39  -9.2740    114.9666    125.5175   8.7183261364e+01   3.4235417009e+01    0.2376022    0.1540391  37.32  0.001029836    1.591    0.371
        40 -13.0066     26.8446    209.1992   1.2172527407e+02   2.7064592718e+01    0.4618166    0.3385978 -55.16  0.000895968    1.678    0.404
        41  -9.5930    105.4043    120.1467   8.8598172109e+01   3.7289909253e+01    0.2285519    0.2034144  16.05 0.0003560743    1.202    0.168
        42  -9.5909    168.1458    113.3977   7.0483984003e+01   2.5564377552e+01    0.3133006    0.2048902 -57.99  0.000933638    1.882    0.469
        43  -9.8420    205.1062    110.3947   6.2133489165e+01   1.7854627049e+01    0.3447878    0.2215097  36.63  0.001550055    1.771    0.435
        44  -9.4390    134.4970    103.0018   7.5916449787e+01   3.5269981261e+01    0.2432782    0.1536474 -41.94 0.0006020931    1.561    0.359
        45 -12.9585     79.0927    157.8150   1.0370315162e+02   3.2479762464e+01     1.534305    0.7818782  59.20  0.001481483    2.684    0.627
        46  -9.0950     24.8085     82.7613   1.0648017280e+02   5.6822398730e+01    0.1587736    0.1397283 -82.67 0.0003137899    1.290    0.225
        47 -10.4014     13.4033     60.2792   1.0575796319e+02   6.2597669675e+01    0.2160196    0.1803039 -52.11 0.0003983518    1.134    0.118
        48  -9.7372     30.0248     53.3280   9.6644711846e+01   6.2785637796e+01    0.1893568    0.1710723 -73.57  0.000701701    1.476    0.322
        49 -15.9055     36.1395    196.5248   1.1881302513e+02   2.8812354023e+01     9.084882     3.429065  83.06   0.03105316    4.673    0.786
        50 -11.3554     54.0927    240.3086   1.1873804741e+02   1.7790248023e+01    0.3818482    0.2766664  11.62  0.001425686    2.303    0.566
        51 -10.0590    132.4061     39.4376   5.6415024192e+01   4.7003848489e+01    0.3121011    0.2092542 -73.42  0.001086841    2.368    0.578
        52  -9.3257    132.1814     31.6258   5.3783912563e+01   4.8054556741e+01    0.2099636    0.1691419  81.50 0.0006100229    1.429    0.300
        53  -9.2039     30.0805     46.5545   9.4398179760e+01   6.4120408613e+01    0.1630491    0.1165622  16.06 0.0004427183    1.484    0.326
        54  -9.6797    189.5168     15.4931   3.9658167249e+01   3.5727998144e+01    0.1319498    0.1165192 -89.08 0.0008104023    1.008    0.008
        55 -10.0895      2.2482     14.2532   9.6320544747e+01   7.2116054825e+01     0.162963   0.08763263 -59.17 0.0008930131    2.433    0.589
        56 -11.8478     40.6695    235.0373   1.2086465716e+02   2.0371411420e+01    0.2939735    0.2145345  80.49 0.0005966828    1.174    0.148
