#   1 NUMBER                 Running object number                                     
#   2 MAG_AUTO               Kron-like elliptical aperture magnitude                    [mag]
#   3 X_IMAGE                Object position along x                                    [pixel]
#   4 Y_IMAGE                Object position along y                                    [pixel]
#   5 X_WORLD                Barycenter position along world x axis                     [deg]
#   6 Y_WORLD                Barycenter position along world y axis                     [deg]
#   7 A_WORLD                Profile RMS along major axis (world units)                 [deg]
#   8 B_WORLD                Profile RMS along minor axis (world units)                 [deg]
#   9 THETA_WORLD            Position angle (CCW/world-x)                               [deg]
#  10 FWHM_WORLD             FWHM assuming a gaussian core                              [deg]
#  11 ELONGATION             A_IMAGE/B_IMAGE                                           
#  12 ELLIPTICITY            1 - B_IMAGE/A_IMAGE                                       
         1 -13.9333    192.4311     28.4838   6.6435431984e+01   3.3843553659e+01     2.401525      2.02413 -50.70   0.01461635    1.240    0.194
         2 -12.9933    207.2901      9.9987   6.0318366153e+01   3.2413677516e+01     1.206585    0.7966261  79.25  0.002819408    1.289    0.224
         3 -11.4878    201.9462     17.4482   6.2605924341e+01   3.2853625822e+01    0.3897044    0.3151135  47.54  0.001098952    1.470    0.320
         4 -10.6743    164.8783     12.0840   6.5961175459e+01   4.2309014674e+01    0.2896694    0.1589008  62.27 0.0008151429    1.528    0.345
         5 -10.7763      2.9084      4.6826   1.1077607292e+02   7.1917549496e+01    0.3086909    0.1979436 -23.86   0.00235699    1.161    0.138
         6 -10.9566    162.0145      2.9037   6.3874205758e+01   4.3840195781e+01    0.4268609    0.3301262 -88.86  0.002644097    1.249    0.199
         7 -10.8776    193.6904    243.5010   1.1449524670e+02  -5.0043096454e+00    0.3516217    0.2328565   7.11  0.001630713    1.979    0.495
         8 -11.6989    174.8785    249.4042   1.1903885363e+02  -2.7586539031e+00    0.8377942    0.3888346  28.01  0.003529823    2.728    0.633
         9 -11.2501    165.6597    250.2774   1.2095030591e+02  -1.3368191931e+00    0.9577568    0.1654861  40.03  0.002727018    5.173    0.807
        10 -11.1707    141.6058    249.0156   1.2544792423e+02   2.9671790043e+00    0.6775667     0.247517  47.64    0.0028394    2.399    0.583
        11  -9.9399    134.2038    249.5727   1.2695772743e+02   4.1227419742e+00    0.2880799     0.216065  57.07  0.001354123    1.188    0.158
        12  -9.8670    121.4929    248.6703   1.2930257334e+02   6.4084024487e+00    0.2397555    0.2155972 -81.03 0.0008766954    1.242    0.195
        13  -9.4257     62.5928    250.5949   1.4047218352e+02   1.5079445666e+01    0.2057523   0.09536895  44.17 0.0002119241    1.872    0.466
        14  -9.8356     60.2930    247.6554   1.4063149242e+02   1.5957752647e+01    0.2717308    0.1436012  74.21  0.001106354    1.885    0.470
        15 -12.6953     51.6306    237.0107   1.4128764638e+02   1.9212499635e+01     1.100414    0.9535044 -60.21  0.006101719    1.583    0.368
        16 -11.9006     54.5358    230.2472   1.4015446446e+02   2.0199621437e+01    0.5530977    0.4349619 -67.65  0.003693405    1.433    0.302
        17 -12.8599     37.9110    226.7239   1.4294210600e+02   2.3043581617e+01     1.174141      1.00838  36.81  0.008341365    1.597    0.374
        18 -11.4154     27.4256    221.8660   1.4447956807e+02   2.5281120792e+01    0.4083199    0.2630144  59.24 0.0004393795    1.326    0.246
        19 -12.8595     50.1845    218.0160   1.3984969573e+02   2.3333452710e+01    0.7170086    0.4322862  65.71  0.002675914    1.477    0.323
        20 -14.6701     57.7209    206.7297   1.3719000679e+02   2.4792922493e+01     7.512802     1.445286  48.66   0.02296296    4.949    0.798
        21  -9.3574     67.7026    235.0667   1.3812405991e+02   1.7404615242e+01    0.2850634    0.1336871  72.17 0.0008837439    2.664    0.625
        22  -9.7906    167.4778    224.4800   1.1661970701e+02   2.7577242799e+00     0.253044    0.2077936 -33.04  0.001461021    1.391    0.281
        23 -10.2015    163.7985    212.1823   1.1531573803e+02   5.7335665526e+00    0.3971895    0.2264201  38.32  0.001333729    1.651    0.394
        24  -9.8281     30.4858    211.6210   1.4308254278e+02   2.7098860510e+01    0.2439483    0.1750008  59.19 0.0009867653    1.264    0.209
        25  -8.0883    156.6437    233.3100   1.2022193410e+02   3.1144963773e+00    0.1379218   0.09711629  67.12 0.0004123213    1.731    0.422
        26  -9.6676    192.0952    194.2500   1.0608664036e+02   3.7603722979e+00     1.079655    0.4915303 -62.36  0.002481204    8.479    0.882
        27 -11.0642     72.9398    186.7316   1.3143760605e+02   2.7206024888e+01    0.4383664    0.2703117 -46.02  0.001256037    1.994    0.499
        28 -11.0056     77.2922    180.6312   1.2956637670e+02   2.7989584757e+01    0.3163082    0.2469662 -52.52 0.0005416867    1.392    0.282
        29  -8.8959    201.3325    183.0337   1.0195566338e+02   4.0982384529e+00     0.271349    0.2139283  50.53  0.001350441    1.341    0.254
        30 -10.9499      6.6510    176.2601   1.4481662425e+02   3.7261888501e+01    0.3938409    0.2615817  36.95  0.002582021    1.780    0.438
        31  -9.3769     37.2752    177.5768   1.3833736635e+02   3.3955895934e+01    0.2242468     0.109285  41.32  0.001130221    2.110    0.526
        32 -12.6108     73.3807    166.5116   1.2834755258e+02   3.1932799730e+01     0.713316    0.4304676 -39.77  0.001181212    2.196    0.545
        33 -10.6833     85.3700    169.9882   1.2597673100e+02   2.9270944377e+01    0.2755384    0.2532501 -76.83 0.0003729967    1.083    0.077
        34 -12.1487     90.5263    163.5171   1.2359840915e+02   2.9991483586e+01     2.743476     1.142084  55.10  0.001995351    3.245    0.692
        35 -13.1131     67.7415    144.7291   1.2611573898e+02   3.7994401345e+01     3.121752     1.501592 -85.03  0.006950533    4.940    0.798
        36  -9.4065     45.0010    174.1208   1.3617821063e+02   3.3872544359e+01    0.3526817    0.1451977  46.03  0.001587091    2.447    0.591
        37 -10.2573    227.9665    170.9325   9.4266845255e+01   1.2201045595e+00    0.3821018    0.3054619  56.48   0.00158773    1.477    0.323
        38 -11.1720      3.3976    168.6913   1.4484061187e+02   3.9223170822e+01    0.4570596    0.2617728 -65.28   0.00252736    1.468    0.319
        39  -9.5405     38.7041    170.5580   1.3718992339e+02   3.5432845533e+01    0.2080038    0.1307646  27.07  0.001126771    2.049    0.512
        40  -9.3209     37.4413    162.4753   1.3648147344e+02   3.7472491603e+01    0.2302967    0.1878601 -17.98  0.001198645    1.787    0.440
        41 -13.5345     11.5559    207.0635   1.4629498969e+02   3.0079885637e+01    0.9654399    0.6890794  28.24  0.002805982    1.969    0.492
        42  -9.0354    111.0314    155.7262   1.1696403622e+02   2.8275808024e+01    0.2389051    0.1982155 -61.25 0.0003522407    1.166    0.142
        43 -11.8561     48.2123    149.1663   1.3195617274e+02   3.9424462481e+01     0.722656    0.5545759  43.73  0.003786427    1.440    0.306
        44  -8.6512    109.1079    140.4835   1.1425925979e+02   3.2264399003e+01    0.2144297      0.19337 -58.26    0.0003694    1.070    0.065
        45  -9.4061    103.1990    146.7997   1.1715221121e+02   3.1838020629e+01    0.3053996      0.26109 -56.60 0.0007909584    1.128    0.113
        46  -9.0519    105.4639    143.4917   1.1586560035e+02   3.2219928940e+01    0.2985114    0.2323262 -35.92  0.001060552    1.449    0.310
        47 -11.4116     92.0565    145.8879   1.1988962087e+02   3.3988169755e+01    0.2922109    0.2583303 -42.93 0.0004314496    1.206    0.171
        48 -10.3011    223.2641    143.9380   8.9287083362e+01   7.1786370531e+00    0.2377691    0.2205153  53.95 0.0002913362    1.161    0.139
        49  -8.3681    176.8576    149.8932   9.9963890815e+01   1.5943761044e+01     0.218337    0.2040948   0.20 0.0002932443    1.164    0.141
        50  -9.1551    112.7280    133.8870   1.1182427552e+02   3.3137651255e+01    0.3289761    0.2600043  -9.86 0.0009597217    1.728    0.421
        51 -10.4394     35.4309    133.2771   1.3284580382e+02   4.4584578854e+01    0.2709337    0.1774617 -25.96  0.001420818    2.131    0.531
        52  -8.7207     82.6103    244.1563   1.3621530650e+02   1.3428690738e+01    0.1594515    0.1080798 -59.56 0.0009487347    1.709    0.415
        53  -9.9502    100.3001    130.6738   1.1443280444e+02   3.6197089144e+01    0.2798901    0.2356566 -23.47 0.0003687471    1.393    0.282
        54 -11.4122     41.5217    115.6936   1.2806592634e+02   4.8068243160e+01    0.4272699    0.3198036 -28.07  0.002486737    1.529    0.346
        55 -10.6655     44.1238    130.3029   1.2997763844e+02   4.4378420728e+01    0.2812256    0.1975883  10.32  0.001398187    1.950    0.487
        56 -11.7834     40.9298    125.8196   1.3008908096e+02   4.5774881337e+01     0.512198    0.3200203 -67.01  0.002756887    1.397    0.284
        57  -8.8405    119.2111    125.7757   1.0818936742e+02   3.3751652715e+01    0.3787544    0.2023282 -28.95  0.001261461    3.130    0.681
        58 -10.0726    241.7397    125.5486   8.2041611162e+01   6.8281830871e+00    0.2567642    0.2295879 -35.88 0.0004308656    1.073    0.068
        59  -8.8448    108.8494    121.9875   1.1005554484e+02   3.6645784033e+01    0.2146348    0.2076419 -57.44 0.0003916811    1.013    0.013
        60 -10.0120     34.1637    120.2040   1.3102666069e+02   4.7761074001e+01    0.2004638    0.1538513 -48.46  0.001223852    1.209    0.173
        61  -9.3211    167.9967    113.3073   9.3066182437e+01   2.5719857272e+01    0.3670346     0.274596 -82.31  0.001030355    1.733    0.423
        62 -10.1858     35.8415    112.0727   1.2905817358e+02   4.9469126582e+01    0.1997059    0.1647272 -83.70  0.001244272    1.273    0.215
        63 -15.6663      8.3565    240.8671   1.4902287833e+02   2.3541669105e+01     7.500644     1.534639 -72.02   0.01662143    3.823    0.738
        64  -7.4900    113.3155     95.2996   1.0182352274e+02   4.1628517244e+01    0.1501065    0.1177651  -0.86 0.0002551078    1.612    0.380
        65  -9.6983    242.9661     92.5216   7.4550115122e+01   1.2411855001e+01    0.2003944    0.1362041  61.22 0.0009019568    1.587    0.370
        66  -8.8637    181.0357     80.0702   8.1657078631e+01   2.8967956479e+01    0.2159283     0.207803 -89.42 0.0003410669    1.034    0.033
        67  -8.2398    155.4550     78.5141   8.6476153345e+01   3.5456220455e+01    0.1493507    0.1450858  68.23 0.0002393256    1.011    0.011
        68  -8.9805    103.8346    238.2680   1.3148812696e+02   1.1254666170e+01    0.2041026    0.1556147  83.09 0.0004794938    1.297    0.229
        69 -10.1941    236.8215     69.7813   7.0331961666e+01   1.7512147342e+01    0.2595808    0.2201637  69.49 0.0004994668    1.237    0.191
        70  -8.0663    122.8691     65.1371   9.0278540615e+01   4.5278885243e+01    0.1847871    0.1582075  19.98 0.0009946044    1.219    0.180
        71  -9.2673    179.4527     53.3953   7.4837050507e+01   3.3676946582e+01    0.2790737    0.1980148  38.54 0.0007082493    1.666    0.400
        72 -11.9551    250.0408    233.5197   1.0234459653e+02  -1.2402087152e+01    0.2260811    0.1727225 -18.06 0.0004316342    1.209    0.173
        73 -11.5944    153.9469    245.6276   1.2256979680e+02   1.4360244143e+00    0.5506631    0.4810289  23.24  0.003539717    1.229    0.187
        74 -10.2446    134.3819     42.2678   8.0347639042e+01   4.6112859930e+01    0.2512834    0.2236255  33.33 0.0003572088    1.107    0.097
        75  -8.8269     54.3317     43.0348   1.0405428012e+02   6.1112663232e+01    0.3556573    0.1468822  48.15  0.001375511    4.235    0.764
        76  -8.5239     48.3367     40.9647   1.0554339779e+02   6.2218029400e+01    0.2639782    0.1324761  42.37 0.0009892209    2.471    0.595
        77  -8.2005     62.9148     46.4616   1.0218919679e+02   5.9369500480e+01    0.1768096    0.1169071  34.09 0.0005448291    1.529    0.346
        78  -8.8608    229.3548     21.4645   6.0632904930e+01   2.6022380434e+01    0.2328654    0.1479502 -35.03  0.001304764    1.743    0.426
        79  -9.9542     89.3207    244.5746   1.3499364933e+02   1.2329204564e+01    0.2784591    0.2036794  82.78 0.0005096928    1.296    0.228
        80  -9.7366     73.4390    247.2288   1.3821537666e+02   1.4188730357e+01    0.2481271    0.1343007  57.87  0.001052462    1.559    0.358
        81 -10.5672     69.1352    245.6937   1.3886034493e+02   1.5101715526e+01    0.3564607    0.2280038 -72.39  0.002194461    1.574    0.365
