#   1 NUMBER                 Running object number                                     
#   2 MAG_AUTO               Kron-like elliptical aperture magnitude                    [mag]
#   3 X_IMAGE                Object position along x                                    [pixel]
#   4 Y_IMAGE                Object position along y                                    [pixel]
#   5 X_WORLD                Barycenter position along world x axis                     [deg]
#   6 Y_WORLD                Barycenter position along world y axis                     [deg]
#   7 A_WORLD                Profile RMS along major axis (world units)                 [deg]
#   8 B_WORLD                Profile RMS along minor axis (world units)                 [deg]
#   9 THETA_WORLD            Position angle (CCW/world-x)                               [deg]
#  10 FWHM_WORLD             FWHM assuming a gaussian core                              [deg]
#  11 ELONGATION             A_IMAGE/B_IMAGE                                           
#  12 ELLIPTICITY            1 - B_IMAGE/A_IMAGE                                       
         1 -12.4567     74.8784     51.0477   8.3152294131e+01   5.7433017957e+01     1.291115    0.7410776 -48.28  0.006083449    1.847    0.458
         2 -12.2701     89.5667     59.4185   8.1155819845e+01   5.3306250186e+01     1.097899    0.9422192  50.52  0.006102704    1.341    0.255
         3 -13.4065     42.1104     45.6260   9.3871099807e+01   6.3011342893e+01    0.8805695    0.6398766  48.62 0.0005439772    1.966    0.491
         4 -12.2270    124.9288     27.8086   5.9316882091e+01   5.0665867481e+01    0.7693558    0.5905792  30.35  0.004082805    1.304    0.233
         5 -12.2424     60.9620     46.2012   8.6502391100e+01   6.0478856491e+01     1.045705    0.4792967 -47.02  0.004652658    2.141    0.533
         6  99.0000      5.9182     33.8999   1.0610674502e+02   6.8314793916e+01     2.225461    0.2308667 -52.01  0.008271321    3.731    0.732
         7 -10.7738     22.3807      5.0708   8.5622840995e+01   7.1923467234e+01    0.2579926    0.1792582 -32.83 0.0004421482    1.335    0.251
         8 -11.9715     26.8255     27.9724   9.3968498382e+01   6.7841034969e+01    0.4978001    0.4170211   9.26   0.00301441    1.308    0.235
         9 -11.4762     20.1059     22.3238   9.4915380962e+01   6.9433652962e+01    0.6769112    0.2148028 -44.94   0.00284462    2.438    0.590
        10 -12.1533     22.3910     11.7214   8.8972210881e+01   7.0944961475e+01    0.5417665    0.3955755  -2.75  0.003772192    1.214    0.176
        11 -12.7464    162.7965     28.4889   5.2041621462e+01   4.1127675206e+01    0.7772117    0.4822861  43.04 0.0008534004    1.688    0.408
        12 -11.4196    137.5420     22.5614   5.4682925384e+01   4.8217799929e+01     1.399948    0.3996773  42.98  0.004111012    4.252    0.765
        13 -10.5085    145.7982     16.8720   5.1135311194e+01   4.6775451590e+01    0.4096974    0.3284537 -83.75 0.0004323825    1.400    0.286
        14 -10.9254     79.6205     33.0708   7.4383615234e+01   5.9615513724e+01    0.7601566    0.4678427  16.34  0.003618533    1.987    0.497
        15 -10.9864    178.6216     21.3504   4.7398302096e+01   3.7897930522e+01    0.6700777    0.4028445  14.83  0.002799382    2.695    0.629
        16 -11.2931    182.7409     25.3507   4.8005571788e+01   3.6376822746e+01    0.6003069    0.3393861  50.08  0.002738718    1.795    0.443
        17 -11.4620    105.9611     20.3626   6.1086665383e+01   5.5933224987e+01    0.3574761    0.2453796 -25.10  0.000531185    1.494    0.331
        18 -12.4092    113.2619     25.0615   6.1086735298e+01   5.3729027729e+01    0.9650671    0.4277101  52.94  0.003577768    2.071    0.517
        19 -11.0115    198.5760     28.7517   4.6856045171e+01   3.1935121221e+01    0.5965151    0.4046526 -12.91  0.002519555    1.865    0.464
        20 -11.7100     14.1621     23.6279   9.8429171515e+01   6.9687277357e+01    0.3071521    0.2219181 -32.96 0.0002375759    1.039    0.037
        21 -10.7847    214.6297     23.1839   4.3483999702e+01   2.8627636204e+01    0.4491107    0.3574817   5.71  0.002474518    1.708    0.415
        22 -10.5363     86.9630      7.4912   6.0794784915e+01   6.1374782069e+01    0.5710427     0.312642  53.22  0.002621704    1.746    0.427
        23 -11.2334     90.9482     20.8927   6.5533138448e+01   5.9079234441e+01    0.6252785    0.3623166 -21.57  0.002484699    1.751    0.429
        24 -11.4907     86.0549     14.2798   6.4120880781e+01   6.0845776192e+01    0.5493625    0.3414944 -16.74  0.001734799    1.622    0.383
        25 -11.0659    153.9267     25.1803   5.2498382828e+01   4.3792492180e+01    0.9696944    0.5499497  30.63  0.004071341    2.289    0.563
        26 -10.2599     50.1493      6.2626   7.3103654346e+01   6.8160136839e+01    0.2264703    0.1712701   8.30 0.0004205765    1.102    0.093
        27 -10.2469     47.3094     19.1443   8.0694789157e+01   6.6869891392e+01    0.4142957    0.3231498  -2.93  0.001435589    1.086    0.079
        28 -12.3792     49.4589     12.8581   7.6736458588e+01   6.7437341543e+01      0.56356    0.3102151  42.18  0.003075157    2.008    0.502
        29 -10.5551     42.0174     14.5042   8.0812455385e+01   6.8254453378e+01    0.3264027    0.1894529  28.69  0.001283372    1.724    0.420
        30 -11.7412     35.6119     18.4925   8.5673125160e+01   6.8469581878e+01    0.6188232    0.3854251 -37.94  0.003417444    1.467    0.318
        31 -12.1439     33.0254     12.8258   8.4190247099e+01   6.9623942048e+01    0.2256118    0.1914014  16.77 0.0004384348    1.350    0.259
        32 -11.9149     68.2734     17.9973   7.1777035109e+01   6.3743354179e+01    0.4977323    0.4333188  20.69  0.001802092    1.153    0.133
        33 -11.3706    120.5109     57.6927   7.1276811415e+01   4.7244085798e+01     1.958237     1.349317 -75.14  0.008054591    2.493    0.599
        34 -12.0327    238.6826     16.0258   3.9433911272e+01   2.3795142678e+01     0.842482    0.4324522  72.76  0.002914158    1.905    0.475
        35 -12.0822    245.8931      6.3336   3.6676066265e+01   2.3268734608e+01     0.662652    0.5641434 -62.54  0.003469652    1.076    0.071
        36 -11.2575    165.0808     17.8535   4.8296797410e+01   4.1761049356e+01    0.4743954    0.2807739  36.12  0.001750121    2.001    0.500
        37  -9.7259    120.3078     19.0019   5.7041855563e+01   5.2792562626e+01    0.5274087     0.161328 -24.72  0.001818848    3.489    0.713
        38 -11.9908    132.1140     15.1315   5.3082606917e+01   5.0358852468e+01     1.124208    0.5252535  71.29  0.003964706    2.475    0.596
        39  -9.4763    141.4360     12.2960   5.0322994348e+01   4.8334471069e+01    0.2248598    0.1838828   3.78 0.0007231991    1.360    0.265
        40 -10.2349    225.8986     15.2541   4.0377353368e+01   2.6846300184e+01    0.3913598    0.1998011 -39.32  0.001442229    1.779    0.438
        41  -9.1163    191.5469     16.7868   4.4397865443e+01   3.5110735114e+01    0.3509638    0.2533775  16.50  0.001779747    1.907    0.476
        42 -11.3254    192.3187      7.9709   4.1858095701e+01   3.5843795642e+01    0.6047207    0.4166109   6.00   0.00307564    2.058    0.514
        43 -10.4405    185.8340     14.6890   4.4501474279e+01   3.6787935087e+01    0.4559912    0.2507886 -80.01  0.001726141    2.259    0.557
        44 -12.2551    104.5916     12.7372   5.8303392323e+01   5.7069339984e+01    0.5304972    0.4589106 -27.51  0.001956948    1.270    0.213
        45 -10.8403    109.1359      2.4361   5.2978209271e+01   5.6995942376e+01     1.473877      0.28296  61.67  0.004440891    4.532    0.779
        46 -11.5943    211.9102      9.8069   4.0336131570e+01   3.0801614375e+01     0.428096    0.3068759   4.89 0.0006422721    2.040    0.510
        47  -9.4819     94.7312     11.9701   6.0581796442e+01   5.9297944569e+01    0.2634495    0.1541015  39.96 0.0008388091    1.546    0.353
        48  -8.9827     61.9612     11.9540   7.1256395980e+01   6.5578529971e+01    0.1893316    0.1372849   1.81  0.000464053    1.251    0.201
        49 -10.1545     66.1809     10.0486   6.8761797294e+01   6.5076700035e+01    0.2990008    0.1923377  46.72   0.00110204    1.628    0.386
        50  99.0000      4.5315     11.5319   9.8530748019e+01   7.2448670547e+01      0.34043     0.145207 -40.15  0.001953882    1.716    0.417
        51  -9.8383     62.6722      6.9528   6.8522502184e+01   6.6036616899e+01      0.31182    0.2035205  11.87  0.001619183    1.488    0.328
        52  -9.8806    168.9500      9.7250   4.5214238125e+01   4.1605075285e+01    0.3714537    0.1673477  48.27  0.001554815    2.234    0.552
        53  -9.0123    163.1412      9.8586   4.6062130740e+01   4.3075478454e+01    0.2287835    0.1903849  -7.72 0.0005507944    1.386    0.278
        54  -9.3930    163.4657      5.5656   4.4669278432e+01   4.3397342863e+01    0.3234661    0.1714395  41.64  0.001457626    2.070    0.517
        55 -11.0448    233.7233      6.9481   3.7737425608e+01   2.5943704646e+01    0.5815728    0.2667611  66.60   0.00281526    2.085    0.520
        56 -10.1587    228.0146      3.7136   3.7435820897e+01   2.7606731626e+01    0.3071023    0.2425214 -65.83  0.001436789    1.090    0.083
        57 -11.0255    218.9175      3.1749   3.8052731369e+01   2.9804677004e+01    0.3292872    0.2835193 -43.91  0.001228318    1.208    0.172
        58 -10.3591    223.5307      1.9874   3.7385810709e+01   2.8833781235e+01    0.3044348    0.2139317  71.55  0.001095347    1.363    0.266
        59 -11.2835     40.8190      5.6945   7.6878283222e+01   6.9591146688e+01    0.4697077    0.2310907 -12.87  0.002269218    2.452    0.592
        60  -9.2356      1.1387      7.3233   9.8595716656e+01   7.3362311592e+01    0.2249813   0.05513304 -50.49 0.0006266685    3.219    0.689
        61 -11.1380      3.1925      1.8092   9.4758398821e+01   7.4099632341e+01     0.392511    0.1701142  10.51  0.002165209    2.682    0.627
        62 -10.2420    183.3951      4.9237   4.2000208552e+01   3.8392293852e+01    0.3607692    0.2269154 -39.67  0.001337672    1.617    0.382
        63  -9.3595    154.6473      7.0074   4.6384780609e+01   4.5506145927e+01    0.3850889    0.1777225  73.16  0.001614148    2.146    0.534
        64  -9.2590     78.4864      7.4912   6.3362651070e+01   6.3070608624e+01    0.2180851    0.1566579  46.74 0.0006427867    1.359    0.264
        65 -10.4296     76.5189      3.9350   6.2297660733e+01   6.3805922737e+01    0.4285859    0.2849535  11.20  0.001732098    1.472    0.321
        66 -10.5904     73.0126      3.0000   6.2970191300e+01   6.4568562091e+01    0.5458537    0.2365992  29.82  0.002320203    2.565    0.610
        67 -10.5945    176.3064      5.4873   4.2996708624e+01   4.0136507824e+01    0.4191995    0.2348516  83.34  0.001083922    1.812    0.448
        68 -11.6278    133.4741      2.8039   4.8347595168e+01   5.1169089592e+01    0.4075673    0.2506242  48.58  0.001559541    1.448    0.310
        69 -12.6905     17.0394     13.3357   9.2537353842e+01   7.1192925522e+01     0.656229     0.435949 -31.01  0.003265264    1.159    0.137
        70 -10.3999    142.2668      3.0739   4.6976132667e+01   4.8969034536e+01    0.3957311    0.2668739  53.71  0.001578787    1.311    0.237
        71 -10.0532    206.4035      2.6616   3.9029367402e+01   3.2877569607e+01    0.4934769    0.2136367 -89.94  0.001994897    2.683    0.627
        72  -9.1515    169.8173      3.2231   4.3121022894e+01   4.1994343473e+01    0.2410158    0.1154984 -62.70 0.0009495788    2.804    0.643
        73  -9.5650    158.3250      2.3256   4.4347431021e+01   4.4990895825e+01    0.3995033    0.1657567  44.35  0.001607515    2.559    0.609
        74 -10.3665     12.8420      1.9081   8.9180550511e+01   7.3306322453e+01    0.2375411    0.1482619   9.38 0.0008057433    1.551    0.355
        75 -10.1047     82.1934      1.3080   5.9330107813e+01   6.2924530098e+01    0.1952976    0.1027501  51.56 0.0003453192    1.729    0.422
        76  -8.5929     34.2889      1.2664   7.7544891905e+01   7.1016472705e+01    0.1155651   0.07256027   1.83 0.0003255121    1.500    0.333
        77  -8.6610    151.9352      1.0000   4.4813389717e+01   4.6717943564e+01    0.2196235   0.06938342  68.74 0.0005714633    2.815    0.645
        78 -11.9093     29.9330    132.8921   1.1734650306e+02   4.4373652999e+01    0.4414836    0.3088773  87.72 0.0003694962    1.324    0.245
        79 -10.0032    142.9624    249.5296   1.0712167535e+02   4.2271893812e+00    0.1708814    0.1533188  50.11  0.001247195    1.143    0.125
        80 -10.5997     39.3116    137.9024   1.1553612022e+02   4.2259018317e+01    0.2894444    0.2443628 -43.42  0.001828629    1.394    0.282
        81 -10.1785     47.3086    135.7068   1.1310906000e+02   4.1927518991e+01    0.4573583    0.1676773 -64.05  0.001407392    2.266    0.559
        82  -9.3813    192.2157    136.4143   7.6917324836e+01   1.5267405902e+01    0.2056141    0.1471856  58.01 0.0005831761    1.598    0.374
        83  -9.2339    216.6226    135.2216   7.1869070062e+01   1.0279247901e+01    0.2071784    0.1322993 -25.77 0.0005641115    1.612    0.380
        84 -10.6450     92.9029    129.2737   9.9467247434e+01   3.7156973889e+01    0.4266387     0.285078 -68.58  0.001994386    1.564    0.361
        85 -10.1034     67.4668    135.7908   1.0768604160e+02   3.9417260199e+01    0.4072055    0.2028214 -45.09  0.001399182    2.266    0.559
        86  -9.3734    107.6664    145.9374   9.8949830446e+01   3.0644847484e+01    0.2067014    0.1816579 -68.92 0.0004513428    1.100    0.091
        87 -10.0923     61.7644    132.0740   1.0860428368e+02   4.1072388547e+01    0.3626852    0.2829252 -23.50   0.00196809    1.723    0.420
        88  -9.9496     82.3575    135.2831   1.0355280303e+02   3.7392720601e+01    0.2483928    0.1807041  21.59 0.0006703357    1.758    0.431
        89  -9.4634    103.6398    130.8085   9.6870913962e+01   3.4938247882e+01    0.2390738     0.201432  29.25 0.0004638986    1.330    0.248
        90 -10.9158     10.8074    127.0789   1.2169521304e+02   4.7305038991e+01    0.5380691    0.1890278 -57.84   0.00177054    2.311    0.567
        91 -10.4344     81.0079    126.3771   1.0217595469e+02   3.9754208310e+01    0.5400737    0.3315178 -21.30  0.002082411    3.100    0.677
        92  -9.1622    223.9834    126.9192   6.8577724193e+01   1.0209711663e+01    0.2222686    0.1713537 -61.80 0.0005485403    1.625    0.385
        93  -9.9780     22.9941    126.9600   1.1844503499e+02   4.6394617601e+01    0.1829396    0.1468379 -79.53  0.001189626    1.017    0.017
        94  -9.8666      2.7419    126.5847   1.2373569697e+02   4.7960880473e+01    0.2446468    0.1623739  62.85   0.00155873    1.554    0.357
        95 -10.7563     55.9117    123.4333   1.0873978430e+02   4.3903379953e+01    0.5131832    0.3802044   5.26  0.001964266    1.905    0.475
        96 -11.1253     45.5314    120.3295   1.1118232537e+02   4.5843988734e+01    0.4732689    0.2592788  65.33  0.002109893    2.514    0.602
        97  -9.7913     43.9613    115.9923   1.1090163476e+02   4.7060291079e+01    0.2937336    0.1766977  33.48  0.001023479    1.903    0.475
        98  -9.7108    239.3292    125.3286   6.5599318523e+01   7.3492886742e+00    0.1466085    0.1059029   3.76 0.0007051231    1.709    0.415
        99  -9.3332     66.7719    124.5890   1.0585381570e+02   4.2233755656e+01    0.2721207    0.2073339  -7.04  0.001397606    1.884    0.469
       100  -9.7604     18.8187    124.4118   1.1925536431e+02   4.7335781631e+01    0.2423113    0.1375064 -64.91 0.0007067898    1.406    0.289
       101 -11.9071    104.1926    122.1942   9.4785708223e+01   3.6881099681e+01    0.4419943    0.4165182  18.32  0.001057769    1.178    0.151
       102  -8.6799     94.3005    123.3093   9.7791612274e+01   3.8352376803e+01    0.1465813    0.1145012 -24.40 0.0003486609    1.601    0.375
       103 -10.8035     33.1569    119.3340   1.1457340544e+02   4.7324547876e+01    0.3098213     0.261463 -76.15  0.001558348    1.036    0.035
       104  -9.9437      4.7318    120.4987   1.2259537838e+02   4.9246376145e+01    0.2648725    0.1650224 -62.10  0.000907603    1.338    0.253
       105  -9.0603    221.4488    120.4765   6.7480564560e+01   1.1876302798e+01    0.1478122    0.1357661 -25.66 0.0002187118    1.006    0.006
       106  -9.4240    148.4008    119.8883   8.2651937005e+01   2.8405648518e+01    0.2934627     0.207964   4.38  0.000898082    2.206    0.547
       107  -9.2219     72.0076    120.2161   1.0349188840e+02   4.2572126482e+01    0.2238535     0.160388 -18.73  0.001066608    2.013    0.503
       108  -9.7457    185.6201    118.8514   7.3956802526e+01   2.0163881821e+01    0.2249048    0.2051537  21.57  0.001155787    1.142    0.124
       109  -9.8691    113.4047    115.9396   9.0741069588e+01   3.6616199865e+01    0.2714523    0.2281819  29.98 0.0003655386    1.302    0.232
       110 -10.5775    107.6198    112.1465   9.1399995529e+01   3.8603432954e+01    0.5515638    0.3543228 -69.52  0.002298845    1.998    0.500
       111 -10.9933    102.2736    109.3755   9.2220216195e+01   4.0242480152e+01    0.6740268    0.5570798  -0.27  0.003370287    1.513    0.339
       112  -9.7601     67.1741    114.1607   1.0366566894e+02   4.4708840611e+01    0.3410369    0.2345908 -89.33  0.001647218    1.801    0.445
       113  -9.7234     67.0038    110.7591   1.0299800456e+02   4.5552477723e+01    0.2913296    0.2003413  33.06  0.001494417    1.643    0.391
       114 -11.1140     42.2689     94.1805   1.0726020567e+02   5.2449412723e+01    0.3572442    0.2899323  79.33  0.001404222    1.437    0.304
       115 -11.2889     17.1174    100.9214   1.1652442257e+02   5.3010650524e+01    0.3237987     0.295046 -32.03 0.0004017572    1.300    0.231
       116 -12.0360     34.3433     93.4286   1.0971292810e+02   5.3390169299e+01     1.627679    0.9181252 -73.07  0.008199671    1.743    0.426
       117 -11.4507      9.4587     97.0775   1.1831654100e+02   5.4409304691e+01    0.6436259    0.4238709  86.31  0.003865235    1.566    0.362
       118 -12.0828      7.5692     89.0090   1.1770326575e+02   5.6383331006e+01      0.49841    0.4420846  37.92  0.001283491    1.425    0.298
       119 -11.6591     22.1895     94.8931   1.1394372863e+02   5.4055351748e+01    0.5720824    0.3617842   1.23  0.003198905    2.200    0.545
       120 -12.3554     18.4578     89.6083   1.1423584794e+02   5.5557044637e+01    0.7103727    0.3253337 -41.27  0.001552659    2.218    0.549
       121 -12.6859     25.2940    107.3227   1.1502855263e+02   5.0879608838e+01    0.9135633    0.6966304 -32.97   0.00374897    1.522    0.343
       122 -11.9657     18.7741    106.1063   1.1680166353e+02   5.1671288897e+01    0.2316287    0.2002998 -65.41  0.000272595    1.110    0.099
       123 -11.3204     22.5537    114.0479   1.1684163759e+02   4.9501063887e+01    0.4267414    0.2653894  -4.47  0.001680469    2.502    0.600
       124 -11.1692     28.5076    113.0172   1.1495735379e+02   4.9253939094e+01     0.343841    0.2653359  -2.28  0.001360124    1.756    0.431
       125 -10.5291     37.8464     86.1328   1.0700146771e+02   5.4764144311e+01    0.2131076    0.1660917 -80.34 0.0005786419    1.375    0.272
       126 -11.8916     43.5268     85.2535   1.0484847856e+02   5.4399764287e+01    0.5597347    0.3613994  11.66  0.002358151    2.002    0.500
       127 -11.6005      2.3338    112.0343   1.2232496057e+02   5.1356045523e+01    0.4851443    0.3048016  61.01  0.002277778    1.766    0.434
       128 -11.5473      3.6505    105.5557   1.2119163764e+02   5.2782511979e+01    0.4152097    0.3336239 -75.49  0.001812611    1.058    0.054
       129  -9.4269    126.9622    113.6927   8.6509234373e+01   3.4398988190e+01    0.2196632     0.206605  47.81 0.0008745274    1.091    0.084
       130  -9.7526     48.7230    112.3385   1.0883180343e+02   4.7427172434e+01    0.2421022     0.215344 -55.31  0.001101083    1.107    0.097
       131 -11.1549    170.4287    110.4592   7.5041215407e+01   2.5357220166e+01    0.4660516    0.4050818 -22.41  0.001390978    1.199    0.166
       132 -11.2053     79.3619    108.2849   9.8709169694e+01   4.4359875971e+01    0.6920216    0.3899202  36.46  0.002396705    1.942    0.485
       133 -10.4855     90.7111    104.0720   9.4266792959e+01   4.3521980200e+01    0.4204713    0.3481628   2.57  0.001454465    1.482    0.325
       134 -10.1088     85.9891    103.9876   9.5667075159e+01   4.4328034860e+01    0.4477935    0.3010367 -20.00  0.001713175    2.151    0.535
       135  -9.1272     79.4594    114.4838   1.0009457950e+02   4.2861427959e+01    0.1453469    0.1313162 -55.91 0.0008087595    1.038    0.037
       136 -10.2412    120.3730    109.5010   8.7184350973e+01   3.6704636941e+01    0.3224561    0.2317776 -39.49  0.001479291    1.397    0.284
       137 -10.4756    157.4556    106.5247   7.6946269514e+01   2.9189526127e+01     0.412478    0.2914274 -21.02  0.001412996    1.729    0.422
       138 -10.5711    143.2995    105.9921   8.0237165204e+01   3.2544112653e+01    0.3756678    0.3487132 -68.54    0.0013203    1.129    0.114
       139 -11.8522    145.4819    100.8245   7.8261217226e+01   3.3143800469e+01    0.5878276    0.4780195  39.20  0.002315223    1.272    0.214
       140 -10.1975     57.7349    103.0077   1.0418140309e+02   4.8613218750e+01    0.3911746    0.1723651 -59.05   0.00165731    1.972    0.493
       141  -9.8696     58.2916     97.7335   1.0282751179e+02   4.9796817715e+01    0.4120734    0.1979133  31.57  0.001825911    2.373    0.579
       142  -9.5174     82.4719    102.2697   9.6309013784e+01   4.5297724057e+01    0.3372546    0.1717747 -35.27  0.001284787    2.514    0.602
       143  -9.2451     50.7009    101.6493   1.0611130537e+02   4.9771162047e+01    0.2577629    0.1549613 -52.40 0.0008285887    1.429    0.300
       144 -10.9863     52.2021     96.3594   1.0448614757e+02   5.0853941694e+01    0.8886243    0.4730099 -83.54  0.003326026    3.376    0.704
       145  -9.3441    120.7859    101.1973   8.4827676156e+01   3.8478454477e+01     0.220684       0.1861 -11.92  0.001072156    1.373    0.271
       146 -11.1133     89.7381     89.6067   9.0683094706e+01   4.7002390288e+01    0.7040191    0.3436494 -37.68  0.002740441    2.223    0.550
       147  -9.6405     81.3477     97.7570   9.5511233191e+01   4.6529799264e+01    0.1934191    0.1659167 -11.38 0.0004465631    1.334    0.250
       148  -9.3945     77.3223     96.9789   9.6572878982e+01   4.7336378223e+01    0.2990176    0.2172798 -23.95  0.000538576    1.661    0.398
       149 -10.2394     64.9587     99.0000   1.0098806284e+02   4.8634789583e+01    0.3033423    0.1938698  29.04  0.001348917    1.810    0.448
       150 -10.6080     67.9916     95.2324   9.9105579260e+01   4.9105192996e+01    0.5340167    0.3105458  35.78  0.002532853    1.910    0.476
       151 -10.6829     82.5525     93.2697   9.3951342195e+01   4.7372427356e+01    0.4683771    0.3635911  54.16  0.001314097    1.497    0.332
       152 -10.4870     76.5104     93.0040   9.5799937025e+01   4.8380516898e+01    0.4758546    0.3458543 -14.60  0.002317826    1.795    0.443
       153 -10.1399    210.8432     97.5715   6.3614433051e+01   1.8298158032e+01    0.4223267    0.3058725  28.92   0.00176605    1.686    0.407
       154  -9.4757     46.0926    105.0440   1.0824564166e+02   4.9469029817e+01    0.3780774    0.1510522 -43.28  0.001486857    2.758    0.637
       155 -10.0876    117.4982     93.1271   8.3452928175e+01   4.0928307526e+01    0.3769327    0.2851439  28.60  0.001285726    1.483    0.326
       156 -10.5168    120.9921     89.2235   8.1330610353e+01   4.1029081171e+01    0.4106446    0.2976446  27.92  0.001323399    1.591    0.371
       157 -10.9026    120.9314     85.1498   8.0122111070e+01   4.1895890599e+01    0.4435633    0.3396944  56.95  0.001879487    1.446    0.309
       158 -10.3414    125.9879     93.4922   8.1217094506e+01   3.9049533278e+01    0.3589716     0.335825  50.91  0.001066912    1.109    0.099
       159 -10.5103    122.4729     93.5295   8.2187138795e+01   3.9795913463e+01    0.3567361    0.2805885 -58.19 0.0009937565    1.361    0.265
       160  -9.4605    160.6102     93.8688   7.2681884300e+01   3.1010617247e+01    0.3213878     0.218079  70.76  0.001320546    1.911    0.477
       161 -11.5468    101.9741     89.7540   8.6978978498e+01   4.4751411599e+01    0.7601047    0.6299148 -17.60  0.002878002    1.333    0.250
       162 -10.3341    104.1464     77.7116   8.2673657963e+01   4.6900018812e+01    0.6443937    0.4082825 -31.77  0.002860393    1.658    0.397
       163 -11.1822    113.2551     84.9649   8.2236669881e+01   4.3549491650e+01    0.6523034    0.3641308 -35.76  0.001127517    1.856    0.461
       164 -10.7052    152.4781     91.4950   7.3893636784e+01   3.3422961247e+01    0.5305845    0.4348696  80.56  0.002200818    1.468    0.319
       165  -9.1523    137.9516     93.2123   7.7982584821e+01   3.6452344420e+01    0.2739047    0.1850718  17.85  0.001080007    2.169    0.539
       166 -10.4571    183.5966     85.6895   6.5467261048e+01   2.6961219497e+01    0.8279999     0.309283 -46.79  0.002630526    2.948    0.661
       167  -9.6493     66.7557     88.6124   9.7821815893e+01   5.0809333054e+01    0.3630481    0.2517125 -14.59  0.001436247    1.932    0.482
       168 -10.5492     91.0577     47.9456   7.6473831742e+01   5.5087314302e+01    0.3797724    0.1947731 -36.18  0.001139051    1.875    0.467
       169 -10.0088     94.0421     76.3402   8.5358916663e+01   4.9111054076e+01     0.586314    0.3644323  33.70  0.001895096    1.758    0.431
       170  -9.4983    175.0284    246.4896   1.0084216952e+02  -3.8354256500e-01    0.1947511   0.09643216  39.29 0.0008016896    1.610    0.379
       171 -10.5225     67.2970     81.9758   9.5846404886e+01   5.2237730332e+01    0.3859293    0.3488022  -6.41  0.002290183    1.181    0.153
       172  -9.2266    199.0389    244.5024   9.6188658998e+01  -3.8688793929e+00    0.1904427   0.09615096  38.87  0.001037937    1.614    0.381
       173 -11.6284     85.7341     73.7015   8.7198381401e+01   5.1142879952e+01    0.6029953     0.496733  41.25   0.00241688    1.323    0.244
       174 -11.0821     79.6801     67.7404   8.7298498611e+01   5.3398522559e+01    0.5012518    0.4500737  76.95  0.001701971    1.440    0.305
       175 -11.0490     78.7286     82.8945   9.2288908845e+01   5.0320834752e+01    0.6374771    0.5332496 -83.09  0.002162155    1.494    0.331
       176 -11.6737     73.6441     77.7718   9.2483730450e+01   5.2236115857e+01    0.7705182    0.4909882 -17.43  0.003420276    2.198    0.545
       177  -9.7904    199.8285     87.8868   6.3013973000e+01   2.2612889577e+01    0.2485374    0.2216311  57.45 0.0004621954    1.168    0.144
       178 -10.3781    165.6428     83.4109   6.8530639218e+01   3.1802359045e+01    0.4361366    0.3698452 -59.76  0.001443045    1.257    0.204
       179 -11.3270    142.9717     84.0846   7.4004200360e+01   3.7140674191e+01    0.4151634    0.3573976  41.41 0.0007366217    1.181    0.153
       180 -10.2110    127.4355     82.7832   7.7619782288e+01   4.0959222556e+01    0.4064685    0.2792791 -41.55   0.00183462    1.422    0.297
       181 -10.0823    127.2986     77.3830   7.5972671223e+01   4.2067146111e+01    0.3650888    0.2853925 -61.16  0.001088491    1.490    0.329
       182 -10.9958     46.9096     74.2035   1.0087099871e+02   5.6537853940e+01     0.301327    0.1803697 -49.76  0.001569792    1.394    0.282
       183 -13.1398     52.4309     73.5145   9.8681771333e+01   5.6054006367e+01    0.5500671    0.3198198 -59.16 0.0008386191    1.666    0.400
       184 -11.2721     58.0564     77.8655   9.7892350683e+01   5.4396149708e+01    0.7058346    0.3684835 -70.30 0.0003960245    3.018    0.669
       185 -10.8452    109.3094     80.5438   8.2024843010e+01   4.5280550306e+01    0.3617541    0.3112802 -13.64 0.0005489941    1.231    0.188
       186 -10.3321    232.5423     76.9549   5.4940414945e+01   1.6777276558e+01     0.607587    0.2515717 -46.23  0.002328866    2.344    0.573
       187  -9.4806      8.9659     76.2637   1.1507281727e+02   5.9203401381e+01    0.1651692    0.1244824 -57.62 0.0002483219    1.034    0.033
       188 -11.7325     14.0673     74.6781   1.1294752484e+02   5.9256471207e+01    0.4813951    0.3064442 -61.41   0.00157387    1.222    0.182
       189 -10.3486     14.2933     67.4110   1.1134341418e+02   6.0858980751e+01    0.3022247    0.2456237   6.22  0.002078875    1.495    0.331
       190  -9.2703    170.3416     77.9927   6.5937891767e+01   3.1635891343e+01    0.2229838     0.204778 -33.65 0.0006352995    1.084    0.077
       191 -11.7436      1.9000     71.2065   1.1667762834e+02   6.0697248923e+01    0.5656228    0.1509147 -66.55  0.002393376    2.684    0.627
       192 -12.3542      6.1596     62.2919   1.1334960602e+02   6.2444288326e+01    0.6506255    0.3802101 -31.21  0.002743277    1.731    0.422
       193  -9.6877    139.0201     77.3189   7.2910709776e+01   3.9384769352e+01    0.2206315    0.1982306  46.20 0.0003611722    1.124    0.110
       194 -12.1926    186.3228     69.9376   6.0472406544e+01   2.9036186510e+01       1.1827    0.6532329 -38.52  0.004196517    1.744    0.427
       195  -9.7085    192.3267     65.5282   5.8152582728e+01   2.8255534471e+01    0.2945516     0.251398 -77.98 0.0008300389    1.244    0.196
       196  -9.3624     63.5459     76.4157   9.5559540055e+01   5.3991676179e+01    0.2566704    0.1750859 -30.67 6.045216e-05    1.511    0.338
       197  -9.5207     66.3791     74.1663   9.3909578902e+01   5.4087974345e+01    0.2090316    0.1860931 -64.99 0.0008479608    1.242    0.195
       198  -9.3682    114.3804     75.0237   7.8804204066e+01   4.5352537007e+01    0.4987322     0.199245  42.85  0.001752534    2.603    0.616
       199  -9.1065    151.1735     73.8343   6.8892396213e+01   3.7124600213e+01    0.2200771    0.1831146  24.41 0.0005712279    1.334    0.250
       200  -9.9828     22.2085     36.8282   9.9465100653e+01   6.6628228187e+01    0.5400807     0.328871  35.95  0.003184558    2.131    0.531
       201 -10.3039     53.1352     49.1322   9.0644399891e+01   6.1004138760e+01    0.4358594    0.3385864 -78.99  0.002350149    2.137    0.532
       202 -11.7622     40.8628     70.6907   1.0214656132e+02   5.7956752914e+01    0.8410522    0.2623595 -49.73   0.00335931    2.485    0.598
       203 -11.3405     32.4921     71.9695   1.0558689657e+02   5.8472139306e+01    0.4993683    0.2782118  23.98  0.002129219    2.129    0.530
       204 -11.1963     40.9933     57.1065   9.8158830744e+01   6.0843349797e+01    0.4330071    0.3502595  67.56  0.001819291    1.847    0.458
       205 -11.8078     31.7406     58.8367   1.0236782921e+02   6.1387738024e+01    0.7371787    0.3380171  11.98 0.0006758606    3.104    0.678
       206 -11.6554     28.0391     54.3684   1.0256803792e+02   6.2647968952e+01    0.8650134    0.4350463   3.75   0.00409412    2.880    0.653
       207 -10.9996     20.2583     55.1156   1.0597865415e+02   6.3106962582e+01    0.3314024    0.2690803  15.59 0.0007757337    1.467    0.318
       208 -11.3998     50.9973     61.4202   9.5616412836e+01   5.8815589434e+01    0.3224849    0.3058737  48.14 0.0009394588    1.320    0.242
       209 -11.3832     46.1861     58.5092   9.6553739561e+01   5.9983364658e+01    0.4512778    0.2576133 -43.59  0.001134952    1.471    0.320
       210  -9.6782    124.5124     73.3020   7.5420954989e+01   4.3485660451e+01    0.2747349    0.2203548  56.01  0.001343779    1.337    0.252
       211 -11.6049    122.5273     68.4389   7.4372132844e+01   4.4853510331e+01    0.6920563    0.4049314  40.19  0.002931086    1.781    0.439
       212 -10.8883    127.2843    242.2855   1.0917980920e+02   7.8057513355e+00    0.3243306    0.2029591 -73.31  0.001864181    2.161    0.537
       213  -9.8764    172.3204     68.3436   6.2670627155e+01   3.2830750342e+01    0.3247371    0.2683235  24.39 0.0009713437    1.392    0.282
       214  -9.8179    172.4554     65.4613   6.1780111154e+01   3.3282090620e+01    0.4754903    0.3764323  83.29  0.002222205    1.441    0.306
       215  -9.8028    162.2154     70.8377   6.5509175375e+01   3.4935475997e+01    0.3153361    0.2635048 -74.81 0.0009946942    1.376    0.273
       216 -11.4260    219.7107     66.5671   5.4125288518e+01   2.1384511959e+01    0.6250663    0.3684953  63.85  0.002113684    1.803    0.445
       217  -9.1910    208.0286     68.4888   5.6391998473e+01   2.3892586652e+01    0.2231828    0.1451371  58.63  0.001026128    1.584    0.369
       218 -12.0273     21.4147     46.8358   1.0309925064e+02   6.4727702058e+01    0.6986349    0.5979066  14.69  0.001907192    1.388    0.280
       219  -8.9338     69.6398     67.1463   9.0588353046e+01   5.5102866559e+01    0.2029659    0.1126946 -37.92  0.000390213    1.696    0.410
       220  -9.1696     64.3039     62.4595   9.0981399598e+01   5.6847360099e+01     0.352089    0.2343636  57.85  0.001367982    2.326    0.570
       221 -10.6492     59.5000     63.9711   9.3235052753e+01   5.7201033024e+01    0.5030348    0.2089124 -49.04  0.001685303    2.125    0.529
       222  -9.9451     57.3187     61.2882   9.3183199262e+01   5.8044908876e+01    0.2461426    0.1904977 -28.96 0.0006291107    1.180    0.153
       223 -10.3124     21.2827     65.5263   1.0824276864e+02   6.0798846240e+01    0.2466255     0.206172  78.17 0.0005635414    1.539    0.350
       224  -9.5794     25.8898     65.3432   1.0642267461e+02   6.0487292782e+01    0.1911776    0.1413193 -59.17 0.0003842226    1.182    0.154
       225  -9.2969     53.0732     65.8990   9.6220135441e+01   5.7621985848e+01    0.2688358    0.1701096  41.97   0.00139188    1.915    0.478
       226  -9.9669    105.6068     64.5041   7.7891117357e+01   4.9221374944e+01    0.2955738    0.2283954 -12.23  0.001111531    1.437    0.304
       227 -11.3671    234.2093     61.2342   5.0808274893e+01   1.8818167550e+01    0.5679791    0.4523611  83.13  0.002643876    1.342    0.255
       228  -9.9129    199.0433     63.4741   5.6455151607e+01   2.6905696937e+01    0.5244533    0.2961828  82.59  0.001988126    2.599    0.615
       229 -10.3669    159.1115     62.0751   6.3458252822e+01   3.7213797856e+01    0.5348951    0.2811522  41.65  0.002070259    2.106    0.525
       230  -8.9204    163.6676    243.3357   1.0251477570e+02   1.8683695968e+00    0.1203496   0.08558174  62.60  0.000705217    1.736    0.424
       231 -11.1195    113.0418     49.9897   7.0598585412e+01   5.0206517707e+01    0.6295167    0.4043962  23.21  0.002534192    1.936    0.483
       232 -12.2551    117.7571     43.8036   6.7048208713e+01   5.0130245175e+01     1.052121    0.6360058  70.23  0.004338186    2.410    0.585
       233 -12.6260    119.5285     37.9629   6.4424245694e+01   5.0584253252e+01    0.8780226    0.6381811  87.90   0.00408722    2.058    0.514
       234 -11.3233    114.0104     38.3414   6.6010762836e+01   5.1789288386e+01    0.4080316    0.3042684 -30.12  0.001130113    1.354    0.261
       235  -9.4752    148.1995     60.6915   6.5407929897e+01   4.0164283904e+01    0.4271992    0.1423924  56.49  0.001331449    3.111    0.679
       236 -10.6813    139.3656     44.1328   6.1871528685e+01   4.4953694885e+01    0.5397335    0.2947102  32.73  0.001989039    2.332    0.571
       237 -11.6538    145.7444     47.3183   6.1541139481e+01   4.2902595757e+01     1.128228    0.4738314 -26.12  0.003980251    2.765    0.638
       238 -10.5956    136.6490     56.3896   6.6691831401e+01   4.3698772361e+01    0.6418347    0.4287401   0.33   0.00231634    2.162    0.537
       239 -10.8358    134.4511     50.2838   6.5138965267e+01   4.5213905017e+01    0.4393983    0.3440989 -81.44   0.00210721    1.693    0.409
       240  -9.1463    161.9505     47.9863   5.8426667957e+01   3.8712579251e+01    0.4425497    0.2793399  82.97  0.001341909    2.115    0.527
       241 -10.0206    162.6723     43.8207   5.6963207887e+01   3.9133284782e+01    0.3956702    0.2181108  59.14  0.001684301    1.739    0.425
       242 -11.1594    157.4495     55.3494   6.1678154326e+01   3.8726126593e+01    0.6223632    0.4929754 -68.12  0.002277275    1.473    0.321
       243 -10.7179    155.3694     49.9473   6.0370341855e+01   4.0090110064e+01    0.3762583    0.2706104  -8.74 0.0007132894    1.709    0.415
       244  -9.5609    188.0293     55.4558   5.5997050252e+01   3.0924918975e+01    0.2357547    0.2108959 -12.70 0.0004661252    1.238    0.192
       245 -10.0514     67.0695     54.7459   8.7327497938e+01   5.7972126272e+01    0.3344456    0.1885165 -49.06  0.001049844    1.771    0.435
       246 -10.8882    244.8537     51.1197   4.7088633559e+01   1.7886497036e+01    0.5484934    0.2521904  82.45  0.002097867    3.283    0.695
       247  -9.7727    237.4756     53.9962   4.8626258795e+01   1.9133410531e+01    0.2906416    0.2333606 -55.86 0.0006421156    1.129    0.114
       248 -10.7253    240.3432     50.4400   4.7430663611e+01   1.8990528447e+01     0.380955    0.2804489 -34.96  0.001481815    1.288    0.224
       249 -10.9732     57.4194     30.9434   8.1764296761e+01   6.3618048485e+01    0.4915014     0.324969  -7.39  0.002670334    1.627    0.385
       250 -11.8218     49.0455     29.8361   8.4747678194e+01   6.4976618350e+01    0.5656835    0.3131901  22.20  0.001325231    2.007    0.502
       251 -11.5194     60.4697     36.2605   8.2780041398e+01   6.2294073663e+01    0.3710439    0.2400419 -24.82  0.000623089    1.447    0.309
       252  -9.5303     68.0376    240.4720   1.1986696756e+02   1.6731360229e+01    0.1706323   0.09222888  43.87 0.0008020974    1.565    0.361
       253  -9.9243     63.4528     40.4635   8.3319436057e+01   6.1129776875e+01    0.2091632    0.1934172 -34.23 7.553401e-05    1.254    0.203
       254  -9.4824    211.6963     53.1388   5.1727049698e+01   2.5354130073e+01    0.2618584    0.1974005  86.44  0.001330021    1.420    0.296
       255 -11.2393    201.7541     49.0915   5.2048691844e+01   2.8405974415e+01     0.720292    0.4017102 -43.84  0.003189089    1.722    0.419
       256  -9.6744      2.2242     48.5565   1.1182725266e+02   6.5556734526e+01    0.2327887    0.2074734 -42.46  0.001781707    1.198    0.166
       257  -9.6907      5.4098     42.4109   1.0884752866e+02   6.6657541992e+01    0.3992105    0.2336336 -50.62  0.001681684    1.256    0.204
       258 -10.7645    149.3301    238.3370   1.0454714642e+02   4.9283411983e+00    0.3374354    0.1706939  37.07  0.001570698    1.699    0.411
       259 -10.7870    198.1288    232.9372   9.4604022736e+01  -2.1925823864e+00    0.3034279    0.2692117 -82.53  0.002012376    1.781    0.438
       260  -9.6456     15.1458    233.7111   1.2852150187e+02   2.4154172087e+01    0.1894054    0.1216807 -85.39  0.001011622    1.370    0.270
       261 -10.1686    247.4043    231.3849   8.5603323461e+01  -9.4451345740e+00    0.1905096    0.1306094 -18.88 0.0007358927    1.402    0.287
       262  -9.5026     23.4193    231.6711   1.2703692577e+02   2.3669563924e+01    0.1847425   0.09210129  52.06 0.0007785759    1.560    0.359
       263 -10.9566    173.9257     48.0529   5.6227159125e+01   3.5636832358e+01    0.6083776    0.4160244  76.13  0.002806085    1.608    0.378
       264  -9.9636    176.7295     43.4320   5.4337898479e+01   3.5579795497e+01    0.3956753    0.2550077  56.47  0.001840224    1.497    0.332
       265  -9.6341    233.9805     44.9463   4.6814563779e+01   2.1208590901e+01    0.2528491    0.1712864 -44.00 0.0005239545    1.321    0.243
       266 -10.4652    231.7470     39.6166   4.5753620049e+01   2.2450976981e+01    0.6673825    0.3090453 -71.36  0.002008008    3.560    0.719
       267 -10.0814    105.8773     57.0911   7.5225900975e+01   5.0526418352e+01    0.4098273    0.2003723 -49.34  0.001566898    2.474    0.596
       268 -10.3149    242.8915    231.3416   8.6363896965e+01  -8.8008848212e+00    0.2283009   0.09447779  43.40  0.001101111    2.586    0.613
       269  -9.1011    190.1360    229.8356   9.5610221285e+01  -4.6707734030e-01     0.174467    0.1284061  17.57 0.0008317216    1.318    0.242
       270  -9.3949    108.2374    230.0228   1.1140656569e+02   1.2850146759e+01    0.1453632    0.1013589 -65.70  0.000883023    1.625    0.385
       271 -11.1535    155.8287     41.9560   5.7675732598e+01   4.1143204913e+01    0.3958547    0.3664222  22.66  0.001045914    1.130    0.115
       272 -11.5897    153.1548     36.0294   5.6243953752e+01   4.2633479341e+01    0.3158135    0.2846074 -52.20 0.0004371405    1.169    0.144
       273  -9.0992    101.4764     44.4845   7.1905735181e+01   5.3573771215e+01    0.2142871    0.1290003 -43.00 0.0009760971    1.776    0.437
       274 -11.1300     94.4802     41.2231   7.2794435143e+01   5.5518053115e+01    0.7221262    0.3100616  49.15  0.002902667    2.423    0.587
       275 -10.0804    189.2618     40.6586   5.1519100339e+01   3.2751658902e+01    0.6689811    0.2493265 -23.89  0.002164577    3.416    0.707
       276  -9.8137     85.8418     30.6642   7.1289331526e+01   5.8800230802e+01    0.3814354     0.236123 -13.51  0.001852654    1.794    0.443
       277 -10.8239     80.6359     40.0086   7.6869606575e+01   5.8346541733e+01    0.5590665    0.3532951  37.15  0.002849016    1.594    0.373
       278  -9.2433    181.3205    228.2988   9.7039241062e+01   1.2072595968e+00    0.1262458   0.08823016  13.41 0.0007022478    1.621    0.383
       279  -9.2341    193.4429     39.0897   5.0453124791e+01   3.1899716366e+01     0.234029     0.183966  55.30  0.001223888    1.288    0.223
       280 -10.0050    234.1936    223.0827   8.6468868452e+01  -6.5195540276e+00    0.1973886    0.1371597   9.72 0.0006820478    1.292    0.226
       281 -11.1690    176.9312     36.2686   5.2136606113e+01   3.6503225421e+01    0.4374641    0.3464795 -13.47  0.001852088    1.454    0.312
       282  -9.8209    171.9108     33.1307   5.1988488112e+01   3.8203291419e+01     0.322345    0.2555638 -86.78  0.001293452    1.344    0.256
       283 -10.3488    177.0728     29.8489   5.0174161611e+01   3.7287317073e+01    0.5224468    0.2298785  47.82  0.001786906    2.386    0.581
       284  -8.4238    209.3395    223.3146   9.0985022107e+01  -2.6693074978e+00    0.1309126   0.08464498  10.97 0.0007047486    1.700    0.412
       285  -9.7471    207.0860     36.9443   4.8001175215e+01   2.8755380196e+01    0.2453828    0.2043299  57.18 0.0009584343    1.256    0.204
       286 -10.9274    139.3573     33.0115   5.8003536773e+01   4.6494795691e+01    0.5235704    0.4944914  -2.82  0.001843135    1.091    0.084
       287  -9.5070    133.0557     36.9019   6.0766362099e+01   4.7522557797e+01    0.3130336    0.2083015 -67.60  0.001349446    2.241    0.554
       288  -9.3689     94.5479     36.0442   7.0723850124e+01   5.6295943387e+01    0.2527974    0.1937573  64.66  0.001319221    1.698    0.411
       289  -9.2268     63.3344    222.3190   1.1923609405e+02   2.0719882246e+01    0.1014598   0.09354112 -32.53 0.0004736397    1.699    0.411
       290 -12.1486    106.0454     32.7124   6.6015679728e+01   5.4350445530e+01    0.5363964    0.3214604  18.33  0.001759663    2.209    0.547
       291 -10.0336     10.5187    216.9652   1.2846764287e+02   2.7765562112e+01    0.2494298    0.1393324 -59.37  0.001581818    2.243    0.554
       292 -10.5033    239.3542     32.5428   4.3248206990e+01   2.1626268916e+01    0.4754948    0.2706815  68.38  0.002406662    1.788    0.441
       293 -10.1788    240.3241     27.1783   4.1888658150e+01   2.2083610341e+01    0.3533408    0.1615572 -33.93  0.001627642    2.008    0.502
       294  -9.4303    216.2097     32.8205   4.5796412607e+01   2.7048110021e+01    0.3217898    0.1961429   6.21  0.001280642    3.194    0.687
       295 -10.7064    145.5319     24.8530   5.3927876790e+01   4.5957440440e+01    0.6398779    0.3370784  49.55  0.002822657    1.763    0.433
       296  -9.8392     68.5279     32.9974   7.8332929168e+01   6.1555131844e+01    0.4141587    0.3424055  46.07  0.002298771    1.476    0.323
       297  -9.4480     66.3522     28.3045   7.7136896197e+01   6.2632342550e+01    0.2774054    0.1553151  23.74  0.001334394    2.029    0.507
       298 -10.2316    164.9966    212.3461   9.7742183830e+01   6.5238098510e+00    0.2703391    0.1719707  53.28  0.001397734    1.651    0.394
       299  -9.2880    182.6656     32.2715   5.0056295255e+01   3.5546016184e+01    0.1483177     0.104293 -71.19 0.0002868576    1.596    0.373
       300 -10.5321    189.0906     28.1460   4.7938741850e+01   3.4415729270e+01    0.4636223    0.3132915  10.27  0.002125784    2.195    0.544
       301  -9.1239    204.5011    208.5100   8.9353742794e+01   2.6912187404e-01    0.1309815    0.1117225  19.31 0.0001259597    1.015    0.015
       302  -9.3445    221.8001     29.7819   4.4390330375e+01   2.6083297594e+01    0.1907036    0.1855161 -26.54 0.0006019645    1.206    0.171
       303  -9.2991     99.5133     30.4476   6.6975454298e+01   5.6063926398e+01    0.2601011    0.2399698  53.36  0.001550132    1.229    0.187
       304 -10.4771     98.3666     26.7366   6.5795273757e+01   5.6799844189e+01     0.252145    0.2345479  48.18 0.0005443417    1.201    0.167
       305  -9.2121     41.0514     28.5760   8.7678917920e+01   6.6202198977e+01    0.3344234     0.122221 -34.12  0.001408631    2.654    0.623
       306 -10.2827    230.6314     27.1486   4.2817094662e+01   2.4319923529e+01    0.4049885    0.1984657 -41.11   0.00120756    1.807    0.447
       307  -9.7981    250.4458     26.6535   4.0856582717e+01   1.9893549569e+01    0.2444084    0.1404121 -33.84 0.0006653471    1.635    0.388
       308  -9.6393    153.0956    207.8644   9.9448913818e+01   9.3945857326e+00    0.2082595    0.1704415  60.44 0.0007932713    1.278    0.217
       309  -9.7309     86.0562     23.9234   6.8356072082e+01   5.9678515264e+01    0.1956363    0.1651719  12.35  0.001169615    1.053    0.050
       310  -9.6851     60.9960    206.9398   1.1831237816e+02   2.4087224814e+01    0.1863709    0.1456059  71.98 0.0004391681    1.029    0.028
       311  -9.8268     81.0848     19.3152   6.7942434021e+01   6.1230150047e+01    0.3686543    0.1784582  42.76  0.001395719    1.934    0.483
       312  -9.5103    238.5006    204.4268   8.2380235014e+01  -4.7388379996e+00    0.2534389    0.1144337 -33.18  0.001222536    2.205    0.546
       313 -10.0147      4.7557    204.1996   1.2882537003e+02   3.0816960432e+01    0.2418863    0.1067562 -73.76  0.001419594    1.933    0.483
       314 -10.3656     16.5781    203.7823   1.2664407544e+02   2.9790363502e+01    0.2129107   0.08466617 -73.82  0.001148317    2.140    0.533
       315  -9.5318     59.5076     24.0032   7.7876754305e+01   6.4364391990e+01    0.2001103    0.1536546   5.07 0.0003926467    1.190    0.159
       316  -9.7725     60.6497     20.2393   7.5703929084e+01   6.4719111214e+01    0.3174691     0.245263 -64.33  0.001323588    2.424    0.587
       317  -9.0873     44.9770     24.2208   8.4043189375e+01   6.6414951263e+01    0.1642861    0.1451104  59.59  0.000839318    1.846    0.458
       318 -10.9228    245.3321    200.1111   8.0383113248e+01  -5.2235732864e+00    0.3130309    0.2117315 -38.76  0.001533824    1.705    0.414
       319  -8.5368    207.2910    201.3292   8.7531172155e+01   8.8329308121e-01    0.1350923   0.09369606   5.09 0.0005505868    1.623    0.384
       320  -8.4362      1.3152    200.3030   1.2924493723e+02   3.1904515343e+01   0.09633415   0.07332273 -64.02 0.0003985762    1.618    0.382
       321 -10.4279    234.3158    196.8321   8.1696809687e+01  -3.0125623942e+00    0.4194309    0.2549163  19.53  0.001514617    1.697    0.411
       322 -12.3012      4.7776    184.3543   1.2770921164e+02   3.4903739348e+01    0.7584528    0.4094984  89.12  0.004727416    1.453    0.312
       323  -8.6779     83.7300    195.9934   1.1243800502e+02   2.3223262802e+01    0.1546794    0.1063459 -70.97 0.0004823141    1.444    0.307
       324  -9.3274    223.2181     22.0854   4.2313396794e+01   2.6687187794e+01    0.2282236    0.1762082  84.31 0.0006319286    1.230    0.187
       325  -9.7170    169.5545    191.6954   9.3312408785e+01   9.3294077657e+00    0.3088114    0.1733777  37.61 0.0008861407    1.660    0.398
       326  -9.9116     74.1098     19.5310   7.0397349890e+01   6.2507557560e+01    0.2478742    0.1863572  32.10 0.0007795774    1.246    0.197
       327  -9.9368    239.2191    185.4232   7.8613004736e+01  -2.1748091488e+00    0.4274858    0.2384772  -6.39  0.001897828    2.498    0.600
       328  -9.9099    250.3805    178.9828   7.5400403274e+01  -3.0791558234e+00    0.3768635    0.1129659 -31.80  0.001386495    3.284    0.696
       329  -9.3583    213.6649    180.6535   8.2344439806e+01   3.0299742391e+00    0.1470053    0.0993968   4.87 0.0007048821    1.772    0.436
       330  -9.6845     27.9108    176.2791   1.2238909878e+02   3.4516287038e+01    0.2363547    0.1506859 -75.49  0.001452706    1.334    0.250
       331  -9.5186    231.2936    175.3205   7.7989580425e+01   7.1046017040e-01     0.341211    0.1091925  38.55  0.001229828    3.229    0.690
       332  -8.6855     57.4773    174.9757   1.1573456141e+02   3.1459304976e+01     0.187208    0.1127757 -72.13 0.0005486912    1.504    0.335
       333 -10.0908     51.8662    173.3427   1.1681979579e+02   3.2524805038e+01    0.3182176    0.1615517 -88.47  0.001387047    2.158    0.537
       334  -9.3732    211.3286     18.9012   4.2730533115e+01   2.9936780574e+01    0.1798149    0.1634547 -57.76  0.000369779    1.093    0.085
       335  -9.8220    247.8532    173.8638   7.4790315070e+01  -1.9161752707e+00    0.4376873    0.1554638  30.76  0.001477253    4.201    0.762
       336  -9.7061     39.2286    173.4153   1.1965929064e+02   3.3967255496e+01    0.2621485    0.1697484  65.69  0.001392048    1.419    0.295
       337 -10.5877     35.5550    170.1782   1.2015756403e+02   3.5096131641e+01    0.3330432    0.1937301 -82.94  0.001513894    1.489    0.328
       338 -10.1246      8.9015    156.7757   1.2492519374e+02   4.0604262517e+01    0.3245829    0.1484255 -66.62  0.001564548    1.799    0.444
       339  -8.9366    174.4381     15.5873   4.6249781080e+01   3.9603340504e+01    0.1379073    0.1253188  76.88 0.0001710359    1.012    0.012
       340 -11.7429      9.6165    166.7663   1.2554044903e+02   3.8310371920e+01    0.5367427    0.3485539 -85.13  0.002235531    1.192    0.161
       341 -11.0214     13.8369    158.9965   1.2400198724e+02   3.9698868976e+01    0.3945235    0.2022946 -79.64  0.001496981    1.560    0.359
       342  -9.2558    220.8129     12.6052   4.0197801700e+01   2.8350844598e+01    0.1899847     0.112425 -88.41 0.0009442088    1.704    0.413
       343  -8.9846    197.8527    167.8659   8.2814042213e+01   8.2177628093e+00     0.186533    0.1739835 -67.39 0.0007624402    1.315    0.239
       344  -9.7454    188.9377    164.0529   8.3827630373e+01   1.0686821779e+01    0.3046581    0.1898345 -23.48 0.0009014305    1.951    0.487
       345  -8.7392    156.4607    166.4467   9.1343305305e+01   1.6747600569e+01    0.1458889    0.1394185  37.62 0.0001292399    1.007    0.007
       346 -10.1372     18.8365    164.8078   1.2338045990e+02   3.7950066891e+01    0.2365015    0.2311517 -61.54  0.001723977    1.413    0.292
       347 -10.2107    205.0075    163.0043   8.0357196349e+01   7.6778268359e+00    0.2658246    0.2009749  30.87 0.0005588427    1.302    0.232
       348  -9.3933     40.2036    162.9378   1.1834870578e+02   3.6255515402e+01    0.3676417    0.1317985 -84.78  0.001247892    4.089    0.755
       349 -10.3237     27.8154    162.0027   1.2110947470e+02   3.7746902495e+01    0.3791723    0.1884755 -64.69  0.002024995    1.744    0.427
       350  -9.4097     79.3342    160.2651   1.0859871754e+02   3.1876976866e+01    0.2464032    0.1668123 -78.24  0.001024798    1.470    0.320
       351  -9.3368    215.2495    158.3303   7.7363954908e+01   6.4876682283e+00    0.2724372    0.1659493 -24.68  0.001244961    1.747    0.428
       352  -8.9828    223.6943    156.6649   7.5422666302e+01   5.1380307035e+00    0.1472798     0.103792   2.00 0.0005251918    1.669    0.401
       353  -9.8140     21.5674    155.6019   1.2193449892e+02   3.9801282826e+01    0.2304925    0.1712895  10.68  0.001441454    2.009    0.502
       354 -10.4297    104.3358    154.0379   1.0133793127e+02   2.9334663166e+01    0.3581557     0.282836 -62.83  0.001885804    1.235    0.190
       355 -10.7313     31.6786    153.4100   1.1932596582e+02   3.9356197325e+01    0.4327463    0.2787113  83.03  0.002497118    1.432    0.302
       356  -9.3389     74.7285    153.5573   1.0870702241e+02   3.4130789760e+01    0.2822993    0.1948021  87.63 0.0008955313    1.554    0.356
       357  -9.6217     70.9115    151.5054   1.0935253248e+02   3.5158065656e+01    0.2567972    0.1756342  41.64  0.001054822    1.526    0.345
       358 -11.9356     22.9382    149.1363   1.2097347142e+02   4.1174783967e+01    0.5473367    0.3203361 -35.96  0.002339634    2.634    0.620
       359 -10.4955     15.3181    147.8031   1.2266365090e+02   4.2136288274e+01    0.2921986    0.2120304  58.48  0.001064741    1.381    0.276
       360 -11.6694     12.7690    139.7615   1.2250538011e+02   4.4201769461e+01    0.8566088    0.4120544 -84.68  0.004447413    1.809    0.447
       361 -11.9165      4.0193    147.6845   1.2530078334e+02   4.3032746262e+01    0.7056885    0.3777173 -84.23  0.003806817    1.471    0.320
       362 -10.9898      5.0320    141.7321   1.2456250203e+02   4.4318448987e+01    0.3039062    0.2328717  49.51  0.001183485    1.444    0.308
       363 -12.3292      3.8253    137.1080   1.2444573242e+02   4.5463388259e+01    0.3022225    0.1885819 -63.80 0.0003342551    1.391    0.281
       364 -11.1134     47.0572    147.9515   1.1488535307e+02   3.9016873895e+01    0.7514842    0.2720451 -66.94  0.003135196    2.361    0.576
       365  -8.5432     42.1691    148.6244   1.1619900457e+02   3.9398179814e+01    0.2376267     0.132621  24.16  0.001162466    2.358    0.576
       366 -11.1845     62.9292    150.3492   1.1120297266e+02   3.6510065232e+01    0.4164093    0.3946029 -12.82    0.0021379    1.363    0.266
       367  -9.7964    214.8290    150.9629   7.5815223758e+01   7.8553037370e+00    0.2520618    0.2251192  55.29  0.001021234    1.304    0.233
       368  -9.3008    234.1626    150.6188   7.2214260388e+01   4.1524778310e+00     0.196994     0.123493  32.12 0.0009483533    1.709    0.415
       369  -9.7406    239.7798    146.5860   7.0352076391e+01   3.7557618344e+00    0.2495915    0.1808368 -28.92 0.0007371223    1.247    0.198
       370 -10.6998    249.4937    142.5882   6.7854957121e+01   2.6012681904e+00     0.592699    0.2264671 -32.45  0.002341296    2.410    0.585
       371 -10.7237     33.0589    144.5615   1.1798232971e+02   4.1301427405e+01    0.3693672    0.2786193  41.45  0.001942861    1.484    0.326
       372 -10.2004    133.3286    140.9717   9.1420860174e+01   2.6908858472e+01    0.3667001    0.2675433 -47.11  0.001347599    1.373    0.272
       373 -11.8857     23.5831    135.1148   1.1927880442e+02   4.4410934852e+01    0.9177464    0.4528969  51.43  0.004695311    2.204    0.546
