#   1 NUMBER                 Running object number                                     
#   2 MAG_AUTO               Kron-like elliptical aperture magnitude                    [mag]
#   3 X_IMAGE                Object position along x                                    [pixel]
#   4 Y_IMAGE                Object position along y                                    [pixel]
#   5 X_WORLD                Barycenter position along world x axis                     [deg]
#   6 Y_WORLD                Barycenter position along world y axis                     [deg]
#   7 A_WORLD                Profile RMS along major axis (world units)                 [deg]
#   8 B_WORLD                Profile RMS along minor axis (world units)                 [deg]
#   9 THETA_WORLD            Position angle (CCW/world-x)                               [deg]
#  10 FWHM_WORLD             FWHM assuming a gaussian core                              [deg]
#  11 ELONGATION             A_IMAGE/B_IMAGE                                           
#  12 ELLIPTICITY            1 - B_IMAGE/A_IMAGE                                       
         1 -14.2094    157.3617     53.0147   8.2619807162e+01   3.9291162525e+01     1.345132     1.010033  34.76  0.004757015    1.449    0.310
         2 -14.3930    169.7113     37.5036   7.5730055028e+01   3.8416396570e+01     1.123577     0.973119  21.19  0.004117976    1.340    0.254
         3 -14.0063    185.5726      6.3136   6.4829247067e+01   3.8029381015e+01    0.9625326    0.7879869  88.24  0.005063086    1.096    0.087
         4 -12.6144    159.6293    235.3060   1.2365791273e+02   2.9397127447e+00    0.5488955    0.2770441  50.73  0.002252256    1.823    0.451
         5 -19.0058     72.3085    242.1500   1.4074089901e+02   1.5980602471e+01     6.612414     5.323088  76.63   0.04059856    1.104    0.094
         6 -10.3884     11.8553    213.5613   1.4897197730e+02   2.8962267567e+01    0.1039123   0.05633278 -69.21 0.0006438154    1.680    0.405
         7 -12.2783    168.2091    233.4127   1.2172279735e+02   1.7282942751e+00    0.3536389    0.2406347  57.10  0.001282776    1.505    0.336
         8 -10.8804    163.5079    210.0751   1.1892519799e+02   6.6976092485e+00    0.1953396    0.1385007 -47.85  0.001024241    1.567    0.362
         9 -10.5529     29.9630    205.9419   1.4519705468e+02   2.8615663368e+01    0.1419748    0.1210481 -66.08            0    1.482    0.325
        10 -11.7661    158.5037    204.3913   1.1899035585e+02   8.7262831150e+00    0.3750823     0.240015  65.41  0.001730248    1.951    0.488
        11 -11.6833    163.4135    203.8267   1.1787559512e+02   7.8922279925e+00    0.3666991    0.2416454 -50.88  0.001307773    1.670    0.401
        12 -11.4961    160.9520    198.2994   1.1741745034e+02   9.4360666909e+00    0.2584685    0.2136979 -68.53 0.0005506627    1.364    0.267
        13 -13.7613    137.7442    198.5934   1.2238000646e+02   1.3826622757e+01    0.7486244    0.4383152  62.30  0.003324021    1.994    0.498
        14 -11.0993    174.9941    193.4817   1.1359984719e+02   7.6098112893e+00    0.2950721    0.1830572 -67.53  0.001169881    2.458    0.593
        15 -10.6599    180.0248    192.2993   1.1233208241e+02   6.8378186049e+00    0.2437648    0.2018818 -85.53 0.0005837296    1.535    0.349
        16 -12.6086    154.8177    196.4202   1.1837838026e+02   1.1000981443e+01    0.5172917    0.3151601 -82.14  0.001974327    3.148    0.682
        17 -11.5081    208.0534    196.3247   1.0746319976e+02   6.4585636535e-01    0.2040248    0.1691739  36.66  0.001152709    1.138    0.121
        18 -12.4958    167.3547    190.8361   1.1470725867e+02   9.6425334709e+00     0.439412    0.3422666  40.85  0.001713224    1.218    0.179
        19 -10.9801    176.7228    187.9243   1.1218153685e+02   8.3384547224e+00    0.2554473     0.201994 -65.59 0.0009040528    1.499    0.333
        20 -10.9061    184.3206    186.4446   1.1031045232e+02   7.0954932304e+00     0.278347     0.134546  40.72  0.001043463    2.001    0.500
        21 -10.5724     21.3946    235.1359   1.4878618056e+02   2.3744373617e+01   0.08653148   0.06769461  44.46 0.0004194666    1.633    0.388
        22 -12.1718    205.5063    180.4772   1.0480675322e+02   3.9594596245e+00    0.5739489      0.32448  45.72   0.00194103    1.741    0.426
        23 -11.9158    208.6918    178.6572   1.0380185726e+02   3.6569274447e+00    0.4320957    0.3459693  15.86  0.002285382    1.347    0.257
        24 -10.7123    176.2017    233.8355   1.2024949060e+02   2.3464280204e-01     0.175519    0.1456673  13.90  0.001068175    1.344    0.256
        25 -12.5447    195.8910    171.1877   1.0481226954e+02   7.6630988297e+00    0.8342225    0.4356288 -51.52  0.002850045    2.214    0.548
        26 -11.1399     25.2866    165.7412   1.4236215291e+02   3.7841322902e+01    0.2196454    0.1924554   4.95 0.0009707058    1.720    0.419
        27 -12.7143    143.8522    167.9880   1.1545569140e+02   1.9164471429e+01    0.5764301     0.374505  81.43  0.002299828    2.427    0.588
        28 -10.7362    223.7504    163.9091   9.7775471023e+01   3.3242945017e+00    0.2519549    0.1902766 -54.43 0.0005566527    1.525    0.344
        29 -11.0297     25.7301    232.2875   1.4789457754e+02   2.3806252311e+01    0.1298686    0.1020625 -84.07 0.0005106221    1.314    0.239
        30 -11.3664    178.2093    226.5310   1.1870652968e+02   1.0711310760e+00    0.2215371    0.1887536 -42.72 0.0006748252    1.349    0.259
        31 -11.1042    120.9727    157.3178   1.1868519267e+02   2.6077332967e+01    0.2136829    0.1945108  49.36  0.001158694    1.133    0.117
        32 -12.0306    162.3398    154.2829   1.0837023742e+02   1.8280707814e+01    0.4977647    0.3491027 -79.57  0.002098402    2.038    0.509
        33 -10.2388     21.2671    226.3387   1.4823599710e+02   2.5451908177e+01    0.0976369    0.0737211 -67.01 0.0002223928    1.596    0.374
        34 -14.0631    132.9375    145.5343   1.1332675777e+02   2.6423016623e+01     1.122887    0.6183197 -61.28  0.004088312    2.108    0.526
        35 -10.9676     14.3466    151.1715   1.4320626394e+02   4.2093946301e+01     0.338713    0.1763427 -43.73  0.001796127    2.477    0.596
        36 -10.6696    198.8731    222.6901   1.1406505801e+02  -2.0331157245e+00    0.1867405    0.1499571  38.93 0.0004719414    1.119    0.106
        37 -11.0303    174.7238    149.0973   1.0445384075e+02   1.6680008306e+01    0.2716315    0.2144788  60.35 0.0006573976    1.341    0.254
        38 -12.9938    144.5263    145.4945   1.1053625872e+02   2.4027174058e+01    0.5521269    0.4133241 -87.28  0.002484824    1.720    0.419
        39 -13.0527      4.9991    139.1927   1.4404082630e+02   4.5482405724e+01    0.7578025    0.3922611 -57.71   0.00299448    1.645    0.392
        40 -13.3665      2.8699    126.4789   1.4311217252e+02   4.8437881781e+01      1.09438    0.3453223 -70.30  0.005089851    2.344    0.573
        41 -12.2573     10.4850    111.0101   1.3911406919e+02   5.1347578485e+01    0.4840103    0.2312865   0.16  0.002194316    3.919    0.745
        42 -12.8369    105.5342    138.3151   1.1860675280e+02   3.3356543847e+01    0.5006495    0.3451797  71.63 0.0006320968    1.845    0.458
        43 -11.8297     20.1767    141.3640   1.4073186453e+02   4.3811806047e+01    0.2214508    0.1615505 -78.73 0.0004553679    1.091    0.084
        44 -18.9058     56.0508     92.2801   1.2209253713e+02   5.1301441355e+01     18.18924    0.9145169 -55.14   0.02654861   18.827    0.947
        45 -12.3614    106.1189    130.7872   1.1681433180e+02   3.5005780345e+01    0.4183859    0.3475655 -67.91  0.001261936    1.188    0.158
        46 -11.6753    108.7952    125.0420   1.1479958578e+02   3.5843066710e+01    0.3236292    0.2793256 -17.03  0.001062558    1.384    0.278
        47 -12.6724    115.4413    138.0139   1.1601545504e+02   3.1598615628e+01     0.523828    0.2994337 -43.69  0.002216946    1.817    0.450
        48 -12.4656    119.6346    129.3283   1.1297845887e+02   3.2792763005e+01    0.4169239    0.3804536 -61.03   0.00116952    1.054    0.051
        49 -12.8965    135.6005    122.2862   1.0723041998e+02   3.1115644346e+01    0.7534191    0.3203921 -54.62  0.002519957    2.732    0.634
        50 -12.7758    125.5347    127.0538   1.1093306328e+02   3.2136027844e+01    0.7000285    0.4364099 -88.34  0.002419868    3.214    0.689
        51 -11.4174    113.9719    118.4982   1.1186383925e+02   3.6357051155e+01    0.2822801    0.2198194 -50.14 0.0004239114    1.230    0.187
        52 -11.0949    116.0937    115.1582   1.1047239655e+02   3.6695878881e+01    0.2701238    0.2052006  64.42 0.0007948768    1.532    0.347
        53 -11.1388    167.7128    113.1594   9.7272682181e+01   2.5838995355e+01    0.4604414    0.3157361  89.72   0.00180881    2.267    0.559
        54 -11.5734    160.5288    127.9007   1.0263187408e+02   2.4388071220e+01    0.4173269    0.2601833 -55.25   0.00172594    1.739    0.425
        55 -10.7463    205.6581    110.1055   8.8693498357e+01   1.7451311165e+01    0.2900801    0.2254799  45.68 0.0007168446    1.352    0.260
        56 -12.2518      2.7602    112.3483   1.4136424660e+02   5.1546415316e+01     0.358923     0.171494 -69.48  0.002022263    1.575    0.365
        57 -12.1887     95.5361    110.1376   1.1482547192e+02   4.1600249230e+01    0.4003517    0.3074929  11.71    0.0013117    1.686    0.407
        58 -11.1407     41.9159     91.9548   1.2641061825e+02   5.2927341465e+01    0.1939717    0.1622931 -50.54  0.000531754    1.012    0.012
        59 -11.1132     96.6177     80.1521   1.0636371552e+02   4.7763626634e+01    0.4982144    0.2124025  49.27  0.001881124    2.824    0.646
        60  -9.8491    146.6762     79.6770   9.2902792088e+01   3.7390677345e+01    0.1564331    0.1199247  13.42 0.0006597693    1.683    0.406
        61 -10.0742    117.5060     66.9528   9.6388600178e+01   4.6160598566e+01    0.2095871    0.1395386 -37.61 0.0003916592    1.497    0.332
        62 -10.1068     13.5051     59.8897   1.2831352346e+02   6.1823316966e+01    0.1596819    0.1288563 -36.83 0.0004350129    1.087    0.080
        63 -10.6505    196.8926    247.3048   1.1843431536e+02  -5.3837901290e+00    0.2203566    0.1406766 -27.38  0.001248833    1.944    0.486
        64 -11.5518     13.4774    245.0063   1.5061070555e+02   2.2763948266e+01    0.2815007   0.06081444 -68.58  0.001291257    3.806    0.737
        65 -12.6778    173.4186     30.1567   7.3016044816e+01   3.8421865943e+01    0.4283026    0.3460084  33.26  0.001148672    1.407    0.290
        66 -10.7308    134.8892     30.0829   8.0154232995e+01   4.7740357671e+01     0.276067    0.1916761  70.20 0.0009272136    1.575    0.365
