#   1 NUMBER                 Running object number                                     
#   2 MAG_AUTO               Kron-like elliptical aperture magnitude                    [mag]
#   3 X_IMAGE                Object position along x                                    [pixel]
#   4 Y_IMAGE                Object position along y                                    [pixel]
#   5 X_WORLD                Barycenter position along world x axis                     [deg]
#   6 Y_WORLD                Barycenter position along world y axis                     [deg]
#   7 A_WORLD                Profile RMS along major axis (world units)                 [deg]
#   8 B_WORLD                Profile RMS along minor axis (world units)                 [deg]
#   9 THETA_WORLD            Position angle (CCW/world-x)                               [deg]
#  10 FWHM_WORLD             FWHM assuming a gaussian core                              [deg]
#  11 ELONGATION             A_IMAGE/B_IMAGE                                           
#  12 ELLIPTICITY            1 - B_IMAGE/A_IMAGE                                       
         1 -14.4102    159.8974     50.1717   8.2509699322e+01   3.9334157872e+01     1.783467     1.375504  11.13  0.006109183    1.623    0.384
         2 -14.3421    171.8237     33.7570   7.5086372547e+01   3.8555466330e+01     1.022172    0.9724296 -26.32  0.003287439    1.112    0.101
         3 -13.5290    175.6306     26.9519   7.2347767592e+01   3.8412485317e+01    0.6411679     0.526677   2.95   0.00129038    1.451    0.311
         4 -12.7773    190.8178     14.9830   6.6689897801e+01   3.5825185489e+01    0.5066202    0.3568014 -74.04  0.002395525    1.468    0.319
         5 -13.8509    187.7637      3.8509   6.3793735045e+01   3.7737923644e+01     1.170933    0.5741522  64.60  0.004556661    1.822    0.451
         6 -19.2068     50.5155     96.1253   1.2683667243e+02   5.1522627186e+01     18.37885     1.200497 -60.46   0.03013794   14.615    0.932
         7 -19.1233     63.9178    244.5693   1.4206429980e+02   1.8119286516e+01     6.114271      4.50422  51.23   0.04585596    1.267    0.210
         8 -10.0908    170.1198    205.2703   1.1792850610e+02   8.1052077395e+00    0.1760761    0.1531364  48.70 0.0004790215    1.079    0.074
         9 -10.5213    211.0429    201.9444   1.0971426482e+02   1.3203767635e+00    0.1909646    0.1651186  23.50   0.00036925    1.025    0.024
        10  -9.7292    135.8527    219.1547   1.2653773593e+02   1.1751990929e+01    0.1552034    0.1369471  30.68 0.0002415137    1.279    0.218
        11 -11.1431    137.0556    197.7948   1.2330901548e+02   1.5336963651e+01    0.4835222    0.2486639  62.41  0.002032809    2.613    0.617
        12 -11.1675    178.0080    196.9843   1.1503373669e+02   8.0323179280e+00    0.3178255    0.2426748  67.62  0.001127313    1.625    0.384
        13 -11.7784    180.2259    193.5114   1.1400339382e+02   8.1970359823e+00    0.4564712    0.3133006 -66.21  0.001967458    2.160    0.537
        14 -10.8872    177.7094    189.3456   1.1376071147e+02   9.3682847146e+00    0.2741737    0.1823767  51.32 0.0006219153    1.473    0.321
        15 -10.8290    169.8232    195.1766   1.1632504622e+02   9.8463000561e+00    0.1970115    0.1730653  66.63  0.001193527    1.235    0.190
        16 -11.1063    157.9913    193.2500   1.1835743721e+02   1.2371997771e+01    0.2203077    0.1942147 -75.54 0.0003347971    1.294    0.227
        17 -10.4322      1.3539    193.1782   1.4979214423e+02   3.4599502568e+01   0.08012055   0.07563179  79.86 0.0004393756    1.530    0.346
        18 -10.2811    182.2365    189.2286   1.1285332179e+02   8.5358715287e+00    0.1784845     0.156106  72.51 0.0006179217    1.357    0.263
        19 -12.4464    207.5941    183.7671   1.0700878625e+02   4.6633695200e+00    0.3801327    0.3330006  28.98  0.001079656    1.051    0.049
        20 -12.5393    210.5050    181.5251   1.0603982920e+02   4.4711158674e+00    0.4226308    0.3051131 -12.67  0.002009029    1.558    0.358
        21  -9.7566     26.2801    214.2585   1.4652240601e+02   2.8069262214e+01   0.08839215   0.07707839 -80.81 0.0002925423    1.473    0.321
        22 -10.3759     28.1114    179.8172   1.4378460899e+02   3.4810453442e+01     0.212017    0.1538764  36.89 0.0009564634    1.649    0.394
        23 -11.3966    197.7942    176.0616   1.0736598931e+02   7.7662953880e+00    0.3997331    0.3065084 -53.47  0.001272631    1.572    0.364
        24 -10.1549    145.2580    178.5589   1.1849074805e+02   1.7498679697e+01    0.1921706    0.1267495  35.09 0.0009390007    1.583    0.368
        25  -9.7798      3.4614    176.4032   1.4846611735e+02   3.7827446841e+01    0.1084309    0.0813524  86.84 0.0003368404    1.091    0.084
        26 -12.6193    137.1016    171.2704   1.1896366120e+02   2.0491902252e+01    0.6960922    0.3981686  47.27  0.003102165    1.632    0.387
        27 -11.7253    125.6309    172.3854   1.2167659116e+02   2.2392262855e+01    0.3854754    0.3469088 -29.90   0.00169228    1.380    0.275
        28 -12.7932    204.8252    197.9379   1.1013561270e+02   3.0041340220e+00    0.4904636    0.3438364  11.26  0.002391411    1.646    0.392
        29 -11.4372    225.9710    166.9768   1.0033167250e+02   3.8288871360e+00    0.2605953    0.1794556 -58.78  0.001265875    2.207    0.547
        30 -10.6684    204.5530    170.4715   1.0496653034e+02   7.3807826926e+00    0.3496336    0.2399643  32.34  0.001341197    1.437    0.304
        31  -9.7830    207.5297    168.4574   1.0399696979e+02   7.1322286698e+00    0.2168619     0.194507  25.23 2.038692e-05    1.042    0.040
        32 -11.6424    145.3015    168.6861   1.1670750434e+02   1.9444285507e+01    0.4259307    0.3355514 -87.66  0.001661333    1.511    0.338
        33 -10.8100    201.2545    165.0244   1.0448098690e+02   8.9444747024e+00    0.4516467     0.354443  84.71  0.002282531    1.915    0.478
        34  -9.7931     20.8386    210.4515   1.4725473348e+02   2.9368709354e+01     0.123513    0.1026166  20.96 0.0009117548    1.990    0.498
        35  -9.6854     24.9349    165.5400   1.4326200896e+02   3.8202523797e+01    0.1528552    0.1098334  42.10 0.0008930119    1.545    0.353
        36 -12.1052    101.7864    161.2317   1.2521792240e+02   2.8980925311e+01    0.4509051    0.2704546  61.74  0.001471546    1.813    0.448
        37 -12.3480     24.7722    157.0507   1.4253581630e+02   4.0088779531e+01    0.4315595    0.2623565  47.75  0.001929444    1.641    0.391
        38 -11.3587    164.8858    157.7502   1.1033762887e+02   1.7694930967e+01    0.2635715    0.2390348  -4.97 0.0004606211    1.240    0.193
        39  -9.0438     27.2654    209.3335   1.4604345196e+02   2.8909329423e+01   0.09611148   0.07579202 -67.35 0.0002897106    1.582    0.368
        40 -13.2355    132.8046    145.2929   1.1494496852e+02   2.6797981942e+01     1.004977    0.5824661 -61.00  0.003539641    1.942    0.485
        41 -11.2444    174.1832    148.5851   1.0641665830e+02   1.7533311183e+01    0.4035937    0.3260566 -37.91  0.001086946    1.281    0.219
        42 -10.1354      9.4690    150.0220   1.4535394239e+02   4.2990478068e+01    0.1850948    0.1647674 -32.09  0.001384246    1.648    0.393
        43 -12.2005    144.4729    145.6152   1.1230508401e+02   2.4373566073e+01    0.4557354    0.3151356 -74.89  0.002033483    1.907    0.476
        44 -10.4642      1.8664    145.4153   1.4669874381e+02   4.4585357352e+01    0.1880581    0.1523376 -46.35   0.00102953    1.635    0.389
        45 -11.9229      7.7799    143.6347   1.4520647013e+02   4.4536743463e+01      0.27895    0.2146633  13.21  0.001648087    1.933    0.483
        46 -10.9096     13.0276    142.2762   1.4386389659e+02   4.4425581636e+01    0.2013302    0.1516136  48.56 0.0003522777    1.454    0.312
        47 -11.2741      4.8792    137.1774   1.4533187579e+02   4.6189312100e+01    0.2601462      0.16274 -54.39  0.001655947    1.705    0.414
        48 -11.7203     28.3269    134.8888   1.3936454081e+02   4.4772245205e+01    0.2737161    0.2159175   7.29   0.00053692    1.877    0.467
        49 -11.8830    119.1676    130.2409   1.1503038915e+02   3.2804628801e+01    0.4057179     0.362186 -68.52  0.001229485    1.083    0.076
        50 -12.5102    124.9444    126.8729   1.1282488986e+02   3.2421877246e+01    0.6544127    0.4143466  79.32  0.001868322    2.605    0.616
        51 -11.9452    106.0904    130.7094   1.1845289433e+02   3.5144030334e+01    0.4001451    0.3327529 -79.56  0.001283849    1.206    0.170
        52 -11.5239    107.9130    126.0856   1.1698562312e+02   3.5871590641e+01    0.3134332      0.25747 -39.43 0.0008601807    1.337    0.252
        53 -11.3053    160.6434    128.2786   1.0469598799e+02   2.4535462368e+01    0.4271891    0.2459859 -39.80  0.001780197    1.790    0.441
        54 -12.6074    135.7768    122.5154   1.0912113605e+02   3.1155017258e+01    0.7066147    0.3319468 -53.83  0.002618344    2.298    0.565
        55 -11.4708    157.1232    218.8333   1.2245831362e+02   8.1925754775e+00    0.1954713    0.1560479  60.35 0.0007182275    1.252    0.201
        56 -10.6045    165.6996    207.3555   1.1910959679e+02   8.5542416462e+00    0.2532639    0.2088614  79.44 0.0009232611    1.488    0.328
        57 -11.0177    113.2897    119.1902   1.1401488178e+02   3.6432873299e+01    0.2572938    0.2371939  69.70  0.000304715    1.091    0.083
        58 -10.9897    168.2589    113.8447   9.9411035410e+01   2.5729124938e+01    0.3987771    0.2969926 -63.01  0.001277159    1.555    0.357
        59 -12.3382     92.9019    110.8896   1.1758046450e+02   4.2029601717e+01    0.5838757    0.2605993 -42.92  0.001814775    2.461    0.594
        60 -10.8349      4.8020    112.0856   1.4289245086e+02   5.1838230312e+01    0.3187335    0.1985182   3.83  0.001936078    2.470    0.595
        61 -10.6924    205.5354    110.2620   9.1030209879e+01   1.7705987282e+01    0.3100703    0.2406158  42.94 0.0008066153    1.343    0.255
        62 -12.0382     85.2210    107.7138   1.1901419243e+02   4.4035863789e+01     0.408721    0.2083334 -45.45  0.001740832    1.956    0.489
        63 -10.3687    117.3129    109.6404   1.1062120307e+02   3.7790908838e+01    0.1582486    0.1176141 -87.09  0.000704265    1.747    0.428
        64 -11.3020    134.4825    104.3960   1.0481991836e+02   3.5343391937e+01    0.5885502    0.1764262 -44.19  0.001766472    3.271    0.694
        65 -10.3682    125.2477     94.4507   1.0444395892e+02   3.9450893469e+01    0.2927937    0.1483277  41.28  0.001128946    2.130    0.530
        66 -10.5564    124.9478     81.4851   1.0070599263e+02   4.2188995038e+01    0.2323426    0.2051124 -41.25 0.0006143039    1.101    0.092
        67 -10.0170    147.3825     78.7647   9.4283535389e+01   3.7558431049e+01    0.2122187     0.147897 -27.56 0.0004135244    1.566    0.361
        68  -9.4497    120.3518     79.2870   1.0125762143e+02   4.3627080410e+01    0.1531748    0.1195103   8.32 0.0007022964    1.665    0.399
        69 -11.3817      2.0586    247.0974   1.5197164697e+02   2.4669054365e+01    0.1258157   0.09931955  84.97  0.001020305    1.402    0.287
        70 -11.0528    203.1511    244.9087   1.1791505044e+02  -3.0256318307e+00    0.1677567    0.1394503  43.96 0.0007422686    1.273    0.214
        71 -10.8840    164.6908    204.3480   1.1883154397e+02   9.2330653223e+00    0.2742424    0.2036742 -83.66  0.001051031    1.958    0.489
        72 -10.3785     13.5067     59.8150   1.3157712585e+02   6.2927133876e+01    0.1715294    0.1578309 -33.48 0.0003923923    1.220    0.180
        73 -14.2435    194.1749    194.2199   1.1145608792e+02   5.5041401059e+00      1.23348    0.8065398 -61.96  0.004185157    2.415    0.586
        74 -10.8195    130.2945     28.3933   8.1107321592e+01   4.9775953660e+01    0.3197709    0.2094394  72.60  0.001492683    1.767    0.434
        75 -12.1831    182.5238    233.5896   1.1990072265e+02   1.7220796733e+00    0.3155049    0.2149111  31.80  0.001964272    1.291    0.226
