#   1 NUMBER                 Running object number                                     
#   2 MAG_AUTO               Kron-like elliptical aperture magnitude                    [mag]
#   3 X_IMAGE                Object position along x                                    [pixel]
#   4 Y_IMAGE                Object position along y                                    [pixel]
#   5 X_WORLD                Barycenter position along world x axis                     [deg]
#   6 Y_WORLD                Barycenter position along world y axis                     [deg]
#   7 A_WORLD                Profile RMS along major axis (world units)                 [deg]
#   8 B_WORLD                Profile RMS along minor axis (world units)                 [deg]
#   9 THETA_WORLD            Position angle (CCW/world-x)                               [deg]
#  10 FWHM_WORLD             FWHM assuming a gaussian core                              [deg]
#  11 ELONGATION             A_IMAGE/B_IMAGE                                           
#  12 ELLIPTICITY            1 - B_IMAGE/A_IMAGE                                       
         1 -12.1479    142.2389     42.8349   1.8270559626e+01   4.3832769603e+01    0.4220728    0.2461028 -66.97  0.001691228    2.407    0.585
         2 -14.0738     29.9650     33.4138   5.4248375515e+01   6.8775403794e+01    0.9038228    0.5259518 -10.99  0.004246054    2.269    0.559
         3 -11.4198    122.9567     11.9171   1.1005067891e+01   5.2493216371e+01    0.2016811    0.1812939  69.82 0.0003382444    1.002    0.002
         4 -10.7448     54.4149     11.8357   3.0555252696e+01   6.8420489213e+01    0.1659439    0.1168419  -8.44 0.0003603256    1.507    0.336
         5 -11.7640     85.1144      9.8883   1.8630584347e+01   6.2030362957e+01    0.2730754    0.1460835 -50.17  0.001184391    2.585    0.613
         6 -12.1217     92.0750      8.3194   1.6050231573e+01   6.0534062811e+01    0.1950169    0.1618129  58.51 0.0005923561    1.095    0.086
         7 -11.6342    215.1210      2.6678   3.5833931558e+02   3.0840923756e+01    0.1951685    0.1601848 -41.23 0.0003209769    1.238    0.193
         8 -10.7046    100.4496      1.4948   1.1110692540e+01   5.9096387721e+01    0.1351732    0.1169569  54.33 0.0008083017    1.031    0.030
         9 -10.9838    247.2307    241.4003   4.3353107294e+01  -7.0324437960e+00    0.1388508   0.08392435  30.33 0.0009593103    1.671    0.401
        10 -13.7285    245.9065    249.6526   4.4781471741e+01  -7.7707567847e+00    0.2873701    0.1811874  27.42  0.002055917    1.537    0.349
        11 -11.0057    237.0468    250.5377   4.6333307531e+01  -6.9243350221e+00    0.1543653   0.08186518  25.53 0.0004063901    1.557    0.358
        12 -11.3309    179.3357    249.3772   5.6314219360e+01   8.1300230826e-02    0.2852916    0.1076406 -44.96  0.001397718    3.315    0.698
        13 -12.3593    139.7480    248.4984   6.3909975339e+01   5.4511988210e+00     0.284431    0.1682069 -50.61  0.001606934    2.150    0.535
        14 -12.2625    122.9292    246.2930   6.7069903387e+01   8.0665295053e+00     0.177761    0.1381421  44.48 0.0003917754    1.202    0.168
        15 -10.4996    106.6563    250.7519   7.0861386216e+01   9.5242932482e+00    0.1131974   0.08120826  13.42 0.0006834784    1.573    0.364
        16 -11.7720     84.1082    250.6467   7.5458486794e+01   1.2447091229e+01    0.2696519   0.09258103  31.45  0.001216355    2.435    0.589
        17 -11.2328     77.4764    249.9151   7.6753163273e+01   1.3399466820e+01    0.2486295    0.1472399 -60.86  0.001523404    2.081    0.519
        18 -10.6071     80.4334    245.4832   7.5785678933e+01   1.3794838220e+01    0.1960556    0.1357507   3.47  0.001124954    2.155    0.536
        19 -10.9276     78.3227    243.3124   7.6044555381e+01   1.4441044940e+01    0.1960647    0.1027025  31.64 0.0007701803    1.621    0.383
        20 -14.2785     71.9780    230.1242   7.6285703300e+01   1.7653244066e+01     1.194933    0.6046154 -84.70  0.003641302    2.689    0.628
        21 -14.7109     16.2326    167.9360   8.4766770214e+01   3.7350060721e+01     1.240561    0.8187173  16.47   0.00675313    1.821    0.451
        22 -14.0342     68.4487    247.1801   7.8391107849e+01   1.4979573959e+01     0.680086    0.3712715  41.38  0.004062844    1.387    0.279
        23 -13.4378     59.3120    249.0148   8.0381238062e+01   1.5745334564e+01    0.4585084    0.2039793  35.93  0.001333598    1.721    0.419
        24 -15.1709     57.7030    236.1906   7.9827476044e+01   1.8258050574e+01     2.431527     1.348725 -62.00   0.01416148    2.123    0.529
        25 -15.8306     38.6361    200.0952   8.1462379748e+01   2.7771294685e+01      2.78206     1.445949  69.20   0.01318876    1.972    0.493
        26 -15.3133      9.1130    186.2479   8.7660069934e+01   3.3708975565e+01     1.661183    0.7395662  44.25  0.008671976    1.859    0.462
        27 -15.1823      7.2387    197.7671   8.8653012895e+01   3.1323673176e+01    0.9664145    0.7376314  62.88  0.006615918    1.038    0.037
        28 -16.5945     17.9735    211.5515   8.6904479882e+01   2.7428533870e+01     3.016366    0.8502087  57.26   0.01229643    3.250    0.692
        29 -15.2733      7.9586    215.1295   8.9231101203e+01   2.7609830309e+01    0.9707379    0.2778238  47.04  0.004618522    2.423    0.587
        30 -14.5384      2.3208    218.6950   9.0546415057e+01   2.7380051430e+01    0.4866238    0.2458975  68.27  0.002491104    1.638    0.389
        31 -15.9157      7.2457    249.2903   9.0575434613e+01   2.1152352165e+01     1.848788    0.5980545  21.22  0.007370688    5.069    0.803
        32 -15.8993     14.9251    226.4496   8.8237474934e+01   2.4706933015e+01    0.8195999    0.5535442  47.47  0.005610989    1.172    0.147
        33 -16.5604     12.1386    239.0990   8.9295281792e+01   2.2552656288e+01     1.397261    0.7723438  14.46  0.007879256    2.655    0.623
        34 -11.0553    197.9697    240.7545   5.1663255612e+01  -1.1819529397e+00    0.1729678    0.1226163  47.46  0.001077916    2.052    0.513
        35 -10.9322    187.0110    241.4222   5.3784907182e+01   1.3992893855e-01    0.1681988   0.09248352  29.77 0.0009832968    1.482    0.325
        36 -11.2037    125.1359    241.2354   6.6048396841e+01   8.5758214456e+00    0.2593088    0.1035021  46.73  0.001148632    2.576    0.612
        37 -11.8042    107.7243    240.3854   6.9594942255e+01   1.1097034126e+01     0.252966    0.1742629  22.05 0.0009103143    1.426    0.299
        38 -11.7296    149.1468    238.9900   6.0848086630e+01   5.6034388974e+00    0.2608232    0.1485559  28.35  0.001264556    1.456    0.313
        39 -11.2835    205.8254    244.1542   5.0734749024e+01  -2.5897172546e+00     0.162629    0.1303128  18.26 0.0004910187    1.222    0.182
        40 -11.3413     79.6589    237.0046   7.5225499852e+01   1.5400362221e+01    0.1960937    0.1435028  28.95  0.001148394    1.289    0.224
        41 -11.0776    210.4773    235.5223   4.8641895443e+01  -2.0908310839e+00    0.1163643   0.08754695   8.10 0.0001221135    1.005    0.005
        42 -11.5198    121.9626    236.0000   6.6108905687e+01   9.8771928959e+00    0.2144851   0.05836724  33.86 0.0007838937    2.968    0.663
        43 -13.1263    103.8827    236.8517   7.0039509614e+01   1.2224985314e+01    0.2885703    0.2666982  35.06 0.0005544962    1.148    0.129
        44 -11.2796    131.3011    232.9746   6.3776637705e+01   9.0669493172e+00    0.1658624    0.1453193  27.86 0.0003100122    1.080    0.074
        45 -11.5404    182.1755    232.2063   5.3383158325e+01   2.0464092640e+00    0.2237819    0.1494603  41.94  0.001355178    1.639    0.390
        46 -11.6638    150.0848    229.8446   5.9450611071e+01   6.8957772310e+00    0.3380367    0.1884216  57.82  0.001488691    3.254    0.693
        47 -11.1227    139.1307    229.7373   6.1718028533e+01   8.4839631186e+00    0.1742902    0.1336038  25.98 0.0003552201    1.095    0.087
        48 -11.3511    194.3637    228.9611   5.0591305833e+01   8.5406336249e-01    0.1675566     0.133887  -2.72 0.0005073484    1.123    0.109
        49 -11.9155    178.2228    228.5513   5.3613275357e+01   3.1134639532e+00    0.1944548    0.1582781 -23.40 0.0003105584    1.316    0.240
        50 -12.5722     95.8242    228.7601   7.0937007421e+01   1.4769317380e+01    0.3163047    0.1491012  30.20 0.0006856761    1.899    0.473
        51 -12.2631    233.2100    220.3643   4.2364165852e+01  -2.9979275592e+00    0.1985824    0.1688799  -1.16 0.0002514124    1.291    0.226
        52 -12.7187    238.0060    220.5216   4.1597369343e+01  -3.5940678212e+00    0.2545616     0.222031 -19.75  0.001942538    1.503    0.334
        53 -11.5236    112.4007    227.8203   6.7208697911e+01   1.2634157240e+01    0.1614998    0.1156253 -40.71 0.0009505321    1.724    0.420
        54 -11.5517    128.9936    226.3094   6.3431268862e+01   1.0522258050e+01    0.2064679    0.1628416  -7.89 0.0004164212    1.501    0.334
        55 -10.8751    120.6587    227.6865   6.5400154837e+01   1.1482979730e+01    0.1257461   0.09199473   1.82 0.0007047035    1.702    0.412
        56 -12.4494    232.3645    226.8345   4.3534263730e+01  -3.6885963169e+00     0.395371    0.1846721 -22.14  0.002089883    2.182    0.542
        57 -11.7730    100.4667    225.4461   6.9560042538e+01   1.4740322748e+01    0.1284253    0.1044401  42.24 4.799715e-05    1.032    0.031
        58 -11.7655     74.3608    212.0344   7.4078196210e+01   2.0907231772e+01    0.3977305    0.3047493 -50.17  0.002401685    1.584    0.369
        59 -12.5180     87.4718    220.5014   7.1934994846e+01   1.7464986642e+01    0.2176264    0.1093445  32.75 0.0006597418    1.720    0.419
        60 -13.0455     81.5543    225.4957   7.3758675084e+01   1.7297146823e+01    0.4280235    0.2867954   5.52  0.002259892    2.215    0.549
        61 -12.9168     80.2280    221.9980   7.3716898707e+01   1.8145992514e+01    0.3658313    0.2251619 -54.73  0.002048622    1.928    0.481
        62 -13.1186     77.4453    219.9209   7.4142990507e+01   1.8919042961e+01    0.4781181    0.3094683 -70.24  0.001831027    1.763    0.433
        63 -11.1115    222.2535    225.7272   4.5075530436e+01  -2.3224018870e+00     0.156284    0.1050389   0.92 0.0005229565    1.280    0.219
        64 -12.6362     91.6242    225.1290   7.1485901885e+01   1.6016873670e+01    0.2430356    0.1855142 -76.69    0.0011103    1.551    0.355
        65 -16.2327      5.6775    230.9127   9.0282307966e+01   2.4691054267e+01     1.343367    0.5061468  64.59  0.007070253    2.260    0.558
        66 -11.2568    116.4931    225.5015   6.6041394708e+01   1.2464888653e+01    0.1289198    0.1060064  37.88 0.0002325046    1.035    0.034
        67 -11.1588    211.5559    223.3681   4.6582455452e+01  -6.5964921290e-01    0.1810556    0.1660034 -80.07 0.0009876322    2.121    0.529
        68 -12.3513    159.9266    222.6510   5.6413779656e+01   6.6180801338e+00    0.3360483    0.2163769  33.24  0.001197637    1.319    0.242
        69 -12.6954    246.4442    220.9278   4.0301116277e+01  -4.6298377318e+00    0.2213357    0.1556782 -17.17  0.001597698    1.209    0.173
        70 -12.5131    124.4414    221.7931   6.3841472095e+01   1.1974181861e+01    0.3236353    0.1714573  40.72  0.001646717    1.613    0.380
        71 -11.4041    114.3242    222.3003   6.6130575413e+01   1.3353066054e+01    0.1245594    0.0944839   1.39 0.0004961225    1.632    0.387
        72 -12.9179    173.9561    219.8817   5.3158455995e+01   5.0138125696e+00     0.277853    0.2404938 -36.37 0.0006559162    1.385    0.278
        73 -12.0336    176.2466    214.9576   5.1940350344e+01   5.4411800432e+00    0.3310824    0.1174681 -33.90  0.001276167    3.693    0.729
        74 -11.5438    193.3746    220.2024   4.9429635271e+01   2.2160226170e+00    0.1559518    0.1124342 -44.41 0.0009570534    1.760    0.432
        75 -13.0561     58.6755    213.3147   7.7827583017e+01   2.2636123281e+01    0.4645641    0.1746829  57.84  0.001833666    3.155    0.683
        76 -13.2467     66.5692    216.1724   7.6267178747e+01   2.1070721916e+01    0.5109607     0.244345  36.31  0.002563117    1.731    0.422
        77 -12.7693    145.2135    216.4758   5.8610545850e+01   9.8176337382e+00    0.3941053     0.370284 -13.39  0.002223013    1.188    0.158
        78 -13.3147    139.8758    212.5087   5.9194942633e+01   1.1316655337e+01    0.6046813    0.3454364 -36.81  0.002123723    2.098    0.523
        79 -12.3603    142.3884    205.1153   5.7546542111e+01   1.2253988938e+01    0.4776754    0.2096771  36.82 0.0009122345    1.979    0.495
        80 -12.5844    145.8312    201.8894   5.6287572936e+01   1.2297463472e+01    0.3241541    0.2594213 -80.14   0.00133392    1.823    0.451
        81 -11.0703     94.4660    218.4326   7.0130270951e+01   1.6901483460e+01    0.1296081     0.107752  42.60 1.596355e-05    1.008    0.008
        82 -12.6314    130.0592    216.6015   6.1922947351e+01   1.2069567746e+01    0.2186244    0.1897128 -30.51 0.0004562691    1.318    0.241
        83 -13.6754    118.6762    213.6445   6.4064664246e+01   1.4311600053e+01    0.8560563    0.3757235  56.31  0.002993374    4.086    0.755
        84 -13.3171    123.4310    209.8710   6.2483087771e+01   1.4303104189e+01    0.2882097    0.2649183  82.75  0.000737554    1.287    0.223
        85 -13.2680    107.9576    214.8067   6.6640395345e+01   1.5672540420e+01    0.4427013    0.2971578  73.80  0.001758778    2.057    0.514
        86 -12.5280    103.9891    206.7247   6.6543753997e+01   1.7830697050e+01    0.3622637    0.2559648  71.88  0.001581887    1.763    0.433
        87 -11.0985    225.9998    216.3542   4.2930770415e+01  -1.5962546636e+00     0.160793    0.1201531  10.15 0.0004105567    1.093    0.085
        88 -12.9665     82.9670    214.1530   7.2300224132e+01   1.9327121145e+01    0.6754395    0.2339949  41.13  0.002848082    2.313    0.568
        89 -12.1728    247.4166    212.9517   3.8849535551e+01  -3.7880679397e+00    0.1905572    0.1385622  16.00 0.0004423185    1.242    0.195
        90 -11.1890    215.3476    212.9412   4.4226328022e+01   2.4033026582e-01    0.1669266    0.1268781  -8.01 0.0005310415    1.122    0.109
        91 -11.2414    156.4113    213.2437   5.5751545157e+01   8.6764626468e+00    0.2580613    0.2222461 -77.65   0.00104813    1.688    0.408
        92 -13.4961    159.3406    206.2077   5.4043192974e+01   9.4188723177e+00    0.5426753    0.4078317  12.68  0.002404326    1.298    0.229
        93 -10.7343    209.6191    211.8216   4.5068577506e+01   1.1666347540e+00    0.1536951    0.1078312 -40.25 0.0008535641    1.684    0.406
        94 -10.9510    170.4474    210.0011   5.2331458249e+01   7.0897246331e+00    0.1460717    0.1167176 -82.82 0.0003621362    2.246    0.555
        95 -10.7425     97.2734    210.6346   6.8590861752e+01   1.8030931525e+01     0.134058   0.09067905  63.63 0.0007003002    1.666    0.400
        96 -11.5987     90.9593    210.0738   6.9996326321e+01   1.9040977528e+01    0.1923057    0.1642697  49.70 0.0003439086    1.043    0.041
        97 -13.0859    229.2117    206.4164   4.0733644790e+01  -7.0735444987e-01    0.3678634     0.323889 -19.50  0.001649253    1.385    0.278
        98 -14.3212     24.6904    197.3669   8.4582356824e+01   2.9814424816e+01    0.7725636    0.5687242  22.00  0.002590794    1.558    0.358
        99 -11.9194    180.1888    207.9219   5.0027694746e+01   5.9597218823e+00    0.2280346    0.1673729  26.18 0.0008710166    1.189    0.159
       100 -11.6558     71.3991    206.5866   7.4228382354e+01   2.2424741350e+01     0.363628    0.2762853  28.26  0.001648283    1.321    0.243
       101 -12.7350    116.5821    205.2324   6.3413799401e+01   1.6232859416e+01    0.2761443    0.2162626 -78.74  0.001574958    1.611    0.379
       102 -12.3954    238.9459    204.6659   3.8822394290e+01  -1.7219001439e+00    0.2178597     0.164682   7.16 0.0003518867    1.110    0.099
       103 -11.5288     97.1845    188.8301   6.5813228407e+01   2.2568107099e+01    0.2589687    0.1844605 -60.24 0.0009229314    1.535    0.348
       104 -13.2638     84.4602    199.1785   7.0277992092e+01   2.2211974981e+01     1.006648    0.5431618  66.44  0.004372384    2.528    0.604
       105 -12.9139     90.2106    201.3521   6.9146754448e+01   2.0935935781e+01    0.6842878    0.4453131 -31.68   0.00233875    2.239    0.553
       106 -12.0580     65.1240    182.3193   7.3176488723e+01   2.8595460580e+01    0.8855821    0.6269224  -0.39  0.004426871    2.078    0.519
       107 -12.9041     61.7417    177.2641   7.3482416673e+01   3.0211467925e+01     0.330915    0.2642874  18.09 0.0009968955    1.439    0.305
       108 -13.7406     93.4897    193.3697   6.7341629170e+01   2.2145909477e+01     1.142462    0.3057601  39.60  0.003581102    3.042    0.671
       109 -13.6865     89.8071    182.6625   6.6826292756e+01   2.5037635186e+01    0.5397685    0.4131654 -65.87  0.001601162    1.403    0.287
       110 -12.8093     92.0000    188.2587   6.7033470019e+01   2.3472872694e+01      0.36078    0.2799799 -16.03 0.0006335131    1.743    0.426
       111 -13.6593     94.0712    183.9631   6.5918029858e+01   2.4104917711e+01    0.5488431    0.3195137 -60.77   0.00220295    1.857    0.462
       112 -12.7679     69.6961    187.2426   7.2564006118e+01   2.6865339366e+01     1.025131    0.2135229  42.67  0.002603197    3.844    0.740
       113 -13.1852     75.8535    186.1488   7.0860342343e+01   2.6271040129e+01    0.9840171    0.3290878 -65.79  0.003628124    3.273    0.694
       114 -12.4891    110.6829    203.4581   6.4547316026e+01   1.7479170080e+01    0.2709186    0.1952815  51.75 0.0009288928    1.366    0.268
       115 -13.4143    121.1416    200.9356   6.1750842522e+01   1.6368893516e+01     0.590529    0.2924398  62.67   0.00189575    4.819    0.792
       116 -13.5921    121.9383    196.0132   6.0842503653e+01   1.7215668951e+01    0.4042161    0.3384363 -77.58  0.002339751    1.454    0.312
       117 -12.1936    136.3004    200.0887   5.8141297961e+01   1.4143091497e+01    0.3042703    0.2180884  87.57 0.0008972707    2.348    0.574
       118 -11.5855    212.3037    199.9261   4.2571896149e+01   2.4829122091e+00    0.1918212    0.1712554  42.43 0.0008047145    1.551    0.355
       119 -12.3806    219.3742    198.2615   4.1026354192e+01   1.7303652542e+00    0.2025566    0.1702319   0.61 0.0002640671    1.099    0.090
       120 -11.4836    180.8909    199.1289   4.8421044154e+01   7.2618335793e+00    0.2310515    0.1609185  37.37  0.001310349    1.397    0.284
       121 -13.4301    173.4496    196.1840   4.9434675234e+01   8.9125973518e+00    0.4424243    0.3312328  61.54  0.001751206    2.019    0.505
       122 -11.8944    166.1753    196.3849   5.0988377254e+01   1.0034213736e+01    0.2180064    0.2029079 -11.15 0.0005265761    1.147    0.128
       123 -12.4612    159.7660    190.6334   5.1379452056e+01   1.2089659510e+01    0.2861701    0.2628844 -81.43  0.001198488    1.444    0.307
       124 -11.4276    138.3009    197.3118   5.7256049456e+01   1.4347634155e+01    0.1350579    0.1011093  -2.34 0.0002359591    1.607    0.378
       125 -12.9522    110.7169    196.0542   6.3515686190e+01   1.8967951611e+01    0.3746785    0.2675186   1.70 0.0002667446    1.910    0.477
       126 -12.2525    191.4493    195.8865   4.5773000653e+01   6.1613927958e+00    0.3405096    0.2291491  -8.71 0.0003965688    1.617    0.382
       127 -11.6069    189.0725    192.2933   4.5605909327e+01   7.1023383960e+00    0.2153018    0.1986726 -29.32  0.000276458    1.280    0.219
       128 -12.2550    153.4138    195.3740   5.3567322629e+01   1.2266704785e+01    0.2400961    0.2111158  35.48 0.0004349074    1.132    0.116
       129 -11.1827    212.3151    193.6361   4.1467088571e+01   3.3992534352e+00    0.1097156    0.1023438 -77.55  0.000704049    1.765    0.433
       130 -12.8635    133.6361    190.4027   5.7228367978e+01   1.6438245680e+01    0.3260511    0.2320626  21.70  0.001699874    1.429    0.300
       131 -12.7681     50.7334    190.0960   7.7666638491e+01   2.8618327776e+01    0.3608637    0.2416282  18.03  0.001227919    1.783    0.439
       132 -11.8337     37.4102    172.7073   7.9504883662e+01   3.4170215843e+01    0.2897263    0.1083936 -69.56  0.001204924    2.502    0.600
       133 -15.4496     38.4085    244.1968   8.4308057261e+01   1.8960988718e+01      1.87585    0.9343642 -62.78   0.01093997    2.408    0.585
       134 -13.1447     37.5808    177.9852   7.9934563215e+01   3.2902448763e+01    0.7873805    0.2138796  29.76  0.002928651    3.252    0.693
       135 -13.3062     34.8757    184.8611   8.1207383152e+01   3.1591636454e+01    0.5653383    0.1806348  37.83  0.002377547    2.501    0.600
       136 -13.2754     38.9287    181.6413   7.9904755334e+01   3.1902285046e+01      0.44365    0.2804109  16.84  0.002308154    1.937    0.484
       137 -10.8007     60.8411    197.7406   7.5893079692e+01   2.5679738697e+01     0.165039    0.1247564  64.54 0.0003025406    1.226    0.184
       138 -12.1942    201.6175    196.0290   4.3855897074e+01   4.6088583016e+00    0.3088506    0.2104097  -8.63   0.00145567    1.500    0.333
       139 -13.4221    111.1408    187.8337   6.2213580759e+01   2.0608434986e+01     0.550467    0.2746288  32.47  0.002406528    1.883    0.469
       140 -11.8924    240.4759    187.1559   3.5519490821e+01   3.9683815904e-01    0.2983184    0.1805824 -52.26  0.001506959    2.984    0.665
       141 -12.4142    209.1244    186.1311   4.0694190212e+01   4.9974009222e+00    0.5115529     0.190477 -28.75  0.001712512    3.358    0.702
       142 -13.6061    127.5922    185.7807   5.7904929300e+01   1.8359127523e+01    0.3845266     0.304553 -18.24  0.001937874    1.500    0.333
       143 -13.4385    122.2889    185.9862   5.9211984079e+01   1.9191215725e+01    0.4223641     0.262668  35.73  0.001261563    1.457    0.314
       144 -11.7293     43.3088    186.7531   7.9234062596e+01   3.0238103765e+01    0.2233894    0.1645863  66.01 0.0006567432    1.224    0.183
       145 -11.8889    248.1187    185.7542   3.4067242765e+01  -4.1881200279e-01    0.2393278    0.1592793  15.66  0.001314079    1.457    0.314
       146 -12.2706    163.9482    185.3719   4.9551932310e+01   1.2349369390e+01    0.2663428    0.1978882 -44.12  0.001461529    1.464    0.317
       147 -11.9432    157.0017    185.6321   5.1113562869e+01   1.3463915472e+01     0.246134    0.1857213  -9.55  0.001148397    1.505    0.336
       148 -12.1147    201.8554    182.6072   4.1390808069e+01   6.6609873543e+00    0.2284277     0.195049   0.18  0.000418166    1.009    0.009
       149 -11.4186    198.1506    180.1831   4.1640324980e+01   7.6341081817e+00    0.1932924    0.1687887  -1.31 0.0002820953    1.034    0.033
       150 -12.5689    151.6173    181.9848   5.1669289231e+01   1.5060513047e+01    0.3110173    0.2099091  13.28 0.0007838362    1.754    0.430
       151 -12.5681     49.0540    182.4807   7.7367950439e+01   3.0560803491e+01    0.3418434    0.2906787  42.84  0.001549279    1.141    0.124
       152 -12.5831    142.2479    181.1815   5.3672295770e+01   1.6814756000e+01    0.2495069    0.2107055  36.86  0.000273472    1.112    0.100
       153 -13.8878    118.0741    179.6266   5.9216042622e+01   2.1218676143e+01       0.5521    0.3236147  51.64  0.001584997    1.844    0.458
       154 -12.3596     17.1567    176.8628   8.5124925016e+01   3.5165570138e+01    0.5100118    0.1915642 -87.48  0.001550321    2.712    0.631
       155 -11.2184    246.2761    179.5785   3.3237616193e+01   6.5140299539e-01    0.1480287   0.09954453  17.26 0.0003315154    1.475    0.322
       156 -11.4811     24.3337    178.6656   8.3416044028e+01   3.4085282413e+01    0.2783464     0.117443  40.44   0.00124041    2.021    0.505
       157 -12.4491     22.7573    174.9307   8.3551599091e+01   3.5108711220e+01      0.30799     0.238316 -40.56  0.001250233    1.661    0.398
       158 -13.5539    106.0335    176.2116   6.1699554114e+01   2.3938561879e+01    0.3786995    0.2631482  41.38   0.00103928    1.322    0.244
       159 -11.1917    191.3163    177.6986   4.2494276570e+01   9.1475794952e+00    0.1198787    0.1088454  79.45 0.0002597018    1.617    0.382
       160 -13.8223    149.0750    175.4511   5.1068030151e+01   1.6764451342e+01    0.6967187    0.3707687  54.00  0.001201539    2.541    0.606
       161 -12.9603    137.5435    177.0232   5.4044666445e+01   1.8454725364e+01    0.2790464    0.1993226  36.68 0.0004710562    1.295    0.228
       162 -13.9720    126.8204    167.1567   5.4878632894e+01   2.2389035604e+01    0.4737692    0.3576296  74.96  0.002294769    1.781    0.439
       163 -13.2182    122.4874    167.6826   5.6061978218e+01   2.3035668306e+01    0.3434043    0.2959693  13.51   0.00163501    1.230    0.187
       164 -13.7190    127.5261    176.1571   5.6305442725e+01   2.0356726627e+01    0.4422521    0.3008339  27.77   0.00217529    1.464    0.317
       165 -13.4563    125.9598    172.0081   5.5965035149e+01   2.1502178875e+01    0.3570236    0.3450812 -74.45   0.00038819    1.131    0.116
       166 -13.4378    130.7900    169.3787   5.4301201717e+01   2.1216021344e+01    0.4241735    0.2555431  33.99  0.001944639    1.588    0.370
       167 -12.0624    247.9702    176.0003   3.2322976910e+01   9.1079464819e-01    0.1807468    0.1419181 -13.03 0.0003013849    1.014    0.014
       168 -11.9395    225.4185    175.8783   3.5926406188e+01   4.1079394547e+00    0.2959938    0.1665506  35.94  0.001575579    1.828    0.453
       169 -11.2044     53.6171    177.6734   7.5683102158e+01   3.1136487622e+01    0.2445568    0.1270664  48.35  0.001145321    1.768    0.434
       170 -11.9425    242.2953    175.2952   3.3070184421e+01   1.7802960501e+00    0.1852975    0.1346203  23.31 0.0005071938    1.383    0.277
       171 -14.9429     95.3952    159.1594   6.1717777879e+01   2.9570672615e+01    0.7492763    0.6085144  11.22  0.003688721    1.446    0.309
       172 -13.1723     89.1073    153.6045   6.2523595012e+01   3.1911456004e+01    0.3953705    0.2579688  50.98  0.001837885    1.552    0.356
       173 -13.4740     77.7742    159.7647   6.6737491523e+01   3.2170452154e+01     0.423519    0.2273432  63.04  0.001551955    2.503    0.601
       174 -15.4091     77.8343    153.6926   6.5769359536e+01   3.3638471908e+01     1.086694    0.6895397  69.84  0.002453387    1.978    0.494
       175 -12.9378     84.3168    149.9171   6.3262479527e+01   3.3566075475e+01    0.3284902    0.2928437 -45.03 0.0007246194    1.207    0.172
       176 -14.2971     83.9851    144.5820   6.2419137374e+01   3.4925129324e+01    0.6470107    0.3963914  34.70  0.002924986    1.609    0.379
       177 -14.0880     90.5659    172.0979   6.5102334487e+01   2.7320414140e+01    0.6593824    0.4349725 -41.71  0.001340041    1.797    0.443
       178 -14.1247     91.8854    166.2006   6.3836251017e+01   2.8482241818e+01    0.6778088      0.24934  43.71 0.0004046876    2.579    0.612
       179 -11.4821     79.0049    174.0000   6.8461465413e+01   2.8608665107e+01    0.2586095    0.1855375  -1.29  0.001234101    2.026    0.506
       180 -12.3371     77.4954    171.4890   6.8520708294e+01   2.9414386111e+01    0.2300057    0.1842444 -64.28 4.699811e-05    1.298    0.230
       181 -11.0599    173.4397    173.4909   4.5329727103e+01   1.2891149908e+01    0.1383274    0.1240408   4.63  3.12395e-05    1.014    0.014
       182 -12.9342     30.4244    168.9125   8.1043764957e+01   3.5800476666e+01    0.6123949    0.2368351 -54.50  0.001900428    2.813    0.645
       183 -13.2378    100.1886    171.2204   6.2420721701e+01   2.6002384047e+01    0.2640009    0.2442177 -53.52 0.0007975652    1.162    0.139
       184 -12.9453     61.6650    171.0788   7.2767365120e+01   3.1684789839e+01    0.4627986    0.2361064  35.98  0.002028137    1.802    0.445
       185 -11.9076     41.8019    172.1998   7.8278418852e+01   3.3812874371e+01    0.2711324    0.1535823  43.82  0.001363318    1.594    0.373
       186 -12.5588    206.3302    174.1497   3.8966610571e+01   7.3027882243e+00    0.4028898    0.2630491  36.77  0.002222342    1.551    0.355
       187 -11.6458    197.6187    170.2337   3.9842810869e+01   9.3566103216e+00    0.2347012    0.1565084 -25.74  0.001147656    1.471    0.320
       188 -12.0392    160.0154    168.9898   4.7374390964e+01   1.6088645485e+01     0.218769    0.1868839   2.36   0.00044245    1.179    0.152
       189 -13.2211    153.0145    170.0957   4.9165237099e+01   1.7121501451e+01    0.3776816    0.2920073 -35.77 0.0008477885    1.343    0.255
       190 -12.7988    156.9502    165.6404   4.7410932415e+01   1.7288831885e+01    0.2806703    0.2527519 -12.59 0.0004760729    1.105    0.095
       191 -12.9795    152.0748    165.3307   4.8463057404e+01   1.8233039452e+01    0.4058593    0.2404229  28.66  0.001232274    1.780    0.438
       192 -10.6178    166.0509    170.7844   4.6392337159e+01   1.4678387137e+01    0.1783849    0.1077902  38.34 0.0002959533    1.585    0.369
       193 -12.2665    110.0172    169.7923   5.9620622203e+01   2.4706597808e+01    0.1997163     0.181765  39.09 0.0004424335    1.030    0.029
       194 -13.1955     57.3744    164.0774   7.3092199906e+01   3.3924410482e+01    0.3843244    0.2542084  82.48  0.001906273    1.647    0.393
       195 -13.8858     51.9014    166.4624   7.4906082293e+01   3.4023139262e+01     0.690972    0.3149048  57.59  0.002794952    2.499    0.600
       196 -14.0474     72.7636    167.4335   6.9250375494e+01   3.1050493104e+01    0.6010549    0.3552601  66.65  0.001727464    2.059    0.514
       197 -12.9326    201.9642    165.8194   3.8156359791e+01   9.3680218948e+00    0.4557051    0.2414272  39.21 0.0005122288    1.916    0.478
       198 -12.9741    212.2991    163.9531   3.5903864109e+01   7.9733745549e+00    0.2842569    0.2349166 -40.18 0.0005317067    1.323    0.244
       199 -13.3224    110.7987    165.0199   5.8594725641e+01   2.5643630663e+01    0.3665827    0.2609083   8.92   0.00169308    1.862    0.463
       200 -12.9592     47.5073    161.5067   7.5569303388e+01   3.5755422020e+01    0.2842244    0.2143642  68.31  0.001567893    1.270    0.213
       201 -13.3851     64.4957    164.0300   7.1087386277e+01   3.3007360372e+01    0.3267136    0.2353749 -85.30  0.001624992    1.447    0.309
       202 -13.6429     39.0109    161.3316   7.7953770090e+01   3.6752250734e+01    0.4618211     0.339996  -6.24  0.001532228    1.898    0.473
       203 -11.4433     25.9762    153.5616   8.0911154578e+01   3.9979356379e+01     0.504787    0.2144767  20.67  0.002147032    2.711    0.631
       204 -12.2702     32.3574    157.6959   7.9474518444e+01   3.8339911133e+01    0.4967311    0.2384977  69.38  0.002102858    2.423    0.587
       205 -12.2598     29.0159    156.4978   8.0313197550e+01   3.8964766564e+01    0.4135369     0.292329 -16.03  0.002174073    2.024    0.506
       206 -10.7626    229.8240    161.8367   3.2503576300e+01   5.5397354056e+00    0.1570384    0.1433578 -35.40 0.0004423724    1.318    0.241
       207 -10.4849    186.2486    162.3237   4.0498809692e+01   1.2658278569e+01    0.1370148   0.09971806  -7.86 0.0002041389    1.536    0.349
       208 -12.0269     25.3581    161.3325   8.1779441611e+01   3.8125438206e+01    0.2970578    0.2087546  48.18  0.001000816    1.322    0.243
       209 -12.0499     18.9895    160.7737   8.3496845294e+01   3.8835706680e+01    0.3317561    0.1790243  13.15  0.001509609    2.393    0.582
       210 -12.6853    170.0665    159.8364   4.3355367177e+01   1.6018382257e+01    0.2976398    0.2865374  59.63  0.001252261    1.218    0.179
       211 -13.5242    121.0059    159.0002   5.4837540023e+01   2.5205117638e+01    0.4697824    0.2668472 -50.87  0.002049736    1.839    0.456
       212 -13.7012    117.0336    158.1369   5.5708569473e+01   2.6106810923e+01    0.6241945     0.355851   9.49  0.002032971    3.829    0.739
       213 -12.8524      4.3544    159.9551   8.7427271103e+01   4.0196678639e+01    0.3849504    0.2610164  75.80  0.002148131    1.269    0.212
       214 -12.1406      2.8102    152.8076   8.7423807172e+01   4.2026725562e+01     0.302918    0.2203956  61.72 0.0009819074    1.228    0.186
       215 -11.5010      5.3237    150.6698   8.6586530955e+01   4.2372391828e+01     0.394524    0.1876059  79.95  0.001873303    2.020    0.505
       216 -11.9392    146.0625    158.1485   4.8447167577e+01   2.0793816398e+01    0.2632412    0.1958219 -79.16 0.0007971475    2.003    0.501
       217 -12.6061    105.0529    158.4881   5.8963816925e+01   2.8114812651e+01    0.3588167     0.230795  83.63  0.001444263    2.510    0.602
       218 -12.6518    133.3842    157.2571   5.1355584549e+01   2.3333482134e+01    0.3281198    0.2623287 -85.87  0.001619846    1.652    0.395
       219 -12.2118    191.0192    155.8980   3.8243478317e+01   1.2947365028e+01    0.3039771    0.1952613 -47.79  0.001269951    1.712    0.416
       220 -12.5263    112.2237    156.1136   5.6600573964e+01   2.7416880582e+01    0.3026457    0.1824235  59.92   0.00123893    2.148    0.535
       221 -13.8979     62.8684    153.7777   7.0141490343e+01   3.5741605706e+01    0.4696756    0.3064101 -83.71  0.002250368    1.668    0.400
       222 -11.2605    141.4933    155.5396   4.9017075848e+01   2.2190201057e+01     0.146394    0.1398496  31.13   5.4837e-05    1.033    0.032
       223 -12.1551     20.7174    154.4396   8.2498916196e+01   4.0235668515e+01    0.2275295    0.1973782  77.54  0.000279312    1.013    0.013
       224 -11.5307    224.3487    152.7585   3.1600099740e+01   7.7882469104e+00    0.3165252     0.141096 -21.91  0.001201418    3.233    0.691
       225 -11.8612    212.4876    153.9100   3.3853484860e+01   9.5607516963e+00     0.202602    0.1190754 -35.86 0.0008483229    1.565    0.361
       226 -12.7688     57.8209    143.7511   7.0189082436e+01   3.8920084509e+01    0.3883283    0.2653229 -22.59  0.001245449    2.101    0.524
       227 -12.0505     51.3168    152.7249   7.3397238887e+01   3.7478565543e+01    0.2830845    0.2469723 -11.46 0.0005906449    1.420    0.296
       228 -13.2101     55.2612    150.4060   7.1917625540e+01   3.7571535138e+01    0.4410482    0.2842661 -76.53  0.002158832    1.559    0.358
       229 -11.8567     44.8344    152.4937   7.5282186966e+01   3.8298483625e+01     0.228206    0.1724722  68.31 0.0009858591    1.284    0.221
       230 -11.3281    249.1933    151.8762   2.7579445708e+01   4.1029584940e+00     0.171019    0.1400538 -28.51 0.0002955134    1.147    0.128
       231 -13.1431    134.2584    150.7016   4.9812797500e+01   2.4585060624e+01     0.413003    0.2721564  39.40  0.001911744    1.464    0.317
       232 -13.1854    108.6149    149.2794   5.6271327651e+01   2.9632355420e+01    0.4206614    0.3076555 -52.34 0.0009929253    1.410    0.291
       233 -13.5749    102.2456    143.0253   5.6820151391e+01   3.2233528475e+01      0.65979    0.4073431  65.57  0.002440454    2.287    0.563
       234 -12.9828    124.8284    148.2847   5.1728771196e+01   2.6893315670e+01    0.3754165    0.2790679  67.37    0.0014056    1.687    0.407
       235 -13.6362    120.5436    144.2681   5.2028033416e+01   2.8602211460e+01    0.5636725    0.3642358  35.67  0.001335459    1.530    0.347
       236 -12.9680     95.7651    149.3820   5.9879735953e+01   3.1832188708e+01    0.2884276    0.2427857 -39.47 0.0009432276    1.299    0.230
       237 -13.1953     40.9303    148.1337   7.5920621053e+01   3.9829028862e+01    0.4000397    0.2680796 -55.15  0.001030989    1.526    0.345
       238 -12.0732     19.8543    149.8685   8.2355032844e+01   4.1441534522e+01    0.3886749    0.2381568  -0.57  0.001729329    2.353    0.575
       239 -12.1459     12.2122    149.8802   8.4568939914e+01   4.2059074933e+01    0.2066102    0.1956596  74.48 0.0004318417    1.145    0.127
       240 -11.9322      9.0123    147.0566   8.5282012038e+01   4.2995372115e+01    0.2033914    0.1662822  75.58  0.001003722    1.064    0.060
       241 -11.6964    146.9627    148.7736   4.6295307085e+01   2.2567243604e+01    0.2444187    0.2108523 -39.75 0.0003262057    1.181    0.153
       242 -13.0084     30.3187    139.3773   7.8146845137e+01   4.3135661094e+01    0.3549104    0.2682898 -74.71  0.001997691    1.211    0.174
       243 -13.4198     26.4359    146.9009   8.0134691985e+01   4.1598857155e+01    0.7272021    0.3478309 -78.97  0.003299544    1.973    0.493
       244 -13.1369    169.8087    150.9897   4.1572928351e+01   1.7750375467e+01     0.585555    0.2983856  52.70  0.002333319    2.460    0.593
       245 -12.2424    151.3658    145.7456   4.4602678446e+01   2.2340935870e+01    0.2549503    0.2319729  12.80 0.0002763163    1.099    0.090
       246 -10.5955    229.2666    145.3276   2.9295593573e+01   8.1425739113e+00    0.1291589   0.08968694  -7.63 0.0002361881    1.573    0.364
       247 -13.6443     70.9935    143.0955   6.6058498511e+01   3.7272892672e+01     0.448766    0.2833893 -55.52  0.001349205    1.576    0.365
       248 -11.2791    187.2133    143.1791   3.6296272054e+01   1.5915812330e+01    0.1805217    0.1662324 -65.95 0.0003277815    1.310    0.236
       249 -11.5190    157.1467    143.1636   4.2697941908e+01   2.1735667828e+01    0.1971177    0.1785202 -81.96 0.0004019568    1.325    0.245
       250 -12.4820     51.6488    142.3509   7.1887274457e+01   4.0052746939e+01    0.3736831    0.1984718  43.10 0.0005394012    1.830    0.453
       251 -13.5290     16.1930    141.4235   8.2699080275e+01   4.3851928172e+01    0.6762884    0.2958857  24.67   0.00308528    2.401    0.583
       252 -11.2441    178.0040    142.4828   3.8004242960e+01   1.7799369177e+01    0.2114592    0.1397456  42.27  0.000512729    1.539    0.350
       253 -13.4542     94.9208    140.1600   5.8364948093e+01   3.4196648989e+01    0.4944728    0.3238806 -26.60  0.002064507    2.184    0.542
       254 -13.7240    101.6234    134.1577   5.5178399186e+01   3.4461918146e+01    0.7881662    0.4363708  16.00  0.002651905    3.276    0.695
       255 -11.9505    102.1670    129.8561   5.4091648480e+01   3.5392424842e+01    0.2960465    0.1921728 -51.36 0.0004832254    1.552    0.356
       256 -13.2127     13.4705    134.8336   8.2944957036e+01   4.5718952560e+01    0.4701651    0.2707269  72.19  0.001718417    1.742    0.426
       257 -13.6144     39.1509    139.9826   7.5459731952e+01   4.2087563402e+01    0.4203479    0.3235112  44.33 0.0009899646    1.288    0.223
       258 -11.6785    232.9922    136.9792   2.6999908617e+01   8.8166756108e+00    0.1941979    0.1662122 -25.17 0.0003667697    1.043    0.042
       259 -13.8074    117.4481    134.8755   5.0851291921e+01   3.1338341735e+01    0.6872865     0.347426  53.99  0.002187503    2.459    0.593
       260 -12.8204     46.3966    136.1558   7.2651806621e+01   4.2258593912e+01    0.2595651    0.2396568 -73.71 0.0004633172    1.066    0.062
       261 -11.1975    166.6657    136.6805   3.9120005115e+01   2.1138483503e+01     0.153003    0.1142035   1.65 0.0007049162    1.699    0.412
       262 -13.7189     90.1044    135.9162   5.8950605347e+01   3.6050396333e+01    0.8506862    0.3196771  51.41  0.002542344    3.751    0.733
       263 -12.6256     83.6575    136.3081   6.0977549780e+01   3.7020012632e+01    0.2626205    0.2147928 -30.49  0.001117425    1.419    0.295
       264 -13.1124     73.3481    134.1769   6.3764083775e+01   3.9164366663e+01    0.4590679    0.1987335 -49.86  0.001732786    2.353    0.575
       265 -10.9299    209.9748    134.0169   3.0096951360e+01   1.3284023337e+01    0.1664244    0.1456451 -23.63 0.0004964641    1.024    0.023
       266 -13.5516     56.9353    133.4353   6.8855137351e+01   4.1658629750e+01    0.5301461    0.2226103  38.40  0.002093853    2.278    0.561
       267 -11.0868    109.3974    137.8279   5.3729274437e+01   3.2169888549e+01    0.2165157    0.1392486 -41.33 0.0009382971    1.686    0.407
       268 -12.4777     32.5475    147.6221   7.8380277214e+01   4.0832296886e+01    0.2664459    0.2435703  46.22 0.0007326748    1.147    0.128
       269 -11.1241    128.4704    133.4777   4.7574031307e+01   2.9499611143e+01    0.1515933    0.1481278  17.90 0.0008094403    1.020    0.019
       270 -12.9112     35.5151    128.0421   7.5056533087e+01   4.5526650222e+01    0.3478443    0.2549309  74.33  0.001145732    1.399    0.285
       271 -12.5852     34.4690    131.9993   7.5927789316e+01   4.4614844644e+01    0.2292634    0.2018287 -25.63 0.0006942287    1.335    0.251
       272 -12.4326     37.6840    130.7150   7.4707021924e+01   4.4615738778e+01    0.2453108     0.222385 -39.03 0.0002156487    1.228    0.186
       273 -11.4076    230.1614    130.6547   2.6109218016e+01   1.0266683076e+01    0.2088074    0.1536649 -39.66 0.0004399819    1.256    0.204
       274 -12.4324     93.9167    129.3726   5.6449279412e+01   3.6992334753e+01      0.36969    0.1957944 -53.81  0.001497385    1.883    0.469
       275 -13.5032     48.4193    130.0940   7.1091181681e+01   4.3576090514e+01    0.4957834    0.2520615  37.44  0.002179415    1.931    0.482
       276 -10.9408     19.2452    131.5975   8.0803335302e+01   4.6092306806e+01    0.1663065    0.1291103  -3.32   0.00093866    1.620    0.383
       277 -11.2670    209.9717    142.6492   3.1951361306e+01   1.1845824190e+01    0.2026606      0.11587  67.98 0.0007048324    4.459    0.776
       278 -10.9456      2.4486    131.4644   8.6099863126e+01   4.7306797095e+01    0.1276803    0.1080585 -85.65 0.0004217355    1.035    0.034
       279 -11.1608    199.4753    130.4455   3.1162264983e+01   1.5849549198e+01    0.1386006    0.1272685 -20.64 0.0001061039    1.010    0.010
       280 -13.5223     64.5682    127.7733   6.5397430912e+01   4.2068668460e+01    0.4861056    0.3148736  74.19  0.001150663    1.989    0.497
       281 -13.9889     59.0258    125.4599   6.6804956671e+01   4.3423032990e+01    0.7413329    0.3579481  15.71  0.002657644    3.141    0.682
       282 -13.9019     81.3058    127.5597   5.9971334981e+01   3.9575965626e+01    0.6152532    0.3550526  40.96   0.00180865    1.708    0.414
       283 -12.8545     75.0597    125.0330   6.1454639758e+01   4.1203568200e+01     0.328679    0.2858471  -8.49 0.0003948568    1.353    0.261
       284 -11.4519    189.0754    121.4839   3.1036760011e+01   1.9478377267e+01     0.204858    0.1419208  46.67 0.0003454307    1.524    0.344
       285 -12.0959    186.3023    124.5356   3.2278608743e+01   1.9485541397e+01     0.363867    0.1416152 -42.24  0.001348173    2.458    0.593
       286 -10.7938    130.5055    128.4659   4.5883676962e+01   3.0204525806e+01    0.1519486    0.1493849  29.51 0.0001513062    1.002    0.002
       287 -12.2272    123.2130    126.2126   4.7298325686e+01   3.2181967152e+01    0.6702241     0.411774   8.01  0.002224056    3.456    0.711
       288 -12.0660    169.5489    126.0067   3.6027302054e+01   2.2633518837e+01     0.265614    0.2007979  26.81 0.0003063599    1.463    0.316
       289 -12.0886     50.3140    123.7451   6.9430311560e+01   4.4980911766e+01    0.2649033    0.1754098  22.75 0.0006045772    1.678    0.404
       290 -13.2680     20.8183    122.8988   7.9327180163e+01   4.8188034154e+01    0.3257745    0.2684309 -24.97 0.0005693855    1.439    0.305
       291 -11.6725      9.1132    117.1692   8.2684418045e+01   5.0498039067e+01    0.2321544    0.1902554  21.49  0.001423223    1.399    0.285
       292 -13.0566     14.1588    117.8395   8.1022511837e+01   4.9987587771e+01    0.2855825    0.2647205 -32.55   0.00140046    1.228    0.186
       293 -12.7562     23.0202    116.8828   7.7829547547e+01   4.9552908467e+01    0.5743929     0.242221 -62.11  0.002485752    2.018    0.504
       294 -12.9234     18.2962    114.7187   7.9217170752e+01   5.0483320241e+01    0.4875252    0.3843428 -23.83  0.002819179    1.496    0.332
       295 -11.4227      5.3340    123.0653   8.4503297519e+01   4.9240350238e+01    0.2748199   0.08659506 -69.18  0.001101246    2.514    0.602
       296 -11.9101    194.9832    122.6847   3.0217503831e+01   1.8081814536e+01    0.1883266    0.1803281  24.09 0.0003067475    1.100    0.091
       297 -13.1635     64.2577    120.8730   6.4193925845e+01   4.3870190718e+01    0.4680783    0.2639155 -74.20  0.001935094    2.050    0.512
       298 -11.2613     10.6483    123.1659   8.2759778556e+01   4.8873554503e+01     0.191349   0.09974383 -66.25 0.0006052447    1.656    0.396
       299 -12.1201    199.1785    121.4708   2.9181438570e+01   1.7465994530e+01    0.2769858    0.2153436  -2.33 0.0009777843    1.504    0.335
       300 -13.1951    104.9730    121.4158   5.1344555348e+01   3.6876151290e+01    0.5586757    0.3066913  48.64  0.001693149    1.913    0.477
       301 -12.3194    100.4655    118.9675   5.2118468270e+01   3.8311939456e+01    0.2639202    0.2148305  64.76 0.0009153993    1.362    0.266
       302 -12.7207     26.9657    124.8550   7.7494134161e+01   4.7162611798e+01    0.3063155    0.2997691 -60.90  0.001864231    1.132    0.117
       303 -13.3337     70.6594    119.4135   6.1753018189e+01   4.3297276386e+01    0.4301342    0.3055399   6.23  0.001583727    1.881    0.468
       304 -14.4550     77.5982    119.2333   5.9416403844e+01   4.2255283301e+01    0.8096659    0.4472628  49.45  0.003324643    1.978    0.494
       305 -11.4744    224.0806    120.3090   2.4814175974e+01   1.2957801068e+01    0.1713632    0.1648084 -15.34 0.0004217789    1.119    0.107
       306 -10.7809     36.9771    119.4734   7.3320442440e+01   4.7587124823e+01    0.2062687   0.09257739  49.30 0.0008095589    2.504    0.601
       307 -12.0513     94.8771    117.6567   5.3526741668e+01   3.9663306838e+01    0.3120041    0.2355629 -63.59  0.001474911    1.394    0.283
       308 -12.4907     57.4368    117.8068   6.5926556106e+01   4.5595315662e+01    0.2308616    0.1806466  20.60  0.000640451    1.417    0.294
       309 -11.0085    241.6796    115.9808   2.1354390834e+01   1.0543401172e+01    0.1760196    0.1378903 -32.71 0.0003381086    1.070    0.066
       310 -11.9343    196.7166    115.6669   2.8272177912e+01   1.8965322474e+01    0.2389369     0.208329   7.93 0.0008248311    1.246    0.197
       311 -13.0400    104.3562    114.5184   4.9865748750e+01   3.8621857769e+01    0.5073032    0.3126388  35.71  0.002157105    1.670    0.401
       312 -12.3826    108.8767    111.8940   4.7858898025e+01   3.8342101931e+01    0.2941006    0.2610966  26.97  0.001065139    1.175    0.149
       313 -10.9159     29.1643    116.4535   7.5611128634e+01   4.9127634123e+01     0.173816    0.1372523  21.28 0.0003600942    1.414    0.293
       314 -10.3229    221.2989    115.3116   2.4137666293e+01   1.4262098347e+01    0.1320532   0.09942998  -1.15 0.0002663262    1.602    0.376
       315 -12.7927    115.6060    113.4266   4.6291164778e+01   3.6628746362e+01    0.4121453    0.3057717  -2.53  0.001569997    1.938    0.484
       316 -13.1805     83.2458    111.3315   5.5764414480e+01   4.3271153423e+01    0.5888584    0.2534383 -53.00 0.0006260347    2.255    0.557
       317 -13.4059     62.7879    110.9447   6.2675485240e+01   4.6602755895e+01    0.6319311    0.3142676 -71.72  0.002381425    2.470    0.595
       318 -12.0539     63.6351    105.7477   6.1236311169e+01   4.7791140979e+01    0.2629219    0.1964907 -46.23 0.0006028562    1.329    0.248
       319 -10.5777    229.6322    112.3077   2.2242163341e+01   1.3209994242e+01    0.1315446   0.09657923 -64.53 0.0007036187    1.755    0.430
       320 -12.6745     90.0228    110.9084   5.3447771036e+01   4.2177166424e+01    0.3111096    0.2938669  53.30 0.0004139858    1.064    0.061
       321 -11.4660     92.8374    106.1531   5.1350393205e+01   4.2800305646e+01    0.3058414    0.1958208 -28.73  0.001239307    2.071    0.517
       322 -12.2841     53.1645    110.3635   6.5982038319e+01   4.8059921570e+01    0.3253553    0.2409086  29.80  0.000964071    1.422    0.297
       323 -12.1791    217.8639    109.8925   2.3447053163e+01   1.5776713157e+01    0.2604437    0.1941406  60.71 0.0007683091    1.598    0.374
       324 -11.7771    121.8369    108.2535   4.3199313720e+01   3.6491893804e+01    0.2494204    0.2393889 -78.27 0.0004221863    1.078    0.072
       325 -11.2424    113.6548    109.3941   4.5817557700e+01   3.7945768618e+01    0.2105362      0.14857  32.70 0.0005756466    1.511    0.338
       326 -10.6031    236.6746    108.6501   2.0465714084e+01   1.2509896142e+01    0.1306663   0.09480752  -1.12 6.916051e-05    1.755    0.430
       327 -11.9451    170.4081    109.2284   3.1750867611e+01   2.5669095455e+01    0.2033102    0.1366289 -48.64 0.0003025758    1.513    0.339
       328 -12.8601      2.8577    107.0044   8.3864332783e+01   5.3438934427e+01    0.2811831    0.2474492 -47.57  0.001004587    1.201    0.167
       329 -10.7942    139.6736    107.3231   3.8253634402e+01   3.2825396244e+01    0.1585525    0.1241383 -87.09 0.0007048494    1.689    0.408
       330 -11.5219    158.4796    106.4938   3.3605654115e+01   2.8821787800e+01    0.3056389    0.1502323  49.58 0.0008615473    2.079    0.519
       331 -13.5061     10.5835    105.2479   8.0854721653e+01   5.3438733186e+01    0.4795287    0.3453337  63.82  0.001990305    1.453    0.312
       332 -12.2267     12.7154    102.3241   7.9695731623e+01   5.4046370499e+01    0.2299467    0.1987414  85.77 0.0005578614    1.117    0.105
       333 -12.0069    220.0255    104.2333   2.1837919561e+01   1.6266530168e+01    0.2174032    0.1709687 -36.61 0.0003304571    1.121    0.108
       334 -12.0601    105.6499    103.3002   4.6584745650e+01   4.0969490011e+01    0.3296239    0.2550558  87.71  0.001487818    1.710    0.415
       335 -10.9313    229.6907    103.0786   2.0199483761e+01   1.4622411757e+01    0.1827676    0.1494056 -34.81  0.000425172    1.057    0.054
       336 -11.8224    182.8886    102.3373   2.7561610175e+01   2.4218932299e+01    0.2860173    0.1796941 -37.09  0.001176832    1.520    0.342
       337 -12.5118     78.9153    101.7442   5.4878681179e+01   4.6355744895e+01    0.3218913    0.3012004 -86.82 0.0006228324    1.114    0.102
       338 -12.7877     76.7114     97.0821   5.4449088373e+01   4.7859811529e+01    0.3376934    0.2755221  -0.36 0.0003271093    1.470    0.320
       339 -13.3487     78.8846     92.2473   5.2378760643e+01   4.8638979853e+01    0.4913089    0.3207634 -68.66   0.00197195    1.883    0.469
       340 -12.2642    153.3399     99.9835   3.3041261822e+01   3.1251152131e+01    0.4241298    0.3089111 -63.76  0.001933175    1.646    0.392
       341 -11.8093     33.0393     98.3554   7.1230990915e+01   5.3412329950e+01      0.38615     0.245551 -37.07  0.001277015    1.710    0.415
       342 -10.9931     29.4570    101.5005   7.3177633392e+01   5.2947176579e+01    0.2588877    0.1498861 -59.39  0.001018349    1.524    0.344
       343 -11.4265     25.9552     98.7238   7.4067638089e+01   5.3967380069e+01    0.3982165    0.2104991  66.01   0.00165547    2.601    0.615
       344 -10.6954     84.9772    100.9451   5.2599374324e+01   4.5485333971e+01    0.1822505    0.1768451 -52.71 0.0004439462    1.018    0.018
       345 -10.7901     55.5306    101.4770   6.3247097531e+01   5.0005271633e+01    0.1449023    0.1370001 -55.80 0.0002841683    1.018    0.018
       346 -11.1489    191.6204    100.1570   2.5438144514e+01   2.2719313357e+01    0.2082409     0.130841 -26.49 0.0009443362    1.723    0.420
       347 -13.2761    162.4759     99.1898   3.0823359039e+01   2.9334162497e+01    0.4758905    0.2699769 -59.54  0.001347818    2.422    0.587
       348 -12.5042     64.6797     95.9078   5.8518856334e+01   5.0082951023e+01    0.5157073    0.2679271 -29.07  0.001227271    3.216    0.689
       349 -12.0414     60.4282     99.2052   6.0901767461e+01   4.9893722099e+01    0.2971832    0.2364211 -86.88   0.00101147    1.432    0.301
       350 -11.1137     57.4821     97.4453   6.1592708897e+01   5.0749113888e+01    0.2440838    0.1418578  28.32 0.0007772812    1.835    0.455
       351 -11.8091      8.8293     97.0119   8.0504010906e+01   5.5635641927e+01    0.2365708     0.128215  68.19  0.001096817    2.180    0.541
       352 -12.1230     93.9094     99.6512   4.9293709661e+01   4.4130675881e+01     0.265851    0.2123524 -37.52 0.0007542233    1.303    0.232
       353 -11.0059    118.1535     95.1257   4.0639142986e+01   4.0153027318e+01    0.2018644     0.181323 -86.83 0.0003314396    1.237    0.191
       354 -11.4936    171.4691     91.9586   2.7068544216e+01   2.8626923551e+01    0.2181263      0.11739 -57.69 0.0008091236    2.490    0.598
       355 -11.6630     41.2290     91.6962   6.6635415456e+01   5.4238671063e+01     0.225671    0.1998166  70.46 0.0003829876    1.231    0.188
       356 -12.5653    188.8636     90.9215   2.3603170405e+01   2.4901539239e+01    0.3398194    0.2099574  47.01  0.001218722    1.740    0.425
       357 -11.4879     61.7759     90.6433   5.8276392645e+01   5.1808186408e+01    0.2066557     0.181005 -38.45  0.001110454    1.130    0.115
       358 -12.3077     68.9348     89.8532   5.5353383878e+01   5.0887547721e+01    0.2271357    0.1982572 -20.15 0.0003439154    1.230    0.187
       359 -10.9103     28.3105     90.3285   7.1620392580e+01   5.5892051227e+01    0.1466767   0.09154713 -38.58 0.0004149319    1.664    0.399
       360 -11.1883     24.3416     88.8172   7.2977572633e+01   5.6616630997e+01    0.3607584   0.09128281 -51.15  0.001224672    3.233    0.691
       361 -11.1878    126.3271     88.6840   3.6520750512e+01   3.9683711604e+01     0.288426    0.2355725 -78.71 0.0006825002    1.478    0.323
       362 -11.0637    126.2022     85.1939   3.5520946671e+01   4.0420716537e+01     0.258396    0.2154204 -35.43 0.0006536227    1.234    0.189
       363 -11.5564      3.4262     88.1286   8.1523772059e+01   5.8159097350e+01    0.3168151    0.1137697 -77.82  0.001278667    2.530    0.605
       364 -12.4004    149.1263     87.8936   3.0663500950e+01   3.4558085530e+01    0.2704052    0.2270292 -37.12 0.0006600763    1.197    0.165
       365 -12.0581    150.0106     83.1339   2.9105349223e+01   3.5243788278e+01    0.2751147    0.2208736 -30.35            0    1.307    0.235
       366 -12.5415     54.6869     85.7060   5.9772840565e+01   5.4029749202e+01    0.5195665    0.3950921  -1.27  0.002611043    1.579    0.367
       367 -13.2912     63.9881     82.1525   5.5105589696e+01   5.3505471634e+01    0.8791993    0.5133662 -30.04   0.00360334    2.222    0.550
       368 -11.6337     11.4556     85.9700   7.7887353106e+01   5.8260355943e+01     0.337666    0.1859144  75.57  0.001545196    2.288    0.563
       369 -11.5263    160.3127     85.6743   2.7609786271e+01   3.2347164946e+01    0.1560207    0.1166357 -73.39 0.0007041486    1.663    0.399
       370 -11.0936    133.3330     84.1214   3.3351055945e+01   3.8983669172e+01    0.2063184    0.1907845 -52.08 0.0002788806    1.090    0.082
       371 -11.9495    112.4460     82.9053   3.8674597074e+01   4.3994239962e+01    0.3723173    0.2189786  53.00 0.0007723971    1.782    0.439
       372 -12.1396     78.8232     82.1627   4.9494444095e+01   5.0991075536e+01    0.2405736    0.2373357 -60.64 0.0002964608    1.046    0.044
       373 -11.4572     73.9357     82.4958   5.1395916703e+01   5.1781680659e+01    0.2171775    0.1469743  36.51 0.0004032212    1.503    0.335
       374 -10.2852    247.6409     81.7070   1.3305371039e+01   1.4475747867e+01    0.1179509   0.09343909   7.77 0.0007030073    1.696    0.410
       375 -11.8137    112.4166     78.4273   3.7291235304e+01   4.4919520198e+01    0.3649297    0.2477168 -85.29   0.00140194    2.551    0.608
       376 -11.6433     88.9354     78.9714   4.4928426930e+01   4.9783358171e+01    0.2315753    0.2279863  13.89 0.0006779797    1.011    0.011
       377 -11.4406     52.8369     78.3200   5.8532410908e+01   5.6060618176e+01    0.5608301    0.2935957  22.68  0.002148507    2.229    0.551
       378 -13.6824      7.3460     76.9234   7.8232834186e+01   6.0743227266e+01    0.6482085    0.3015993 -46.47  0.002447216    1.927    0.481
       379 -11.5138     70.5253     77.4768   5.1176211051e+01   5.3517579749e+01    0.2620553    0.1290411 -41.11   1.8251e-05    2.125    0.529
       380 -12.0728    161.8273     77.1120   2.4894355194e+01   3.3513131936e+01    0.2369898    0.2035443 -67.90 0.0009940076    1.217    0.178
       381 -10.2043    227.6901     76.6874   1.4492714055e+01   1.8966174972e+01    0.1241073    0.1004657   6.49 0.0005014408    1.628    0.386
       382 -12.2892     75.3986     75.2186   4.8614878591e+01   5.3170277532e+01    0.3772508     0.220407 -37.85  0.001610143    1.819    0.450
       383 -11.3464    115.8405     74.6274   3.5099775174e+01   4.4901397866e+01     0.272166    0.2090161 -31.93  0.001293848    1.381    0.276
       384 -11.9159     86.1429     74.3121   4.4409619590e+01   5.1341168707e+01    0.4576909    0.1919816 -44.18  0.001522642    2.388    0.581
       385 -11.8890    156.1779     73.7894   2.5078322727e+01   3.5447033965e+01    0.2799801    0.1956282 -49.50  0.001308481    1.451    0.311
       386 -12.3916    106.4710     73.2843   3.7412555577e+01   4.7282000759e+01    0.4511205    0.2848239  62.38  0.001778592    1.943    0.485
       387 -11.5711    218.9834     72.2526   1.4534040153e+01   2.1381090067e+01    0.2240671    0.1713553 -39.99 0.0004417514    1.157    0.136
       388 -11.6502     68.0347     72.4616   5.0577993671e+01   5.5070608870e+01    0.2229937    0.1886406 -44.05 0.0004963772    1.151    0.131
       389 -11.9480      2.8336     71.1077   7.9346491630e+01   6.2389566084e+01    0.3816522    0.1739225 -81.26  0.001625982    2.210    0.548
       390 -10.6000    236.2684     69.3456   1.1839884172e+01   1.8329046200e+01     0.119759   0.09604712  -3.51 0.0002378419    1.613    0.380
       391 -11.1173    178.5314     69.0335   1.9584864794e+01   3.0886233789e+01      0.22128    0.1360061 -37.82 0.0004608353    1.557    0.358
       392 -11.2277     51.8814     73.4274   5.7532432123e+01   5.7344774459e+01    0.2953126    0.1715108  46.59  0.001310156    2.003    0.501
       393 -12.2233     52.8489     68.8216   5.5722475800e+01   5.8269852516e+01    0.1948435    0.1733574  71.14  0.001081438    1.348    0.258
       394 -11.6593    154.2817     68.1548   2.3805281520e+01   3.6872621042e+01    0.2664354    0.2106886  70.09  0.000403097    1.308    0.236
       395 -10.4245     99.4512     68.4935   3.8003917168e+01   4.9779322003e+01    0.1500728    0.1464317  14.55 0.0001032305    1.015    0.015
       396 -11.1197    241.8323     66.8893   1.0705434409e+01   1.7600532933e+01     0.176327    0.1553263 -25.93 0.0003575474    1.219    0.180
       397 -11.0387    225.4535     67.4438   1.2622945860e+01   2.0745581695e+01    0.1308545     0.112535 -49.52 7.225577e-05    1.004    0.004
       398 -12.1786     60.0648     67.0001   5.2057802084e+01   5.7590439898e+01    0.2199489    0.2028518 -25.49  0.000506282    1.033    0.032
       399 -11.8314      9.8545     67.0031   7.5292123846e+01   6.3023898143e+01     0.211034    0.1862664  -5.93 0.0004997071    1.236    0.191
       400 -10.2586    185.2855     65.7219   1.7596491715e+01   2.9818702190e+01    0.1424408    0.1029385 -66.90            0    1.514    0.339
       401 -11.6593    164.9606     64.0021   2.0533999228e+01   3.4949411336e+01    0.2166443    0.2060595 -62.87 0.0003440285    1.023    0.023
       402 -11.9325     92.0600     63.8376   3.8820377493e+01   5.2284222769e+01    0.2353138    0.2127933 -42.34  0.000304423    1.129    0.114
       403 -10.4102     23.3048     63.6104   6.7956912377e+01   6.2873409729e+01    0.1350816   0.09891005  70.43 0.0007013712    1.807    0.447
       404 -11.9009     11.0324     63.0110   7.3894593107e+01   6.3911156704e+01     0.384092    0.1970313 -11.07   0.00132354    2.424    0.588
       405 -11.4154     12.4693     59.4913   7.2385176162e+01   6.4655440346e+01    0.2276161    0.1154029 -67.04 0.0007198586    1.794    0.443
       406 -11.8922    100.4678     62.0231   3.5448138791e+01   5.0807174257e+01    0.2673301    0.2104303  66.94  0.000333573    1.456    0.313
       407 -11.8910    109.0001     59.6777   3.2051788169e+01   4.9298044056e+01    0.2807577    0.2287509 -35.38  0.001418736    1.266    0.210
       408 -13.0610    112.6454     52.8038   2.8588544455e+01   4.9635312056e+01     0.626924    0.3852746   8.04  0.002213199    3.294    0.696
       409 -12.1682     18.4350     59.3558   6.9305192337e+01   6.4267355199e+01    0.2697844    0.1982666 -62.99  0.001550907    1.266    0.210
       410 -11.8786    198.6807     57.8527   1.3598272224e+01   2.7898817517e+01    0.2346694     0.187519  53.43  0.001315808    1.377    0.274
       411 -12.0340    192.9382     57.6995   1.4337105870e+01   2.9239227405e+01    0.1922388    0.1721011 -88.00 0.0003789981    1.103    0.094
       412 -11.5385    181.9275     57.4583   1.5867695651e+01   3.1862596012e+01     0.222743    0.1995344   5.39  0.001002502    1.357    0.263
       413 -12.1067    159.8983     57.3679   1.9503540841e+01   3.7238260109e+01    0.2517777      0.19365 -50.85 0.0005835225    1.293    0.227
       414 -11.8588     54.9081     57.3116   5.0973877674e+01   6.0496357579e+01    0.2169944    0.2126032   6.11 0.0005193569    1.106    0.096
       415 -12.2658     37.3919     54.7648   5.8350074637e+01   6.3454413542e+01    0.5496944    0.2162699 -37.08  0.002013373    3.025    0.669
       416 -11.3272     40.6046     53.2374   5.6239818330e+01   6.3389788763e+01    0.2217416    0.1888321   5.20  0.000553585    1.178    0.151
       417 -11.8208     41.7174     59.7344   5.7886285331e+01   6.1821030971e+01    0.3753291    0.2453861   9.55  0.001842739    1.794    0.443
       418 -12.6625     23.7550     55.9005   6.5632750679e+01   6.4625262400e+01    0.3162003    0.2367236 -26.37  0.000406279    1.303    0.233
       419 -12.0007     19.8469     53.0954   6.6876149058e+01   6.5599544630e+01     0.224805    0.1814016 -68.51 0.0003192521    1.295    0.228
       420 -11.2915    188.2979     55.3260   1.4356271969e+01   3.0666246290e+01    0.1354204    0.1095527  21.47 0.0002011485    1.631    0.387
       421 -11.9383    120.9583     52.9968   2.6468825587e+01   4.7596262464e+01    0.3296162    0.1787623 -43.47  0.001237032    1.922    0.480
       422 -12.0348    175.9386     50.7847   1.4915320263e+01   3.4278768579e+01    0.2601922    0.1888786 -86.13 0.0004130802    1.508    0.337
       423 -12.6755    131.9749     49.1526   2.2523912080e+01   4.5484209549e+01    0.3237927    0.2685628 -17.22 0.0004596532    1.368    0.269
       424 -13.3636     30.5010     50.0392   6.0278682348e+01   6.5272944235e+01    0.3171454    0.2974797  53.20  0.001150792    1.292    0.226
       425 -11.5564    162.3254     49.9680   1.6862623126e+01   3.7749319442e+01    0.1978402     0.181519 -45.27  0.000311169    1.105    0.095
       426 -12.3505     99.5531     49.8208   3.1282721463e+01   5.3202556271e+01    0.2746907    0.1970532 -84.12  0.001195099    2.168    0.539
       427 -11.5776    106.7458     51.5529   2.9790698421e+01   5.1242310952e+01    0.2056905    0.1425133  64.50 0.0009400711    1.590    0.371
       428 -11.7682     41.8215     46.9667   5.3347663367e+01   6.4554035602e+01    0.2252763    0.1905292  19.93 0.0004977114    1.193    0.162
       429 -11.5982    197.1018     44.1191   1.0241045865e+01   3.0163654661e+01    0.1868003    0.1844284  79.64 0.0002664826    1.176    0.150
       430 -11.0840     97.9577    249.5271   7.2524933119e+01   1.0861634179e+01    0.1858004    0.0928513  35.04 0.0009162283    1.548    0.354
       431 -12.6020    158.3527     41.4712   1.4950541234e+01   3.9945504803e+01    0.2590712    0.2437359 -77.16 0.0002464729    1.026    0.026
       432 -12.7226     34.5456     40.4940   5.4615364309e+01   6.6815303214e+01    0.3738371    0.2278292  20.81  0.001212332    1.720    0.419
       433 -11.8658    114.6546    246.9174   6.8835715530e+01   9.0816021878e+00    0.2691987    0.1437595 -53.52  0.001516547    2.329    0.571
       434 -11.2663    103.3203     39.3218   2.6134616577e+01   5.4003268304e+01    0.1517974    0.1089185  23.30 0.0003186006    1.672    0.402
       435 -11.2047    220.5145     38.0998   6.2509841311e+00   2.5709543094e+01    0.1848218    0.1567327 -74.50 0.0005596603    1.100    0.091
       436 -12.6889     77.9861     31.3123   3.0842474243e+01   6.0943792197e+01    0.3209813      0.23909  70.50 0.0008285873    1.733    0.423
       437 -13.2737      8.4445     35.8607   6.8196046601e+01   7.0242712137e+01    0.3710022    0.2507639 -72.70  0.001364216    1.675    0.403
       438 -11.2245     80.5266     36.5861   3.2240444295e+01   5.9590662731e+01    0.3287282    0.1682471 -43.49   0.00140054    2.148    0.534
       439 -11.1363     52.7977     33.8129   4.2431550028e+01   6.5396256993e+01    0.1713312    0.1650198  67.33 0.0005775612    1.319    0.242
       440 -13.1267     96.3694     29.1227   2.3984220435e+01   5.7103798632e+01    0.5483462    0.2757922 -27.97  0.001666759    2.174    0.540
       441 -11.6536    124.2502     39.5370   2.0914313545e+01   4.8843987850e+01    0.2323375    0.2026977 -35.67 0.0009242162    1.207    0.171
       442 -11.5807    106.5263     32.0037   2.2383321871e+01   5.4277078393e+01    0.2130105    0.1424262 -31.12  0.001030329    1.589    0.371
       443 -10.9437    175.8061     31.1521   9.3471719237e+00   3.6925595220e+01    0.1771987    0.1581069  43.16 0.0002815624    1.300    0.231
       444 -12.6073     46.2280     30.9754   4.4332102088e+01   6.6967187892e+01    0.2847469    0.1774822 -38.90  0.001473515    1.572    0.364
       445 -12.6558     45.8044     25.3343   4.1822437474e+01   6.7992042743e+01    0.3369485    0.2995875 -63.66  0.001313982    1.548    0.354
       446 -11.5068     48.4216     22.5063   3.9079260990e+01   6.8007339138e+01    0.2070893    0.1871095   0.84 0.0001113546    1.066    0.062
       447 -11.0437     90.3178     43.7009   3.1837281483e+01   5.6308791191e+01    0.1417021    0.1161739 -83.46  0.000324108    1.616    0.381
       448 -12.2212     84.9594     29.6794   2.7725491532e+01   5.9654572902e+01    0.1956533    0.1733191  46.46  0.000404084    1.081    0.075
       449 -11.1258    119.0713     39.0415   2.1939610762e+01   5.0207369571e+01    0.2435589    0.1740719 -68.87  0.001137224    1.769    0.435
       450 -12.1094     67.5233     29.1090   3.3806249316e+01   6.3441187721e+01    0.1951966    0.1327948 -34.06 0.0005496228    1.514    0.340
       451 -10.6405    128.5730     24.5430   1.4609798465e+01   4.9696071118e+01    0.1409148    0.1295371  85.06 6.751005e-05    1.055    0.052
       452 -12.2004     84.1854     23.9720   2.5434917205e+01   6.0606420853e+01    0.2266769    0.1551392 -59.61  0.001076424    2.057    0.514
       453 -12.4417     60.1632     27.6175   3.6174305074e+01   6.5100037880e+01    0.2983355    0.2013616 -16.46 7.379468e-05    1.658    0.397
       454 -11.1138    132.8857     20.8505   1.2500341943e+01   4.9015396528e+01    0.2071931    0.1889287  83.00 0.0002495177    1.034    0.033
       455 -11.6661    131.8276     17.1776   1.1381170495e+01   4.9686112879e+01    0.2360267    0.1932862 -47.75 0.0003452515    1.284    0.221
       456 -11.3878    123.1240     19.3612   1.3758008189e+01   5.1675785600e+01    0.2039367    0.1612166  71.00  0.001106786    1.177    0.150
       457 -10.8282     96.3290     19.2693   1.9800462680e+01   5.8348801550e+01    0.1447727   0.09556025  34.79  0.000204611    1.581    0.367
       458 -11.0357    140.2645     18.7559   1.0541595078e+01   4.7351763081e+01    0.2377123   0.08540607  56.92 0.0008997464    2.417    0.586
       459 -11.2782     66.8350     15.6869   2.7509166727e+01   6.5442657658e+01    0.2449528   0.09864129 -27.29  0.000989208    2.715    0.632
       460 -11.6042     74.7399     13.7580   2.3706169721e+01   6.3973617715e+01    0.1694146    0.1565879 -88.63 0.0004711362    1.317    0.241
       461 -10.9167    214.7560    247.0461   4.9578719019e+01  -4.0128232766e+00    0.1497051    0.1133124   1.10 0.0004412638    1.097    0.089
       462 -11.3091    103.5452    246.5110   7.1086556691e+01   1.0628709458e+01    0.2354395   0.07509244  41.62  0.001029207    2.432    0.589
       463 -10.7494     85.6291    246.2732   7.4775711122e+01   1.2999354287e+01    0.1275469   0.06918366  51.75  0.000700197    1.679    0.404
       464 -12.2336    168.6901    244.7878   5.7734882506e+01   2.0966113327e+00    0.1942689    0.1761207  16.43   0.00037193    1.254    0.203
       465 -11.6438    124.6968    250.2049   6.7136095702e+01   7.2152662800e+00    0.2121872    0.1549765  -5.94  0.001328274    1.764    0.433
