#   1 NUMBER                 Running object number                                     
#   2 MAG_AUTO               Kron-like elliptical aperture magnitude                    [mag]
#   3 X_IMAGE                Object position along x                                    [pixel]
#   4 Y_IMAGE                Object position along y                                    [pixel]
#   5 X_WORLD                Barycenter position along world x axis                     [deg]
#   6 Y_WORLD                Barycenter position along world y axis                     [deg]
#   7 A_WORLD                Profile RMS along major axis (world units)                 [deg]
#   8 B_WORLD                Profile RMS along minor axis (world units)                 [deg]
#   9 THETA_WORLD            Position angle (CCW/world-x)                               [deg]
#  10 FWHM_WORLD             FWHM assuming a gaussian core                              [deg]
#  11 ELONGATION             A_IMAGE/B_IMAGE                                           
#  12 ELLIPTICITY            1 - B_IMAGE/A_IMAGE                                       
         1 -11.4042      5.7189     37.4590   1.1925169705e+02   6.9111715704e+01     0.719009    0.3940437 -84.55  0.003093631    1.729    0.422
         2 -11.8391      1.9331     25.2381   1.1896118685e+02   7.2125909574e+01    0.4274816    0.1692117 -73.75  0.002028154    2.103    0.525
         3 -11.4639      6.5273     17.6358   1.1386956177e+02   7.3677354408e+01    0.4777092    0.3127947 -68.39  0.001673479    1.318    0.242
         4 -11.5058    182.1567     19.1712   5.0980864839e+01   3.6637105482e+01    0.3798285    0.2628428 -15.35  0.000802793    1.537    0.349
         5 -11.1130    199.3470     17.4010   4.8466245711e+01   3.2293345062e+01    0.3183745    0.2475957  15.75  0.001646152    1.520    0.342
         6 -10.2316     21.1059     11.7285   1.0114358767e+02   7.3953022183e+01    0.3386254    0.1690954  43.88  0.001299734    2.749    0.636
         7 -11.0306     24.5018     16.7999   1.0120384173e+02   7.2568171969e+01    0.2918917    0.2332555 -63.76  0.001197352    1.293    0.227
         8 -10.8518     80.7222     16.3391   7.1890549613e+01   6.3504918996e+01    0.3895484    0.2287881 -44.62 0.0009947856    1.857    0.461
         9 -10.6859     76.7364     14.6702   7.2500555537e+01   6.4620558863e+01     0.451207    0.2639844 -53.54  0.001408207    2.362    0.577
        10 -10.6931     31.8298     12.8898   9.4457725416e+01   7.2583076714e+01    0.2536776    0.1872012 -42.21 0.0008520889    1.177    0.150
        11 -12.4420    174.8840     11.3046   4.9221702011e+01   3.9430504943e+01    0.4323235    0.3170694  76.99  0.001410919    1.351    0.260
        12 -11.5244    147.9380     13.1876   5.3674845128e+01   4.6662785014e+01    0.3547719    0.2340168  50.91  0.001627532    1.482    0.325
        13 -10.5556    217.8315     12.1737   4.5207963669e+01   2.8165709991e+01    0.1883673    0.1596445  38.04  0.001079023    1.349    0.259
        14 -11.3758    210.8462     10.4917   4.5313133508e+01   3.0059182756e+01    0.4735238    0.2467018  30.54  0.001895398    2.832    0.647
        15 -11.7915    209.0698      4.8157   4.3801093832e+01   3.1041443080e+01    0.3521274    0.2486966 -77.34 0.0004064095    1.441    0.306
        16  -9.5739     97.8439     12.1628   6.4107775935e+01   6.0090621833e+01    0.1966856    0.1605053  21.45 0.0002989216    1.260    0.206
        17 -10.0792     67.1117     11.6933   7.4760406941e+01   6.7070096416e+01    0.2484617    0.2162615   1.22 0.0007830632    1.100    0.091
        18 -10.7736     57.8460     11.5627   7.8928314513e+01   6.8865893464e+01    0.4006691    0.2477298  64.03 0.0008626232    2.651    0.623
        19 -11.1178     12.7075     11.1272   1.0699026801e+02   7.4755845640e+01    0.4420567    0.1832605  14.61  0.001802979    2.911    0.656
        20 -11.7213     39.8879      4.8621   8.4607662023e+01   7.2982338350e+01    0.5281462    0.3878166 -86.54  0.002487737    3.055    0.673
        21 -10.6821     51.5642      6.4677   7.9004098126e+01   7.0811926418e+01     0.339922    0.1604882 -26.00  0.001015292    2.428    0.588
        22 -11.2642    194.7420      8.5586   4.6188876617e+01   3.4379110537e+01    0.2648154    0.2386959 -54.96 0.0002831166    1.044    0.042
        23  -9.9641     76.9464      8.9828   6.9259546329e+01   6.5394004263e+01     0.204464    0.1911396   2.23   0.00030559    1.028    0.027
        24 -10.1215     73.7182      8.6621   7.0303840620e+01   6.6140659973e+01    0.2222006    0.2109141  20.18 0.0005282373    1.077    0.071
        25 -12.1298    160.6664      4.3867   4.8505512130e+01   4.4013588112e+01    0.5934719    0.5749531  -6.51  0.003395313    1.093    0.085
        26 -10.1123    127.9906      8.4674   5.5232135990e+01   5.2650655003e+01    0.2252705    0.1430018  67.05 0.0001504835    1.529    0.346
        27 -10.7679    108.1318      7.7899   5.9198999155e+01   5.8012667300e+01    0.2206981    0.1998813 -77.27 0.0009000576    1.230    0.187
        28 -10.7224     25.1470      6.9991   9.5755668219e+01   7.4505207524e+01    0.2510188     0.198948 -61.79 0.0009507441    1.440    0.306
        29  -9.9663     87.7875      6.8472   6.4342863823e+01   6.3188203553e+01    0.2139114    0.1828153  20.54 0.0005099119    1.141    0.124
        30 -10.0175     62.5013      6.8467   7.3917954701e+01   6.8714267262e+01    0.2653466    0.1887016  68.84  0.001321603    2.021    0.505
        31  -9.5547     19.5722      6.9667   9.9828887689e+01   7.5073044054e+01    0.1814972    0.1049464 -52.57 0.0003819516    1.494    0.330
        32 -10.9882    133.1298      5.7605   5.3123306603e+01   5.1520418066e+01    0.3026888     0.180012  23.33  0.001251647    2.092    0.522
        33 -12.0486    194.2826      3.5770   4.4672576495e+01   3.4965022393e+01    0.5394056    0.2276078  58.46  0.001517141    2.310    0.567
        34 -10.1640    111.9698      4.9996   5.6948249874e+01   5.7311120578e+01    0.2338365    0.1591696  30.14 0.0004154215    1.573    0.364
        35  -9.6864     14.0000      3.7170   1.0242760235e+02   7.6216140097e+01    0.2540921    0.1185083 -66.13  0.001162024    2.532    0.605
        36  -9.9978     11.3348      1.7122   1.0354862866e+02   7.6831556591e+01    0.1786874    0.1636351 -83.69 0.0007205519    1.375    0.273
        37 -10.3728    248.9869      2.9771   4.0628210370e+01   2.1823429793e+01    0.1963789    0.1638381 -43.12 0.0004058846    1.008    0.008
        38 -10.2881    217.9979      2.2286   4.2386556969e+01   2.9056418425e+01     0.246733    0.1804571 -32.31  0.001044542    1.253    0.202
        39 -10.1448     49.0155      2.7889   7.7977509440e+01   7.1831940176e+01    0.2731558    0.1609669  31.33  0.001360355    1.831    0.454
        40  -9.7734     30.8863      2.2721   8.8789611514e+01   7.4702331435e+01    0.2630552    0.1274257 -36.15  0.001263226    1.902    0.474
        41 -11.3409    180.5375      2.0351   4.5464256856e+01   3.8772550337e+01    0.3556185    0.2005973  74.95  0.001158298    1.726    0.421
        42 -10.0117    115.6697      2.0369   5.4734873949e+01   5.6626178269e+01    0.1957923    0.1842139   8.08 0.0003689775    1.078    0.073
        43 -10.2813     73.9204      1.9273   6.6224405032e+01   6.6976758233e+01    0.2145771    0.1946155  13.91 0.0006664171    1.009    0.009
        44 -10.3678    143.7786      1.3425   4.9596905419e+01   4.8987314355e+01    0.2121122    0.1225999  60.56 0.0003952497    1.597    0.374
        45 -10.3167     90.4858      1.4460   6.0544237457e+01   6.3158950133e+01    0.2583349    0.1349944  60.55 5.825499e-05    1.874    0.466
        46 -11.5289     73.3522    226.3797   1.1886555208e+02   2.1606821965e+01    0.3407193    0.1410223  51.59  0.001050135    1.904    0.475
        47 -10.2409    216.0677    250.6205   9.6251154586e+01  -7.1349950547e-02     0.146302   0.06840712  33.85 0.0003061203    1.501    0.334
        48 -12.6947    186.7803    249.6269   1.0079855660e+02   3.7495511826e+00    0.2647942    0.1872323 -18.06  0.002097475    1.760    0.432
        49 -11.5911    127.6348    248.4418   1.1071172015e+02   1.1653297248e+01    0.2593536    0.2023497  48.37 0.0009918914    1.210    0.173
        50 -10.2959     34.7772    232.8713   1.2632011726e+02   2.4851298059e+01    0.2262865    0.1363186  42.85  0.001386153    1.241    0.194
        51 -10.1262     14.9102    219.6793   1.2947911751e+02   2.8870376593e+01    0.3461193    0.1952896  47.74  0.001966047    1.237    0.192
        52 -12.9179     12.9244    232.2751   1.3016433350e+02   2.7024313496e+01     0.987541    0.3062091  57.89  0.002412104    2.189    0.543
        53 -13.2028      4.1984    236.7482   1.3175755051e+02   2.7096526765e+01    0.9686868    0.3271359  67.60   0.00609932    2.310    0.567
        54 -12.1599     28.0877    245.8409   1.2793563992e+02   2.3546979747e+01    0.3287885    0.2500455  23.11  0.002750438    1.765    0.433
        55 -12.6858     22.7886    241.5313   1.2870864257e+02   2.4694876675e+01    0.7058455    0.4535749 -74.11   0.00574742    1.950    0.487
        56 -12.6752     18.4668    246.9859   1.2958570499e+02   2.4288250870e+01    0.8032762    0.1247299  47.32  0.004348295    2.663    0.625
        57 -12.1342     10.4885    249.2720   1.3095495829e+02   2.4676814444e+01    0.4651354     0.136552  44.81   0.00287886    1.879    0.468
        58 -12.8358      3.1893    246.7734   1.3210010516e+02   2.5678479813e+01    0.2470289    0.1707684  59.34 0.0004168676    1.118    0.106
        59 -11.9946     34.0842    248.0365   1.2699075716e+02   2.2638032457e+01    0.3447894    0.1176802  46.93 0.0004498199    1.778    0.438
        60 -12.9504     36.0951    243.8373   1.2649877162e+02   2.3053382529e+01    0.4972633    0.2400357  68.17 0.0004768605    1.827    0.453
        61  -9.2154    159.9422    231.0019   1.0324184912e+02   9.4075855849e+00     0.130705   0.09477658  33.49 0.0003190651    1.002    0.002
        62 -10.1803    152.7018    230.6521   1.0449433927e+02   1.0464366948e+01    0.1845908     0.143743  -1.34 0.0008610731    1.594    0.373
        63 -11.1330    151.9799    227.0198   1.0421509764e+02   1.1019887626e+01    0.2055389    0.1346412  32.57 0.0003477476    1.174    0.148
        64  -9.5945     80.9471    231.0785   1.1776265439e+02   1.9969744359e+01    0.1262462   0.09378978  51.85 0.0006396617    1.064    0.060
        65 -11.4461     94.0866    227.9131   1.1506463743e+02   1.8796626493e+01      0.43346    0.1754329  62.24  0.001904167    3.945    0.747
        66  -9.2761     57.3462    229.5253   1.2205135655e+02   2.2974370213e+01    0.3185456   0.04215146  43.70  0.001358058    3.395    0.705
        67  -9.4199    208.4621    228.4961   9.4633603154e+01   2.9533803609e+00    0.1095488   0.07763538  23.45 0.0001161025    1.003    0.003
        68 -10.0304    126.2139    228.1854   1.0907144724e+02   1.4472602299e+01     0.192535     0.115137  31.76 0.0006338385    1.415    0.293
        69  -9.9865    108.6649    225.1642   1.1207521247e+02   1.7287667410e+01    0.2434547    0.1608811 -25.96  0.001445218    2.860    0.650
        70 -10.0669     23.8681    227.3723   1.2808505380e+02   2.6788130350e+01    0.1821389   0.09706839  54.24 0.0006532608    1.285    0.222
        71 -10.0307     20.0001    225.2554   1.2871649493e+02   2.7492771115e+01    0.1570504   0.08901782  56.80  0.001170358    1.223    0.183
        72  -9.7331    202.9616    227.3133   9.5380512784e+01   3.8210637180e+00    0.1511723    0.1013256  28.81 0.0002879607    1.088    0.081
        73 -10.7817    233.4206    225.3808   9.0233402165e+01  -6.0139669696e-02    0.1848164    0.1578496  58.22  0.001367584    2.393    0.582
        74  -9.9451    216.1519    226.1794   9.3071039055e+01   2.1432013364e+00    0.1550717    0.1059578  19.71 0.0003722793    1.089    0.081
        75 -10.9298    184.5486    225.7661   9.8292388101e+01   6.5488335025e+00    0.1979375    0.1388649  30.76 0.0004409424    1.051    0.049
        76  -9.2992    227.5313    225.5442   9.1173380555e+01   6.9216595401e-01    0.1084026   0.07497406  19.64 0.0001189376    1.014    0.014
        77 -10.2953    164.0814    224.4771   1.0173354260e+02   9.6116496529e+00    0.1731368    0.1544776  75.91 0.0007828199    1.642    0.391
        78 -10.4671    111.4480    227.5271   1.1176551758e+02   1.6572998902e+01    0.2959384    0.1219047  43.90  0.001502439    1.787    0.440
        79 -10.3121     98.7687    223.9465   1.1384934634e+02   1.8781561743e+01     0.197294    0.1292881 -62.47  0.001361744    1.968    0.492
        80 -10.4325     79.5490    224.2974   1.1754482590e+02   2.1176166745e+01    0.2663257    0.1406513  64.82  0.001620381    1.987    0.497
        81 -11.0112     39.1431    211.2789   1.2457067618e+02   2.7931598418e+01    0.2566781    0.1565592 -86.73  0.001434733    1.691    0.409
        82 -10.2494     37.7150    224.0450   1.2542536008e+02   2.5954053092e+01    0.2855502   0.09653933  48.74  0.001534045    1.955    0.488
        83 -11.9311     39.9739    218.0967   1.2473428586e+02   2.6695611409e+01    0.3519084    0.1698224  33.04    0.0015258    1.837    0.455
        84 -10.3868     47.7135    217.9486   1.2324735359e+02   2.5897279548e+01    0.2173379    0.1686046   9.43   0.00104956    2.001    0.500
        85  -9.8152     64.6345    222.7499   1.2028508289e+02   2.3210104924e+01    0.1922323    0.1143179  74.56 0.0007109735    1.733    0.423
        86  -9.3841     62.6736    219.7511   1.2047338329e+02   2.3920880103e+01    0.1527693    0.0898416  54.66  0.000328324    1.309    0.236
        87  -9.7586     44.7768    223.3981   1.2407823404e+02   2.5320829326e+01     0.142859   0.09519412  57.47   0.00085346    1.110    0.099
        88  -9.6602    121.2651    222.0031   1.0938210751e+02   1.6022643241e+01    0.1087074    0.1000638 -75.68 0.0004153857    1.415    0.293
        89  -9.7064     54.9784    221.6523   1.2205976567e+02   2.4490110425e+01    0.1900852    0.1772262  44.47  0.001610253    1.404    0.288
        90 -10.2461    249.9868    220.1960   8.6972739914e+01  -1.7201007809e+00    0.1632216    0.1164631   3.61 0.0003901065    1.166    0.142
        91  -9.7236     84.3351    220.9179   1.1637404341e+02   2.1105992036e+01    0.1437512    0.1126999  55.64 0.0003134528    1.103    0.093
        92 -10.3735     28.0460    220.2858   1.2707238842e+02   2.7536211296e+01    0.2175092    0.1558667 -63.27  0.001678664    1.915    0.478
        93  -9.2640     20.2356    217.6427   1.2843426280e+02   2.8719515534e+01    0.1691252   0.07346474  34.36 0.0008010723    1.902    0.474
        94  -9.3406     21.6078    220.7549   1.2828129331e+02   2.8075602581e+01    0.1123964   0.09022363 -83.55 0.0009381933    1.502    0.334
        95  -9.6246     24.4787    218.5236   1.2767339206e+02   2.8172366946e+01    0.1707286   0.08042774  34.34  0.001093835    1.795    0.443
        96 -10.4628    228.7429    220.1553   9.0215443819e+01   1.0315897566e+00    0.1706225    0.1136129  32.76 0.0002656293    1.303    0.233
        97 -11.0296    135.2949    217.9183   1.0628371153e+02   1.4615699748e+01    0.2283614    0.2133786 -51.96  0.001211453    1.414    0.293
        98 -10.8127     95.9230    219.1988   1.1398978052e+02   1.9878585050e+01    0.2117088    0.1790123  74.99 0.0008202086    1.295    0.228
        99 -10.2825    101.1884    217.3459   1.1280119743e+02   1.9464181722e+01    0.2371491    0.1570795  18.50  0.001197916    1.988    0.497
       100  -9.8592    175.4886    217.0005   9.8744437685e+01   8.8683018620e+00     0.264555    0.1143468  27.08  0.001280067    2.463    0.594
       101  -9.7034    117.2598    216.7636   1.0962000340e+02   1.7345684179e+01     0.164095    0.1229289  64.84 0.0009551913    1.449    0.310
       102 -10.6967     72.8481    216.3976   1.1827173105e+02   2.3254779547e+01    0.2109228    0.1762155   8.51 0.0002932894    1.737    0.424
       103 -11.5099     74.3661    211.4776   1.1761021610e+02   2.3877860544e+01    0.2468981    0.1860634  81.63  0.001000452    1.386    0.279
       104 -10.8671    157.0454    215.2187   1.0187780797e+02   1.1806868110e+01    0.1715077    0.1528063  36.85 0.0002713293    1.209    0.173
       105 -10.9116    111.8024    214.0891   1.1041362483e+02   1.8511047748e+01    0.2169814    0.1802282 -47.48  0.001042682    1.602    0.376
       106  -8.9218     92.2923    216.3066   1.1444984216e+02   2.0807198768e+01   0.09885869   0.08260968  13.38 0.0002409907    1.579    0.367
       107 -11.1740     85.2954    214.0770   1.1564197899e+02   2.2071809063e+01    0.3024578    0.2773933  29.71  0.001536918    1.352    0.260
       108 -12.0246     36.0951    205.6611   1.2490069669e+02   2.9220115060e+01    0.3463861    0.3158412  37.84  0.002859517    1.418    0.295
       109 -11.2963     25.2505    208.8416   1.2717019368e+02   2.9740764513e+01     0.460103    0.2327686  40.97   0.00224806    1.499    0.333
       110 -10.2541     31.6491    216.2708   1.2623755308e+02   2.7848761657e+01    0.2075378   0.09809815  52.43 0.0003812515    1.495    0.331
       111 -10.5048     28.5230    213.5170   1.2672235182e+02   2.8622099561e+01    0.2293645    0.1308276  45.70  0.001164483    1.278    0.217
       112 -11.5464     31.4983    211.4978   1.2606715306e+02   2.8672631723e+01    0.3666909    0.1577411  53.88  0.002265622    1.685    0.407
       113 -10.1422     58.9020    215.1584   1.2091985524e+02   2.5111050306e+01     0.179869    0.1092164  58.17 0.0005542772    1.316    0.240
       114 -10.2106     13.9579    212.4902   1.2945047058e+02   3.0160628057e+01    0.2119273    0.1358617  50.13  0.001545087    1.130    0.115
       115 -10.4636     11.2494    215.3646   1.3003550673e+02   2.9915398681e+01    0.1743185     0.102737  39.75 0.0005416573    1.392    0.281
       116 -11.8353      8.4915    211.1505   1.3044024381e+02   3.0868895448e+01    0.2980182    0.1765364 -82.78  0.001156135    1.747    0.428
       117 -10.3420    165.2416    213.5629   1.0015283554e+02   1.0807566611e+01    0.2161845    0.1507844  44.74  0.001440599    1.324    0.245
       118 -11.1887    120.5808    213.4515   1.0862982464e+02   1.7370427465e+01    0.5123777    0.1819139  45.35  0.001723994    2.266    0.559
       119 -12.3758    129.3373    207.6727   1.0627011657e+02   1.6967326702e+01    0.3617657    0.2403206  18.94  0.002163531    1.805    0.446
       120 -10.2707    147.8638    221.1799   1.0429841643e+02   1.2361635646e+01    0.2793201   0.08210155 -51.85  0.001199579    4.949    0.798
       121  -9.9817      1.3656    212.7825   1.3179954289e+02   3.1192516011e+01    0.1205861   0.07789204 -84.62 0.0003415412    1.622    0.383
       122 -10.2737    214.5792    210.1791   9.1038840491e+01   3.9692446062e+00    0.1432148   0.09249783  -8.00 0.0004670468    1.630    0.387
       123 -10.1275    144.6927    208.9145   1.0342820963e+02   1.4503970978e+01    0.2209938    0.1436547 -72.26  0.001257431    2.681    0.627
       124  -9.9651     96.7449    209.0385   1.1291569369e+02   2.1376274720e+01    0.1676169    0.1348553  36.08 0.0006393949    1.202    0.168
       125 -10.7899     99.7047    205.6253   1.1199097926e+02   2.1527587322e+01    0.2319399    0.1502741  47.52 0.0004914945    1.212    0.175
       126 -11.3866     96.9259    201.0689   1.1211210616e+02   2.2666400931e+01    0.2954488    0.2537356  55.07  0.001246027    1.110    0.099
       127  -9.8348     89.8439    208.6670   1.1427199787e+02   2.2360407804e+01    0.1683164    0.1119772  43.06  0.001108176    1.161    0.139
       128  99.0000     77.6892    206.1112   1.1652038464e+02   2.4363007279e+01    0.6119075    0.1476369  45.39  0.002603255    2.947    0.661
       129 -10.4415     60.1060    209.1459   1.2029834806e+02   2.5985053834e+01     0.151963    0.1309275  40.76 0.0003487596    1.292    0.226
       130 -11.2021     17.7560    208.0571   1.2859067358e+02   3.0578469173e+01    0.1961768    0.1186729  59.21 0.0004312482    1.186    0.157
       131 -10.0349     14.3340    205.2972   1.2916322719e+02   3.1368358751e+01     0.159169    0.1203968 -45.94  0.001179775    2.157    0.536
       132 -10.6187    195.3067    208.6073   9.4080561156e+01   6.9401394781e+00    0.1683409   0.08459635  31.18 0.0006862576    1.614    0.380
       133 -11.8626     67.2918    207.3351   1.1872642321e+02   2.5441994675e+01    0.2437019    0.1499157  42.95 0.0005553669    1.257    0.205
       134 -10.0365    190.4683    207.3164   9.4742314797e+01   7.8103024936e+00    0.2009152   0.08465572  38.42 0.0006404492    1.873    0.466
       135 -10.3849    152.9841    205.7545   1.0143483795e+02   1.3696158055e+01     0.257817    0.1621054 -30.26  0.001535251    2.149    0.535
       136  -9.4826     53.2741    206.3699   1.2149492273e+02   2.7246662811e+01   0.09257272   0.08416221 -34.72 0.0007003621    1.678    0.404
       137 -10.6515      4.5825    205.3147   1.3103645292e+02   3.2206255853e+01    0.1767084    0.1304908  79.75  0.000507716    1.265    0.210
       138 -10.4908      1.3146    204.6793   1.3164354131e+02   3.2586039738e+01    0.2183305   0.08881398  55.25 0.0003331534    1.658    0.397
       139  -9.8770    209.1187    205.5225   9.1253807894e+01   5.2552700353e+00    0.1619585   0.08976926  36.03 0.0002991264    1.450    0.310
       140 -10.6747    195.6712    204.1592   9.3363976617e+01   7.4030344664e+00    0.1933277    0.1333469  28.92 0.0006235716    1.120    0.107
       141 -10.8661    121.3097    200.9011   1.0708925648e+02   1.9197183618e+01    0.3266295    0.2532943  84.81  0.002156972    1.645    0.392
       142 -11.0353     55.6019    199.0236   1.2054520967e+02   2.8278152841e+01    0.3763819    0.1484516  36.91 0.0003799927    2.005    0.501
       143 -10.1740     57.1621    202.6933   1.2046845096e+02   2.7446015122e+01    0.3858474    0.1526955  30.96   0.00194824    2.435    0.589
       144 -10.3139     51.9751    202.5477   1.2152180161e+02   2.8063180439e+01    0.1841194    0.1364755  58.89 0.0007001954    1.045    0.043
       145  -9.6989    165.5000    201.9937   9.8546490243e+01   1.2290645651e+01    0.1426194    0.1196032 -37.71 0.0004366465    1.497    0.332
       146 -10.4374    106.0663    202.1246   1.1033700320e+02   2.1211340345e+01    0.1932486    0.1415702  27.87 0.0003900177    1.402    0.287
       147 -11.6255     19.5569    200.3670   1.2797166144e+02   3.1768291332e+01    0.2286473    0.1813378 -69.27  0.001370907    1.617    0.382
       148 -10.7398    240.0767    201.3470   8.5589513934e+01   1.2866902925e+00    0.1566038    0.1086683  22.18 0.0004294961    1.107    0.097
       149 -10.7034    185.9740    201.4673   9.4689721448e+01   9.1999638389e+00    0.1817589   0.09365261  37.10 0.0004810731    1.543    0.352
       150  -9.3622     71.4876    197.5269   1.1710749927e+02   2.6636704377e+01    0.1424129    0.1059147 -63.11 0.0009381688    1.641    0.391
       151  -9.1055     10.3085    201.2467   1.2982561822e+02   3.2436007684e+01   0.08025466   0.07785393  48.04 0.0001513329    1.505    0.336
       152  -9.9028     70.2716    201.2731   1.1766041785e+02   2.6126789769e+01    0.2023537    0.1229742  45.77  0.001014548    1.262    0.207
       153  -9.7296    155.4472    199.9580   1.0018637803e+02   1.4132459031e+01    0.1359289    0.1031482  83.26 0.0003291026    2.201    0.546
       154 -10.6462     90.0343    199.4675   1.1338869655e+02   2.3880213986e+01    0.2501469    0.1358503  43.80  0.001120169    1.428    0.300
       155 -11.1559      5.4232    200.0145   1.3074603481e+02   3.3069151475e+01    0.1692519    0.1094062  47.88  0.001281366    1.196    0.164
       156 -11.0166    208.7818    198.4737   9.0227412238e+01   6.0905424974e+00    0.2290993    0.1618901  26.89   0.00092969    1.103    0.094
       157  -9.9266    149.9641    199.2939   1.0116339462e+02   1.5080099716e+01    0.1717423     0.123611  35.55 0.0003234071    1.107    0.097
       158 -11.0994     34.6942    199.3549   1.2487566464e+02   3.0484718029e+01    0.2516808    0.1043912  38.44  0.001089944    1.846    0.458
       159 -10.2292     14.1844    198.0109   1.2896100023e+02   3.2676342473e+01    0.2267048    0.1094428  75.09  0.001060276    1.767    0.434
       160 -10.4753    223.7750    198.5856   8.7742239446e+01   3.8667485092e+00    0.2183719   0.08660875  35.81 0.0008010758    2.057    0.514
       161  -9.3727    169.4703    198.4835   9.7299189777e+01   1.2146708867e+01    0.1210529   0.09638474  34.48 0.0001710594    1.073    0.068
       162 -10.6910    137.8778    197.7775   1.0335892064e+02   1.7177436369e+01    0.2816494    0.1673551  64.44  0.001166235    2.552    0.608
       163  -9.8509    140.3028    195.6664   1.0259567619e+02   1.7124251535e+01    0.1734298    0.1194811 -64.79 0.0002920368    2.032    0.508
       164 -10.0169    104.0395    196.0000   1.1010417288e+02   2.2520952046e+01     0.329243   0.05632494  36.72  0.001028585    4.730    0.789
       165 -10.5140    109.2018    197.7168   1.0921467553e+02   2.1489001415e+01    0.3017369    0.1513059  52.65   0.00143736    1.892    0.471
       166 -10.2793    108.5185    194.0178   1.0894337560e+02   2.2208329382e+01    0.2038348    0.1491638 -63.07  0.000468714    1.655    0.396
       167 -10.4646     82.8917    195.7219   1.1454067175e+02   2.5487986998e+01     0.192411    0.1641036 -63.70 0.0008001655    1.453    0.312
       168 -10.0677     62.8441    196.2050   1.1882683468e+02   2.7933760155e+01    0.1348033    0.1233724  61.34 0.0007449042    1.243    0.196
       169 -11.0047    217.6469    194.5831   8.8112636693e+01   5.1996804456e+00    0.2017836    0.1618782  21.28 0.0003683975    1.127    0.113
       170 -10.1591    198.3437    194.8471   9.1470800442e+01   8.1045146693e+00    0.1760765    0.1349505  32.01  0.000504943    1.144    0.126
       171 -12.6386    123.1992    193.2594   1.0578268719e+02   2.0142416008e+01    0.3130936    0.2287159  54.91 0.0004722421    1.303    0.233
       172 -10.6449    127.0635    189.3277   1.0447741623e+02   2.0191440937e+01     0.181889    0.1721702  50.35 0.0004433506    1.166    0.142
       173 -10.4831     95.6116    195.0275   1.1177757104e+02   2.3879698410e+01    0.2110855    0.1463404  35.93 0.0004409231    1.287    0.223
       174 -10.9409     44.7632    194.5042   1.2252428673e+02   3.0310387000e+01    0.1784939    0.1482305  62.47 0.0002782248    1.129    0.114
       175  -9.5304     71.4861    193.9601   1.1681322684e+02   2.7276358159e+01    0.1547583    0.1091673 -80.67   0.00101945    1.551    0.355
       176 -12.1015     52.8704    192.2570   1.2066153186e+02   2.9823012156e+01    0.2842339    0.1780901 -73.97  0.001131136    1.729    0.422
       177  -9.7221     25.6316    193.6552   1.2647077854e+02   3.2417938701e+01    0.1409562    0.1260556 -47.32  0.001106126    1.670    0.401
       178  -9.8013     20.8061    194.2332   1.2748716248e+02   3.2765067317e+01    0.1230835     0.109465  61.82 0.0002153701    1.288    0.224
       179  -9.9344     16.1742    193.0721   1.2839069600e+02   3.3399075405e+01    0.1426678    0.1204524  69.51 0.0003655413    1.218    0.179
       180 -10.8025    249.7806    190.4881   8.2335206793e+01   9.9732496823e-01    0.2013083    0.1493774  11.00 0.0007175263    1.032    0.031
       181 -11.3110    245.4799    191.0762   8.3085596041e+01   1.5373891700e+00    0.2102629    0.1176743  23.86 0.0004915792    1.486    0.327
       182 -12.2371     91.7784    189.1376   1.1198879473e+02   2.5452037985e+01    0.2390391    0.2119944  85.97 0.0003452295    1.233    0.189
       183 -10.4446    227.0250    189.2114   8.5685344776e+01   4.3900078295e+00    0.1764715    0.1391676   0.95 0.0002856039    1.149    0.130
       184 -10.8855    166.2903    189.4336   9.6570921993e+01   1.3908018576e+01    0.2111651    0.1805937  33.03 0.0003720756    1.090    0.083
       185  -8.9038    177.3045    189.2896   9.4442638161e+01   1.2146935935e+01    0.1221117   0.08264329  14.97 0.0003858405    1.570    0.363
       186 -10.1993     74.5618    186.2607   1.1547050668e+02   2.8295970565e+01    0.3526655    0.1151297 -68.49   0.00153517    3.508    0.715
       187  -9.5902    205.4578    186.9972   8.8955390498e+01   7.9428650796e+00    0.1567145    0.1110604 -22.60 0.0004060905    1.510    0.338
       188 -10.9870    131.5914    186.5151   1.0315569397e+02   1.9942321627e+01    0.2599663    0.1948446  64.47   0.00102754    1.524    0.344
       189 -11.4801    104.9921    184.8837   1.0864037580e+02   2.4310849726e+01    0.3289775    0.2977113 -14.27  0.001915956    1.459    0.314
       190  -9.4890      4.4914    187.4268   1.3060486252e+02   3.5438288506e+01    0.1595276    0.1216786 -24.44  0.001129045    2.318    0.569
       191  -9.9273    221.0811    186.1349   8.6147452160e+01   5.6230791610e+00    0.1781364    0.1257074  17.31 0.0004506633    1.161    0.139
       192 -10.3962     57.4461    184.9677   1.1913777828e+02   3.0659056753e+01    0.2051814    0.1389354  67.38 0.0003977955    1.298    0.230
       193 -11.2195     59.9659    180.5044   1.1822001390e+02   3.1214610785e+01     0.358995    0.2019433 -54.41  0.002024067    2.248    0.555
       194 -10.9865     32.4773    184.8715   1.2459691133e+02   3.3398025382e+01    0.3573046    0.1272942  36.58 0.0004841112    2.193    0.544
       195 -12.6450     31.7533    176.8861   1.2431681919e+02   3.5020399760e+01     0.319358    0.2403456 -76.85 0.0006626828    1.424    0.298
       196 -10.7101    177.5846    184.0957   9.3568985422e+01   1.2814642496e+01    0.2524348    0.1696344  31.61 0.0004091181    1.241    0.194
       197 -10.7091     15.7189    183.3167   1.2812483158e+02   3.5268180384e+01    0.1865087    0.1578548  64.71 0.0006706993    1.191    0.160
       198  -9.9094    188.8787    190.8640   9.2542299405e+01   1.0084453532e+01    0.2359086    0.1379675  -4.86  0.001183174    2.557    0.609
       199 -10.5553     88.3012    182.1665   1.1201586937e+02   2.7208983143e+01    0.2241405    0.1693529  52.89 0.0007126649    1.093    0.085
       200  -9.4526      2.6156    183.5304   1.3088847315e+02   3.6318761184e+01    0.1057178   0.07646494  65.40 0.0001724446    1.032    0.031
       201  -9.0439    213.3249    182.3320   8.6811034279e+01   7.2631286132e+00     0.127168   0.07776095  12.37 0.0006003504    1.707    0.414
       202  -9.6543    159.2200    180.8461   9.6645837368e+01   1.6333346340e+01    0.1840585    0.1290981  25.33 0.0005517361    1.359    0.264
       203 -10.8377    131.4087    179.4550   1.0221195561e+02   2.1146772417e+01    0.2387786    0.1886843  58.16 0.0001266649    1.291    0.226
       204 -10.3997     43.5452    179.0595   1.2180608970e+02   3.3371984570e+01    0.1541739    0.1017888 -86.20 -4.377249e-06    1.482    0.325
       205  -9.6398     46.7383    177.3422   1.2096648435e+02   3.3359982390e+01    0.2153527    0.1694648  22.51  0.001128987    1.572    0.364
       206  -9.7600      4.4696    179.0887   1.3037651516e+02   3.7017950398e+01    0.1452082   0.08719564  89.98  0.000385024    1.492    0.330
       207 -11.0749     55.2138    181.0089   1.1932834337e+02   3.1680341890e+01    0.2225614    0.1617957  55.18 0.0003232202    1.089    0.082
       208 -11.8082    108.9772    176.6361   1.0673786729e+02   2.5193327073e+01    0.2403702    0.1932952  51.16 0.0003261013    1.067    0.063
       209 -11.5139     91.8549    177.0392   1.1064685300e+02   2.7665877201e+01    0.3786648    0.2952512  11.37 0.0005080109    1.745    0.427
       210 -10.6374     74.2369    177.2358   1.1468428213e+02   3.0051315909e+01     0.206682    0.1578168  51.54 0.0003612845    1.072    0.067
       211 -12.6408     22.2944    175.8418   1.2637415680e+02   3.6128432705e+01    0.2717425    0.1711574  61.31 0.0004416821    1.229    0.186
       212 -10.5171     16.3726    175.1938   1.2765808567e+02   3.6785759884e+01    0.3179592     0.211608  -4.18  0.001896198    2.774    0.640
       213  -9.4809    147.2388    177.3663   9.8557121397e+01   1.8881658079e+01    0.1202099     0.093583  -0.82 0.0005561177    1.603    0.376
       214 -10.2704    200.8650    175.6283   8.7837545515e+01   1.0101836337e+01    0.1879881    0.1471775   3.02 0.0003702381    1.207    0.172
       215 -11.4002     79.3753    174.3537   1.1320857510e+02   2.9924121452e+01    0.2999902    0.1893564  38.21 0.0002138686    1.403    0.287
       216 -10.5789     87.5353    171.9798   1.1105486403e+02   2.9250967610e+01    0.2350162    0.1539242 -69.19  0.000972055    1.695    0.410
       217 -11.1161     47.3451    182.2409   1.2117480952e+02   3.2337551578e+01    0.3793582    0.2659181  -1.96   0.00198903    2.627    0.619
       218  -9.6180     41.0880    171.4705   1.2184844290e+02   3.5142544031e+01    0.1630804   0.09861556  38.69 0.0003799629    1.468    0.319
       219  -9.9129    166.0086    170.4399   9.3581190254e+01   1.6769679363e+01    0.1926121    0.1103635  39.72 7.357705e-05    1.493    0.330
       220 -10.0742    137.4368    170.4815   9.9573914943e+01   2.1678189966e+01    0.1303494     0.112083  36.72 0.0001874336    1.034    0.033
       221 -10.0687    121.5190    170.0118   1.0301546765e+02   2.4408887950e+01    0.1722672    0.1302597 -56.43 0.0004990696    1.538    0.350
       222  -9.9878     44.9410    170.2511   1.2086387831e+02   3.4973537138e+01    0.1605981     0.124818  52.24 0.0002986565    1.103    0.094
       223 -10.2196     20.2552    169.9621   1.2655268992e+02   3.7483806542e+01    0.2082827    0.1389538  40.92  0.001410124    1.354    0.261
       224  -9.8708      2.2634    168.4419   1.3054501535e+02   3.9269561719e+01    0.2069858    0.1054062 -69.81  0.001081393    2.067    0.516
       225  -9.9658    114.0148    168.3309   1.0447145616e+02   2.5931570657e+01    0.1886783    0.1422023  43.98 0.0003497317    1.133    0.118
       226 -10.3708     46.9401    166.8736   1.2013441624e+02   3.5441079335e+01    0.3221103    0.1426264  52.15   0.00165464    1.906    0.475
       227  -9.8742    156.8146    173.8569   9.6020452105e+01   1.7821515431e+01    0.1962811    0.1501079  26.75  0.001174313    1.206    0.171
       228 -10.3388     60.7842    166.0491   1.1675418175e+02   3.3990957211e+01    0.2404483    0.1422626  45.79  0.000771252    1.415    0.293
       229 -12.2256     24.0213    163.7739   1.2536213714e+02   3.8402464456e+01    0.3361135    0.2114988  33.76 0.0005842407    1.561    0.360
       230  -9.1905     37.0000    164.9570   1.2235866981e+02   3.6897747256e+01     0.175623   0.06055472 -76.96 0.0007881003    2.844    0.648
       231 -10.8813    126.6927    161.7986   1.0059414030e+02   2.5045047943e+01     0.290979    0.2279553  30.52  0.001694965    1.249    0.199
       232  -9.9497     97.7417    161.8336   1.0737221844e+02   2.9733873280e+01    0.1990972    0.1387578  -8.78 0.0007364354    2.719    0.632
       233  -9.7035     75.6245    162.2009   1.1276409119e+02   3.2859866965e+01    0.1620437    0.1126868 -59.71 0.0006803774    1.607    0.378
       234 -10.4426    141.1490    161.1458   9.7247020441e+01   2.2659219858e+01    0.3344902    0.1647779  46.13  0.001535919    1.840    0.457
       235 -11.3692     35.8394    158.4221   1.2217946974e+02   3.8379495184e+01    0.9554839   0.04318545  43.44   0.00315477    4.783    0.791
       236 -10.0007     27.2125    157.8043   1.2424863083e+02   3.9350412356e+01    0.1863554    0.1318339 -76.20 0.0004019437    1.412    0.292
       237  -9.6385     66.2149    158.4176   1.1465974959e+02   3.4888520423e+01    0.1813708   0.09572168  46.71 0.0006578488    1.620    0.383
       238  -9.5597     96.2677    157.6162   1.0714798231e+02   3.0802403309e+01    0.1358535   0.09124013  71.26 0.0006648601    1.696    0.410
       239 -10.2535     12.2414    156.2430   1.2779025997e+02   4.0980892585e+01    0.1907417    0.1468817  80.40  0.001101697    1.112    0.101
       240  -9.0858     79.3453    156.7379   1.1120119317e+02   3.3473150702e+01    0.1358146   0.08267592  59.49 0.0003723347    1.601    0.375
       241  -9.6451     50.6933    156.6601   1.1835484361e+02   3.7148851063e+01    0.1133884   0.09281359 -39.93 0.0003617934    1.682    0.406
       242 -10.0744    113.7562    154.0949   1.0239116456e+02   2.8693167315e+01    0.2022143    0.1671173  67.85 0.0007170064    1.240    0.194
       243  -9.5985     71.4239    154.4709   1.1291306352e+02   3.5035432811e+01     0.127357    0.1093241  64.36 9.071156e-05    1.016    0.016
       244  -9.7311      4.4649    154.0924   1.2956712510e+02   4.2028959882e+01    0.1576985   0.09114873 -89.56 0.0004248303    1.482    0.325
       245  -9.9513      9.4304    151.9438   1.2828177515e+02   4.2106158684e+01     0.238912    0.1115872  63.46   0.00134145    1.760    0.432
       246  -9.1238    137.3534    151.2594   9.6380258767e+01   2.5112394344e+01    0.1355363    0.1017134  15.45 0.0003249359    1.612    0.380
       247 -10.7709     85.8116    150.0543   1.0870164823e+02   3.3940082633e+01    0.2108577    0.1639508  50.56   0.00029169    1.136    0.120
       248  -9.2370     15.5224    150.5183   1.2671337998e+02   4.1924197170e+01    0.1176259   0.09034634  69.03 0.0002659225    1.013    0.013
       249  -9.0239     81.0236    147.0000   1.0951096317e+02   3.5289533463e+01    0.2078492   0.06896492  35.36 0.0006249284    2.807    0.644
       250  -9.8072    201.9243    143.5152   8.1546288362e+01   1.4276007500e+01    0.2084829    0.1760571 -54.55  0.001172847    1.620    0.383
       251 -10.4015     16.3978    143.0894   1.2609005775e+02   4.3457890411e+01    0.1985311    0.1627827   2.33  0.001354467    1.714    0.417
       252 -10.5479      4.9096    142.9556   1.2902676894e+02   4.4359791641e+01    0.1702133    0.1287595  76.50 0.0004026773    1.048    0.046
       253  -9.1456     21.2935    142.3431   1.2477102758e+02   4.3212809645e+01    0.1119561   0.08310089 -53.17  0.000702943    1.659    0.397
       254  -9.7595    103.8578    139.8593   1.0250915925e+02   3.3240901293e+01    0.1845849    0.1509128  78.78 0.0003764808    1.298    0.230
       255  -9.3740     73.4774    139.5196   1.1047992699e+02   3.7989989586e+01    0.1308876    0.1181804  67.94 0.0001592611    1.047    0.045
       256 -10.0284     25.0030    139.5140   1.2359953997e+02   4.3514929421e+01     0.458104    0.1716014  75.72  0.001906383    3.058    0.673
       257 -11.7205     28.3880    132.3818   1.2213165903e+02   4.4814493449e+01    0.3521802    0.2499012 -34.19  0.002060411    2.034    0.508
       258  -9.7006     24.5211    129.9933   1.2302338494e+02   4.5702299660e+01    0.1684055    0.1401858  81.07 0.0006399559    1.045    0.043
       259  -9.5846     31.8332    138.2144   1.2166260920e+02   4.3175493990e+01    0.1494528    0.1380755 -59.60 0.0004954708    1.335    0.251
       260 -10.4283    235.8332    137.6204   7.4608324576e+01   8.9435319226e+00    0.1622312    0.1173506  51.34 0.0009428079    1.682    0.405
       261 -10.4252     95.6016    136.9906   1.0417898416e+02   3.5209768531e+01    0.2689199    0.2384927  23.65  0.001584961    1.283    0.220
       262 -10.5194     49.8626    136.0359   1.1650961155e+02   4.1773680504e+01    0.3384045    0.2024765 -46.90  0.001740586    2.129    0.530
       263 -11.5851     38.7734    132.0939   1.1919544769e+02   4.3875151443e+01    0.4677724    0.2386557  79.63  0.002269941    2.076    0.518
       264 -10.1785     44.0407    131.6989   1.1766863812e+02   4.3410785646e+01    0.1983144    0.1441116  65.78 0.0002165581    1.231    0.188
       265  -9.7775     47.7552    131.4077   1.1658505374e+02   4.3067724271e+01    0.1937676    0.1581457   2.24 0.0006314005    1.693    0.409
       266 -11.0093      9.7410    131.1544   1.2719750605e+02   4.6609355593e+01    0.1883819    0.1704402 -78.14 0.0002194209    1.264    0.209
       267  -9.4024     68.5600    131.5244   1.1071720181e+02   4.0458267891e+01    0.1321478    0.1184295  74.21 0.0002437108    1.026    0.025
       268 -10.4954     61.9316    131.0242   1.1251841680e+02   4.1448174827e+01    0.1922463    0.1706584  74.44  0.001204343    1.025    0.024
       269  -9.5427     82.9380    130.5502   1.0655116026e+02   3.8610077357e+01    0.1849439    0.1232479   6.71 0.0008084105    2.610    0.617
       270 -10.0206     21.0938    126.6147   1.2373550337e+02   4.6764527252e+01    0.2154904    0.1385719  81.89 0.0008095388    1.343    0.255
       271 -10.2179     91.9098    126.1630   1.0331153081e+02   3.8177813960e+01    0.2124927    0.1753798  69.17 0.0003508274    1.195    0.163
       272  -9.7633     29.9143    125.8989   1.2114059694e+02   4.6161354250e+01    0.1711504    0.1519311 -74.63 0.0003292471    1.211    0.174
       273  -9.1009    134.7400    124.2993   9.1684329861e+01   3.0765187256e+01    0.1374273    0.1122988  83.55 0.0001832279    1.509    0.337
       274  -9.6697     98.3341    124.0737   1.0114746716e+02   3.7570341310e+01    0.1881633    0.1686623 -84.41 0.0003371188    1.122    0.109
       275  -9.5023     39.3758    122.1773   1.1799014474e+02   4.6108925222e+01    0.1840565    0.1063419  89.88 0.0009434794    1.683    0.406
       276 -10.8691    237.9837    120.4690   7.0611242505e+01   1.0675757891e+01    0.3621373    0.1601604 -10.65  0.001295797    3.742    0.733
       277  -9.1099    123.2879    121.2756   9.3908819276e+01   3.3619501227e+01    0.1371993    0.1139864   3.70 0.0002127313    1.514    0.339
       278  -9.8089     63.3265    120.8014   1.1066311579e+02   4.3628700330e+01    0.1847981    0.1119972 -59.69 0.0004470255    1.630    0.387
       279  -9.5192     58.1717    121.1036   1.1224422628e+02   4.4220734901e+01    0.1887013    0.1380755  69.47 0.0004573797    1.323    0.244
       280  -9.6835     21.7152    121.3047   1.2314109933e+02   4.7938681428e+01    0.2028531    0.1476647 -71.54  0.000274413    1.308    0.236
       281 -10.6061     19.6634    118.3189   1.2350956128e+02   4.8798410268e+01    0.2899528      0.13287  29.24   0.00147657    2.225    0.551
       282 -10.1393     92.5009    118.7553   1.0176755713e+02   3.9737468132e+01     0.316888    0.2099632 -75.01  0.001516278    1.735    0.424
       283  -9.0495     92.2781    114.3268   1.0095983157e+02   4.0774655880e+01    0.1370122    0.1120091 -23.48 0.0002055123    1.593    0.372
       284 -10.4863      9.9555    117.6953   1.2635033172e+02   4.9655790475e+01    0.2550666    0.1412729 -53.46  0.001406735    2.036    0.509
       285 -10.3000     48.5565    115.9793   1.1445181103e+02   4.6579158792e+01    0.1968513    0.1184838 -74.68 0.0005281004    1.554    0.357
       286 -11.0607      3.5159    106.7960   1.2763672974e+02   5.2591136807e+01    0.5164484    0.1028082 -73.39  0.001918871    3.649    0.726
       287 -10.3719      1.5827    116.1021   1.2872368940e+02   5.0552395671e+01    0.2381738    0.1366715  61.31 0.0006013565    1.500    0.333
       288  -9.6905      6.1334    114.7849   1.2730767166e+02   5.0578297135e+01    0.1781192    0.1200534 -56.01  0.000423118    1.634    0.388
       289 -10.7968      3.1507    111.9946   1.2804424557e+02   5.1404801946e+01    0.2463046    0.2079545  42.51 0.0006826153    1.295    0.228
       290  -9.6509    138.5518    115.5279   8.8776811018e+01   3.1726365495e+01    0.1458696    0.1391988  41.34  7.41082e-05    1.004    0.004
       291 -10.6580     60.4079    113.6952   1.1045332341e+02   4.5681777889e+01    0.3606168    0.2123525  80.82 0.0009059249    2.069    0.517
       292 -11.5399    149.8832    111.2098   8.5032230430e+01   3.0174582485e+01    0.2395637    0.2315201  11.78 0.0002461468    1.039    0.038
       293 -10.9807     19.7063    110.1257   1.2280737013e+02   5.0721239788e+01    0.2969352    0.2006401 -50.51  0.001654137    1.675    0.403
       294 -10.1448     91.8367    109.9004   1.0018159057e+02   4.1855081003e+01    0.2110315    0.1967882  -2.74 0.0007041716    1.276    0.216
       295 -10.9174     67.0955    109.4290   1.0765444919e+02   4.5796863728e+01    0.4791555    0.2188375  49.70  0.001760728    2.290    0.563
       296  -9.5922     63.2750    105.2868   1.0813479234e+02   4.7306306248e+01    0.1973128    0.1480885  71.32 0.0004301552    1.368    0.269
       297  -9.7680     84.6353    109.2758   1.0221017609e+02   4.3193631728e+01    0.2278818    0.1546534  72.47 0.0009410889    1.784    0.439
       298 -10.4698     37.2525    108.6176   1.1705725171e+02   4.9540603046e+01    0.2477438    0.1860384 -56.92 0.0006865976    1.384    0.277
       299  -8.9216      8.0000    106.0287   1.2617905218e+02   5.2503128123e+01    0.2012576     0.057906 -80.69 0.0007989098    2.918    0.657
       300 -10.2701    123.9122    104.7925   8.9947191157e+01   3.6924407419e+01    0.2292691    0.2080994 -47.33 0.0003018584    1.139    0.122
       301 -10.3257     19.0625    103.3617   1.2239555767e+02   5.2381062234e+01    0.3052886    0.1509042  53.83  0.001158514    1.966    0.491
       302 -10.3340     43.1025    102.8552   1.1436325279e+02   5.0329583048e+01    0.2116512    0.1705278 -80.01 0.0003944064    1.112    0.101
       303 -10.8005     39.0264    100.5119   1.1539469560e+02   5.1321542638e+01    0.5120385    0.2460596  17.54  0.002233736    2.820    0.645
       304  -9.2881     29.4296    103.4642   1.1898841823e+02   5.1513281328e+01     0.128748    0.1074869  84.68 0.0001357178    1.030    0.029
       305  -9.5323    134.6456    102.1368   8.6484349110e+01   3.5215068329e+01    0.2036398    0.1398336 -31.75 0.0001725877    1.654    0.396
       306 -11.3814     50.5160    101.8792   1.1174094663e+02   4.9735617890e+01    0.4117451    0.1807825  35.34  0.001687922    2.251    0.556
       307  -9.8269     70.5238    101.5136   1.0507877512e+02   4.7190066116e+01    0.1385006    0.1297668 -84.27 8.256471e-05    1.040    0.038
       308  -9.6074     72.9895     99.0011   1.0376646760e+02   4.7422511507e+01    0.1915384    0.1648225 -35.42 0.0003540647    1.349    0.259
       309  -9.5918      9.4974    100.0046   1.2525493390e+02   5.3835557873e+01    0.1736581   0.07657395  70.66 0.0008043416    2.255    0.557
       310 -10.3043     16.5394     98.1481   1.2274017894e+02   5.3814849073e+01    0.2212553    0.1937157  87.14  0.000999895    1.067    0.063
       311 -11.0495    106.0476     97.7041   9.3182699446e+01   4.2015565060e+01    0.2747511    0.2697888  30.43 0.0008874242    1.079    0.073
       312  -8.9073      3.6681     98.2766   1.2705523249e+02   5.4584525197e+01    0.1249338   0.07196219  60.24 0.0006995543    1.600    0.375
       313  -9.8819     86.3815     97.2938   9.9083038688e+01   4.5682472530e+01    0.1452301    0.1151161 -11.53 0.0007019137    1.754    0.430
       314 -10.3583     54.7678     97.0817   1.0948520346e+02   5.0385394780e+01    0.2140371    0.1695905  76.23 0.0008316231    1.256    0.204
       315 -10.6628     62.9778     96.1098   1.0650922781e+02   4.9550490709e+01    0.2039337    0.1844491  83.94 0.0003191766    1.040    0.039
       316 -10.5257     37.4024     95.3114   1.1520176150e+02   5.2750222993e+01    0.2312016    0.2070004  -8.40 0.0009671848    1.403    0.287
       317  -9.5201    118.6098     94.2559   8.8699700789e+01   4.0237699468e+01    0.1550719    0.1159946  74.77  0.000696361    1.685    0.407
       318 -10.5585     47.9578     93.4547   1.1120078578e+02   5.2080368914e+01    0.3235344    0.2333644 -31.88  0.001712033    1.782    0.439
       319 -10.1795     54.1700     92.7974   1.0890188224e+02   5.1500221550e+01    0.2084999    0.1689171  74.45    0.0011814    1.233    0.189
       320 -10.6777      1.3731     92.8901   1.2746965650e+02   5.5979944910e+01     0.248226   0.09465538 -87.13 0.0003456928    2.219    0.549
       321 -11.5568      7.0706     90.5954   1.2533095984e+02   5.6226830415e+01    0.2853697    0.2004181 -88.60 0.0006503327    1.172    0.147
       322  -9.7469      2.7771     87.6341   1.2661459617e+02   5.7162159579e+01    0.1914568    0.1588316  51.57 0.0003799273    1.267    0.210
       323 -10.8324     27.9819     87.2145   1.1741539020e+02   5.5593165884e+01    0.5552636    0.1740753 -53.53  0.002161934    2.990    0.666
       324 -10.5762     17.6784     91.1990   1.2164059212e+02   5.5413967249e+01    0.2180098     0.185131 -79.31 0.0004284176    1.073    0.068
       325 -11.9718     21.3932     88.1811   1.1995759546e+02   5.5879723050e+01    0.2733186    0.2119994  42.59 6.884727e-05    1.367    0.269
       326  -9.9129    105.0181     91.2698   9.1836442172e+01   4.3636062987e+01    0.2848161    0.1727069  46.60  0.001251505    1.642    0.391
       327 -10.6508     39.6316     90.8350   1.1372053046e+02   5.3621680194e+01    0.2826383    0.1849007  -3.64 0.0008463215    2.325    0.570
       328 -10.5370    117.7696     90.4239   8.7902823025e+01   4.1224349912e+01    0.2120388    0.1429841  34.44  0.000940893    1.618    0.382
       329 -10.4667     88.0384     88.9480   9.6533867699e+01   4.7326598450e+01    0.2250353    0.2176108 -74.28 0.0006378302    1.031    0.030
       330 -10.2467     66.9854     88.7539   1.0358611686e+02   5.0756165810e+01     0.284783    0.2118617 -20.02  0.001141909    1.879    0.468
       331 -10.0842     63.8344     87.1068   1.0432718226e+02   5.1601682028e+01     0.213677    0.2008919 -82.25 0.0005362189    1.025    0.025
       332  -9.4994    155.1561     85.1901   7.6922411258e+01   3.3823701475e+01    0.1989087    0.1781568 -70.52 0.0003763778    1.256    0.204
       333  -9.6834    128.9877     85.5575   8.3462376225e+01   3.9795506686e+01    0.2419381    0.1482193  47.75  0.001032551    1.610    0.379
       334  -9.6998      9.4842     85.4634   1.2401476815e+02   5.7326023687e+01    0.1989307    0.1155334  25.86 0.0007070365    1.937    0.484
       335 -12.0912     14.3728     83.6517   1.2202203926e+02   5.7469519478e+01    0.2308881    0.2064156  79.00 0.0004094729    1.106    0.096
       336 -10.9741     50.2030     83.3998   1.0849292965e+02   5.4274320673e+01    0.2725397     0.252079 -33.06 0.0009615998    1.229    0.186
       337 -10.3270     53.3226     82.3529   1.0711255600e+02   5.4148598159e+01    0.2060517    0.1868145 -24.62  0.001222663    1.285    0.222
       338  -9.2781    108.7054     83.2700   8.8532772806e+01   4.4639851927e+01    0.1471815    0.1181085  83.95 0.0001750263    1.516    0.340
       339  -9.4936     98.7622     83.4248   9.1629531646e+01   4.6594543741e+01    0.1924871    0.1441541  30.35 0.0003601848    1.495    0.331
       340 -10.8937     72.4870     82.5284   1.0018458790e+02   5.1413434002e+01    0.2611327    0.1669635 -39.38 0.0008443295    1.792    0.442
       341 -10.4332     73.2760     78.6114   9.8901351631e+01   5.2213875729e+01    0.3154091    0.2255602 -83.33  0.001136381    1.683    0.406
       342 -10.0158     20.0374     81.9900   1.1968641453e+02   5.7492023139e+01    0.1962229    0.1621942 -89.50 0.0004348132    1.052    0.049
       343 -10.2370     88.9831     77.9964   9.3276942292e+01   4.9660213104e+01     0.221119    0.2116554 -86.86 0.0003393161    1.035    0.034
       344  -9.9716     55.1270     77.9321   1.0545320820e+02   5.4993512421e+01    0.2087349    0.1876844 -68.48 0.0003710267    1.025    0.024
       345  -9.5056     17.3694     78.3031   1.2024013979e+02   5.8579078498e+01    0.1932397   0.09903015 -60.45 0.0009819132    1.696    0.410
       346 -10.0740     16.9453     74.5132   1.1991001297e+02   5.9534659413e+01    0.2195121    0.1614009 -74.12  0.001010744    1.144    0.126
       347  -9.5656      4.2470     77.9638   1.2528303470e+02   5.9414128881e+01    0.1613433   0.08675954 -81.99 0.0004279467    1.525    0.344
       348 -10.9015     62.4543     75.2314   1.0201572603e+02   5.4649054067e+01    0.3440732      0.24949  39.13  0.001797524    1.454    0.312
       349 -10.8749     27.3780     72.9733   1.1544593330e+02   5.9141423585e+01    0.4610718     0.260982  74.06  0.001462243    2.087    0.521
       350 -10.5847     80.7811     74.0895   9.4983252507e+01   5.2016881048e+01    0.2271962    0.2042438  49.88 0.0003339471    1.147    0.128
       351 -10.1302     69.3321     74.0700   9.9130791469e+01   5.3902237651e+01    0.2073715    0.1685367 -64.02  0.001111007    1.177    0.150
       352 -10.0885    142.9098     72.6078   7.6027326445e+01   3.9050099739e+01      0.29785    0.2110603 -21.07  0.001193342    1.642    0.391
       353  -9.8047    125.0871     70.9072   8.0069476475e+01   4.3600560825e+01    0.2153867    0.1993995 -84.23  0.001116155    1.162    0.139
       354 -10.2617     88.9927     69.0439   9.0599474953e+01   5.1663312430e+01    0.4211836    0.1722912 -48.97  0.001538777    2.374    0.579
       355 -10.2289     42.2145     70.9685   1.0898050836e+02   5.8221463644e+01     0.240475    0.1962787 -57.65 0.0008534689    1.132    0.116
       356 -10.9396     45.1903     69.0204   1.0731789389e+02   5.8365157777e+01    0.5844072    0.2661499 -32.99  0.001996308    3.981    0.749
       357  -9.8769     37.7033     71.1759   1.1087355320e+02   5.8640932403e+01    0.2533352    0.1631328 -23.64  0.001241926    2.140    0.533
       358  -9.4970    118.0834     69.8005   8.1672024262e+01   4.5422556452e+01    0.2065535    0.1788966  12.82  0.000398438    1.325    0.245
       359  -9.5357     79.7079     69.9949   9.4164915042e+01   5.3139694822e+01    0.1992386    0.1766569 -55.21 0.0003226431    1.080    0.074
       360  -9.9565     58.9887     69.5122   1.0187008807e+02   5.6501945308e+01    0.2017627     0.138175  36.48 0.0007665922    1.559    0.359
       361  -9.8806     52.2329     69.1036   1.0446415034e+02   5.7497062048e+01    0.2334075    0.1524872  83.14  0.001078889    2.034    0.508
       362 -11.2123      1.3922     65.9778   1.2530227280e+02   6.2433448282e+01    0.4709935    0.1033041 -81.61  0.001597969    3.977    0.749
       363 -10.9001      9.5179     62.8291   1.2145245488e+02   6.2824126961e+01    0.2712752    0.2371308 -79.69 0.0009819886    1.059    0.056
       364 -11.2889      1.9292     60.8519   1.2454134727e+02   6.3649191801e+01    0.2822961    0.1921302 -68.97 0.0009820353    1.210    0.174
       365 -11.6699      5.7938     58.9513   1.2259708482e+02   6.3945833465e+01    0.4815583    0.2707011  72.42  0.002568949    1.867    0.464
       366 -10.3999    130.5393     67.8230   7.7614032081e+01   4.2914579109e+01    0.2552193    0.2090575  50.62 0.0002892388    1.215    0.177
       367 -10.6659     22.9869     57.8941   1.1456887082e+02   6.3177589625e+01    0.3249382    0.2378639  36.96  0.001468708    1.531    0.347
       368 -10.4010     21.9870     67.3685   1.1674675545e+02   6.0936329660e+01    0.2785583    0.1951739  74.59  0.001105678    1.485    0.326
       369 -10.2666     21.5168     62.9807   1.1619202572e+02   6.2044674532e+01    0.3015372    0.1612463 -78.75  0.001363505    1.718    0.418
       370 -10.2196      7.1630     68.3294   1.2314022038e+02   6.1605974064e+01    0.1743496    0.1489246   6.19 0.0004770086    1.452    0.311
       371  -9.5489    105.9709     67.4226   8.4513111732e+01   4.8576966915e+01    0.2237899    0.1481633  47.78 0.0004654998    1.528    0.346
       372  -9.6977     75.0590     66.4777   9.4808416469e+01   5.4739332399e+01    0.2045444    0.1441812  38.07 0.0003636801    1.496    0.332
       373 -10.1064     55.4431     66.5156   1.0248942143e+02   5.7699385754e+01    0.2684949    0.1389805  32.14  0.001193531    2.106    0.525
       374  -9.7864     14.5066     65.4836   1.1965762980e+02   6.1896959742e+01    0.1274838    0.1051108 -69.89 0.0002578885    1.056    0.053
       375 -11.2721     32.1898     59.1120   1.1062760750e+02   6.2113187339e+01    0.3189503    0.2533124  25.79  0.001907188    1.437    0.304
       376  -9.7014    113.7002     63.4078   8.0828830581e+01   4.7689709853e+01    0.1967562    0.1454033  38.77 0.0002565782    1.413    0.292
       377  -9.7587     73.7468     61.0227   9.3589825788e+01   5.6198843248e+01     0.244638    0.1879431  19.49 0.0006244407    1.562    0.360
       378 -10.0170     70.5278     60.0036   9.4510631768e+01   5.6967352027e+01    0.2436869    0.1980412 -12.77  0.001008979    1.504    0.335
       379 -10.4808     39.6252     60.4903   1.0763308250e+02   6.1043317634e+01    0.3103011    0.2331849   7.76  0.001163175    1.644    0.392
       380 -10.6493     55.3841     58.1389   1.0012944120e+02   5.9686452269e+01    0.2304721    0.1697968  69.70 0.0006036249    1.714    0.417
       381  -9.6596    116.3231     56.6913   7.7722683378e+01   4.8389473423e+01    0.2133878    0.1588653 -52.34 0.0006692539    1.428    0.300
       382  -9.8513    118.3111     54.3211   7.6302561982e+01   4.8364471417e+01    0.2607843    0.1889035 -29.00  0.000528579    1.454    0.312
       383  -9.8584    110.1680     56.8299   7.9588809665e+01   4.9783508314e+01    0.2334752    0.2067468  89.07  0.000681913    1.284    0.221
       384 -11.0001    225.8586     55.7453   5.6438838773e+01   2.1389180667e+01    0.2357974    0.1932781 -30.52 0.0002872207    1.106    0.096
       385 -10.1322    205.0084     55.9835   5.9243594134e+01   2.6244149866e+01    0.2113525    0.1944996 -43.17  0.001188904    1.073    0.068
       386  -9.9677     92.8413     55.1978   8.4598029921e+01   5.3867744395e+01    0.2499292    0.2089464 -28.98 0.0005145179    1.242    0.195
       387  -9.4872     95.6750     53.3354   8.2949119405e+01   5.3657138495e+01    0.1572131    0.1501927 -10.19 0.0008483853    1.070    0.065
       388 -10.4704     79.3653     53.4009   8.8828588078e+01   5.6878662450e+01    0.4310458    0.1598367 -44.44  0.001200786    2.610    0.617
       389 -10.8193     29.4993     53.7053   1.1060446748e+02   6.3662786273e+01    0.3294961    0.2216028  44.55 0.0009519851    1.675    0.403
       390  -9.7832    151.0163     53.5023   6.7925063520e+01   4.0325846525e+01    0.2325034    0.1519795  56.74 0.0005027467    1.521    0.342
       391 -11.6205     42.0114     51.9516   1.0424823094e+02   6.2820833192e+01    0.4218448    0.2129617 -47.75  0.001109497    1.825    0.452
       392 -10.8031     20.0627     40.8782   1.1217404538e+02   6.7482947277e+01    0.3144485    0.1868296  18.58 0.0009828884    1.970    0.492
       393 -10.2889     77.8307    247.9707   1.1942227366e+02   1.7905422616e+01    0.2206002    0.1233103  85.56 0.0009162238    2.330    0.571
       394 -10.4501     16.3932     51.7603   1.1648063224e+02   6.5120756976e+01    0.2417667    0.1604166 -68.39 0.0002866941    1.252    0.202
       395 -10.9540     16.9332     47.1544   1.1527656798e+02   6.6197136683e+01    0.3159011    0.1892852 -41.33 0.0008597752    1.666    0.400
       396 -12.8429     12.3165     44.1169   1.1701888611e+02   6.7201905323e+01    0.6955118    0.1807682 -63.84  0.002779369    2.671    0.626
       397 -10.5811     66.0917     50.0615   9.2923706608e+01   5.9916165282e+01    0.3817724      0.19854 -52.68  0.001650567    1.836    0.455
       398 -10.0707    174.0188     50.1135   6.2340324524e+01   3.4864233745e+01    0.2181834    0.2159065 -64.52 0.0003170282    1.019    0.019
       399 -10.1715    128.9643     49.9633   7.1846734449e+01   4.6540731578e+01    0.2274543    0.2201687   4.81 0.0003288943    1.049    0.047
       400 -11.0336     94.6222     49.0479   8.1689823927e+01   5.4735053379e+01    0.4135322    0.3131276 -16.85 0.0008736926    1.579    0.367
       401 -10.1752     22.3396     48.4514   1.1284435564e+02   6.5509790343e+01    0.2769918    0.1500913 -70.90  0.001000408    1.632    0.387
       402  -9.6787    152.8545     48.2128   6.5724103261e+01   4.0683204700e+01    0.2201517    0.1751595  31.38 0.0005835381    1.372    0.271
       403 -10.2208    114.2139     47.2542   7.4837480113e+01   5.0631513454e+01    0.2485093    0.2005309 -24.77 0.0002971071    1.294    0.227
       404  -9.9852     60.8250     52.0930   9.5864638588e+01   6.0291315215e+01    0.2048052    0.1856768  88.73 0.0007039703    1.221    0.181
       405 -10.3971    106.1042     50.8292   7.8628642159e+01   5.1861788312e+01    0.2755314    0.2390401 -80.59  0.001315535    1.346    0.257
       406 -10.9358     61.7599     45.1288   9.2968998681e+01   6.1692471722e+01     0.332364    0.2337907 -43.63  0.000637164    1.329    0.248
       407 -10.2388    164.9977     45.9710   6.2595896279e+01   3.7825498077e+01    0.2195464    0.2168759 -14.31            0    1.016    0.016
       408  -9.0725    123.2787     45.3392   7.1598952865e+01   4.8752201951e+01    0.1573188    0.1204968  12.85 0.0003191297    1.620    0.383
       409 -10.8961     69.6096     42.4337   8.8553436189e+01   6.0956916087e+01    0.4420777    0.2230445 -32.65  0.001099442    2.459    0.593
       410 -11.1912     71.0149     37.8457   8.6072410857e+01   6.1644282453e+01    0.2829624    0.2348779 -16.58 0.0002685656    1.288    0.224
       411  -9.9149     42.7796     44.0157   1.0140050938e+02   6.4579183076e+01    0.2176228    0.1629865 -38.07  0.001206343    1.308    0.235
       412 -10.3260     33.4221     44.0110   1.0606876700e+02   6.5602651013e+01    0.2276475    0.1700475  50.13  0.000829185    1.566    0.362
       413 -10.5397    141.4922     42.3538   6.6063386154e+01   4.4567593041e+01    0.2540169    0.2466674  49.21  0.000205997    1.021    0.021
       414  -9.5414    151.5888     41.2865   6.3548650607e+01   4.2061714709e+01    0.2212668    0.1511941 -13.19  0.000954729    1.699    0.411
       415 -11.7456    103.6064     38.9908   7.4719122655e+01   5.4604716473e+01    0.2676862     0.253997 -69.28 0.0003534658    1.136    0.120
       416 -10.3541    116.7423     38.7564   7.0779609452e+01   5.1481081863e+01    0.4284461    0.1869004  51.11  0.001447049    2.223    0.550
       417  -9.9490     82.1997     39.1858   8.2181281381e+01   5.9234642438e+01    0.2111016    0.1907463 -10.49 0.0004161923    1.132    0.117
       418 -10.0311     85.9668     37.4407   8.0031103724e+01   5.8793909983e+01    0.2199937    0.1883289 -35.92  0.000283827    1.132    0.116
       419 -12.5757    194.0427     35.3654   5.4624713160e+01   3.1628759842e+01    0.3049579    0.2905648 -86.49 0.0004176325    1.069    0.064
       420  -9.5082     91.2589     37.6243   7.8216125358e+01   5.7632364558e+01    0.1501308    0.1144035 -65.58 0.0006974463    1.659    0.397
       421 -10.4441    131.2582     36.2664   6.6092817148e+01   4.8177272779e+01    0.3507409    0.2021913  56.73 0.0006606628    1.694    0.410
       422 -10.5398    119.7627     34.2284   6.8127084545e+01   5.1450394893e+01    0.2953273    0.2584271 -83.50  0.001162565    1.297    0.229
       423 -11.6386     41.4634     38.2161   1.0003849827e+02   6.6053707890e+01    0.3486956    0.2239723 -30.73  0.001760058    1.737    0.424
       424 -10.6424     57.6852     35.2984   9.0899833742e+01   6.4432957528e+01    0.6446975    0.4064192 -81.69  0.002428975    3.556    0.719
       425  -9.6605     60.6057     33.7352   8.8870676898e+01   6.4283816672e+01    0.2631638    0.1702181 -38.70  0.001117929    1.468    0.319
       426 -11.0608     76.5866     32.9537   8.1645352280e+01   6.1539176737e+01    0.3711437    0.2579206 -71.03  0.001637562    2.249    0.555
       427  -9.1458     48.2632     34.3176   9.5073823788e+01   6.6034400276e+01     0.137224   0.09613836 -27.80 0.0001610045    1.547    0.354
       428  -9.7650     29.3281     34.0459   1.0505705948e+02   6.8304484801e+01      0.17862    0.1444813 -59.29 0.0003895122    1.106    0.096
       429 -11.3891    142.5462     30.8895   6.1533502910e+01   4.5961528820e+01    0.4782555    0.3884901   8.43  0.001348051    1.399    0.285
       430 -10.1705     86.9619     33.4739   7.7929713337e+01   5.9311087232e+01    0.2222219    0.1450061  49.17  0.001026761    1.579    0.367
       431 -11.8034    107.4274     29.3436   6.9439885371e+01   5.5290021157e+01    0.4525821    0.3224435 -14.01 0.0004743462    1.590    0.371
       432 -10.1946     34.3659     31.9072   1.0148365344e+02   6.8275038488e+01    0.1916745    0.1763543  41.45 0.0004512407    1.258    0.205
       433 -10.8324     37.2905     26.8848   9.7824779088e+01   6.9041553273e+01    0.5465604    0.2876881  -0.41  0.002002516    4.081    0.755
       434  -9.9805    206.4947     31.4952   5.1922734985e+01   2.8923923770e+01    0.1417096    0.1342158 -39.39 -4.885876e-06    1.015    0.014
       435  -9.5967     23.9753     30.9193   1.0705423402e+02   6.9498196261e+01    0.2196082    0.1537353 -76.97 0.0006133482    1.524    0.344
       436  -9.7640     23.1837     27.2090   1.0624229022e+02   7.0406390894e+01    0.1598685    0.1382904 -83.20 0.0002877747    1.286    0.222
       437  -9.9694    163.5050     29.9712   5.7352057530e+01   4.0408707751e+01    0.2251652    0.1504649 -23.76 0.0004889223    1.528    0.345
       438 -10.1095    159.0022     29.9924   5.8118422701e+01   4.1627439444e+01    0.2260756    0.2211363  15.72 0.0003565368    1.052    0.049
       439 -11.1360     15.2633     18.5718   1.0815846960e+02   7.2950312651e+01     0.194658    0.1832482  78.01 0.0007596518    1.274    0.215
       440 -10.1992     18.7732     29.0889   1.0954339271e+02   7.0326349514e+01    0.3659409    0.2408845  32.61  0.001613668    1.757    0.431
       441 -11.8288     18.3213     23.5871   1.0797622713e+02   7.1608958244e+01    0.3024237    0.2390051 -77.64 0.0007143884    1.340    0.254
       442 -10.5578     71.8019     29.0089   8.1784321924e+01   6.3204571327e+01     0.251019    0.2078393  39.88 0.0007329619    1.257    0.204
       443 -11.1868     50.5708     28.5407   9.1416435421e+01   6.6917617322e+01    0.3016805    0.2330376  79.62 0.0008758851    1.980    0.495
       444 -10.1649    166.1000     26.9767   5.5882538504e+01   4.0078321405e+01    0.3526976    0.1895667 -75.20  0.001233424    2.897    0.655
       445  -9.5722     75.8185     27.6196   7.9474852604e+01   6.2670231169e+01    0.1891636     0.137398  56.95 0.0005229486    1.593    0.372
       446 -10.1891     10.0231     22.5212   1.1300534933e+02   7.2388567180e+01    0.2282247    0.2145035 -55.01  0.001042831    1.142    0.125
       447 -11.2102     73.3204    243.9892   1.1998007462e+02   1.8991056608e+01    0.1919625    0.1241782  42.11 0.0004882078    1.139    0.122
       448 -11.9577     76.4971    241.7626   1.1927863901e+02   1.8937447529e+01    0.3488181    0.1850701  70.94  0.001379547    2.167    0.539
       449 -10.2508    243.0557     25.0265   4.6615282256e+01   2.1002917696e+01    0.1957272     0.171268 -33.22 0.0003759174    1.031    0.030
       450 -11.7471    175.8371     22.5624   5.2936554736e+01   3.7960554943e+01    0.3712199    0.2868901  25.71 0.0008603648    1.486    0.327
       451 -10.8442    153.7434     23.1702   5.6522445730e+01   4.3916954489e+01    0.2966143    0.2371432  46.30  0.000358233    1.263    0.208
       452  -9.9830    181.5165     27.0201   5.3648204046e+01   3.5917908475e+01    0.2250013    0.1442262 -24.68 0.0005468963    1.550    0.355
       453 -11.9749    116.9923     22.6193   6.3896766301e+01   5.3864019257e+01    0.2645134    0.2491203 -16.12 0.0001932848    1.071    0.066
       454 -10.7394    221.9841     22.0618   4.7625269769e+01   2.6158693469e+01    0.2137693     0.158614  25.60 0.0008299439    1.637    0.389
       455 -10.9293    131.8316     21.9062   6.0180416499e+01   5.0039022486e+01    0.2554675    0.2348744  73.32  0.000304245    1.097    0.089
       456 -10.4186    101.7845     21.5807   6.7555431998e+01   5.7838746233e+01    0.3828547    0.1840656 -32.82  0.001394093    2.038    0.509
       457  -9.6305     40.5625     21.5577   9.3545514798e+01   6.9745190110e+01    0.1789742    0.1597816  88.59 4.602207e-05    1.455    0.313
       458 -10.2076     36.4956     21.3883   9.5824836636e+01   7.0296416858e+01    0.3302503    0.1902931  19.13  0.001064024    2.120    0.528
       459 -11.7305     46.1711    245.8755   1.2483834216e+02   2.1720036210e+01    0.3023351    0.1626936  88.09  0.002206272    2.060    0.515
       460  -9.4832    190.4947     20.4492   5.0392631116e+01   3.4280012863e+01    0.1446012    0.1368949 -59.81 3.538885e-05    1.012    0.012
       461 -10.1065    140.9607     21.0000   5.7984187243e+01   4.7679410805e+01    0.2505169   0.08501901  64.98  0.000498614    2.883    0.653
       462 -10.2788     62.1509     23.3222   8.3266364317e+01   6.6040939146e+01    0.2702917    0.1222953  35.31 0.0009512642    2.546    0.607
       463 -10.3329     93.0431     19.5463   6.9273064814e+01   6.0228936775e+01    0.3780492    0.2514993 -52.10  0.001182901    1.807    0.447
       464 -10.1246     89.4731     19.4346   7.0395200133e+01   6.1074345454e+01    0.2263325    0.2194058 -64.33 4.589298e-05    1.151    0.131
       465 -10.6355    141.6455    247.7763   1.0821520538e+02   9.8981240306e+00    0.1853816   0.09379712  47.49 0.0006487888    1.701    0.412
       466 -11.5611    115.7382    249.2394   1.1285776665e+02   1.3085455659e+01    0.2556263    0.1811166  31.64  0.001180841    1.253    0.202
       467 -11.0688    209.3531    246.4330   9.6790316575e+01   1.1413306087e+00    0.3663434    0.1469951  38.20  0.002218476    1.865    0.464
       468  -9.2892    157.7056     17.3212   5.3706786504e+01   4.3510274161e+01    0.1588055    0.1081032 -58.25 0.0002980718    1.613    0.380
       469 -10.3492    200.5471    244.8988   9.8009431000e+01   2.4155169938e+00    0.1982475     0.108583  36.60 0.0005808753    1.374    0.272
       470 -12.5501    204.7978    240.3059   9.6758825096e+01   2.2966097525e+00    0.3168698    0.1770171  24.77 0.0009222604    1.381    0.276
       471  -9.9619     44.9492     16.9853   8.8743318967e+01   7.0034457668e+01    0.2006245    0.1652559 -80.11 0.0008046114    1.749    0.428
       472 -10.7419     31.6955     17.0062   9.6648600442e+01   7.1768032460e+01    0.1986594    0.1810628  35.07 0.0006755671    1.294    0.227
       473 -11.8194    197.9419    240.1248   9.7849611841e+01   3.2165106824e+00    0.2326542    0.1934511  45.77 0.0003753913    1.632    0.387
       474  -9.8866    229.6487     15.8822   4.5276251918e+01   2.4971724890e+01    0.2039512   0.09834688 -35.52 0.0008040577    1.753    0.429
       475 -10.5875    116.6861     15.0398   6.0576110361e+01   5.4929322708e+01    0.3635555    0.1809329  46.70   0.00144842    1.972    0.493
       476  -9.9525    112.6875     15.4307   6.1720672053e+01   5.5923629087e+01    0.2578959    0.2115017 -20.89 0.0006419828    1.240    0.194
       477 -11.1387    179.5030     13.9233   4.9557561451e+01   3.7909143791e+01    0.2305845    0.1967293  79.51 0.0007913938    1.159    0.137
       478  -9.9703    197.4831    233.8946   9.7145313344e+01   3.8982565023e+00    0.2035915    0.1325859  22.41 0.0004789178    1.201    0.167
       479 -11.6127    136.1463    245.4834   1.0895492583e+02   1.0899038566e+01    0.2657132    0.1647029  60.12 0.0009949969    2.018    0.505
       480  -9.1999     92.4874     13.4798   6.6391292180e+01   6.1216082821e+01    0.1446575    0.1370862  14.67  8.97262e-05    1.005    0.005
       481 -11.3702    164.5553    243.6736   1.0385214765e+02   7.3128620205e+00    0.2024669     0.155327  23.89 0.0005248102    1.163    0.140
       482 -10.1380     97.4913    244.4893   1.1571156081e+02   1.6010005822e+01    0.1455398   0.09310968  85.85  0.000678016    2.121    0.528
       483 -11.1347    145.9051    242.8666   1.0699301000e+02   9.9132777423e+00    0.1835833    0.1511275  27.42 0.0004517843    1.197    0.164
       484  -9.3437    133.2964     12.6775   5.6030906349e+01   5.0747534817e+01    0.1565509    0.1103627 -59.13   0.00070209    1.620    0.383
       485 -11.9855    142.9034    238.7668   1.0710740247e+02   1.0814696237e+01    0.2334843     0.152295  33.19 0.0003249819    1.164    0.141
       486 -10.5759     62.2327    242.7358   1.2187641685e+02   2.0436992609e+01    0.1674301    0.1369894  73.64 0.0004575578    1.320    0.243
       487 -10.5161    191.4562    241.0113   9.9023107884e+01   3.9893135859e+00    0.1897502    0.1837583 -54.34  0.001659108    1.740    0.425
       488 -11.4498    178.6641    239.9194   1.0103080677e+02   5.8185030649e+00    0.2830459    0.2241053  89.56   0.00114029    2.744    0.636
       489 -10.7340    246.0711    239.7378   9.0309202018e+01  -2.8388705799e+00    0.2153422    0.1710001  40.22  0.001755012    1.949    0.487
       490 -10.6084    128.6771    241.1875   1.0987215522e+02   1.2423646669e+01    0.2604098   0.07788827  45.74     0.001231    2.723    0.633
       491 -10.8291    119.3175    241.0533   1.1153218623e+02   1.3676967398e+01    0.1878982    0.1094056  33.64 0.0004980518    1.364    0.267
       492  -9.9855    109.5899    240.8996   1.1326557507e+02   1.4962697112e+01    0.1731076    0.0947048 -48.37  0.001122801    2.658    0.624
       493 -10.6030     91.6433    242.5759   1.1661827004e+02   1.6996529574e+01    0.1997235    0.1374259  37.96 0.0007705296    1.181    0.154
       494  -9.2742    134.2790    240.3428   1.0879518803e+02   1.1782588669e+01   0.09975507   0.07234547  14.86 0.0002917162    1.628    0.386
       495  -9.7485     88.8245     13.8532   6.7759264219e+01   6.2029497276e+01    0.1847738    0.1698522 -74.99 0.0002865056    1.281    0.219
       496 -11.2264     97.2562    239.1939   1.1535814225e+02   1.6768648936e+01     0.257576    0.1096645  48.79  0.001519073    1.823    0.451
       497 -11.6248    217.8394    237.2227   9.4282843412e+01   8.8703851189e-01    0.2815777    0.1719868  45.52  0.001913335    1.980    0.495
       498 -10.8857    167.9339    238.6111   1.0271155369e+02   7.4193086660e+00    0.1650086    0.1496617  17.24 0.0005132952    1.316    0.240
       499 -10.0564    104.4802    239.4784   1.1407198013e+02   1.5812075551e+01    0.1081356   0.07787298  41.96 0.0001966366    1.043    0.041
       500 -10.4317    115.4444    238.5025   1.1200647118e+02   1.4522849855e+01    0.2383186   0.07857267  37.48   0.00121455    2.177    0.541
       501  -9.8325     84.0019    238.0348   1.1768118287e+02   1.8574493068e+01    0.1748639   0.08870698  55.46 0.0009922087    1.693    0.409
       502  -9.2181     46.6756    238.3326   1.2442360283e+02   2.2785293932e+01    0.1111974   0.04888014  55.81 0.0007050756    1.707    0.414
       503 -10.6826     42.9213    235.7837   1.2498135751e+02   2.3567056470e+01    0.2409022    0.1272792  56.10  0.001382844    1.383    0.277
       504 -10.0142    105.9968    235.2826   1.1345293416e+02   1.6196800851e+01    0.1511625    0.1282193  38.97 0.0002510242    1.210    0.174
       505  -9.7775    102.6533    233.7746   1.1394305876e+02   1.6842089301e+01    0.1721237    0.1137517  56.90 0.0007321031    1.382    0.276
       506  -9.8634    133.2052    234.1484   1.0838209908e+02   1.2718940745e+01    0.1403905    0.1036743  52.77 0.0005509067    1.329    0.247
       507  -9.8764    183.1645    233.1276   9.9454372876e+01   5.9335844708e+00    0.1358969    0.1025287  39.10            0    1.285    0.222
       508  -9.7512     54.8486    240.2523   1.2306040894e+02   2.1619048858e+01    0.2510934   0.09963874  79.92   0.00132571    3.555    0.719
       509 -11.0769    144.0214    232.2284   1.0622795701e+02   1.1476908546e+01    0.3298275    0.1344204  38.07  0.001168872    1.782    0.439
       510 -10.3618     89.9107    232.2148   1.1617862961e+02   1.8691028442e+01    0.4268965    0.1062474  43.98  0.001995462    2.674    0.626
       511  -8.1600     48.5598    232.5434   1.2381808118e+02   2.3469083382e+01    0.1784407    0.1004635  56.95 0.0006963116    1.335    0.251
       512 -10.4403     45.5587    228.6022   1.2418059528e+02   2.4405832234e+01    0.2565324    0.1576766  61.98  0.001747499    1.294    0.227
       513 -10.5770     23.1543    232.6400   1.2837961323e+02   2.6023149596e+01    0.1705291    0.1223865  88.88  0.001107767    1.493    0.330
       514 -10.4901     74.5415    231.9560   1.1901124819e+02   2.0611427534e+01    0.1516048    0.1402532 -74.08 0.0007734788    1.488    0.328
