#   1 NUMBER                 Running object number                                     
#   2 MAG_AUTO               Kron-like elliptical aperture magnitude                    [mag]
#   3 X_IMAGE                Object position along x                                    [pixel]
#   4 Y_IMAGE                Object position along y                                    [pixel]
#   5 X_WORLD                Barycenter position along world x axis                     [deg]
#   6 Y_WORLD                Barycenter position along world y axis                     [deg]
#   7 A_WORLD                Profile RMS along major axis (world units)                 [deg]
#   8 B_WORLD                Profile RMS along minor axis (world units)                 [deg]
#   9 THETA_WORLD            Position angle (CCW/world-x)                               [deg]
#  10 FWHM_WORLD             FWHM assuming a gaussian core                              [deg]
#  11 ELONGATION             A_IMAGE/B_IMAGE                                           
#  12 ELLIPTICITY            1 - B_IMAGE/A_IMAGE                                       
         1 -11.5428     57.7417     18.6974   9.6134609918e+01   6.3945137279e+01    0.3879562    0.1877814 -24.57  0.001057014    2.036    0.509
         2 -11.2991     24.8575     12.4991   1.0664794547e+02   6.8811459724e+01    0.3216819    0.2304804  44.53  0.002144011    2.360    0.576
         3 -11.9070     24.5178      6.7478   1.0429446914e+02   6.9571235640e+01    0.2327419    0.1714814 -36.96 0.0009566935    1.666    0.400
         4 -10.8314    112.0597     14.7920   7.8656387687e+01   5.4408199931e+01    0.1992372    0.1781845  -6.49 0.0004464256    1.201    0.167
         5 -10.8918     41.3292     14.8466   1.0075315563e+02   6.6650611657e+01    0.2230809    0.1942336  51.57  0.001582769    1.948    0.487
         6 -10.9500     12.8236     14.0157   1.1267483480e+02   6.9704332059e+01    0.3062609    0.1260784 -32.79  0.001596163    1.983    0.496
         7 -11.5290     75.6405     11.5787   8.7225496764e+01   6.1844297293e+01    0.3558523    0.2610777 -53.84  0.001645713    2.269    0.559
         8 -10.6428     66.5529     11.4779   9.0094895853e+01   6.3390799408e+01    0.1900094    0.1195098  14.54 0.0007396078    1.556    0.357
         9 -10.4580     32.6392     11.9682   1.0308126454e+02   6.8044072231e+01    0.2076032    0.1386606  27.64  0.001432905    1.517    0.341
        10 -11.2490     47.9502     10.2128   9.6181373561e+01   6.6327893152e+01    0.3457582    0.2557605  28.80   0.00242381    1.316    0.240
        11 -11.8128    211.5064      9.4735   6.1492026511e+01   3.1400832495e+01    0.3304632    0.1818706  61.42  0.001722296    1.678    0.404
        12 -11.8579    208.8071      4.8906   6.0715769622e+01   3.2525187295e+01    0.3014485    0.2083139 -66.57 0.0003518259    1.370    0.270
        13 -11.3686     87.2873      7.6670   8.2271431082e+01   6.0093071767e+01    0.3228376    0.1409514 -10.72  0.001418477    3.072    0.674
        14 -11.1741    176.3230      7.2579   6.5023774547e+01   4.0114774728e+01    0.2275674    0.1874548  85.97 0.0003073334    1.096    0.087
        15 -11.8850    107.5513      7.2094   7.7001468853e+01   5.6066540396e+01    0.2654165     0.247427  -1.16  0.000632646    1.194    0.162
        16 -10.3464     39.3434      8.0655   9.8612647024e+01   6.7706075792e+01    0.1954022    0.1247011  13.49 0.0006757943    1.391    0.281
        17 -11.5500     17.1330      7.6537   1.0802084203e+02   7.0184205509e+01     0.350079     0.151291  22.96  0.002049799    2.342    0.573
        18 -10.0331     61.8041      6.1323   8.9433183817e+01   6.4698499780e+01    0.1678445     0.112032  13.47 0.0006406553    1.343    0.256
        19 -11.6086    217.4135      3.5567   5.9580903645e+01   3.0640642982e+01     0.233303    0.2070143  54.14 0.0001134947    1.386    0.278
        20  -9.7666    134.3273      4.3046   7.0583352355e+01   5.0390867481e+01    0.1359507   0.08108188  38.84 0.0007034831    1.648    0.393
        21  -9.8643    123.8489      3.7630   7.2359480365e+01   5.2813849494e+01    0.1539253    0.1414272 -82.54 0.0006293476    1.281    0.219
        22 -10.5671     76.8542      4.1365   8.3831240087e+01   6.2336418172e+01    0.2091135    0.1619407  48.80 0.0004998122    1.354    0.262
        23 -11.1413     73.4045      2.7818   8.4303258498e+01   6.3067463670e+01    0.2693309    0.1762538  -8.34  0.001689027    1.519    0.341
        24 -10.7289     68.8990      3.8551   8.6144110086e+01   6.3748104238e+01    0.1826944    0.1257364  21.53 0.0004051225    1.239    0.193
        25 -10.7373     30.9846      3.4842   1.0001357467e+02   6.9238199849e+01    0.2068394     0.132948 -20.67  0.000884205    1.325    0.245
        26  -9.9693      1.5070      4.5668   1.1412307244e+02   7.1856255315e+01    0.1036972   0.07157527 -18.60 0.0001134818    1.016    0.016
        27 -10.5343    195.0332      3.5287   6.1841226191e+01   3.5949982525e+01    0.1937176    0.1086041  73.01 0.0004374139    1.512    0.339
        28 -11.2240    180.2139      2.2518   6.3230048450e+01   3.9644079933e+01    0.2700144    0.2025488  47.57  0.001520962    1.415    0.293
        29 -11.0602    160.8534      2.0602   6.5705183464e+01   4.4327998674e+01     0.342204    0.1890006  66.33  0.001773627    1.507    0.336
        30 -10.6964    118.3757      2.8964   7.3153388560e+01   5.4097470220e+01    0.1961438    0.1538803  63.09 0.0003086921    1.210    0.173
        31 -10.2019     91.1084      2.3371   7.9183768708e+01   5.9818647215e+01    0.1630145    0.1361254  36.41  0.000620941    1.067    0.063
        32 -10.3761     37.2703      2.5524   9.6971447954e+01   6.8575520112e+01    0.2607827   0.08967713  35.56  0.001309425    2.716    0.632
        33 -10.3445    138.1143      1.4699   6.9035921789e+01   4.9749921029e+01    0.1885411    0.1076579  63.10 0.0003925437    1.473    0.321
        34  -9.8983     10.9971      1.5186   1.0816374981e+02   7.1504963743e+01    0.1128759   0.08515254  40.59 0.0007539815    2.344    0.573
        35 -10.6738    156.0881    233.0655   1.2251709138e+02   3.5958213165e+00    0.1946027    0.1680742  45.22            0    1.027    0.026
        36 -12.4760    185.9624    239.7856   1.1771647497e+02  -2.7927254741e+00    0.6612151    0.3564828 -26.58  0.003037712    2.822    0.646
        37 -11.8218    191.2937    235.2729   1.1597363918e+02  -3.0169286045e+00    0.2743841    0.2002711  34.27 0.0005685527    1.184    0.156
        38 -11.0478    179.7550    247.8522   1.2012848340e+02  -2.9631245405e+00    0.2836966    0.1990999  18.17  0.001281933    1.647    0.393
        39 -11.5357    181.1095    243.8412   1.1926992845e+02  -2.5815614619e+00    0.3085124    0.2270591 -48.42 0.0004640314    1.651    0.394
        40 -10.8986    160.9725    249.9619   1.2399058996e+02  -7.3789505232e-02    0.2653635    0.1811623  39.67  0.000981758    1.235    0.191
        41 -10.4452    149.8538    250.6110   1.2618147105e+02   1.7241725173e+00    0.1811657    0.1014742  44.28            0    1.459    0.315
        42 -10.3215    136.1242    244.1418   1.2794547170e+02   5.1611874542e+00    0.1916222    0.1640604  28.30  0.001220888    1.351    0.260
        43 -11.8037    141.5553    248.1723   1.2743274865e+02   3.5442211030e+00    0.4233192    0.3120258  77.23  0.002070227    1.587    0.370
        44 -11.2145    140.9971    242.6968   1.2682002364e+02   4.5740796914e+00    0.3005087    0.1910919  49.53 0.0007904134    1.321    0.243
        45 -11.4553    112.5572    232.0126   1.3096883884e+02   1.1374898975e+01    0.4214265    0.2911913  18.41  0.001375037    2.476    0.596
        46 -12.2691    116.1924    244.3795   1.3176733847e+02   8.4734927673e+00    0.6685371    0.3969088 -78.12   0.00315971    2.142    0.533
        47 -11.7489    128.4297    243.1439   1.2929045694e+02   6.6468592452e+00    0.4162211    0.2637957  58.77 0.0004660735    1.460    0.315
        48 -11.5534    128.4633    239.4697   1.2881669146e+02   7.2980384671e+00    0.5466942    0.1396385  45.20  0.001846613    3.216    0.689
        49 -11.9470    132.1477    235.6994   1.2760595690e+02   7.3476277809e+00    0.3686704    0.3105365  12.75 0.0008507493    1.620    0.383
        50 -12.1811    114.6904    239.0325   1.3141542805e+02   9.6984528172e+00    0.6087183    0.4924754 -28.48  0.002176514    1.945    0.486
        51 -12.1102    119.1315    233.9037   1.2992014583e+02   9.9105791202e+00    0.5990956    0.2957677 -70.60  0.002688091    2.744    0.636
        52 -12.6164    125.1058    247.3773   1.3044409664e+02   6.4607727948e+00    0.4113745    0.2334812  42.36 0.0001851262    1.525    0.344
        53 -11.5321    129.4739    247.4874   1.2963343053e+02   5.7092560416e+00    0.3384482    0.2043744  39.11  0.001653108    1.533    0.348
        54 -11.5771    107.0982    250.5772   1.3416191429e+02   8.8411180749e+00    0.4118848    0.1321101  39.50 0.0008373797    3.001    0.667
        55 -12.0313    105.8628    247.1577   1.3401630021e+02   9.6512776181e+00    0.4485047    0.2394402  47.80  0.001677095    1.536    0.349
        56 -11.4087    108.9834    244.4775   1.3313526148e+02   9.6348818518e+00    0.2014496    0.1510355  80.54 0.0001136734    1.315    0.240
        57 -11.9916     95.8220    248.6882   1.3602374531e+02   1.0956757773e+01    0.3817891    0.2458142  67.47  0.001473218    1.403    0.287
        58 -12.4556     62.5574    219.7374   1.3930494029e+02   2.1524200191e+01    0.2129749    0.1693057  73.49 0.0003993514    1.037    0.035
        59 -12.9818     63.3574    213.3200   1.3849779158e+02   2.2757064577e+01     1.693246    0.6754425  45.12  0.005598602    2.242    0.554
        60 -13.2003     30.6993    178.9940   1.4159525778e+02   3.4303355056e+01     0.984981    0.6082794 -86.64  0.004057323    1.379    0.275
        61 -13.2758      7.3053    179.0498   1.4639097397e+02   3.6535642541e+01     0.799108      0.63955   5.15  0.005613599    2.066    0.516
        62 -13.5481     42.4476    197.1796   1.4100885542e+02   2.8939220270e+01     1.326721    0.6343918  62.03  0.006641402    2.117    0.528
        63 -13.2024     53.1969    193.0827   1.3837992442e+02   2.8512380269e+01    0.6458922    0.3656604  68.43  0.001173875    1.790    0.441
        64 -13.2732     15.5539    186.1387   1.4534855330e+02   3.4243668237e+01     1.621386    0.3372506 -64.29  0.006519111    3.463    0.711
        65 -12.8461     47.5617    244.7927   1.4418671880e+02   1.8551651866e+01    0.2865706    0.1993057 -77.99 0.0007499439    1.395    0.283
        66 -13.4428     42.4169    209.3326   1.4216971911e+02   2.6322778752e+01     1.042977    0.5768789  70.16  0.005847626    1.683    0.406
        67 -14.2614     24.9607    200.7874   1.4475481176e+02   3.0134747428e+01     1.224049    0.8896595  55.40  0.008424534    1.345    0.256
        68 -13.7291     30.0521    212.6109   1.4476913217e+02   2.7082550999e+01     1.142484    0.4963163  78.84  0.003590691    2.563    0.610
        69 -13.9030     40.6671    226.4946   1.4396119450e+02   2.2988849720e+01    0.8070356    0.5430746 -69.55   0.00533339    1.504    0.335
        70 -12.5364     46.9256    229.7846   1.4311075922e+02   2.1548755163e+01    0.2853685    0.2441799  63.64  0.001185428    1.299    0.230
        71 -13.6684     26.7229    238.7830   1.4725190363e+02   2.2227920258e+01    0.6830519     0.316211 -67.01  0.003654819    2.107    0.525
        72 -15.1296     22.6150    220.8342   1.4672303092e+02   2.6221146922e+01     1.045691    0.5719394  82.06  0.005537219    1.526    0.345
        73 -13.3041     44.2399    237.1415   1.4417115493e+02   2.0439958646e+01     0.370867    0.2609386  38.67  0.001362421    1.729    0.421
        74 -14.0739     11.8410    218.3793   1.4842134927e+02   2.7848625629e+01    0.8245969    0.3123837 -72.17  0.004500349    2.172    0.539
        75 -14.8621      3.3538    203.5392   1.4893044478e+02   3.1692362704e+01     1.839888    0.2908694 -75.12  0.006438015    4.968    0.799
        76 -13.0598      8.7859    206.8095   1.4818453873e+02   3.0507756224e+01    0.5078803    0.2166084 -69.36  0.001821336    1.963    0.491
        77 -14.5903     36.9210    247.4093   1.4615053663e+02   1.9389740604e+01     1.012554    0.6395594  50.66  0.006971278    1.424    0.298
        78 -13.8071     12.8239    238.3699   1.4948467501e+02   2.3838580506e+01    0.4383254    0.2589981  65.18  0.002095636    1.280    0.219
        79 -15.2740      7.4214    234.4552   1.5012445098e+02   2.5144971384e+01    0.8317934    0.6190624 -71.42  0.005601719    1.561    0.359
        80 -14.7985      4.3264    246.4343   1.5124379504e+02   2.3217459028e+01    0.5258738    0.3153728 -76.21  0.003230534    1.555    0.357
        81 -14.8995     19.0781    248.9905   1.4910910753e+02   2.1174091126e+01    0.6027294    0.3749372  36.92  0.004119846    2.054    0.513
        82 -15.2351     12.8226    247.3190   1.4998824122e+02   2.2165158050e+01    0.7737318    0.5239945 -46.63  0.005001427    2.971    0.663
        83 -10.1406    243.9875    231.0177   1.0542792941e+02  -1.1089783988e+01    0.1581869    0.1506671  61.73 0.0003542528    1.587    0.370
        84 -11.1847    103.8238    229.8535   1.3241380884e+02   1.3234803591e+01    0.2551889    0.1680422  71.20 0.0006403123    1.522    0.343
        85  -9.4085     58.5951    230.5871   1.4107096415e+02   1.9859055021e+01    0.1232757   0.08903551  73.15 0.0002425928    1.091    0.083
        86 -10.1008    129.1578    228.3758   1.2720677258e+02   9.2277720591e+00    0.1907993    0.1459954  54.61 0.0002692976    1.121    0.108
        87 -10.1459    118.8068    222.0770   1.2843096784e+02   1.2246375782e+01    0.1802867    0.1590443  84.50 0.0004558726    1.117    0.105
        88 -10.1664    125.4726    229.0014   1.2802722228e+02   9.7507099373e+00    0.2321223     0.196874 -24.17  0.001376825    1.700    0.412
        89 -11.9227    124.1641    224.7711   1.2771509079e+02   1.0789761848e+01    0.5390654    0.2210875  46.04  0.002318654    2.109    0.526
        90 -10.7983    125.4911    221.0137   1.2692385315e+02   1.1290483516e+01    0.3169366    0.1832043  71.33  0.001108731    2.372    0.578
        91 -12.6943     83.6695    237.5078   1.3711284831e+02   1.4911614029e+01    0.8231354    0.3961702  82.28  0.003487514    3.217    0.689
        92 -11.8380    162.6957    219.9053   1.1915083850e+02   4.7410349953e+00    0.7307199    0.2935564 -56.29  0.002353773    3.425    0.708
        93 -10.8859    183.8716    232.3221   1.1693652803e+02  -1.2425387220e+00    0.3731185    0.1956255  27.13   0.00130545    2.312    0.567
        94 -12.9079    106.3006    224.1428   1.3122011375e+02   1.3953959996e+01    0.5807381    0.3216014  61.67  0.001359708    1.841    0.457
        95 -10.8194    114.9252    223.1309   1.2935756614e+02   1.2704118560e+01    0.2147067    0.1699493  50.72   0.00027578    1.139    0.122
        96 -10.7819    172.2222    226.1070   1.1823315623e+02   1.8916992276e+00    0.3774335    0.1732388  50.79  0.001609216    2.214    0.548
        97 -10.1292    224.9586    225.1104   1.0784842206e+02  -7.2259324884e+00    0.1749971     0.159654  31.72 0.0003524317    1.224    0.183
        98  -9.9450    250.1750    223.6165   1.0300689112e+02  -1.1029506739e+01    0.1738565   0.09946586  26.53 0.0006332576    1.669    0.401
        99  -9.6370    216.7138    223.2990   1.0907447572e+02  -5.5661595720e+00    0.1153144    0.1029933  70.95  0.000271661    1.553    0.356
       100  -9.9044     49.7714    223.2457   1.4203581349e+02   2.2504495934e+01    0.1386068    0.1124917 -85.67 0.0003161973    1.210    0.173
       101  -9.8347    180.9607    222.0477   1.1582177123e+02   9.9486203499e-01    0.1620988    0.1396207  37.70  0.000334423    1.024    0.024
       102 -12.2476    128.8133    209.0925   1.2448327567e+02   1.3086682181e+01    0.5883148    0.3949075 -67.01  0.001226954    1.654    0.395
       103 -10.6551    124.4900    216.0784   1.2642602130e+02   1.2446755733e+01     0.328009    0.2052004  36.74  0.001251633    1.646    0.392
       104  -9.9009    128.4383    217.6078   1.2583162721e+02   1.1440167042e+01    0.1884914    0.1716646 -68.69 1.142094e-05    1.212    0.175
       105 -10.2122    131.3309    221.2160   1.2576040691e+02   1.0216872187e+01     0.235125    0.1626015 -63.93 0.0007407226    1.609    0.379
       106 -10.9922    133.5617    218.5387   1.2491220245e+02   1.0339215546e+01    0.5483941    0.2598143  59.46  0.001686862    2.673    0.626
       107 -10.2023     53.4906    220.4975   1.4109615611e+02   2.2585409636e+01    0.1951531   0.09845974 -86.23 0.0007861065    1.999    0.500
       108 -11.4061    195.2317    206.0680   1.1014295439e+02   1.1209445461e+00    0.4051691    0.2958096   4.26  0.001897703    1.728    0.421
       109 -11.6497    197.2003    219.3197   1.1213663748e+02  -1.5012592531e+00    0.4461993     0.285399  43.23  0.001153447    1.433    0.302
       110 -11.9176    192.9810    213.6026   1.1196068804e+02   2.3202329035e-01    0.4711972    0.2428139 -52.95            0    2.537    0.606
       111 -10.0899    140.2102    218.4713   1.2353309082e+02   9.1488212700e+00    0.2596834    0.1664323  77.09  0.001190824    2.218    0.549
       112 -11.7508    176.7553    216.2422   1.1568460346e+02   2.7860317722e+00     0.335771    0.2235552  33.58 0.0004775058    1.444    0.307
       113 -11.1601    229.6260    216.0714   1.0534724903e+02  -6.6568535507e+00    0.3519475    0.2470963   5.84  0.001475929    1.541    0.351
       114 -10.5032    230.0865    211.4664   1.0440819496e+02  -6.0322971072e+00    0.2411488    0.2022209  23.90 0.0006318063    1.093    0.085
       115 -10.3400    218.0045    217.0342   1.0770577401e+02  -4.8216427090e+00    0.2171061    0.1483634   3.47  0.001128745    1.759    0.431
       116 -12.3042    106.9277    215.5858   1.2998277626e+02   1.5582241693e+01    0.6914308    0.4340928  36.70  0.001979122    1.702    0.413
       117 -10.7559    112.4206    214.2187   1.2866358396e+02   1.4930275838e+01    0.2463994    0.1320327 -62.54 0.0005990706    2.002    0.501
       118 -10.9949     98.6793    214.2710   1.3150408240e+02   1.7221740002e+01    0.2319875    0.1655809  80.77 0.0002532022    1.401    0.286
       119 -12.0138     95.6307    211.8026   1.3181331697e+02   1.8234328906e+01    0.3197517    0.2919742  23.34 0.0008181883    1.476    0.323
       120 -11.0390    145.9896    215.0849   1.2181481439e+02   8.7423765589e+00    0.2302554    0.1907356 -59.68 0.0004419592    1.333    0.250
       121 -11.2962    217.0347    212.8930   1.0713292389e+02  -3.9985334944e+00    0.2840526    0.2226756  18.15  0.000950793    1.213    0.176
       122 -11.7157    214.9420    208.9328   1.0679989643e+02  -2.9878930617e+00    0.2896225    0.2525819  52.96  0.001005966    1.335    0.251
       123 -10.9402    201.7702    226.4625   1.1248446064e+02  -3.4672034342e+00    0.2647685    0.2525469 -77.80  0.001503938    1.351    0.260
       124 -11.4190    237.7319    209.8894   1.0270435042e+02  -7.0757327387e+00    0.3496519    0.2214336 -30.36  0.000948648    1.564    0.361
       125 -10.3166    116.8402    217.1304   1.2815393261e+02   1.3574996865e+01    0.2848423   0.09938775 -62.42  0.001020328    3.584    0.721
       126 -11.4982    103.6058    208.2176   1.2967659126e+02   1.7678697169e+01    0.4340151    0.2657914 -54.31  0.002213788    1.778    0.438
       127 -12.2535     99.2955    205.2840   1.3018356149e+02   1.9021816027e+01    0.3982552     0.233713  51.35 0.0002555048    1.555    0.357
       128  -9.9479    183.2248    209.9016   1.1326476896e+02   2.7047374385e+00    0.3779293    0.1383375  45.81  0.001092509    2.564    0.610
       129 -10.0980    151.2765    210.0027   1.1989294590e+02   8.7422051639e+00    0.1815996    0.1704569  76.60 0.0002891503    1.093    0.085
       130 -11.1131     89.8706    195.8833   1.3091130678e+02   2.2606460830e+01    0.3717163    0.1751724 -68.84  0.001008013    2.257    0.557
       131 -10.3565     91.4230    208.4736   1.3225656357e+02   1.9615776960e+01    0.2091936    0.1709002 -76.19 0.0001103671    1.203    0.169
       132 -11.7367     89.8770    202.8519   1.3184954176e+02   2.1073617627e+01    0.5273014    0.3981856 -46.63  0.002957411    1.675    0.403
       133  -9.4986    226.6944    206.3145   1.0407183002e+02  -4.6426636924e+00    0.1204727    0.1081658  87.21 0.0007025299    1.623    0.384
       134 -11.2990    199.8248    204.8759   1.0900333794e+02   4.6726716675e-01    0.2509212    0.2307592 -64.99 0.0004202781    1.320    0.243
       135 -12.1228    199.2612    185.5069   1.0536150635e+02   4.0720871359e+00    0.4495572     0.317263   8.36 0.0002819202    1.895    0.472
       136 -11.2622    189.8984    186.8817   1.0755612906e+02   5.6763048420e+00    0.4486724      0.26533  31.79  0.001402783    1.846    0.458
       137 -12.2339    183.2741    204.3018   1.1224432356e+02   3.7108672915e+00    0.2819785    0.2480356 -39.98 0.0002633677    1.232    0.188
       138 -11.3979    184.1058    199.9484   1.1126972916e+02   4.3540869554e+00    0.3483323    0.1960908 -38.40 0.0007358125    1.965    0.491
       139 -11.9250    188.5678    196.1071   1.0962637067e+02   4.2001515439e+00    0.2944027    0.2721494  19.21 0.0004161989    1.054    0.051
       140 -11.5694    188.7275    191.0475   1.0861775974e+02   5.1176988004e+00    0.2871091    0.2500288 -38.28 0.0009343001    1.207    0.171
       141 -11.1303    144.8287    205.9097   1.2057959656e+02   1.0767053600e+01    0.2156216    0.1993968 -58.50 0.0003114419    1.186    0.157
       142 -10.4320    146.2540    202.6444   1.1973112992e+02   1.1155325380e+01    0.2110451    0.1864111  69.03 0.0003302902    1.109    0.098
       143 -11.5005    111.9653    205.1492   1.2747315598e+02   1.6903255929e+01    0.3246958    0.2547995  77.35  0.001004747    1.243    0.195
       144 -11.2267    116.2216    204.9669   1.2653795060e+02   1.6197534350e+01    0.2993422    0.1814759  44.87 0.0005921928    1.525    0.344
       145  -9.3219    235.2906    203.2824   1.0189523084e+02  -5.6476659375e+00    0.1310877   0.09325245   4.79 0.0002283387    1.530    0.347
       146 -11.9943    120.6173    200.4164   1.2489983367e+02   1.6380734359e+01    0.6889135    0.4202974  60.95  0.002578308    1.726    0.421
       147 -11.3109    208.6874    199.3132   1.0619405825e+02  -2.2581745231e-01    0.2537239     0.171699 -57.15 0.0008973442    1.977    0.494
       148 -11.7038    205.0976    197.8574   1.0662260949e+02   7.0313289200e-01    0.3369711    0.2194058  34.01 0.0007158915    1.488    0.328
       149 -11.6127    169.9762    198.8139   1.1400772957e+02   7.3250549471e+00    0.4384493     0.285781 -56.72  0.001374651    1.784    0.439
       150 -10.0305    166.9040    201.9080   1.1521450833e+02   7.3243575958e+00    0.1810625    0.1582343  70.88  0.001006274    1.236    0.191
       151 -11.8751    248.9254    185.3405   9.5908439347e+01  -5.1336552455e+00    0.5279472    0.2679562 -43.72  0.002458409    2.064    0.515
       152 -12.3150    241.5526    200.2964   1.0017725660e+02  -6.2438558508e+00     0.361073    0.3170222  -9.68  0.001342935    1.064    0.060
       153 -12.1240    247.0307    199.9018   9.9118233433e+01  -7.0959400320e+00    0.2950523    0.2576461  -8.41 0.0003813182    1.056    0.053
       154 -11.8013    250.6029    194.9522   9.7521430583e+01  -6.9252990019e+00    0.2394934    0.1591264 -34.77  0.001327543    1.445    0.308
       155 -12.9856    246.1141    190.7600   9.7487843671e+01  -5.5183185822e+00    0.3831812    0.2908359  48.58 0.0005150171    1.549    0.354
       156 -10.8866    161.0759    199.6281   1.1604119463e+02   8.9033530615e+00     0.306335    0.2010554 -43.21 0.0004580988    1.682    0.406
       157  -9.8950    102.5070    193.0208   1.2773305618e+02   2.1163586974e+01    0.1909961    0.1313466 -63.83 0.0004177821    1.449    0.310
       158 -12.0663    100.0334    199.1788   1.2917383646e+02   2.0222296680e+01    0.4349471    0.2577161  47.15  0.001050337    1.569    0.363
       159 -12.0351    113.7820    194.8383   1.2552400008e+02   1.8806697758e+01    0.4496909    0.4002206  -7.23  0.001653462    1.564    0.361
       160 -11.9455    107.9003    196.2841   1.2703795919e+02   1.9519928523e+01    0.5560265    0.3997929  68.76  0.001298924    1.393    0.282
       161 -11.8725    138.8267    197.9431   1.2054046667e+02   1.3533428808e+01    0.3338556    0.2900375 -34.44  0.001859155    1.380    0.275
       162 -11.9624    215.0255    195.5155   1.0421844228e+02  -7.5271679990e-01    0.4507401    0.2752447  -7.00  0.001883479    2.640    0.621
       163 -10.2582    193.4750    194.1733   1.0824965873e+02   3.6009816201e+00    0.2565303     0.138568 -37.44  0.000942748    2.007    0.502
       164 -12.5956    154.7295    192.3548   1.1609601348e+02   1.1614075138e+01     0.292238    0.2729733  81.02 0.0003608852    1.092    0.084
       165 -11.3955    149.3363    191.1765   1.1706047607e+02   1.2918500330e+01    0.2784562    0.2353902  85.15 0.0007056519    1.298    0.229
       166 -11.2497    233.7672    193.7841   1.0032583041e+02  -3.8644072152e+00    0.2202021    0.2093793 -15.73 0.0003158276    1.164    0.141
       167 -10.3137    222.0020    193.4898   1.0247701525e+02  -1.6963481536e+00    0.1991509    0.1286201  39.24 -0.0001481959    1.501    0.334
       168 -11.1664    209.2521    191.8701   1.0463120237e+02   9.7164364754e-01    0.2818865    0.1906993 -51.26  0.001389239    1.729    0.422
       169 -11.4896    165.1268    192.1066   1.1380134943e+02   9.6057125111e+00    0.5548887    0.2607864  32.35  0.002036273    2.678    0.627
       170 -11.3114    163.8676    188.6288   1.1341900346e+02   1.0560058713e+01    0.3525317    0.2760045  32.83  0.001196392    1.308    0.236
       171 -11.5504    140.0238    194.2600   1.1964943250e+02   1.4077512496e+01    0.2458714    0.1985026  47.28 0.0002676139    1.159    0.137
       172 -10.7012    177.9293    189.4698   1.1056938800e+02   7.5722133780e+00    0.2527334    0.2041772 -68.22 0.0006295822    1.488    0.328
       173 -10.6775    120.5620    189.2272   1.2311255735e+02   1.8817089187e+01    0.2720729    0.1390064 -62.44  0.001134001    2.153    0.535
       174 -11.1550     82.0824    189.4320   1.3172431214e+02   2.5270517470e+01    0.2932441    0.2068385 -53.81 0.0006093474    1.544    0.353
       175 -10.6162     86.7386    191.4438   1.3097899925e+02   2.4094130038e+01    0.1701534    0.1308573  33.92 0.0006831122    1.539    0.350
       176 -10.3108    115.8760    188.6133   1.2406250962e+02   1.9803992901e+01    0.2304528     0.184109 -54.10 0.0008627142    1.335    0.251
       177 -11.7397    106.7146    188.0278   1.2602705010e+02   2.1555913816e+01    0.5640841    0.2626416  46.04  0.002388732    2.032    0.508
       178 -11.0212     91.8302    188.1598   1.2938214981e+02   2.4023344581e+01    0.3230593    0.1989368 -68.26 0.0003406221    1.596    0.373
       179 -10.5736     88.4181    183.9119   1.2952261452e+02   2.5537081435e+01    0.3657328    0.1845526  72.53  0.001316152    3.346    0.701
       180 -12.3053     92.7101    180.3929   1.2801265041e+02   2.5653038864e+01    0.4853705    0.3382711 -41.17  0.001430536    1.836    0.455
       181  -9.7709     58.5034    187.5139   1.3661480825e+02   2.9071705504e+01    0.1308344    0.1075743  86.81 -0.0001311952    1.006    0.006
       182 -10.4248    175.4774    184.4679   1.1011452185e+02   9.0566299874e+00    0.2971985     0.210901 -31.16 0.0007732597    1.627    0.385
       183 -10.6221    139.9810    184.5136   1.1792733353e+02   1.6167946181e+01    0.2135816    0.2025751 -79.59 0.0006445171    1.077    0.071
       184 -10.1859    225.4769    183.9995   9.9913559127e+01  -7.1428758909e-01    0.2962255    0.1659064  11.91  0.001045962    3.586    0.721
       185 -12.1757    122.5371    182.7849   1.2157040285e+02   1.9881539571e+01    0.4145913     0.269264  66.43 0.0005760014    1.776    0.437
       186 -11.0703    118.3176    178.2876   1.2175320239e+02   2.1675599834e+01    0.3017815    0.2314249  18.03  0.001467104    1.807    0.447
       187  -9.8875     51.8142    184.1260   1.3765394853e+02   3.0701590031e+01     0.166401    0.1285724 -63.05 0.0003559706    1.325    0.246
       188 -10.1283    238.1422    183.3554   9.7434329317e+01  -2.9226408573e+00    0.1791836    0.1252624  50.57 0.0003674607    1.655    0.396
       189 -11.8213    107.8983    180.2901   1.2450280025e+02   2.3099072605e+01    0.3431672     0.256382 -51.19 0.0002021031    1.428    0.300
       190 -11.7241    103.4710    182.4390   1.2587115958e+02   2.3380004772e+01    0.3131638    0.2550842  56.88  0.001334915    1.164    0.141
       191 -12.0148    104.1287    178.3235   1.2504699244e+02   2.4207601817e+01    0.3033459    0.2776032 -74.50  0.000385288    1.106    0.096
       192 -10.8861     49.9956    170.3616   1.3637783111e+02   3.4084508259e+01    0.2484219    0.1828836  55.87 0.0007247684    1.362    0.266
       193 -11.9279     56.9073    168.1647   1.3450181318e+02   3.3732585712e+01    0.4897468    0.3333169  63.35  0.002725924    1.482    0.325
       194 -11.2879     52.6819    166.9097   1.3531198781e+02   3.4557460404e+01    0.3675413    0.2134383 -73.73  0.001173789    1.536    0.349
       195 -11.4581     60.8539    180.9077   1.3528533090e+02   3.0264389906e+01    0.4159551    0.2508965 -46.68  0.001213252    2.074    0.518
       196 -11.7722     55.4873    180.8198   1.3645852383e+02   3.0987939999e+01      0.36112    0.2131053  45.54  0.001530382    1.702    0.413
       197  -9.7781    212.8206    182.6335   1.0207239269e+02   1.9384340051e+00    0.1918445    0.1302592  52.53 0.0004582159    1.631    0.387
       198 -11.1596    129.0448    181.0566   1.1977892954e+02   1.9039640980e+01    0.4180011    0.2399381 -88.24  0.001406485    3.615    0.723
       199 -10.5749    230.0905    180.1786   9.8266638877e+01  -9.1411128564e-01    0.2509367    0.1784606 -62.05 0.0007102169    2.039    0.509
       200 -10.0943    220.4601    181.2963   1.0031664221e+02   7.0617444900e-01    0.1880673     0.132255 -48.21 0.0009398469    1.563    0.360
       201  -9.8060    155.8342    181.6678   1.1385052924e+02   1.3621839192e+01    0.3125625    0.1323145  37.03  0.001101084    2.606    0.616
       202 -10.5041     47.8218    179.4595   1.3797325244e+02   3.2256117182e+01    0.4165066    0.1456017 -66.78   0.00177054    2.456    0.593
       203 -10.5082    190.0960    180.1625   1.0616346732e+02   6.9312001475e+00    0.3026303    0.1861604  58.49 0.0007447818    1.975    0.494
       204 -12.3987     76.6186    173.8665   1.3073682053e+02   2.9674651711e+01    0.2940992    0.2293823 -87.29 0.0003132161    1.182    0.154
       205 -10.1895     42.4883    179.1250   1.3909249626e+02   3.2965601571e+01    0.1908301    0.1696753 -52.17  0.001274591    1.426    0.299
       206 -11.7219    136.3425    176.5811   1.1728277887e+02   1.8619796724e+01    0.3286913     0.255244 -48.80 0.0008758134    1.354    0.262
       207 -11.4624     66.4238    176.5059   1.3345447506e+02   3.0522006110e+01     0.450402    0.2659505  22.55   0.00208404    2.640    0.621
       208 -10.8256     65.0074    173.3257   1.3334079531e+02   3.1455717205e+01    0.2321791    0.1641966 -70.47 0.0006077501    1.260    0.206
       209 -10.8466    177.2328    175.7155   1.0797843882e+02   1.0462701493e+01    0.3144021    0.2608503  -1.32  0.001164654    1.462    0.316
       210 -10.5244    129.7638    175.7571   1.1864539303e+02   2.0085216111e+01    0.2059484    0.1653568  82.25 0.0005327744    1.351    0.260
       211 -10.9502    203.7287    174.3555   1.0216694737e+02   5.2756505627e+00    0.2528054    0.2225391 -28.36 0.0006035906    1.139    0.122
       212 -10.6739    194.9581    174.9322   1.0407654911e+02   6.9541313197e+00    0.2516082     0.209546 -39.15 0.0006241794    1.224    0.183
       213 -11.2507    167.1238    174.7970   1.0999239878e+02   1.2751981339e+01    0.2270848    0.2023626  70.92 0.0005354587    1.183    0.154
       214 -11.7215     56.7866    176.7121   1.3565576067e+02   3.1764096735e+01    0.6390834    0.3551899  69.83  0.003077233    2.058    0.514
       215 -10.0146    189.9548    174.5061   1.0502728548e+02   8.0679751739e+00    0.2250162    0.1424588  45.21 0.0004720672    1.543    0.352
       216 -10.7373    236.7004    173.1077   9.5587630634e+01  -9.2297909930e-01    0.3128652    0.1750616  51.94  0.001395329    2.110    0.526
       217 -11.6643    172.8652    172.3954   1.0824136201e+02   1.2055034010e+01     0.362198    0.2661801 -12.36  0.001626928    1.911    0.477
       218 -11.3972    170.3017    168.7213   1.0803837193e+02   1.3360332606e+01    0.2757298    0.2373779  39.65 0.0004215832    1.147    0.128
       219 -11.3166    156.4676    172.4340   1.1188748796e+02   1.5462160976e+01    0.2975917    0.2525082  82.33 0.0007576374    1.312    0.238
       220  -9.9980    144.5222    173.4682   1.1480797689e+02   1.7678122085e+01    0.1503844    0.1417316  69.48 0.0003252066    1.009    0.009
       221 -12.1590     88.0141    171.0038   1.2762355530e+02   2.8591227952e+01    0.6112794    0.3073418 -81.40  0.002225886    3.122    0.680
       222 -11.3326     31.1474    169.8441   1.4052931162e+02   3.6325333626e+01    0.2398958     0.187009  39.01 0.0003231999    1.529    0.346
       223 -10.4687     24.5614    171.9535   1.4218051040e+02   3.6513357016e+01    0.1920066    0.1730301  -5.97  0.001347671    1.673    0.402
       224 -10.8660    139.8819    171.4041   1.1547217282e+02   1.9068109474e+01    0.2934456    0.1875148  29.97   0.00125698    1.905    0.475
       225 -10.9687     19.6054    169.5673   1.4300088161e+02   3.7525158532e+01    0.2518088    0.2056031 -79.39  0.001767652    1.128    0.114
       226  -9.7934     23.8084    167.3753   1.4186986337e+02   3.7620005528e+01    0.1580058    0.1164461  42.98 0.0004983543    1.544    0.352
       227 -10.3079    232.2532    170.3998   9.5832586449e+01   3.8272394967e-01    0.1883164    0.1338103  54.73 0.0006657743    1.659    0.397
       228 -10.1415     13.0742    169.4457   1.4437383765e+02   3.8144491266e+01    0.1482153    0.1118553  42.58 0.0005845432    1.553    0.356
       229 -10.2126      7.5017    169.4139   1.4553376671e+02   3.8628833146e+01    0.1934466    0.1136417 -82.18 0.0005686225    1.317    0.241
       230 -10.5752      3.5045    167.4819   1.4619251650e+02   3.9379433517e+01    0.2247213    0.1606813 -51.22  0.001364192    1.657    0.396
       231 -11.6361      8.1615    165.9325   1.4508424815e+02   3.9343145269e+01      0.33252    0.2368788 -34.68  0.001755284    2.093    0.522
       232 -10.2638    217.1114    167.3050   9.8029741475e+01   3.8981320352e+00    0.2387286    0.1847246 -27.95 0.0005587349    1.298    0.229
       233 -10.8020    193.6792    168.1171   1.0290275326e+02   8.5556393306e+00    0.2658889    0.2055553  43.66 0.0007112753    1.275    0.216
       234 -11.1483    195.6146    164.4085   1.0170410959e+02   8.8833125827e+00    0.2860821    0.2420802  72.95 0.0005901128    1.396    0.283
       235 -11.5626    186.2946    165.9135   1.0398108373e+02   1.0552814478e+01    0.3674764    0.2466256 -52.31  0.001369996    1.606    0.377
       236 -10.2585    113.5463    168.0759   1.2103884530e+02   2.4894853163e+01    0.2341999    0.1841812  48.57 0.0007839007    1.256    0.204
       237 -11.4574     40.6762    166.3267   1.3799283098e+02   3.6105810473e+01    0.2245906    0.1910123 -65.33 0.0006895301    1.226    0.184
       238 -11.0669    138.6727    165.7920   1.1464059447e+02   2.0567612639e+01    0.3549036    0.1803151  30.58  0.001260275    2.743    0.635
       239 -11.1255    124.1349    164.1034   1.1775295888e+02   2.3822643336e+01    0.4000811     0.207826 -56.17  0.001281115    1.957    0.489
       240 -10.9246     73.6734    165.3175   1.3013663966e+02   3.2112949755e+01    0.2356925      0.20197 -69.30 0.0002410312    1.113    0.102
       241  -9.8931     36.0257    165.4805   1.3894513007e+02   3.6809820712e+01    0.1571476    0.1196728  45.21 1.513524e-05    1.459    0.314
       242 -10.2842    104.9374    164.0182   1.2236727695e+02   2.7389281363e+01    0.2184267    0.1987359  88.56 0.0003493963    1.013    0.013
       243 -11.1176    100.7355    163.3553   1.2326738068e+02   2.8277750939e+01    0.2468352    0.1902432  86.90 0.0005811122    1.380    0.275
       244 -11.1712     99.3068    160.6830   1.2313304645e+02   2.9153229409e+01    0.3416841    0.2251431 -72.79  0.001603323    1.612    0.380
       245 -11.8993     37.2981    172.2082   1.3944160393e+02   3.5129061272e+01    0.2750354    0.2206066  64.32 0.0004991282    1.229    0.186
       246 -11.1787    179.1713    162.8322   1.0484425962e+02   1.2703169851e+01     0.314858    0.2182092  12.91 0.0006187176    2.167    0.538
       247 -11.2598    183.7883    155.2223   1.0217549342e+02   1.3282262100e+01    0.3073616    0.2142538  -6.15  0.001248837    2.263    0.558
       248 -11.9035     18.9915    160.6373   1.4222080260e+02   3.9593875666e+01    0.3307704     0.271197 -55.05  0.001280755    1.384    0.277
       249 -11.1955    225.1925    161.6877   9.5284576906e+01   3.3178053518e+00    0.3254358    0.2418001  65.93 0.0008419665    1.761    0.432
       250 -10.4085    169.0228    162.0062   1.0689473939e+02   1.5052262559e+01    0.1844822    0.1777616  53.37 0.0003621753    1.015    0.015
       251 -10.6721    132.7673    162.4115   1.1535523239e+02   2.2518124051e+01    0.2911434    0.1397766  47.75  0.001117364    2.070    0.517
       252 -10.4899     94.9560    161.7406   1.2438833960e+02   2.9639302616e+01    0.1974681    0.1777136  58.21 0.0004400481    1.131    0.116
       253 -10.7950     50.2582    161.7868   1.3518878300e+02   3.6050062202e+01     0.404153    0.1218899  38.46  0.001595346    3.294    0.696
       254 -10.3205     25.4310    161.9125   1.4092168754e+02   3.8704315022e+01    0.1895426    0.1443798  62.57 0.0003536469    1.323    0.244
       255 -10.9307    160.3235    161.1088   1.0865856850e+02   1.7103953789e+01    0.2683267    0.2060277  36.61 0.0006084487    1.349    0.259
       256 -10.6452    196.6444    159.8681   1.0050107054e+02   9.5665184041e+00    0.2266406    0.2010722  41.51  0.000615127    1.124    0.110
       257 -11.4248    192.6844    159.5569   1.0125375415e+02   1.0474671494e+01    0.2874665      0.25295   7.77  0.000497656    1.252    0.201
       258 -11.5708    107.2247    157.2866   1.2054847513e+02   2.8564862865e+01    0.4600597    0.2530409 -64.73  0.001046395    1.960    0.490
       259 -12.3181     34.7096    158.4586   1.3839780341e+02   3.8568566092e+01    0.2726739    0.2044986  56.82 0.0002872832    1.386    0.279
       260 -10.5104     37.9969    154.5733   1.3713065793e+02   3.9123920943e+01    0.2560853    0.1571422 -79.38  0.001180713    1.446    0.308
       261  -9.8727    213.5398    157.9480   9.6693120079e+01   6.3839920669e+00    0.2039811    0.1270507 -15.68 0.0004788574    2.377    0.579
       262 -13.4705    137.0160    156.1534   1.1304898615e+02   2.3087520550e+01    0.5114979     0.488282  52.20   0.00179706    1.070    0.066
       263  -9.9167     66.4773    158.4588   1.3081106170e+02   3.4749534832e+01    0.1366254    0.1183807 -81.57 0.0001262881    1.009    0.009
       264 -10.9622    156.2313    156.3929   1.0857759370e+02   1.9008509244e+01    0.2448794    0.1826199 -53.95 0.0007579345    1.375    0.273
       265 -11.8964    146.0620    155.1022   1.1067205028e+02   2.1451293219e+01     0.374512    0.3417203   2.96  0.001363439    1.289    0.224
       266 -10.2494     92.7687    156.2351   1.2393974750e+02   3.1306960065e+01    0.2168145    0.1809119  76.81 0.0007830868    1.198    0.165
       267  -9.3093      7.5127    156.5119   1.4433677737e+02   4.1490094561e+01    0.1182726   0.08924452 -75.01 0.0008085883    1.098    0.089
       268 -11.0834    114.2847    154.8013   1.1831532984e+02   2.7855932249e+01    0.2948865    0.2439388  67.47 0.0007508002    1.234    0.190
       269  -9.9383     85.5654    154.9580   1.2550769907e+02   3.2772764748e+01    0.2123452    0.1292462 -60.06 0.0005192958    1.525    0.344
       270 -10.3825     16.4828    155.0584   1.4218811070e+02   4.1077557493e+01    0.1894913   0.09423705 -71.92  0.001026578    1.575    0.365
       271 -11.1109    236.9894    154.0530   9.1479255745e+01   2.3721781427e+00    0.2164368    0.1961987 -25.99 0.0003531407    1.021    0.020
       272 -10.0702     82.3563    154.0176   1.2614497098e+02   3.3496515413e+01    0.2067886    0.1646401 -63.27  0.000867907    1.162    0.139
       273  -9.8725    226.0142    151.9682   9.3008828210e+01   4.9410170041e+00    0.1730106    0.1634527 -22.66 0.0004350132    1.002    0.002
       274 -10.1000    166.1657    152.1328   1.0536681560e+02   1.7789471213e+01    0.2084092    0.1797966 -86.87            0    1.306    0.235
       275  -9.5356      1.5055    156.9698   1.4568575264e+02   4.1847896511e+01    0.1674193   0.08726849 -75.69  0.000471032    1.446    0.308
       276 -11.6543    247.8842    150.4200   8.8809753008e+01   9.1891267418e-01    0.3561956    0.2721404 -69.49  0.001841235    1.792    0.442
       277 -11.0733     36.3463    146.8742   1.3649853817e+02   4.1089089471e+01    0.4089165    0.2092056 -60.06  0.002114036    1.632    0.387
       278 -10.4920    122.6837    148.8361   1.1500165240e+02   2.7644417141e+01     0.274738    0.1871933  71.88 0.0004715223    1.891    0.471
       279 -11.5087    165.8850    148.0537   1.0450923951e+02   1.8733775543e+01    0.3788345    0.2273303  42.23  0.001423854    1.687    0.407
       280 -10.4088    161.4832    144.9860   1.0481290640e+02   2.0372141746e+01    0.2825063    0.2110485  72.44  0.001081691    1.631    0.387
       281  -9.9101     91.6634    148.2838   1.2273669932e+02   3.3380654629e+01    0.1483435    0.1068836  75.73 0.0002429016    1.624    0.384
       282  -9.8512     51.5306    148.5534   1.3297852341e+02   3.9009905481e+01    0.1334918    0.1113698 -83.75            0    1.061    0.058
       283 -10.5040     10.4607    147.9745   1.4280033193e+02   4.3172210689e+01    0.1864607    0.1508253 -36.57  0.000677784    1.605    0.377
       284  -9.1298    149.3051    147.3140   1.0818853908e+02   2.2509614078e+01    0.1541694    0.1262915  -3.31 0.0007024067    1.620    0.383
       285  -9.8713    195.8990    146.5847   9.7672668520e+01   1.2392316095e+01    0.2111416     0.129744  24.68 0.0008021062    2.380    0.580
       286 -10.7126    132.4677    145.4831   1.1185199080e+02   2.6461498348e+01    0.2681313    0.2406604  75.75 0.0005736446    1.134    0.118
       287 -12.2239    131.3229    140.3019   1.1097682963e+02   2.7887186088e+01    0.5831579    0.4407831  85.12  0.002259742    1.667    0.400
       288 -11.2775     45.9175    139.3254   1.3297998182e+02   4.1831384737e+01    0.2421179    0.2013676 -66.00 0.0009190565    1.065    0.061
       289 -10.8921     49.5137    140.0977   1.3217392497e+02   4.1241352963e+01    0.2765945    0.1668861 -81.63  0.001382384    1.743    0.426
       290  -9.5250     56.4034    145.5174   1.3127584215e+02   3.9134313271e+01    0.2132829    0.1744832 -75.25 0.0005345547    1.057    0.054
       291 -11.0661     52.6810    143.9164   1.3196877868e+02   3.9967379789e+01    0.2131502    0.1808209  62.67 0.0002963874    1.243    0.195
       292 -10.5036    237.5068    145.5162   8.9521512381e+01   3.8037256148e+00    0.1426421    0.1313282 -24.62 6.154585e-06    1.025    0.024
       293 -11.2245     95.9844    145.3090   1.2104842542e+02   3.3366666625e+01    0.1974135     0.185311  72.31 0.0003994132    1.077    0.072
       294 -11.4536    178.0179    149.8573   1.0221725489e+02   1.5668925500e+01     0.260579    0.2252239 -36.48 0.0002599011    1.188    0.158
       295 -11.6262    219.7388    143.1461   9.2202752721e+01   7.8992497146e+00    0.3107266    0.2412315  52.91 0.0006226851    1.373    0.271
       296 -11.1773     85.3911    144.0439   1.2354287411e+02   3.5401482717e+01    0.2735316    0.1956387  49.98 0.0003963471    1.464    0.317
       297 -10.0882     22.3065    144.6706   1.3962745639e+02   4.2937730040e+01    0.1256281   0.07970971  77.20 0.0003714956    1.657    0.397
       298 -10.7166    225.6975    143.0118   9.1071384210e+01   6.6718213209e+00    0.2289199    0.2077278  44.82 0.0003439479    1.162    0.139
       299 -10.5992    177.2759    143.6229   1.0094718258e+02   1.7149519637e+01     0.223051    0.1453047  38.29 0.0009475783    1.634    0.388
       300 -10.6552    123.9598    142.9203   1.1340502215e+02   2.8768889027e+01    0.2612678    0.2130224 -53.91 0.0006079515    1.203    0.169
       301 -10.2736     14.5143    143.5493   1.4135764803e+02   4.3850242696e+01      0.12121   0.09375851 -81.56 -0.0001583659    1.045    0.043
       302 -10.4434      5.2201    143.1186   1.4349374298e+02   4.4656033960e+01    0.1727499    0.1265366 -65.80 0.0006516845    1.178    0.151
       303 -12.0415    103.3233    149.5594   1.2001664982e+02   3.1086208665e+01    0.4053884    0.2908665  34.83  0.001931619    1.549    0.354
       304 -10.1046    162.1314    140.8141   1.0369601811e+02   2.1139834564e+01    0.2173022    0.1855559  21.12  0.001050601    1.351    0.260
       305 -10.9675     62.7710    140.8437   1.2885456517e+02   3.9430185876e+01    0.1949777    0.1866547 -13.97 0.0002854803    1.276    0.217
       306  -9.4653    112.2851    139.6853   1.1567060504e+02   3.1780990750e+01    0.1520431    0.1159172  86.53 0.0002846736    1.581    0.368
       307 -12.5066     38.8374    136.8318   1.3442246782e+02   4.3174764755e+01    0.5094476    0.4165178 -46.68  0.001792146    1.307    0.235
       308 -11.2409    181.3508    137.2479   9.8563010146e+01   1.7570662094e+01    0.3728613    0.2868536  54.78  0.001157195    1.331    0.248
       309 -11.0394    169.0326    137.9863   1.0145732465e+02   2.0204884977e+01    0.2316417    0.2296738  62.15 0.0003282611    1.026    0.025
       310 -10.1652    157.3092    136.6663   1.0383788583e+02   2.3121980102e+01    0.1625776    0.1247527 -87.09 0.0007042435    1.674    0.403
       311  -9.8952    103.3794    135.7739   1.1714217755e+02   3.4335304681e+01    0.2233866    0.1308729 -45.59  0.000959868    1.718    0.418
       312 -11.7265      8.4571    134.5060   1.4175940500e+02   4.6353718017e+01    0.2386802     0.237701 -19.82 -7.893733e-06    1.344    0.256
       313 -10.0811    221.1122    134.8797   9.0062422000e+01   9.1736196077e+00    0.1950531     0.172233   9.72 0.0003569904    1.273    0.215
       314  -9.6700    195.6490    135.3257   9.5102615531e+01   1.4722918758e+01    0.1611369    0.1224618 -82.97 0.0002302609    1.759    0.431
       315 -10.5696     77.2384    134.7327   1.2389188590e+02   3.8863930157e+01     0.267823    0.2013506  74.50  0.001385088    1.540    0.351
       316 -11.4443     23.8791    135.1911   1.3801025835e+02   4.4974635884e+01    0.1891658    0.1875653  89.02  0.001115945    1.279    0.218
       317 -10.5909     21.6174    130.7189   1.3797431744e+02   4.6191184398e+01    0.2621263    0.1648962  82.65  0.001437439    1.749    0.428
       318 -10.2595    213.6510    133.5058   9.1134651667e+01   1.1060879537e+01    0.2498452    0.1371353 -39.95 0.0002300815    1.755    0.430
       319 -12.1774    143.8435    132.9119   1.0616303486e+02   2.6919342881e+01    0.2982654    0.2872896  61.44 0.0003860671    1.038    0.037
       320 -10.6370    147.2386    130.3465   1.0471985066e+02   2.6749706179e+01    0.2644058    0.2196973  32.86 0.0006682425    1.307    0.235
       321 -10.9568     59.4871    133.3412   1.2839901842e+02   4.1629714605e+01    0.2168505    0.2126987 -43.16 0.0005564494    1.183    0.155
       322  -9.4793    243.2521    133.3237   8.5847375377e+01   4.8443288271e+00    0.1377025    0.1070433  -9.34 0.0002604475    1.541    0.351
       323 -10.1558     16.0837    132.4583   1.3961464054e+02   4.6242874518e+01    0.1442695    0.1217088  28.44 0.0003728778    1.517    0.341
       324 -11.0158     34.2837    129.7126   1.3452052974e+02   4.5284003426e+01    0.3399846    0.1684006 -36.74  0.001521987    2.813    0.645
       325  -9.7459    199.5559    130.5141   9.3170527438e+01   1.4803501476e+01    0.1526161    0.1476103 -17.88 0.0001762168    1.069    0.065
       326 -10.5567    162.1533    130.1751   1.0114894553e+02   2.3447489500e+01    0.2266297     0.213823  10.93 0.0003471002    1.165    0.141
       327 -11.1147    122.4115    129.2425   1.1068169699e+02   3.2239633070e+01    0.3039834     0.240772 -16.73 0.0007341788    1.647    0.393
       328  -9.4678     86.5058    129.5605   1.2032862984e+02   3.8661349360e+01    0.1433085    0.1325724 -64.14 0.0001005347    1.017    0.017
       329 -11.6695     61.8350    128.2350   1.2681833624e+02   4.2533504860e+01    0.2911501    0.1692361 -56.19 0.0008978873    1.497    0.332
       330  -9.6943    247.6600    128.7172   8.4108987360e+01   4.7801839382e+00    0.1377465    0.1085704   5.97 0.0003760589    1.630    0.386
       331 -10.2230     51.0261    128.4779   1.2981721484e+02   4.3797468433e+01    0.1765977    0.1341791  29.87  0.001019912    1.562    0.360
       332 -10.4475     16.9869    128.2766   1.3883170704e+02   4.7120961041e+01    0.1593463    0.1417159 -72.38  0.001139618    1.142    0.125
       333 -12.3228    206.6413    124.8306   9.0424383921e+01   1.4314740787e+01    0.3229345    0.3004793 -47.08 0.0002842057    1.039    0.037
       334 -10.3409    191.3039    125.6812   9.3679704216e+01   1.7668230352e+01    0.1586097    0.1222865 -78.66 0.0002716153    1.628    0.386
       335 -11.0896    125.9114    124.3390   1.0859894533e+02   3.2647972627e+01    0.4687578    0.2623675  58.02 0.0008195412    2.205    0.547
       336 -10.1105     55.1127    124.8336   1.2803107912e+02   4.4167992467e+01    0.1801982    0.1402666 -44.74 0.0004329981    1.279    0.218
       337 -10.5654     90.4828    123.9286   1.1801029281e+02   3.9335880895e+01    0.3041717    0.1957267  52.67   0.00102985    1.754    0.430
       338 -11.7760     67.6417    122.0471   1.2398221039e+02   4.3215295080e+01    0.4447197    0.3222361 -88.93   0.00229224    1.668    0.401
       339 -12.8706     14.2433    122.4789   1.3875235256e+02   4.8639226986e+01    0.2693539    0.2411548 -46.37 0.0006218489    1.263    0.209
       340 -12.3419     20.5047    117.5298   1.3634882234e+02   4.9277436370e+01      0.38174    0.2533017  -3.42  0.001886501    2.196    0.545
       341 -10.0309    119.9894    122.3057   1.0964769317e+02   3.4309125259e+01    0.2046675    0.1956587  47.31 0.0003478636    1.080    0.074
       342 -12.0840     83.8300    120.4199   1.1907742352e+02   4.1224090366e+01    0.3855796    0.3166635  86.36 0.0008348039    1.397    0.284
       343 -10.1839    159.0035    120.7418   9.9539237461e+01   2.6197610745e+01    0.2249549    0.2027056  52.85 0.0003218362    1.110    0.099
       344 -11.6192     64.6545    112.1635   1.2274679927e+02   4.5900222772e+01     0.431069    0.2665353  12.17  0.001992383    2.419    0.587
       345 -11.0914     58.2119    119.0051   1.2603360662e+02   4.5146875595e+01    0.4124048      0.15412 -61.73   0.00160109    2.512    0.602
       346 -10.9521     60.6736    116.1014   1.2473862044e+02   4.5510236611e+01    0.2923505    0.1888485 -53.42 0.0008625373    1.349    0.259
       347 -11.4228     31.8931    119.7221   1.3356499346e+02   4.7808411910e+01    0.2223879     0.174364 -73.63 0.0006329989    1.124    0.110
       348 -10.0558    238.3408    122.3418   8.4196146470e+01   7.8280184277e+00    0.1468256    0.1128909   3.76 0.0007048906    1.775    0.437
       349  -9.7558    226.5512    119.5340   8.5540215873e+01   1.0870629950e+01    0.1463311     0.137992 -35.39 0.0008067881    1.057    0.054
       350 -10.3230    201.4852    119.0656   9.0029840358e+01   1.6626739912e+01    0.2276087    0.1485341 -40.59 0.0003358655    1.495    0.331
       351 -10.8189    107.2758    118.3881   1.1209853174e+02   3.7659780951e+01    0.3734604    0.2625539   2.30 0.0006436897    2.320    0.569
       352 -11.0483     50.7752    117.6500   1.2788479575e+02   4.6344458890e+01    0.5001285    0.2026655  36.24  0.002078528    2.721    0.633
       353 -10.7641      2.8765    118.0213   1.4114080956e+02   5.0401165358e+01    0.1906059    0.1571873  57.45 0.0008588146    1.437    0.304
       354 -11.0240    140.3354    116.3817   1.0293488030e+02   3.1348285189e+01    0.2702387    0.2526202 -86.81 0.0004682488    1.105    0.095
       355 -10.0829    155.3279    115.8914   9.9166336663e+01   2.8077264607e+01    0.2792196     0.211317  60.94 0.0007387049    1.405    0.289
       356  -9.6672    147.3641    116.2634   1.0117213151e+02   2.9809202270e+01    0.1578273    0.1250427  13.56 0.0006984089    1.643    0.391
       357  -9.8542    211.0077    115.0339   8.7248428977e+01   1.5208521777e+01    0.1815721    0.1677117 -49.14 -0.003769674    1.038    0.036
       358 -11.0039     92.4564    118.4267   1.1620323645e+02   4.0282276463e+01    0.2581051    0.2303323 -54.80 0.0006231016    1.046    0.044
       359 -11.2541     87.8944    114.0124   1.1645173513e+02   4.2050307758e+01    0.3146965    0.2077695 -48.96 0.0004968115    1.404    0.288
       360  -9.4684     45.2695    115.3332   1.2901523869e+02   4.7486105195e+01    0.1330985   0.08536197 -40.91 0.0003796607    1.589    0.371
       361 -10.8334    126.0361    114.1206   1.0600910272e+02   3.4910137966e+01    0.2226708    0.2183562 -88.67  0.001201801    1.023    0.022
       362  -9.8736    108.3802    114.1936   1.1076169677e+02   3.8402836476e+01    0.1997632     0.138297 -58.93 0.0002352798    1.494    0.331
       363 -10.7043    232.5515    113.0862   8.3030824773e+01   1.0742385402e+01    0.2274321    0.1340837 -40.47 0.0008466524    1.571    0.364
       364 -12.2241     20.4624    111.0393   1.3533544187e+02   5.0738825056e+01    0.4472623    0.2531753 -38.98  0.002483995    1.889    0.471
       365 -10.5964     95.3080    109.1536   1.1315496283e+02   4.1903873342e+01    0.2853771    0.2170506 -14.18  0.001378521    1.703    0.413
       366 -10.5970     48.9441    112.0023   1.2730362651e+02   4.7846805210e+01    0.1939281    0.1687047 -59.67 0.0004070912    1.022    0.022
       367 -10.3071     34.4948    112.0015   1.3149405170e+02   4.9325316270e+01    0.1906824   0.07357064 -45.82  0.000809862    2.480    0.597
       368  -9.6184     75.2627    111.6832   1.1954534026e+02   4.4534873587e+01    0.1351689    0.1061274 -88.13 0.0001418402    1.545    0.353
       369 -11.2007     77.2220    109.0461   1.1835923426e+02   4.4844841499e+01    0.2685531    0.2010188  61.68  0.001387056    1.646    0.392
       370 -10.7013     30.6857    110.9171   1.3239648463e+02   4.9917637818e+01    0.1833043    0.1326979 -64.33  0.000422048    1.142    0.124
       371  -9.8753     85.2127    109.4091   1.1611863427e+02   4.3528444759e+01    0.1886659    0.1331497  51.41 0.0009289152    1.612    0.380
       372 -10.0478      3.2198    109.6106   1.3992239024e+02   5.2230256665e+01    0.1407381    0.1049537 -18.01 0.0009570222    1.724    0.420
       373 -12.3374    151.9573    106.0642   9.7393782689e+01   3.0921003833e+01    0.3884437    0.3092598 -80.67 0.0008293772    1.532    0.347
       374 -11.0592     26.9249    107.8621   1.3294351938e+02   5.0928640427e+01    0.1830437    0.1343202 -48.63 0.0002660775    1.213    0.176
       375 -11.7040    210.0844    106.9374   8.5451230711e+01   1.6956300233e+01    0.2310427     0.219852 -71.92  0.001259429    1.020    0.020
       376 -13.1407    165.9385    104.6753   9.3794029226e+01   2.7922091913e+01    0.4833978    0.4303842 -17.40  0.000857453    1.261    0.207
       377 -11.0200     50.0018    105.8855   1.2573301720e+02   4.9114836864e+01    0.2779616    0.1778691 -39.55 0.0009202777    1.553    0.356
       378 -11.5158     45.7717    101.1122   1.2599520347e+02   5.0645232787e+01    0.4112743    0.2528384  37.69  0.002079994    1.886    0.470
       379 -10.8157     31.9975    106.6733   1.3124421112e+02   5.0754180571e+01    0.1664003    0.1516555 -46.71  0.001141544    1.142    0.124
       380 -11.0285     91.8472    105.6499   1.1326607778e+02   4.3278617841e+01     0.275984    0.2262865 -85.84  0.001434189    1.489    0.329
       381 -10.3610    119.0143    107.5631   1.0616697710e+02   3.7791968328e+01    0.2195987    0.1495028  42.45            0    1.511    0.338
       382 -10.7301    138.3005    103.7045   1.0010686053e+02   3.4513410729e+01    0.2309538    0.2135256 -74.36 0.0002189726    1.133    0.117
       383 -11.3057    135.9860    100.7124   9.9878891195e+01   3.5651244333e+01    0.3582175    0.2811017  50.84 0.0009171151    1.289    0.224
       384 -10.4615     82.3785    103.9018   1.1559388782e+02   4.5210608419e+01    0.2188224    0.1933698  54.72 0.0006743596    1.264    0.209
       385 -11.6051     85.4380     99.5053   1.1356990229e+02   4.5691968546e+01    0.3648621    0.2575384 -30.46 0.0007101662    1.540    0.351
       386 -11.9633    233.6231    102.3313   8.0365122181e+01   1.2439685868e+01    0.2713163    0.2474008 -44.47 0.0002987746    1.067    0.063
       387  -9.7434    100.5970    102.8005   1.1001632525e+02   4.2371898490e+01    0.2086836    0.1359687 -57.96 0.0009442664    1.631    0.387
       388 -11.8917     75.8838    101.8835   1.1702551723e+02   4.6647365775e+01    0.3437918    0.2564789   0.18  0.001193442    1.753    0.429
       389  -9.9752      2.6381    102.2949   1.3903167094e+02   5.3856979804e+01    0.1109663   0.07786741  74.11 0.0007031211    1.707    0.414
       390 -10.5799    120.3611    102.1574   1.0436113154e+02   3.8683180039e+01    0.3491746    0.1710644  32.09  0.001230182    2.743    0.635
       391 -11.3963     25.3429    100.3137   1.3203992913e+02   5.2733820969e+01    0.2426957    0.1820018 -49.17 0.0006894796    1.143    0.125
       392 -10.1652    178.1696    100.3888   9.0014331027e+01   2.5837268825e+01     0.219084    0.1473666  66.93 0.0005758159    1.684    0.406
       393 -11.9756    148.5050     97.2516   9.5834368078e+01   3.3522144943e+01    0.4247667    0.2628216 -45.29 0.0005525782    1.624    0.384
       394 -10.2838    109.6138     99.0912   1.0647597350e+02   4.1481442611e+01     0.304122    0.2071381  25.98            0    1.771    0.435
       395 -10.4985    104.2438     97.5807   1.0757885576e+02   4.2825418569e+01    0.4618618    0.2219308  56.93  0.001599033    3.218    0.689
       396 -10.6825     32.9862     97.9795   1.2926018018e+02   5.2593643753e+01    0.3522884    0.1523349 -67.12  0.001572226    2.331    0.571
       397 -10.7051     16.1193     98.9233   1.3455453364e+02   5.3735267030e+01    0.1777546    0.1374244 -60.81 0.0003556297    1.025    0.025
       398 -11.6314      9.5756     98.3817   1.3640622574e+02   5.4288788644e+01    0.2784762    0.2487645 -60.05  0.001895054    1.151    0.132
       399 -11.0024    173.4180     96.6688   9.0033858379e+01   2.7710207026e+01    0.2568058    0.2477838 -75.59    0.0002038    1.017    0.016
       400 -10.2701     55.1761     97.1904   1.2221877829e+02   5.0449348920e+01    0.1748531    0.1487032 -82.40 0.0003740682    1.353    0.261
       401 -10.2174     23.0288     95.9890   1.3192656716e+02   5.3863416421e+01    0.1435415    0.1178399 -54.79 0.0003469245    1.031    0.030
       402  -9.4628      1.3008     95.3660   1.3836169137e+02   5.5420960158e+01    0.1245998   0.06125722 -46.47 6.084642e-05    1.732    0.423
       403  -9.9210    154.7053     94.3315   9.3564769956e+01   3.2652757523e+01    0.1589326    0.1222411 -77.84 0.0002709519    1.636    0.389
       404 -10.3112    225.6185     92.9594   7.9431820186e+01   1.5902981472e+01    0.2064979    0.1736943 -47.01 0.0005851646    1.119    0.107
       405 -11.4622    136.5112     91.4278   9.7162041765e+01   3.7422985792e+01    0.4427736    0.3937706 -87.50  0.001594255    1.268    0.211
       406 -11.1907     52.7205     92.8372   1.2195784664e+02   5.1686834734e+01    0.2666282    0.1836292  35.60  0.001039997    1.661    0.398
       407 -11.3990    117.9598     91.3055   1.0199980103e+02   4.1438357720e+01    0.2612511    0.2083273 -42.40 0.0006062344    1.233    0.189
       408 -10.9420     24.5899     92.2206   1.3070617838e+02   5.4556778912e+01     0.265868    0.1694836  11.02  0.001409306    2.001    0.500
       409 -10.1716     18.1741     91.9656   1.3265886896e+02   5.5095212756e+01    0.1692883    0.1446588 -77.14 0.0006608664    1.231    0.187
       410 -10.5999    202.4391     90.7974   8.2818757686e+01   2.1758356684e+01    0.1972695    0.1470413 -26.46 0.0002987214    1.534    0.348
       411 -11.4098     77.8978     87.8986   1.1276582712e+02   4.9355934807e+01    0.4996956    0.2302451 -32.81  0.001878839    2.865    0.651
       412 -10.9482     80.9374     84.6823   1.1092703999e+02   4.9548706996e+01    0.2551234    0.2093845 -35.85   0.00020952    1.126    0.112
       413 -10.4581    107.7008     92.1849   1.0510145614e+02   4.3301057613e+01    0.2441179    0.2083193  32.59 0.0008171829    1.213    0.176
       414 -10.3085     88.1863     89.1923   1.0997313230e+02   4.7439465219e+01    0.1923283    0.1715374 -80.95  0.001077039    1.342    0.255
       415  -9.6949     66.6538     89.2731   1.1665717170e+02   5.0692434025e+01    0.1818453    0.1323127 -62.94 0.0003073767    1.486    0.327
       416 -10.8965     63.2417     87.0254   1.1715115220e+02   5.1624069861e+01    0.2598636    0.2434006 -69.42 0.0006097873    1.206    0.171
       417 -10.9303      5.3256     89.2206   1.3613609147e+02   5.6504418162e+01    0.2958385    0.1528817  25.17  0.001430764    2.402    0.584
       418 -10.4442    111.3091     88.6929   1.0309141666e+02   4.3309939746e+01    0.1449853    0.1185135 -86.84 0.0002526718    1.614    0.380
       419 -10.5335    180.6985     86.9259   8.5928894918e+01   2.7771922876e+01    0.2144643    0.1951533 -62.91 0.0004669712    1.092    0.084
       420 -11.6737    128.5946     85.9701   9.7627334158e+01   4.0248329372e+01    0.4875994    0.2988299  65.37  0.001702837    2.234    0.552
       421 -10.5033     10.5501     86.3732   1.3399202026e+02   5.6794637082e+01    0.2198695    0.1697953 -75.92  0.001203644    1.306    0.235
       422 -10.2112    190.5049     85.9325   8.3762862399e+01   2.5544824744e+01    0.2195075    0.1989408  68.85 0.0003276494    1.085    0.079
       423 -10.3249     98.0640     85.0179   1.0583682158e+02   4.6569329132e+01    0.3978418    0.2170499 -21.13  0.001406837    3.259    0.693
       424 -11.4500     69.9827     85.4304   1.1457626104e+02   5.1035670252e+01    0.2342784     0.213661 -46.10 0.0003747762    1.092    0.084
       425 -11.4350     26.5546     85.4943   1.2867907198e+02   5.5834911227e+01    0.3022299    0.2153659  13.32  0.001319143    1.694    0.410
       426 -12.2470    119.4620     83.2389   9.9255370060e+01   4.2730429358e+01    0.5169696    0.3956168 -79.76  0.002275767    1.850    0.459
       427  -9.8247      3.6001     84.8580   1.3590583837e+02   5.7517694567e+01    0.1464739   0.09080479 -74.91            0    1.540    0.351
       428 -10.7841     84.9391     83.3324   1.0930540991e+02   4.9179721887e+01    0.2431875    0.1854135 -55.61 0.0007771193    1.393    0.282
       429  -9.9214    171.2699     83.3451   8.6882522643e+01   3.0741521147e+01    0.1514141    0.1225939   9.09 0.0002009555    1.615    0.381
       430 -11.7169    132.6754     82.4545   9.5550915831e+01   4.0025162265e+01    0.2702394    0.2624937   4.07 0.0003466937    1.036    0.035
       431 -10.9540    128.8348     79.8609   9.5772669755e+01   4.1364835591e+01    0.2386695    0.2107501 -34.61 0.0002606694    1.140    0.123
       432 -11.1703     53.6348     82.8168   1.1915923844e+02   5.3704629508e+01    0.2008469    0.1667953 -18.60   0.00076703    1.217    0.178
       433 -10.4221     18.2740     81.8887   1.3061279843e+02   5.7221773860e+01    0.2364959    0.1267911  43.31  0.001284117    2.537    0.606
       434  -9.9377     12.9952     81.7605   1.3231162744e+02   5.7606007498e+01    0.1516742    0.1244639 -52.57 0.0003492098    1.060    0.057
       435  -9.4316    162.6918     81.3364   8.8149998906e+01   3.3201720821e+01     0.159093    0.1191233 -75.88 0.0007042505    1.678    0.404
       436  -9.9641    103.9507     81.0345   1.0294766290e+02   4.6262621604e+01    0.1687932    0.1616646   7.64            0    1.038    0.036
       437 -10.2409     94.0367     80.3398   1.0566399290e+02   4.8224139585e+01    0.2689382    0.1684635 -52.09  0.001259411    1.702    0.413
       438 -11.1179     45.2384     81.1244   1.2149634962e+02   5.4999944407e+01    0.2481359    0.1733121  34.98  0.001457081    1.671    0.401
       439 -10.8635    154.8415     79.3769   8.9333467085e+01   3.5453387631e+01    0.2548621    0.2013458 -51.57 0.0004509579    1.322    0.243
       440 -10.1672    149.3487     80.0710   9.0792008464e+01   3.6634731145e+01    0.3013072    0.1637738  35.98  0.001145761    2.262    0.558
       441 -10.7363     86.3317     78.0751   1.0733959448e+02   4.9996777001e+01    0.2289815    0.1979028  42.13 0.0003008203    1.264    0.209
       442 -10.8454     63.5154     76.4951   1.1417981804e+02   5.3746534429e+01    0.2167655    0.1688319  41.26 0.0009518296    1.491    0.329
       443 -10.8120     51.9254     76.5130   1.1804647779e+02   5.5196107713e+01    0.3746642    0.3109959  48.58  0.002333683    1.523    0.343
       444 -11.9077     57.8068     74.2109   1.1542937147e+02   5.4942647620e+01    0.3240147    0.2647277 -22.85 0.0006146691    1.149    0.130
       445 -11.5635     53.2194     69.2831   1.1557253786e+02   5.6473202743e+01    0.4150481    0.1870844 -42.54 0.0008157064    1.932    0.482
       446 -10.9481     57.1668     68.1660   1.1389028579e+02   5.6201795197e+01    0.2436115    0.2093455 -62.63 0.0003670286    1.406    0.289
       447 -10.6767      4.1913     77.7431   1.3439760394e+02   5.8958763811e+01    0.2286982    0.1406427 -36.13 0.0008314834    1.513    0.339
       448 -11.1012     28.9909     74.4168   1.2531531269e+02   5.7927747572e+01    0.3610071    0.1313016 -51.88  0.001376375    2.101    0.524
       449 -10.7308    115.4096     73.5583   9.7450778712e+01   4.5398796363e+01       0.3416    0.2222472   8.13  0.001392103    2.476    0.596
       450 -10.4254     69.0254     73.8575   1.1160278922e+02   5.3505003442e+01    0.1847455    0.1763751 -75.21 0.0004500021    1.287    0.223
       451 -11.1112      1.7821     72.9719   1.3426481943e+02   6.0056484418e+01    0.3008228     0.106661 -53.85  0.001272623    1.912    0.477
       452 -10.7218      3.9367     67.6955   1.3244455716e+02   6.1000071272e+01     0.183997    0.1198348 -40.60  0.001245388    1.261    0.207
       453 -10.0973     18.0780     72.7592   1.2867527312e+02   5.9110396150e+01    0.2061749    0.1356337 -25.13  0.001097442    1.560    0.359
       454 -10.8185     35.7521     70.8856   1.2207783156e+02   5.8031192916e+01    0.3168046    0.1930003 -60.01  0.001071515    1.649    0.394
       455  -9.8587    105.3837     71.2925   9.9569262184e+01   4.7827513436e+01    0.1500952    0.1082774   8.74 0.0006201383    1.757    0.431
       456 -10.7328    205.0407     69.3443   7.6941395478e+01   2.4833252997e+01     0.240444    0.1985285 -48.26 0.0004416052    1.188    0.158
       457 -10.0602    173.0173     70.2436   8.2909876727e+01   3.2610251708e+01    0.1932486    0.1234687  57.13 0.0002512292    1.509    0.337
       458 -10.5692    152.6389     69.7163   8.7034122354e+01   3.7684380355e+01     0.249419    0.1831071  79.99 0.0006678952    1.681    0.405
       459 -11.4696    132.6696     68.2360   9.1295376854e+01   4.2603815268e+01    0.2619786    0.2322237  40.09 0.0003109135    1.097    0.088
       460 -11.2368     89.4218     68.5118   1.0345716832e+02   5.1284058414e+01    0.4732394    0.2308309  26.79   0.00184303    2.840    0.648
       461 -11.7524     80.3334     66.9363   1.0581821905e+02   5.3097839654e+01    0.3529133    0.3240678  46.10  0.002169517    1.280    0.218
       462 -10.8639    126.7952     66.3887   9.2210236084e+01   4.4232655217e+01    0.2044418    0.1304604  39.68 0.0004493692    1.580    0.367
       463 -10.2216     15.4286     65.2597   1.2783679481e+02   6.0786419074e+01    0.1812837    0.1240847 -13.65 0.0006062257    1.582    0.368
       464 -11.1034     27.6764     64.0459   1.2312572775e+02   6.0094112993e+01    0.2510594     0.158046  42.28  0.001435583    2.163    0.538
       465 -10.8677    120.8056     62.6452   9.2592453853e+01   4.6171238287e+01    0.2369637    0.1892052 -21.74 0.0005294898    1.315    0.240
       466 -10.2958    137.6707     62.6968   8.8380603160e+01   4.2392170443e+01    0.1512516    0.1116155  20.72 0.0007034551    1.650    0.394
       467  -9.7001     88.5647     62.4681   1.0179000615e+02   5.2516735101e+01    0.1372077    0.1220797  -7.35 -2.080248e-05    1.040    0.038
       468 -11.2324     77.8711     60.8970   1.0467818464e+02   5.4580292623e+01    0.2733504    0.2130273 -20.11 0.0004214689    1.226    0.184
       469 -10.5024     70.7547     61.3826   1.0718176313e+02   5.5591429551e+01    0.1740608    0.1192715  22.38 0.0009409455    1.552    0.356
       470 -10.4923     39.5407     61.3898   1.1809296229e+02   5.9498936044e+01    0.1976484    0.1568508  10.78  0.001301349    1.348    0.258
       471 -11.0846     37.6104     57.2703   1.1757508272e+02   6.0460904215e+01    0.2106364    0.1648068 -27.07 0.0002397325    1.074    0.069
       472 -10.3981     31.6902     61.0426   1.2084456254e+02   6.0319113877e+01    0.1760445    0.1265315 -40.12 0.0006269449    1.121    0.108
       473 -10.7730     16.1274     60.1619   1.2631271446e+02   6.1727033796e+01    0.2021829    0.1473408 -43.10  0.000744726    1.055    0.052
       474 -11.4619      5.4705     60.2608   1.3023441328e+02   6.2371330538e+01    0.3001688     0.207922 -17.94  0.001608382    1.493    0.330
       475 -10.3448     59.6775     59.0718   1.1021764433e+02   5.7565968844e+01    0.3075086    0.1748454  -4.35    0.0013317    2.890    0.654
       476 -10.3554     95.8013     59.3766   9.8569468716e+01   5.1745015734e+01    0.1867703    0.1225206  31.97 0.0004632106    1.560    0.359
       477 -11.5211     44.9045     56.6968   1.1472890728e+02   5.9795907712e+01    0.3889369    0.3264792 -69.83  0.001746008    1.667    0.400
       478 -11.6446     41.1699     51.0194   1.1430771166e+02   6.1217065851e+01    0.2665037    0.1641753 -42.85 0.0003246538    1.410    0.291
       479 -11.3351    106.6809     57.3784   9.4743649259e+01   4.9976746565e+01    0.3824436    0.2514271  54.25  0.001515414    1.678    0.404
       480 -11.3425     53.9161     54.5254   1.1078169263e+02   5.9117879787e+01    0.4778818    0.2287123 -32.69  0.001856552    2.068    0.517
       481 -11.5181     93.7920     54.5957   9.7582442525e+01   5.2908118973e+01    0.3633551    0.2604063  41.61  0.001125912    1.397    0.284
       482 -10.9451     27.7350     54.8256   1.2052596463e+02   6.1830488539e+01    0.2989767    0.1671405 -42.60   0.00120069    1.425    0.298
       483  -9.6217    132.9899     55.2714   8.7195100398e+01   4.4651006554e+01    0.1756921    0.1210438  52.10 0.0003441793    1.386    0.279
       484 -11.4805     61.6305     52.7291   1.0745571565e+02   5.8412921012e+01    0.3738743    0.3199101  74.41  0.002266928    1.892    0.471
       485 -12.4581     61.9840     44.6730   1.0455175074e+02   5.9691645869e+01    0.4497553    0.2160944 -41.36 0.0003560715    1.995    0.499
       486 -11.3995      3.1219     54.2514   1.2966069850e+02   6.3643461520e+01    0.2770318    0.1631387 -42.78  0.001844754    1.272    0.214
       487 -11.1412     11.0115     51.0505   1.2583228499e+02   6.3778423959e+01    0.3238025    0.1711523 -61.95  0.001416698    1.953    0.488
       488 -11.9647      7.4717     48.1193   1.2640792124e+02   6.4533497513e+01    0.3899483    0.1177814 -44.36  0.001669381    2.327    0.570
       489 -11.0018     76.1586     53.8017   1.0288158670e+02   5.6071468780e+01     0.208829    0.1877995 -10.94 0.0003049935    1.057    0.054
       490 -10.1174     33.1401     51.6972   1.1754400742e+02   6.1908917808e+01    0.1623771    0.1466701  32.77   0.00116339    1.453    0.312
       491 -11.7108     15.3345     48.6837   1.2349620531e+02   6.3920461417e+01    0.4390848    0.2601418 -77.44  0.002107733    3.649    0.726
       492 -10.5317     17.5158     46.4505   1.2198754687e+02   6.4163672780e+01     0.282049    0.2343639  40.72  0.001306075    1.710    0.415
       493 -10.6805     20.5801     44.5408   1.2019535657e+02   6.4266396544e+01    0.3010415    0.1462986 -55.01  0.001644142    2.048    0.512
       494 -10.3867    105.8652     50.8399   9.2798512167e+01   5.1174782537e+01    0.2049301    0.1732259   5.23 0.0003813505    1.182    0.154
       495 -10.7062    176.1656     49.0832   7.6440293496e+01   3.5137280740e+01    0.3336123    0.2158978 -17.19  0.001125213    2.070    0.517
       496 -10.6862    100.8174     48.9833   9.3604470745e+01   5.2457644482e+01    0.2212865     0.186405  31.69 0.0004626008    1.123    0.109
       497  -9.8627    122.4958     46.0147   8.6785614959e+01   4.8382461661e+01    0.1925727    0.1373992 -28.53 0.0004007702    1.474    0.322
       498  -9.8095    130.1703     44.8037   8.4532354049e+01   4.6836307802e+01    0.1876902    0.1551045  20.34 0.0005028141    1.276    0.216
       499  -9.9693     74.2195     48.4006   1.0166669470e+02   5.7261979993e+01    0.1779258    0.1197739  46.40 0.0009631214    1.727    0.421
       500 -10.0356     67.8162     45.1724   1.0269699561e+02   5.8761978260e+01    0.1746639    0.1318935  -2.82 0.0003633318    1.287    0.223
       501 -10.8030     34.7382     44.8673   1.1474421045e+02   6.2946559010e+01    0.1911982    0.1576346  24.61 0.0006426809    1.426    0.299
       502 -11.2587     26.0064     43.8541   1.1782977113e+02   6.3935458418e+01    0.2044253     0.136764 -36.88   0.00040939    1.189    0.159
       503  -9.5714    199.6810     43.7315   7.1261199797e+01   3.0045722333e+01    0.1361535     0.104117  40.66 0.0002940606    1.559    0.359
       504  -9.6875    164.3347     43.3551   7.6948487474e+01   3.8880023195e+01    0.1509676    0.1049945  29.53 0.0007043537    1.796    0.443
       505  -9.9553    103.4562     43.5169   9.0976363574e+01   5.2743034165e+01    0.1354285     0.121592  15.99 5.007314e-05    1.010    0.010
       506 -11.5041    148.1111     38.6850   7.8690658737e+01   4.3460585846e+01    0.3534985    0.2216541 -48.75 0.0009855723    1.837    0.456
       507  -9.5413     49.3223     41.2813   1.0794821791e+02   6.1910195293e+01    0.1234452   0.08097511  -8.75 0.0005574079    1.590    0.371
       508 -10.6105     37.2090     40.9720   1.1246590691e+02   6.3345050590e+01    0.2593063     0.145123   2.80  0.001372672    2.261    0.558
       509 -11.6183    175.3012     39.1570   7.3837644129e+01   3.6726017823e+01    0.2445673    0.2137195  77.77 0.0002770842    1.058    0.054
       510 -10.4543    101.8467     39.0500   8.9870628332e+01   5.3688310888e+01    0.2043961     0.175101  20.62 0.0005795807    1.066    0.062
       511 -10.5329     57.9927     38.7698   1.0385081700e+02   6.1167413015e+01    0.1712888    0.1425097   2.95 0.0004138122    1.076    0.071
       512 -11.4385     24.0880     38.4586   1.1682656186e+02   6.5015159656e+01    0.3071668    0.1903688  29.62  0.001971191    1.889    0.471
       513 -10.5550      9.9507     38.9829   1.2277271735e+02   6.5997255750e+01     0.171756    0.1270548 -31.65 0.0005904363    1.022    0.022
       514 -12.1790      3.2016     36.4051   1.2478406502e+02   6.6853149251e+01    0.3609115    0.1511117 -47.54  0.001281071    1.729    0.422
       515 -11.3936    129.5056     36.6818   8.2053033463e+01   4.8077960410e+01    0.2468345    0.2355575  64.85 0.0002096576    1.116    0.104
       516 -10.8281     41.2210     36.1539   1.0919314355e+02   6.3678186495e+01    0.2041283    0.1671284 -57.54 0.0006178226    1.802    0.445
       517 -10.3746     70.5830     33.4798   9.7470845567e+01   6.0064881255e+01    0.1985209    0.1657016 -11.18 0.0005141035    1.089    0.082
       518 -11.5709     60.6342     34.4877   1.0131004341e+02   6.1429711950e+01    0.2660523    0.1933674 -31.03 0.0005441235    1.314    0.239
       519 -11.0719     55.7732     34.4751   1.0306444282e+02   6.2113160168e+01    0.2271675    0.1824999 -10.92 0.0005986724    1.038    0.037
       520 -11.3820     76.9944     33.5217   9.5362572844e+01   5.9010167420e+01     0.339574    0.2169831  42.75  0.001905301    1.580    0.367
       521 -10.1748     36.0857     34.5982   1.1064853936e+02   6.4484625403e+01    0.1561056    0.1028111  19.11 0.0005659774    1.538    0.350
       522 -11.5205    141.8464     32.7037   7.8113093488e+01   4.5710317247e+01    0.3895389    0.2555646  25.12  0.001883058    1.891    0.471
       523 -10.9600    134.9768     32.4221   7.9462948799e+01   4.7354033646e+01    0.2231518     0.199903 -17.18 0.0003138529    1.213    0.176
       524  -9.8049    117.5875     33.4380   8.3794323694e+01   5.1140283550e+01    0.1341856    0.1195072  30.43 9.880553e-05    1.021    0.021
       525  -9.9121     92.4611     33.4881   9.0569836067e+01   5.6250956000e+01    0.1292478    0.1149642  14.97 4.705237e-05    1.037    0.035
       526 -10.6895    182.8333     31.5727   7.0580089449e+01   3.5828904165e+01    0.2190404    0.1912083 -39.18 0.0002905637    1.260    0.207
       527 -10.7776    106.3496     32.0094   8.6164289301e+01   5.3696229747e+01     0.183924    0.1614094   1.61 0.0004699188    1.118    0.106
       528 -10.0228    222.9796     31.3095   6.5256220428e+01   2.6077233231e+01     0.183489    0.1521004 -87.29 0.0004590925    1.043    0.041
       529 -10.0798    171.5174     30.9402   7.2175497255e+01   3.8711875011e+01    0.1885356    0.1391072 -31.05 0.0004074608    1.511    0.338
       530 -10.5656     25.0307     30.8373   1.1378420720e+02   6.6161772966e+01    0.2435156    0.1309244  14.80  0.001206767    2.005    0.501
       531  -9.5026    126.6973     30.7268   8.0736298979e+01   4.9453983719e+01    0.1374718   0.09399632  30.47 0.0002126281    1.536    0.349
       532 -11.0342     41.0668     29.2060   1.0665774405e+02   6.4744488897e+01    0.2497932    0.1444924 -37.99 0.0009186988    1.597    0.374
       533 -10.2768     37.5556     26.5036   1.0701370428e+02   6.5538110749e+01    0.1725087    0.1031941  26.75 0.0001282262    1.688    0.408
       534 -10.8400     70.4195     28.5809   9.5656852169e+01   6.0750254533e+01    0.2483033    0.1814823   6.26 0.0004524408    1.293    0.227
       535 -10.0390    123.2315     28.6556   8.0837398771e+01   5.0476865047e+01     0.191752    0.1077584  47.65 0.0006253333    1.577    0.366
       536 -11.0680     75.6293     27.3712   9.3470567324e+01   6.0047348317e+01    0.2279458    0.1779156  12.62 0.0004096694    1.138    0.121
       537 -10.4898     32.0152     27.7042   1.0973012566e+02   6.5960727941e+01    0.1787423    0.1476435 -47.11 0.0007359521    1.621    0.383
       538 -11.2882    187.2402     27.0778   6.8750211491e+01   3.5288179680e+01    0.2492004    0.1789457  76.40 0.0005012346    1.271    0.213
       539 -10.6862    189.6949     23.3387   6.7442371483e+01   3.5126143486e+01    0.2374394    0.2041917  81.23 0.0005891766    1.011    0.011
       540 -10.3141     90.8652     22.7526   8.7055942104e+01   5.7865507812e+01    0.2789882    0.1297674 -37.86  0.001309555    2.437    0.590
       541 -11.3036     65.9554     24.0834   9.5416193159e+01   6.2034694463e+01    0.1909683    0.1525365   5.74 0.0006034822    1.051    0.048
       542 -11.4050     18.6632     23.2022   1.1366712226e+02   6.7888868092e+01    0.2410827     0.158616 -29.27  0.001553707    1.178    0.151
       543 -10.1368    109.8123     22.9055   8.2059642062e+01   5.4042798400e+01    0.2011029    0.1534979  24.79 0.0005075179    1.264    0.209
       544  -9.8334     46.8595     23.1461   1.0201058454e+02   6.4881505900e+01     0.165969     0.112454  -7.59 0.0007328018    1.342    0.255
       545 -10.4101      5.1699     23.2769   1.1965798582e+02   6.8888044206e+01    0.1566946    0.1056856 -23.39 0.0005790171    1.144    0.126
       546  -9.8069    146.7206     21.6942   7.3757009287e+01   4.5818259457e+01    0.1350731   0.09374856  34.13 0.0002064865    1.553    0.356
       547 -10.1303     73.8105     20.7878   9.1490807346e+01   6.1155464928e+01     0.150502    0.1369045 -19.26 0.0006291219    1.303    0.232
       548  -9.6658    169.9891    249.2214   1.2217826321e+02  -1.5028550207e+00    0.1785763   0.08732856  42.11 0.0008771632    1.684    0.406
       549  -9.5521     61.6738     18.2774   9.4565774637e+01   6.3404690351e+01     0.148214   0.09423184 -24.46 0.0002331283    1.495    0.331
       550 -10.7632     38.6364     20.9975   1.0438841356e+02   6.6181255743e+01       0.2201    0.1530429  20.00   0.00132774    1.363    0.266
       551 -11.2676    150.9928     20.0164   7.2480338356e+01   4.4974782488e+01    0.1980603    0.1742613  59.58            0    1.009    0.009
       552 -10.0364     28.3527     20.1788   1.0831620388e+02   6.7420320111e+01    0.1506549    0.1090486  -2.85 0.0007472736    1.164    0.141
       553 -11.1777     33.7772     17.9088   1.0511305895e+02   6.7150985385e+01    0.2387898    0.1757463 -33.65 0.0009912389    1.420    0.296
       554 -10.7229    158.0531     17.2281   7.0461221964e+01   4.3562919729e+01    0.1963074    0.1904094 -25.10 0.0003239767    1.186    0.157
       555  -9.7245    139.9991     18.0000   7.3865008892e+01   4.7797391516e+01    0.1531473    0.1442262  42.44  0.000339948    1.086    0.080
       556  -9.9473      5.6948     18.2339   1.1758811789e+02   6.9624998345e+01    0.1509318   0.07314367   3.71 0.0008895634    2.330    0.571
       557 -11.2912    132.1936     16.4346   7.4879659044e+01   4.9769188072e+01    0.4453607    0.1660469  51.52    0.0018753    2.202    0.546
       558 -10.4077     25.9317     16.7197   1.0794622546e+02   6.8141391839e+01    0.1831734    0.1203968   4.04 0.0003501327    1.383    0.277
       559  -9.8917    196.4858    246.9866   1.1684135207e+02  -5.6641717332e+00    0.1575187    0.1245753 -39.12 0.0005726573    1.503    0.335
       560 -11.4246     95.2077    229.9697   1.3410502272e+02   1.4597991394e+01    0.2098205    0.1756482  67.63 0.0003067969    1.053    0.050
       561 -13.7439     76.0419    240.8804   1.3884757566e+02   1.5394580939e+01    0.6120408    0.2791905  61.61  0.001389479    2.137    0.532
       562 -12.7059     92.8814    221.1436   1.3352870612e+02   1.6736814907e+01     0.893694    0.5598606  72.04  0.004770107    1.634    0.388
       563 -12.9137     81.9240    211.0029   1.3452394497e+02   2.0555016296e+01     1.882532    0.8178482 -88.59  0.005631128    5.731    0.826
       564 -10.8633    173.0171     13.9748   6.7272278489e+01   4.0251658125e+01    0.2009238    0.1727641  71.59 0.0003089039    1.019    0.019
       565 -10.5151    179.4679     13.3299   6.6210651895e+01   3.8740521761e+01    0.2321077    0.1083791  68.13 0.0003555907    1.856    0.461
       566 -10.2255     89.9489     14.0000   8.3988132871e+01   5.8978508376e+01    0.2070682   0.06311065  52.43  0.000260176    2.996    0.666
       567 -11.9918     73.9608    205.1443   1.3545891530e+02   2.3002212705e+01     0.312761    0.2091224  80.94 0.0003325123    1.440    0.306
       568 -11.9983     67.1094    200.6897   1.3635220856e+02   2.4957636269e+01    0.5727721    0.2544345  38.91  0.001891037    2.305    0.566
       569 -13.0156    105.3657    237.4770   1.3301664404e+02   1.1519889262e+01    0.4594437    0.3053396 -53.87  0.001557147    1.809    0.447
       570 -13.2138     75.8819    228.4332   1.3764474123e+02   1.7854649172e+01    0.7317156    0.5826335  68.36  0.003054775    1.043    0.041
       571 -10.0243      8.1222     11.0000   1.1362711703e+02   7.0495012736e+01    0.1428987   0.05298532  23.06 0.0004428908    2.813    0.644
       572 -11.7598     84.7542    221.8229   1.3521638217e+02   1.7864297173e+01    0.5472108     0.183687  50.39  0.002210987    2.693    0.629
       573 -13.3948     74.8434    181.7246   1.3226990080e+02   2.8115589507e+01     0.698419    0.4472618 -67.17  0.001513947    1.443    0.307
       574 -11.4562    101.8728    234.1864   1.3330459693e+02   1.2711736294e+01    0.2238754    0.1911662  84.11 0.0003526185    1.135    0.119
       575 -14.2484     94.1382    237.6561   1.3516820851e+02   1.3275470006e+01    0.7474505    0.4295864  59.77  0.002010397    1.545    0.353
       576 -12.7064     69.8046    190.8587   1.3459103226e+02   2.6763928516e+01    0.4014873    0.2523236 -80.95  0.001272416    1.528    0.345
       577 -12.9621     66.0135    190.2032   1.3532636963e+02   2.7445532304e+01    0.5232289    0.2852893 -58.55 0.0005106259    1.800    0.444
       578 -10.0955    174.2514    243.9728   1.2060123916e+02  -1.4167514671e+00     0.148298    0.1120267 -46.23 0.0008892147    1.585    0.369
       579 -10.2079    199.7114    243.3222   1.1565972033e+02  -5.6722244796e+00     0.173891    0.1561178  66.83 0.0004779205    1.439    0.305
       580 -12.0606    203.3091    241.5830   1.1470418157e+02  -6.0221260069e+00     0.253511    0.2325917   0.58 0.0005797085    1.165    0.141
       581 -10.3009    161.0341    242.0339   1.2286053781e+02   1.1985139713e+00    0.1968431    0.1458689  70.79 0.0005926202    1.643    0.391
       582 -11.5614    147.0479    241.2438   1.2545495884e+02   3.7749969569e+00    0.2929273    0.2242373 -40.41 0.0009248422    1.647    0.393
       583 -10.5015    192.0182    240.4634   1.1666459903e+02  -3.9410190610e+00    0.1999113    0.1081975  38.25  0.001017858    1.577    0.366
       584 -10.2168    233.9316    239.2436   1.0865969791e+02  -1.0644476042e+01    0.1663972    0.1306129  20.93 0.0002923514    1.059    0.055
       585 -10.4736     66.3557    239.0049   1.4042360520e+02   1.7138820294e+01    0.2093124    0.1435572  46.98 0.0009067666    1.406    0.289
       586 -11.4653     68.4924    235.1181   1.3967844999e+02   1.7594113469e+01     0.229441    0.1505813  61.88 0.0005537671    1.242    0.195
       587 -10.7727    168.3791    238.6973   1.2094706148e+02   4.5840403653e-01    0.2571905    0.1925373  70.74 0.0008312932    1.682    0.405
       588 -11.0277    142.6099    237.7529   1.2583768205e+02   5.1574695147e+00    0.3625004    0.1397584  48.24 0.0009125669    2.275    0.560
       589 -10.6056    125.9742    234.6084   1.2867138803e+02   8.6125262650e+00    0.2497692    0.1798996 -78.09  0.001430864    1.595    0.373
       590 -11.1023    249.4773    233.1263   1.0482699347e+02  -1.2196020606e+01    0.2225343    0.1732684  15.32 0.0007059882    1.069    0.064
       591 -11.4773    219.8227    232.7865   1.1014458429e+02  -7.4944844577e+00    0.3973469      0.20223  32.01  0.001976519    1.825    0.452
       592 -11.8211    176.7148    233.0848   1.1845725060e+02  -9.4783818542e-02    0.3491939    0.2150076  31.09  0.000957534    1.608    0.378
       593 -11.2584    161.1134    232.2120   1.2139516999e+02   2.8444263142e+00    0.2355589     0.210584  87.10 0.0006089141    1.282    0.220
       594 -12.5232    142.3185    231.9474   1.2508346148e+02   6.2471973468e+00    0.3734898     0.235653  44.45  0.001999271    1.363    0.266
