#   1 NUMBER                 Running object number                                     
#   2 MAG_AUTO               Kron-like elliptical aperture magnitude                    [mag]
#   3 X_IMAGE                Object position along x                                    [pixel]
#   4 Y_IMAGE                Object position along y                                    [pixel]
#   5 X_WORLD                Barycenter position along world x axis                     [deg]
#   6 Y_WORLD                Barycenter position along world y axis                     [deg]
#   7 A_WORLD                Profile RMS along major axis (world units)                 [deg]
#   8 B_WORLD                Profile RMS along minor axis (world units)                 [deg]
#   9 THETA_WORLD            Position angle (CCW/world-x)                               [deg]
#  10 FWHM_WORLD             FWHM assuming a gaussian core                              [deg]
#  11 ELONGATION             A_IMAGE/B_IMAGE                                           
#  12 ELLIPTICITY            1 - B_IMAGE/A_IMAGE                                       
         1 -16.7919    210.6500     67.5767   7.5335296568e+01   2.3895895138e+01     9.023319      6.76728 -86.28   0.04608516    1.407    0.289
         2 -15.4931    216.6284     21.6520   6.3537528829e+01   2.8941615174e+01     2.748455     1.823389  76.03   0.01463755    1.341    0.254
         3 -14.9987    246.9875      3.1831   5.6848796459e+01   2.4188832662e+01     2.136101    0.7140052  63.19    0.0097212    2.782    0.641
         4 -10.9464    142.8994      9.6031   7.0396720408e+01   4.7996313564e+01    0.8341001    0.3504981 -13.58   0.00266271    3.561    0.719
         5 -16.6642    248.0276     34.0552   6.3020511073e+01   2.0166714657e+01     1.589038     1.403258  25.39  0.008093815    1.720    0.419
         6  -8.7855     79.4555     12.0799   8.5754333380e+01   6.1175725575e+01    0.1665291    0.1109215 -18.62 0.0002713668    1.521    0.343
         7  -8.8258    164.8802      7.0613   6.6248897122e+01   4.2994895922e+01    0.1791337    0.1619377  66.99 0.0004126102    1.084    0.077
         8 -10.7324    209.5236      5.1644   6.0505890039e+01   3.2468157196e+01    0.2771544    0.2310151  -6.78  0.001619238    1.712    0.416
         9 -16.2124    249.0462     18.8613   5.9803306628e+01   2.1901301630e+01     1.888935     1.135263 -39.64   0.01081235    1.659    0.397
        10  -9.0493    158.8024      3.2827   6.6053907424e+01   4.4792617718e+01    0.2244752    0.1859462  40.23 0.0006367037    1.288    0.223
        11  -8.7155    218.0301      1.9337   5.8981801553e+01   3.0817876770e+01    0.1950784    0.1548054 -49.82  0.001263422    1.311    0.237
        12  -9.4276    182.1730    144.0691   9.9605485038e+01   1.6053871444e+01    0.2553618    0.2195763  46.52 0.0002783427    1.172    0.146
        13  -8.6182    250.0201    176.1818   9.3541889618e+01  -3.7171910762e+00    0.2493608     0.159716 -22.15  0.001266577    1.615    0.381
        14  -9.4472    242.5758    174.3543   9.4466383945e+01  -2.0956472108e+00    0.2866962    0.2322482 -60.44  0.001594477    1.579    0.367
        15  -9.4242    188.9842    169.9632   1.0389867684e+02   9.2478787999e+00    0.2383263     0.187029  87.99 0.0007063478    1.733    0.423
        16  -8.8498     45.5282    168.4464   1.3681589000e+02   3.5160247693e+01    0.1291588    0.1068096 -82.60 -5.279235e-05    1.036    0.035
        17  -7.7997    114.3015    244.2884   1.3177094955e+02   8.7665879042e+00    0.1109941   0.09784694  19.53 0.0002273901    1.562    0.360
        18 -11.1593     50.9155    160.5584   1.3451323229e+02   3.6365431821e+01    0.3648958    0.3600958  70.68 0.0008956494    1.279    0.218
        19 -12.1404     58.4607    156.0035   1.3202523386e+02   3.6500997492e+01    0.8043544    0.6801878  62.56  0.003112807    1.212    0.175
        20 -11.1929    186.5268    138.2617   9.7322048122e+01   1.6287416693e+01    0.6280409    0.3380086  47.88  0.001464128    1.879    0.468
        21 -10.6524    180.6670    134.8476   9.7760182191e+01   1.8327429021e+01    0.4446449    0.2288519  53.81  0.001620007    2.071    0.517
        22  -8.3585    114.8504    136.0866   1.1378844216e+02   3.2231591699e+01    0.2139657    0.1904215 -83.89  0.001116629    1.142    0.124
        23 -10.8930    160.5342    128.4902   1.0071123463e+02   2.4274075805e+01    0.4716007    0.4055549 -74.11  0.002321454    1.254    0.202
        24  -9.0731    135.5067    131.4884   1.0746169536e+02   2.9118274670e+01    0.2434782    0.1472326 -38.64 0.0009906673    1.803    0.445
        25  -9.7207    135.5034    124.9984   1.0588890136e+02   3.0583909291e+01    0.6461708    0.3440211 -66.17  0.002145997    3.042    0.671
        26  -7.7304     98.2740    131.6974   1.1718235552e+02   3.6300922883e+01    0.1457838     0.112516  87.36 0.0002555509    1.538    0.350
        27 -11.6835    167.9986    113.5256   9.5253286378e+01   2.5725387806e+01    0.8291648    0.6051165 -39.18  0.001624313    1.392    0.282
        28 -10.5481    178.5861    117.4423   9.3939678221e+01   2.2427022142e+01    0.5165414     0.291814  36.91  0.001828105    2.149    0.535
        29  -9.9831    175.0481    114.9818   9.4078316046e+01   2.3765123560e+01    0.3912782    0.3060054 -51.06 0.0009431993    1.275    0.216
        30 -11.1474    191.6519    115.8153   9.0825851886e+01   1.9682884689e+01    0.6954059    0.4408265  83.68  0.002135991    2.633    0.620
        31  -9.7168    174.9851    121.0534   9.5621318408e+01   2.2524105711e+01    0.3148251    0.2200965 -63.61  0.001043694    1.680    0.405
        32  -8.2252     91.1525    116.4955   1.1567367741e+02   4.1060462685e+01    0.2853399    0.1001388 -54.93 0.0009603425    2.826    0.646
        33  -9.4039    128.1687    113.7834   1.0493391900e+02   3.4636286933e+01    0.4441837    0.2410079 -63.71  0.001324678    2.676    0.626
        34  -9.9962    134.6470    111.8099   1.0275926096e+02   3.3682736705e+01    0.7157273    0.2633261 -43.33  0.002353964    2.720    0.632
        35  -9.8381    121.4857    103.1149   1.0387676150e+02   3.8347463649e+01    0.4573557     0.252646  28.34  0.001695859    2.589    0.614
        36  -9.2248    145.5221    102.5569   9.7590598644e+01   3.3222645302e+01    0.3072971    0.2681107   3.70 0.0006710393    1.361    0.265
        37 -10.4697    154.4376     97.3287   9.4049767016e+01   3.2220024817e+01    0.4674624    0.3981009  15.10  0.001834353    1.407    0.289
        38  -9.7624    132.8646     98.9445   9.9761334838e+01   3.6801683957e+01    0.4197383    0.2456392 -47.79  0.001518719    1.720    0.419
        39 -10.4761    160.9354     87.2397   8.9799978635e+01   3.2632643313e+01    0.6385823     0.236928 -46.75  0.002087024    2.888    0.654
        40 -11.9742    167.8862     88.7164   8.8697546971e+01   3.0675629088e+01     1.159358    0.8966406 -21.07  0.004435229    1.546    0.353
        41  -9.6222    138.8470     92.8874   9.6565856089e+01   3.6702659620e+01     0.347728    0.2945924  81.84  0.001576318    1.360    0.264
        42  -9.8518    174.4681     85.0191   8.6319377926e+01   2.9758608494e+01    0.2727038    0.2505088  53.28 0.0003538451    1.101    0.091
        43 -10.6200    151.6766     88.1999   9.2163746984e+01   3.4656084593e+01    0.3293341    0.2648536 -37.68 0.0006064161    1.271    0.213
        44  -9.1397    127.4428     77.9676   9.5135116046e+01   4.2115600380e+01    0.5034193    0.1442514 -40.11   0.00153879    3.508    0.715
        45 -11.5551     64.7337    151.4749   1.2975342146e+02   3.6753308930e+01    0.7046742    0.4417333  69.07   0.00181594    1.910    0.476
        46  -8.6491    155.1596    159.8568   1.0917016629e+02   1.8546779071e+01     0.237107    0.2049564 -86.45 0.0007358161    1.264    0.209
        47  -8.3720    146.9808    158.0090   1.1067266368e+02   2.0680141897e+01    0.2364374    0.1836955  85.16 0.0004568947    1.561    0.360
        48  -9.0415    102.3578     42.9212   9.0608298582e+01   5.3122902278e+01    0.2954704    0.1541542 -42.92  0.001348019    2.173    0.540
        49  -7.7250    185.4457    155.9428   1.0160219328e+02   1.2859919199e+01    0.2131378    0.1318226 -66.78 0.0008065277    2.417    0.586
        50  -8.5967     24.3432    231.1929   1.4688520992e+02   2.3979292274e+01     0.160613    0.1310542  66.29  0.000510209    1.280    0.219
        51 -12.1131     68.2043    144.8846   1.2775428143e+02   3.7853578294e+01     1.151757    0.8887673  48.34  0.003817995    1.385    0.278
        52  -8.6256     57.4571     30.9843   1.0056721818e+02   6.2477941981e+01    0.1736468    0.1058943 -31.12 0.0004983902    1.522    0.343
        53  -9.9794    170.0161    207.0722   1.1509736005e+02   5.7634683498e+00    0.2144161    0.2000646 -58.03            0    1.176    0.150
        54  -9.7796    179.6607    148.4774   1.0116100745e+02   1.5685476519e+01    0.3422898    0.2737409   8.99  0.001599588    1.613    0.380
        55  -9.8831    158.7168     24.1621   7.2051714220e+01   4.2735334593e+01    0.4780033    0.2294248  56.38   0.00181121    1.795    0.443
        56  -9.3104    134.0000    147.5338   1.1151174525e+02   2.5758684136e+01     0.491021    0.1072483 -51.57  0.001203332    4.927    0.797
        57  -9.5839    144.0132     19.7566   7.3315029309e+01   4.6738126424e+01    0.2502331     0.239607 -17.93  0.001614501    1.180    0.152
        58  -9.2804    192.3938    194.2116   1.0810203467e+02   3.8573443604e+00    0.5541729    0.2582184 -59.02  0.001828684    4.009    0.751
        59  -8.6548     78.8890     18.8530   8.8605140624e+01   6.0564999492e+01    0.1942868    0.1416724  13.74 0.0005609374    1.279    0.218
        60 -12.0920      6.3702    174.2586   1.4591209159e+02   3.7765289420e+01      2.12438    0.7224668 -79.51  0.009735871    2.518    0.603
        61  -9.1171    117.0007    151.2559   1.1650759902e+02   2.8258721783e+01    0.2352303      0.20444 -58.33 0.0003073864    1.126    0.112
        62 -12.4309     25.1200    173.8837   1.4195735673e+02   3.6123907454e+01    0.8001853    0.5093098  49.99  0.004230933    1.610    0.379
        63  -8.5346    143.9737    146.4790   1.0886184910e+02   2.3917260090e+01    0.2421537    0.1517757  47.59  0.001029032    1.594    0.373
        64 -10.4704    213.8279    188.4314   1.0268859013e+02   7.8379440595e-01    0.5528538    0.3128223  51.84  0.002483778    2.006    0.502
        65 -10.8110    217.0972    182.2517   1.0080546353e+02   1.2655293982e+00    0.5598215    0.2868586  33.24  0.002353796    2.187    0.543
        66 -10.4623    221.1834    177.1435   9.8971197989e+01   1.3999081433e+00    0.5447219     0.390928 -72.23  0.002513083    2.277    0.561
        67 -11.8717    225.6603    172.0457   9.7062751318e+01   1.4560910047e+00     1.067966    0.6973363  59.38  0.005016864    1.993    0.498
        68 -11.9299     23.3864    178.5507   1.4278801474e+02   3.5246106491e+01    0.5626497    0.4095901  61.17  0.002581469    1.328    0.247
