#   1 NUMBER                 Running object number                                     
#   2 MAG_AUTO               Kron-like elliptical aperture magnitude                    [mag]
#   3 X_IMAGE                Object position along x                                    [pixel]
#   4 Y_IMAGE                Object position along y                                    [pixel]
#   5 X_WORLD                Barycenter position along world x axis                     [deg]
#   6 Y_WORLD                Barycenter position along world y axis                     [deg]
#   7 A_WORLD                Profile RMS along major axis (world units)                 [deg]
#   8 B_WORLD                Profile RMS along minor axis (world units)                 [deg]
#   9 THETA_WORLD            Position angle (CCW/world-x)                               [deg]
#  10 FWHM_WORLD             FWHM assuming a gaussian core                              [deg]
#  11 ELONGATION             A_IMAGE/B_IMAGE                                           
#  12 ELLIPTICITY            1 - B_IMAGE/A_IMAGE                                       
         1 -11.7825    104.5578     11.9017   3.5808919311e+02   5.6984180350e+01     0.471249    0.2985916 -24.06  0.001750799    1.816    0.449
         2 -12.7179    105.5515     19.9142   1.0608235491e+00   5.5868006461e+01    0.4285706    0.2972237 -74.75  0.000662949    1.544    0.352
         3 -10.9805     46.3034     24.6748   2.2341476629e+01   6.8881540980e+01    0.5390074      0.29733 -17.53  0.002170531    3.075    0.675
         4 -11.2179     20.4477     21.6216   3.6566220211e+01   7.3759522076e+01     0.533781    0.3108844 -26.38  0.002123876    2.056    0.514
         5 -11.4918     35.5227     17.3264   2.4016272995e+01   7.2051362429e+01    0.4237873    0.2453454 -35.28  0.001246052    1.845    0.458
         6 -11.5653     16.1780     14.6339   3.5781407982e+01   7.5585918214e+01    0.4870159    0.2847585 -15.01  0.002135616    2.401    0.584
         7 -11.3616     15.8183      9.5307   3.2753098139e+01   7.6491714657e+01    0.5328826    0.2635958  46.50  0.001505674    2.422    0.587
         8 -11.9737    164.3640     18.1716   3.5244111673e+02   4.1844697190e+01    0.3994853    0.2743875  42.67  0.002203105    2.025    0.506
         9 -11.5830    127.0998     15.9508   3.5604491190e+02   5.0974399330e+01    0.4206775    0.3051448 -19.37 0.0009685923    1.684    0.406
        10 -10.8969    132.0349     15.2472   3.5514246622e+02   4.9839505345e+01    0.2935123     0.246014  58.54  0.001784872    1.296    0.228
        11 -10.8564    136.3443     14.4228   3.5432889724e+02   4.8876761723e+01    0.3463884    0.2216052  77.16  0.001872464    1.421    0.296
        12 -10.7366     88.7283      7.9771   3.5948634763e+02   6.1290541402e+01    0.3143784    0.2507302 -89.43  0.001172124    1.213    0.176
        13 -11.3115     85.8812     14.4636   3.0437866881e+00   6.1322302840e+01     0.414034    0.3740542 -55.62  0.001761297    1.175    0.149
        14 -10.3701    225.7185     13.3459   3.4700373814e+02   2.9685867269e+01    0.1953366    0.1120686 -51.18 0.0005015988    1.267    0.211
        15 -11.2518    243.4453     14.1908   3.4633147234e+02   2.6462597355e+01     0.217689    0.1675922 -10.66  0.001545775    2.025    0.506
        16 -12.2765     48.8360     12.7920   1.4437920896e+01   7.0050642764e+01     0.727136    0.2396393  51.71  0.002841391    2.643    0.622
        17 -11.8927     23.2429     10.5394   2.7681187772e+01   7.5200236546e+01    0.4379668    0.3462801  19.07  0.002505985    1.182    0.154
        18 -11.1615    190.7030     11.9843   3.4872784565e+02   3.6729627654e+01    0.2966065     0.103624 -37.77  0.001092087    2.244    0.554
        19 -11.5459    211.9359      9.6260   3.4691763817e+02   3.2684016539e+01    0.3434637    0.2470021 -15.18  0.001530587    1.957    0.489
        20 -11.1990     63.7633      9.9305   7.0559053693e+00   6.7075779824e+01     0.366191    0.2061858  56.38  0.001216639    1.550    0.355
        21 -10.2167     62.0036      6.4878   5.7518227247e+00   6.7842594652e+01    0.2582082    0.2092748  56.14  0.001336693    1.089    0.081
        22 -11.2354    168.7679      9.4429   3.4966278305e+02   4.1777506741e+01    0.3922033    0.1884819  65.91  0.001766475    2.069    0.517
        23  -9.6641      5.6897      9.0033   4.1582638686e+01   7.7857159895e+01    0.1711209    0.1471954 -17.79  0.001148255    1.069    0.064
        24 -10.1484      1.2164      7.7514   4.5345941885e+01   7.8534460208e+01    0.2645057   0.08703426 -53.11  0.001137112    2.897    0.655
        25 -10.4210    154.0130      6.6720   3.5010642658e+02   4.5445840769e+01    0.1790289    0.1389085 -88.35 0.0003828713    1.130    0.115
        26  -9.6913     78.1644      7.3819   1.6212612097e+00   6.3926397651e+01    0.1891901    0.1159466  79.64 0.0006422895    1.676    0.403
        27 -11.4326    236.2003      4.8981   3.4480676262e+02   2.8685594349e+01    0.3224898    0.1082661 -36.12    0.0017322    2.187    0.543
        28 -10.9185    185.9810      6.5190   3.4769092311e+02   3.8297081922e+01    0.1748124    0.1042807  84.28  0.000815008    1.575    0.365
        29 -10.7798    128.9346      4.3873   3.5186954405e+02   5.1674820719e+01     0.286076    0.1667971 -23.13  0.001484362    1.978    0.494
        30 -11.2111     40.5987      3.8272   1.2649094313e+01   7.2835990611e+01    0.3191285     0.254047  37.68  0.001413162    1.130    0.115
        31  -9.4273    122.2803      4.6674   3.5274779061e+02   5.3283281100e+01    0.1372156   0.08341173 -62.03 0.0003646231    1.609    0.378
        32 -10.3199    223.6673      2.5425   3.4484025297e+02   3.1185322299e+01    0.1936683    0.1409043 -49.26 0.0006026353    1.136    0.120
        33 -10.7723    218.9456      2.8231   3.4510233624e+02   3.2039758517e+01    0.2095113    0.1550229 -68.84  0.001532571    1.117    0.105
        34 -11.3072    134.1474      2.4483   3.5066712661e+02   5.0580673245e+01    0.3155424    0.2199936  75.97 0.0009809447    1.291    0.225
        35 -11.3172    113.7389      2.1553   3.5291727977e+02   5.5617013208e+01    0.3644975    0.2185163  84.78 0.0009240915    1.514    0.339
        36  -9.7135     22.1885      2.8644   2.2929534615e+01   7.6470575919e+01    0.1715768    0.1313545  12.78 0.0007343914    1.306    0.235
        37 -11.1261    205.8676      1.8409   3.4548815809e+02   3.4669196102e+01    0.3665829    0.1220813 -84.74   0.00116273    3.344    0.701
        38 -10.4489    105.2905      1.8807   3.5398427999e+02   5.7736703423e+01    0.2324039    0.1574288 -73.62 0.0006976152    1.462    0.316
        39  -9.7569     11.7776      2.3499   3.1013322374e+01   7.8188534347e+01    0.1775868    0.1006524  26.61 0.0009495664    1.704    0.413
        40 -10.1611      1.9431      1.8111   4.0496077957e+01   7.9511145339e+01    0.1896381    0.1395391 -10.80 0.0009518468    1.282    0.220
        41  -9.8501    152.4939      1.3469   3.4867220519e+02   4.6305299682e+01    0.2012899    0.1034523  81.31 0.0006071806    1.748    0.428
        42 -10.5115     43.5929    116.9606   5.3764388642e+01   4.7832941510e+01    0.4593239     0.155416 -71.74  0.001394167    3.386    0.705
        43 -10.1603     78.9586    114.5615   4.0220981793e+01   4.3160142249e+01    0.3015444    0.2115436 -40.45 0.0008684337    1.560    0.359
        44 -12.1664     26.4204    106.4145   5.8990789785e+01   5.2644642205e+01    0.7353107    0.5645671 -63.88  0.002366535    1.225    0.184
        45 -11.6896     22.8156    114.1780   6.1670698914e+01   5.0826542336e+01    0.6029174      0.31813   3.43  0.002415223    2.457    0.593
        46 -11.6040     27.4144    112.5154   5.9533513910e+01   5.0858259308e+01    0.4661674    0.3182317  28.37   0.00145514    1.499    0.333
        47 -10.6330      7.8305    113.9607   6.7813394323e+01   5.2036809758e+01    0.3419846    0.2285416 -54.61  0.001035488    1.451    0.311
        48 -11.9845      2.7467    111.5199   6.9678744211e+01   5.3015802286e+01    0.4983601    0.3501841 -88.87  0.001246773    1.322    0.243
        49 -11.2820      3.7644    104.7697   6.8595048701e+01   5.4823092153e+01    0.5190991      0.33156  50.33  0.002550398    1.616    0.381
        50 -10.1882     48.9903    111.5575   5.0620373814e+01   4.8611710432e+01    0.2280851    0.2048815 -74.77 0.0004651819    1.082    0.076
        51 -11.6211     80.0166    108.0150   3.8290121620e+01   4.4635347775e+01    0.4902738    0.3680129  15.73  0.001402801    1.653    0.395
        52 -10.1593     58.5686    109.6752   4.6498430377e+01   4.7752858169e+01     0.238034    0.2285624  87.38 0.0005623137    1.016    0.015
        53 -10.8360     15.9533    108.4301   6.3767171500e+01   5.2998435391e+01    0.3199584    0.2887935 -84.55  0.001810715    1.035    0.034
        54 -11.6817     17.9093    101.4733   6.1940935688e+01   5.4767402014e+01    0.4435486    0.2576672  83.76  0.001237722    1.938    0.484
        55  -9.2020    139.7594    106.6413   2.0970834306e+01   3.3087559581e+01    0.1449693     0.113817 -19.42 0.0004266613    1.591    0.371
        56 -10.2866     46.8460    102.7710   4.9660500317e+01   5.1272182218e+01    0.4286065    0.1405916 -47.17  0.001315271    3.319    0.699
        57 -10.7782     50.9368    100.1357   4.7384182487e+01   5.1406509503e+01    0.4290434    0.2711961 -51.69  0.001905751    1.547    0.353
        58 -10.4111     92.0159    102.3745   3.2844384382e+01   4.3775807110e+01    0.3431614    0.2504817 -11.58  0.001447144    2.085    0.520
        59 -10.9281     35.3921    102.8377   5.4506641756e+01   5.2681082267e+01    0.3514464    0.2375625 -11.38 0.0005539609    1.915    0.478
        60  -9.3350     67.3093    114.6139   4.4331175033e+01   4.5090008483e+01    0.1680088    0.1165979  72.92 0.0007018125    1.811    0.448
        61  -9.1248    136.4710     99.5218   1.9899374965e+01   3.5234115275e+01    0.1480614    0.1398027 -60.33 0.0001288896    1.018    0.017
        62  -9.9194    210.3069     98.0621   6.6932895249e+00   2.1090127491e+01    0.1752757    0.1327612 -43.15 0.0002991986    1.079    0.073
        63 -12.1662     68.3541     95.2489   3.9243688782e+01   4.9905598008e+01    0.4509908    0.3738451  13.76 0.0006918617    1.396    0.283
        64 -12.2396    247.8628     94.7239   1.7703298283e+00   1.5620182704e+01    0.4465874    0.2727634 -16.03   0.00247272    2.468    0.595
        65 -10.3847     72.2084     83.8563   3.4556241294e+01   5.1991877202e+01    0.2394639    0.2042423 -70.63 0.0004103163    1.226    0.185
        66 -11.7095     74.7924     78.9840   3.2089307529e+01   5.2635416235e+01     1.168623    0.6431816  64.27  0.004070093    2.995    0.666
        67 -10.6315     76.0062     75.2617   3.0450563300e+01   5.3239951743e+01    0.2875004    0.2320657  55.53  0.001433709    1.266    0.210
        68 -11.7521     77.9665     94.9793   3.5618659623e+01   4.8243353369e+01     0.663768    0.5785709 -20.04   0.00285379    1.332    0.249
        69 -11.0099     78.7645     89.0372   3.3659055163e+01   4.9523122057e+01    0.4409881    0.2119565 -42.34  0.001263625    2.303    0.566
        70 -11.6792     22.6195     94.8139   5.8717639817e+01   5.6185491529e+01    0.4438655    0.2758088 -22.30  0.001966115    1.985    0.496
        71 -10.3323     43.1991     94.4130   4.9346812437e+01   5.3988145288e+01     0.291052    0.2752936 -19.61  0.001250578    1.116    0.104
        72  -9.9297      8.0209     95.4522   6.5602227663e+01   5.7132928688e+01    0.2343622     0.181183 -75.38  0.001252086    1.192    0.161
        73 -11.5824    240.6433     91.6765   1.8990718043e+00   1.7126643746e+01    0.3376236    0.1392111 -51.02  0.001661177    2.296    0.564
        74  -9.1754    125.5394     93.5680   2.0911408556e+01   3.8793858299e+01    0.1517413    0.1396226 -78.58 0.0001550256    1.068    0.063
        75 -10.7367     36.2550     92.2874   5.1957341329e+01   5.5427452562e+01    0.3437371    0.2806782 -36.66  0.001772443    1.280    0.219
        76 -11.0814     98.2456     90.5782   2.7616617831e+01   4.5260774136e+01    0.2684173    0.2586109 -86.38 0.0003463901    1.002    0.002
        77 -10.1885     66.9613     88.3207   3.7879912970e+01   5.1867770935e+01    0.2812429    0.2063985 -32.50 0.0005904787    1.589    0.371
        78 -11.4915      6.3861     88.1517   6.5402091426e+01   5.9217950068e+01    0.5997708    0.3266749  17.32   0.00275935    1.948    0.487
        79 -11.3738     27.7908     85.1396   5.4360251360e+01   5.8278457575e+01    0.5200061    0.4509942 -39.47  0.001496401    1.153    0.133
        80 -11.1408     52.2952     87.4977   4.3678248618e+01   5.4490316221e+01    0.3488909    0.1970111 -49.83 0.0008941681    1.739    0.425
        81 -10.0021     90.0529     85.1717   2.8633663736e+01   4.8173397870e+01    0.3074082    0.2042084 -78.03   0.00123854    2.176    0.540
        82 -10.6382     18.5644     86.1835   5.9088232473e+01   5.8875446142e+01    0.3864354    0.2019936   5.34  0.001598881    2.323    0.570
        83 -13.4644    247.7892     76.2234   3.5820780566e+02   1.8176670453e+01    0.8309492     0.297557 -38.49  0.004217094    2.038    0.509
        84 -11.2952     45.0966     84.2230   4.5988756835e+01   5.6383371201e+01    0.3907661    0.3271829 -28.00  0.001344373    1.294    0.227
        85  -9.7522     36.9827     85.5371   5.0064478240e+01   5.7120387916e+01    0.2245567    0.1456486  26.17  0.001030608    1.591    0.372
        86  -9.7008    143.4910     84.1298   1.4253833858e+01   3.6742078606e+01    0.2098011    0.1360955 -44.63 0.0004679473    1.453    0.312
        87 -12.4534     60.9699     83.4253   3.8881844781e+01   5.4104827248e+01    0.2968087    0.2865229  69.09 0.0003681328    1.042    0.040
        88 -10.1204    113.1768     82.8755   2.1050235392e+01   4.3708965619e+01    0.2395067    0.2041423 -79.78 0.0008992103    1.234    0.190
        89 -10.4176     67.5147     81.1311   3.5554026872e+01   5.3503616075e+01    0.3012626    0.2455974  -8.10  0.001213364    1.542    0.352
        90 -10.5463      2.3653     80.7166   6.6394742641e+01   6.1434015786e+01    0.4537242    0.2199662  70.52  0.001822119    2.593    0.614
        91 -11.0155     89.0933     77.0842   2.6449015049e+01   5.0158202439e+01    0.4517177    0.2635908  49.37  0.001370303    1.716    0.417
        92 -10.5029     94.4569     75.7313   2.4288282438e+01   4.9301220729e+01    0.3306137    0.3041704  78.69  0.001008154    1.085    0.078
        93 -10.8473     58.1958     77.2421   3.8199582437e+01   5.6072759733e+01    0.3764952    0.1967156 -53.90   0.00153589    1.894    0.472
        94 -11.3381     53.1780     76.3095   4.0103862943e+01   5.7129757046e+01    0.3562007    0.3382846 -80.32  0.001685623    1.081    0.075
        95 -10.7754     14.0639     74.6791   5.9175715799e+01   6.2286796569e+01    0.2768498    0.2348174  82.37  0.001550813    1.258    0.205
        96 -11.0727    235.6778     72.3324   3.5851668673e+02   2.0625369976e+01    0.2055359    0.1144972 -49.09  0.001224205    1.413    0.292
        97 -10.0866    103.5127     74.4862   2.1166295521e+01   4.7569458988e+01    0.1502105    0.1444237 -89.17 -4.597747e-05    1.016    0.016
        98 -11.5464     27.7069     73.2377   5.1586207519e+01   6.1380496666e+01    0.3218492    0.2608745 -18.92 0.0002846377    1.324    0.245
        99 -10.9131      1.9512     71.1188   6.5187604628e+01   6.3985902453e+01    0.4079119    0.1885222 -65.04  0.001806905    1.862    0.463
       100 -10.5288     34.1568     71.1707   4.7687774686e+01   6.1139823685e+01    0.3948567    0.2108666  28.74  0.001711385    1.886    0.470
       101 -10.5465     40.8289     72.9284   4.4855271270e+01   5.9818771336e+01    0.3084189    0.2545634   2.56 0.0006191768    1.341    0.254
       102 -10.4334     40.2525     68.7907   4.3895250459e+01   6.0909707326e+01    0.2782044    0.2430716  42.45 0.0008505826    1.179    0.151
       103 -10.6410     80.8907     70.9742   2.7262173472e+01   5.3187592629e+01    0.2847679    0.2187769 -30.96  0.001369996    1.498    0.332
       104 -11.8759    122.9910     68.4184   1.4193999297e+01   4.4299268735e+01    0.3787078    0.2528962  48.44 0.0009416059    1.571    0.363
       105  -9.8515    218.6535     67.7168   3.5918516218e+02   2.4185336172e+01    0.1074465   0.09378537   3.96 0.0006847838    1.645    0.392
       106 -10.8278    101.9876     66.8855   1.9138617665e+01   4.9418464631e+01    0.2340247     0.231869 -77.62 0.0003274982    1.085    0.078
       107 -10.8725    105.4382     63.6107   1.7081636531e+01   4.9251623986e+01    0.2606882    0.2289555  77.09 0.0005910957    1.126    0.112
       108  -9.6038     15.9547     66.7740   5.6393534009e+01   6.4170025481e+01     0.175888    0.1149008  15.13 0.0005004097    1.608    0.378
       109 -13.2722      5.5536     61.3838   6.1302981890e+01   6.6289363059e+01    0.7433233    0.4492762  -8.08  0.001345989    1.829    0.453
       110 -10.2955      9.4631     55.5261   5.7526139290e+01   6.7489250661e+01    0.2398245    0.2091389 -24.12 0.0005872889    1.107    0.096
       111 -10.0996    201.8250     63.9042   1.1276889460e-01   2.7864920214e+01    0.2318067    0.1381342 -32.47  0.001238369    1.650    0.394
       112 -11.6633     39.6548     56.6332   4.0148916480e+01   6.3839904793e+01    0.3462902    0.2360795  36.99 0.0006296578    1.461    0.316
       113 -11.5765     43.4704     60.9806   3.9719296631e+01   6.2274060760e+01    0.4433767    0.2529831 -58.12 0.0009983748    1.829    0.453
       114 -11.8449     46.4519     59.5067   3.7712053205e+01   6.2137425829e+01    0.6904823    0.2590479  46.25  0.002363766    3.100    0.677
       115 -10.7817     92.5006     62.5142   2.0484232209e+01   5.2403303973e+01    0.3010086    0.2492085  85.38 0.0007033146    1.335    0.251
       116  -9.7382    150.9627     60.7579   6.3123054596e+00   3.9146764413e+01    0.1902169    0.1706706 -69.73 0.0005639649    1.013    0.013
       117  -9.6654    113.5037     60.4923   1.3944695995e+01   4.7942485098e+01    0.1472918     0.137905 -87.28 0.0002896271    1.004    0.004
       118 -10.4821     26.0335     59.4785   4.8627180256e+01   6.4974220089e+01    0.5940186    0.2341592  27.28  0.002320495    2.503    0.600
       119 -11.1939     24.0129     56.3257   4.8817561839e+01   6.5954818379e+01    0.4957547    0.3186615  -0.42  0.002353587    1.867    0.464
       120 -11.0975    124.4389     56.9739   1.0263053913e+01   4.5966966891e+01    0.3927232    0.2868446  10.18  0.001328054    2.313    0.568
       121 -10.8923    126.1331     52.5211   8.4718618582e+00   4.6294413945e+01     0.354425    0.2178783 -26.44  0.001253704    2.020    0.505
       122 -10.8586    106.4315     58.2517   1.5001458636e+01   4.9998941805e+01    0.2745749    0.2225655  80.50 0.0004457245    1.287    0.223
       123 -12.1021     75.6331     54.7929   2.3368352891e+01   5.7586608745e+01    0.6679812    0.3414898 -42.16  0.002297702    2.033    0.508
       124 -10.8895     73.6778     49.3545   2.1963262487e+01   5.9029293589e+01    0.3050216     0.250151 -83.23 0.0007544669    1.462    0.316
       125 -11.0480     72.2888     45.5977   2.0953094533e+01   6.0009444419e+01    0.3631269    0.2523984 -51.94 0.0005628965    1.563    0.360
       126 -11.3258     88.1629     55.8934   1.9481896177e+01   5.4630551107e+01    0.5114404    0.1965066 -38.60  0.001790654    2.838    0.648
       127 -10.7695    117.9858     56.2740   1.1479042586e+01   4.7616467431e+01    0.4082514    0.2185096  81.74  0.001428526    3.190    0.687
       128 -11.5826    245.4263     55.3214   3.5430663305e+02   2.1294985241e+01    0.2382374    0.1485762 -20.61  0.001409242    2.163    0.538
       129  -9.8180      2.2687     54.8375   6.1970012875e+01   6.8113023589e+01    0.1937045    0.1301081 -40.04 0.0004433528    1.383    0.277
       130 -10.0872    156.5222     53.5039   3.3616724432e+00   3.9009408255e+01    0.1398209    0.1210311 -68.09 0.0008102154    1.015    0.015
       131 -10.2688     61.6226     46.2133   2.5466987025e+01   6.2123014282e+01    0.3333195     0.213667 -23.88  0.001477344    2.107    0.525
       132 -11.0235     60.3469     51.2655   2.8092704122e+01   6.1399220754e+01    0.5521938    0.2915615 -59.85  0.002157738    2.609    0.617
       133 -11.3423     55.8621     50.0204   2.9585721274e+01   6.2505055545e+01    0.4386042    0.2772538  16.35 0.0004367158    2.396    0.583
       134 -10.7020     32.2327     52.5213   4.2735526303e+01   6.5823303768e+01    0.4058151    0.2290477  12.35  0.001610769    2.309    0.567
       135 -10.6349    243.5960     51.2060   3.5362666175e+02   2.2114710374e+01    0.1519529   0.08999349 -32.09 0.0004384872    1.585    0.369
       136 -12.2237    119.7303     37.3246   4.6800500609e+00   5.0137569555e+01    0.6275242    0.3446882 -58.06  0.001960442    2.059    0.514
       137 -10.2027    112.4837     50.4892   1.0814706877e+01   4.9891826126e+01     0.246544    0.2235596  47.95  0.000721384    1.196    0.164
       138 -12.1130    116.7852     45.2379   8.0263907530e+00   4.9689111283e+01    0.6196465    0.4489611 -24.37  0.002832427    1.670    0.401
       139 -10.3296     81.5259     49.5054   1.9242695020e+01   5.7281948847e+01     0.220907    0.1845718   0.18 0.0009932189    1.523    0.343
       140 -10.0701     83.4655     46.5293   1.7427469122e+01   5.7368066099e+01    0.2365166    0.1883712  -5.16 0.0008877175    1.671    0.401
       141 -12.2626     41.4996     44.3083   3.4324236182e+01   6.6195225587e+01    0.9001891    0.3676736  34.79  0.002324047    2.466    0.594
       142 -10.3104     20.5142     45.8231   4.7430150227e+01   6.8775785965e+01     0.234486    0.1874249  14.97 0.0005951018    1.247    0.198
       143  -9.9990     13.8162     45.8779   5.1879801087e+01   6.9437312531e+01    0.2162978    0.1649687 -29.97  0.000660571    1.269    0.212
       144 -11.1576     26.3390     42.4609   4.2412198997e+01   6.8819691909e+01    0.3416928    0.2777619  83.36 0.0008279084    1.656    0.396
       145 -10.3821     22.7057     37.1004   4.2539947155e+01   7.0420063814e+01    0.4004398     0.152424  37.44   0.00124885    2.622    0.619
       146  -9.7091    156.0356     42.1508   2.0516010824e-01   4.0769725981e+01    0.1812604    0.1523364 -12.02  0.001032398    1.572    0.364
       147 -11.0432    110.0079     39.2689   7.4160754979e+00   5.2231633825e+01    0.5036985    0.3001206 -16.55   0.00150619    2.569    0.611
       148 -10.8200     56.8054     41.8708   2.5703937685e+01   6.3888033203e+01    0.2679004    0.2060498  51.50 0.0004293181    1.300    0.231
       149 -10.9935     18.3073     40.3586   4.6852903855e+01   7.0234416110e+01    0.2604674    0.2075753 -34.50 0.0006759316    1.195    0.163
       150 -10.9626      3.4860     35.5417   5.5943587557e+01   7.2620642269e+01    0.4709618    0.3020297 -47.66  0.002598527    1.396    0.284
       151 -10.7941    249.7472     38.9288   3.5081335630e+02   2.2616195050e+01    0.1879528    0.1282471 -68.03 0.0006518892    1.329    0.248
       152 -11.6244     79.0700     35.2099   1.4186717920e+01   6.0218668036e+01    0.6092226    0.4254537 -38.09  0.002502031    1.519    0.342
       153 -11.0995    228.9859     37.5218   3.5187237226e+02   2.6317503887e+01    0.1562542    0.1056426  82.64  0.001040786    1.617    0.382
       154 -10.2249     60.5015     36.9429   2.1874822138e+01   6.4014347738e+01    0.2605451    0.2104232 -46.60 0.0006437586    1.322    0.244
       155 -10.7312     63.4943     33.3530   1.8982118162e+01   6.3978234309e+01    0.6558642    0.1741927  42.61  0.001892523    4.446    0.775
       156 -10.7562    153.1673     35.6027   3.5869834949e+02   4.2324653403e+01    0.2410771    0.2088359 -71.25 0.0006240333    1.016    0.015
       157  -9.9642    175.8731     34.7399   3.5576194997e+02   3.7271005596e+01    0.2683527    0.1219269 -55.77  0.001222946    2.088    0.521
       158 -11.2897    240.2961     32.3682   3.5008998556e+02   2.4961774394e+01    0.2186351    0.1604426 -11.82  0.001432104    2.107    0.525
       159 -10.7522    131.8407    240.8209   4.6901526230e+01   7.3319146269e+00    0.1864748    0.1428115   1.49 0.0008641636    1.210    0.174
       160  -9.9200    233.6886    227.3304   2.6475067901e+01  -1.3503447984e+00    0.0866849   0.07839938 -24.99 0.0003533361    1.671    0.402
       161 -11.6989    110.9711     25.7072   2.2160336237e+00   5.3832711393e+01    0.3457421    0.3295941  71.12 0.0008441084    1.125    0.111
       162 -11.3214    115.2503     24.5865   9.9736024200e-01   5.2912435474e+01    0.3339333    0.2209003  61.44  0.001324488    1.417    0.294
       163 -10.4041     60.0000     23.0535   1.5347883092e+01   6.6286655521e+01    0.4135129     0.176802 -26.85  0.001504229    3.093    0.677
       164 -10.7366    248.6007    224.1918   2.3837516668e+01  -2.2730585237e+00     0.147186   0.06895089 -27.08  0.000911588    1.678    0.404
       165 -11.6999     57.5790     29.6264   1.9651464205e+01   6.5822669851e+01    0.5451036    0.2762291  42.60  0.002418925    1.913    0.477
       166 -11.2833     47.7017     30.4341   2.4629871163e+01   6.7672904662e+01    0.5849057    0.2815208  36.83  0.002194883    2.163    0.538
       167 -10.6653      9.9784     29.6524   4.8617184426e+01   7.3386823460e+01    0.3765562    0.2353981  23.79  0.002037339    1.568    0.362
       168 -12.2926    127.1744     28.3431   2.5791505557e-01   4.9509369338e+01    0.6173059    0.3620614  85.18  0.001896333    1.803    0.445
       169 -11.6715     26.5820     27.7590   3.5523178438e+01   7.1751861719e+01     0.478333    0.2957882 -55.14  0.002327475    1.867    0.464
       170 -10.8575    189.2302     27.4069   3.5262476898e+02   3.5297128760e+01    0.3168619    0.2448631   7.61   0.00185086    2.148    0.534
       171 -10.4032    177.4733     28.9729   3.5409071351e+02   3.7640067816e+01    0.1944434    0.1129709 -36.25  0.000831702    1.609    0.378
       172 -12.5333    164.9103     27.4719   3.5496939040e+02   4.0636682781e+01     0.372407    0.2585961  70.90  0.001083013    1.436    0.304
       173 -10.6374    157.1917     29.1447   3.5631476493e+02   4.2210521791e+01    0.2466893    0.1727357  81.65 0.0004696645    1.354    0.262
       174 -11.3049    183.2969     26.1519   3.5282549954e+02   3.6712932971e+01    0.3654201    0.1611823 -45.41  0.001803983    1.845    0.458
       175 -10.8192    147.3517     27.9844   3.5719431973e+02   4.4670641266e+01    0.2611252    0.2032086 -79.19  0.001469488    1.158    0.137
       176  -9.8560    200.5281     27.5040   3.5173251801e+02   3.2949544367e+01    0.1229379   0.09651463 -59.78 0.0001326998    1.014    0.014
       177 -11.2968    230.4833     26.1802   3.4941441973e+02   2.7394376043e+01    0.1962228     0.134064  58.11  0.001308961    1.985    0.496
       178 -10.6271    206.2161     25.4550   3.5083523419e+02   3.2052177938e+01    0.2072037    0.1369915 -42.92 0.0003396685    1.272    0.214
       179  -9.8447     97.1218     25.8723   5.2405244466e+00   5.7222227880e+01    0.2186075    0.1792503 -79.53  0.001223254    1.245    0.197
       180 -10.4025    142.9454     25.4827   3.5700328093e+02   4.6029083583e+01    0.2055074    0.1215498  73.53  0.001033199    1.592    0.372
       181  -9.8209    171.4989    208.5302   3.4336049833e+01   8.0034589761e+00    0.1236096    0.1024352  -5.45 0.0001808232    1.020    0.019
       182 -11.6083    248.5190     21.2674   3.4746795238e+02   2.4842815089e+01    0.2851411    0.1613454 -72.11   0.00193077    1.629    0.386
       183 -10.3525    177.0416     22.0039   3.5231128310e+02   3.8562723106e+01    0.2380298    0.2066025  51.63 0.0008394715    1.494    0.330
       184 -10.8793    181.6182     19.2348   3.5120721599e+02   3.7877724128e+01    0.3203808    0.1682782  61.88  0.001214524    2.073    0.518
       185 -10.5597    169.3519     22.9330   3.5327075824e+02   4.0169022810e+01    0.2162741    0.1671601  78.11 0.0002900398    1.281    0.219
       186 -11.7779    149.3613     22.5572   3.5530445650e+02   4.4843467265e+01    0.3756194    0.1918955  78.02  0.001259391    1.894    0.472
       187 -10.8239    134.6771     22.0155   3.5701826402e+02   4.8439842788e+01    0.2893632    0.2366295  88.63  0.001721733    1.092    0.085
       188 -10.7352     68.8131     20.3622   1.0748002921e+01   6.4676175442e+01    0.3660119    0.2508483 -46.14  0.001843103    1.618    0.382
       189  -9.4758     53.4029     21.7770   1.7447089276e+01   6.7878487868e+01    0.1779047    0.1289199 -17.86 0.0009416285    1.628    0.386
       190  -9.8977     39.0286     21.4834   2.4432772939e+01   7.0765063823e+01    0.1911169     0.162146  34.19 0.0006535701    1.087    0.080
       191  -9.9028     32.0522     20.9697   2.8262446104e+01   7.2084094874e+01     0.181412    0.1676128   9.22 0.0004545785    1.034    0.033
       192 -11.4665      5.9933    199.0215   7.3920391124e+01   2.9723103367e+01     0.363612     0.108933 -66.61   0.00140895    3.304    0.697
       193 -11.7910      9.0127     19.5424   4.4639517966e+01   7.5536780992e+01    0.3415923    0.2160634  -4.52 0.0003189054    1.758    0.431
       194  -9.5981    246.0000    192.9530   1.9437809405e+01   1.9550706607e+00    0.1786145   0.04755014 -38.88 0.0008065141    2.971    0.663
       195  -9.6981    180.3130    187.6628   2.9249267064e+01   1.0408636754e+01    0.1128831    0.1019059 -88.02 0.0007046221    1.691    0.409
       196 -11.8756      6.2412    185.8255   7.3281065206e+01   3.2905034145e+01    0.3164479    0.2236562  51.49  0.001795343    1.216    0.177
       197  -9.9876    216.5097     19.5252   3.4883354876e+02   3.0730611479e+01    0.1189719   0.08678246 -57.91 2.737264e-05    1.023    0.023
       198 -12.0334      2.7526    182.7209   7.4122436686e+01   3.3939501166e+01      0.50218     0.259359 -64.90  0.002421393    2.003    0.501
       199  -9.6450    249.6567    176.3265   1.6239709165e+01   3.8295658366e+00   0.09823115   0.07772058 -51.29 0.0007050914    1.740    0.425
       200 -10.2008    190.7974    171.1861   2.4419357817e+01   1.1814028698e+01     0.195086    0.1451435 -86.36 0.0009624636    2.919    0.657
       201  -9.3486     50.7332    170.3484   5.8956977943e+01   3.2531401898e+01    0.1529644   0.09975105  63.56 0.0003687538    1.616    0.381
       202 -12.3751      9.2836    166.4956   7.1376327495e+01   3.7603418780e+01    0.5231501    0.2513855  30.50  0.002379722    1.904    0.475
       203 -11.6759    236.3017     15.4844   3.4691960157e+02   2.7556745052e+01    0.1867362     0.171926 -66.70  0.001180054    1.372    0.271
       204 -11.2159    228.5635     15.5124   3.4731005541e+02   2.8933124898e+01    0.2209761    0.1271824 -54.24 0.0004667813    1.275    0.216
       205 -12.7725     12.7962    160.4326   6.9890123353e+01   3.8931684594e+01    0.5852972    0.3485557 -39.74  0.002716836    2.077    0.519
       206 -10.7538    156.9927    165.9780   3.0055781866e+01   1.7764838764e+01    0.2091038    0.1940412 -22.27 0.0009402926    1.036    0.035
       207 -10.2669    186.5006     14.9925   3.4976136380e+02   3.7296489354e+01    0.1803744     0.103965 -37.55 0.0006531653    1.559    0.358
       208 -10.7961     18.0294    164.9874   6.8564665282e+01   3.7292744931e+01     0.224575    0.1580359 -41.90  0.001137222    1.682    0.405
       209 -10.9411    205.0491    163.1628   2.0512493194e+01   1.1197587926e+01    0.2208968    0.1554946 -35.23 0.0009133166    1.199    0.166
       210 -11.1214    215.5129    161.0377   1.8459579209e+01   1.0134451457e+01    0.2933244    0.1465206  19.05  0.001278406    3.583    0.721
       211 -10.4323     28.8103    160.7764   6.4800088299e+01   3.7428000477e+01    0.2126301     0.150854  60.60 0.0006765719    1.346    0.257
       212 -10.5613    121.2788     11.5464   3.5532150008e+02   5.2870015878e+01     0.267182    0.1202897  79.53  0.001150043    2.172    0.540
       213 -11.5531    107.0617     31.4305   5.1693323261e+00   5.4055373779e+01    0.5123252    0.3246158  34.64    0.0023566    2.131    0.531
       214 -10.0098    104.4029    154.2302   4.0652151139e+01   2.8900910229e+01    0.2127438    0.1445375 -69.23 0.0009578758    1.696    0.410
       215 -10.3757    240.8120    152.8229   1.3375303313e+01   8.1636650908e+00    0.1528027    0.1162134 -45.45 0.0009458252    1.353    0.261
       216 -12.4037     21.9170    149.6502   6.6033091481e+01   4.1074557980e+01    0.7265141    0.3974712 -25.02  0.001721483    2.686    0.628
       217 -10.3374     16.5252    147.4910   6.7672178306e+01   4.2123446069e+01    0.2492593    0.1318238 -78.25 0.0006859726    1.779    0.438
       218 -10.9184      4.2441    153.3966   7.2194560105e+01   4.1441130871e+01    0.2003362    0.1126432  34.84 0.0009529291    1.671    0.402
       219 -10.6085     45.1508    149.6654   5.8201528348e+01   3.8671954093e+01    0.4090202    0.2866771 -63.24  0.001983506    1.406    0.289
       220 -10.5328     47.4779    145.3407   5.6833666866e+01   3.9567402084e+01    0.3319204    0.2401941  30.70  0.001175761    1.374    0.272
       221 -12.3406      4.3640    142.3606   7.1462664026e+01   4.4418122638e+01    0.7043288    0.3598379  42.48  0.002980667    1.835    0.455
       222 -10.9560     32.9177    143.7776   6.1641419243e+01   4.1629399391e+01    0.2912465    0.2575389  76.84 0.0006276449    1.064    0.060
       223 -11.3336     40.3152    137.5098   5.8233564537e+01   4.2553237186e+01    0.3413233    0.2504103  89.88  0.000886126    1.387    0.279
       224 -11.8992     23.8973    136.7826   6.4044306309e+01   4.4435902449e+01    0.5343796    0.3171677 -34.59  0.002321273    2.093    0.522
       225 -11.5031     29.9092    133.0607   6.1411988218e+01   4.4895868719e+01    0.3627951    0.2700537 -38.17  0.001024007    1.514    0.339
       226 -11.0198     20.3022    133.9884   6.5053480782e+01   4.5528270537e+01    0.3017505    0.2412021 -63.27  0.001163394    1.226    0.184
       227 -10.3678    228.3443    140.6862   1.2828953900e+01   1.1593686320e+01     0.113708   0.08482316 -60.34  0.000704722    1.710    0.415
       228 -12.7825    245.7456    120.4012   6.8545633511e+00   1.2255176811e+01    0.7677119    0.2120097 -43.32  0.003300942    2.846    0.649
       229 -11.9623     11.9548    135.9705   6.8287864093e+01   4.5645216523e+01    0.5974273     0.269813 -46.40  0.001923931    2.481    0.597
       230 -10.9869     11.4746    125.1435   6.7473917051e+01   4.8681688473e+01    0.4290757    0.2307956 -55.52  0.001833449    1.803    0.445
       231  -9.9369     33.4488    125.4949   5.9064942834e+01   4.6635039887e+01    0.1503662    0.1376122  77.81 4.703041e-05    1.046    0.044
       232 -10.9253    104.2374    122.4927   3.4085357958e+01   3.6594566861e+01    0.3433818    0.2862853  42.08  0.001527893    1.214    0.176
       233  -9.6656     59.6458    123.2658   4.8898541926e+01   4.3951280058e+01    0.1620491    0.1108441  59.79 0.0003353197    1.626    0.385
       234 -10.7571    219.0524    117.5071   9.5799790040e+00   1.6573441199e+01    0.3430164    0.1291547 -51.82  0.001337161    3.325    0.699
