#   1 NUMBER                 Running object number                                     
#   2 MAG_AUTO               Kron-like elliptical aperture magnitude                    [mag]
#   3 X_IMAGE                Object position along x                                    [pixel]
#   4 Y_IMAGE                Object position along y                                    [pixel]
#   5 X_WORLD                Barycenter position along world x axis                     [deg]
#   6 Y_WORLD                Barycenter position along world y axis                     [deg]
#   7 A_WORLD                Profile RMS along major axis (world units)                 [deg]
#   8 B_WORLD                Profile RMS along minor axis (world units)                 [deg]
#   9 THETA_WORLD            Position angle (CCW/world-x)                               [deg]
#  10 FWHM_WORLD             FWHM assuming a gaussian core                              [deg]
#  11 ELONGATION             A_IMAGE/B_IMAGE                                           
#  12 ELLIPTICITY            1 - B_IMAGE/A_IMAGE                                       
         1 -13.4563      4.8914     32.9883   1.0756726470e+02   6.8322588417e+01    0.9472936    0.3563042 -53.22  0.005007039    1.885    0.469
         2 -14.4094     14.4003     27.3050   1.0112785912e+02   6.8790165730e+01     1.325392    0.6964945 -45.48  0.006444626    1.450    0.310
         3 -13.2432    208.8246     29.6267   4.7354495379e+01   2.9126278929e+01    0.8650962    0.6294644 -89.58  0.003867027    1.396    0.284
         4 -13.3086    215.8510     22.3414   4.4622308601e+01   2.8270699761e+01    0.8206653    0.4438759  54.90  0.001487442    1.915    0.478
         5 -13.5663    229.2665      8.0879   3.9769198631e+01   2.6647634525e+01    0.7369552    0.5959895 -61.71  0.002644489    1.089    0.082
         6 -13.0581    147.1740    236.6709   1.0600927346e+02   5.9873008805e+00    0.8015383    0.4818878  47.55   0.00330479    1.384    0.278
         7 -11.0041    242.1672    249.9043   9.0997284374e+01  -1.0393155434e+01    0.3210084    0.2377256  24.35   0.00203016    1.136    0.120
         8 -12.9706    242.1755    241.3399   8.9656966874e+01  -9.4876248723e+00    0.8324056    0.4461882  38.44  0.004678574    1.668    0.401
         9 -13.7322    246.6761    233.7888   8.7679909068e+01  -9.2971182674e+00     1.316103    0.6533348 -21.27  0.007381046    2.159    0.537
        10 -11.5192    229.6161    249.6348   9.3059648384e+01  -8.6012862124e+00    0.5392433    0.1891234  35.96  0.002215323    2.284    0.562
        11 -12.3676    221.2443    242.0918   9.3345389376e+01  -6.5272209591e+00      1.11439    0.5105179  18.55  0.004822424    3.320    0.699
        12 -13.0725    221.0013    231.3977   9.1704837051e+01  -5.2058333012e+00    0.5939061    0.5016853 -41.34  0.004114134    1.635    0.388
        13 -13.0676    218.4677    222.3011   9.0662612480e+01  -3.6520093613e+00    0.5119653    0.4063741  34.35  0.003380845    1.212    0.175
        14 -10.8246    189.3945    250.1034   1.0010590352e+02  -2.6357556708e+00    0.4181476    0.1387245  38.22   0.00190106    2.410    0.585
        15 -13.5236     62.3679    247.7466   1.2234555346e+02   1.6653061927e+01    0.7557979    0.4143753  36.96  0.004686951    1.910    0.476
        16 -10.8269     69.4980    248.0492   1.2116070462e+02   1.5678656232e+01     0.207186    0.1380859 -82.46  0.000767988    1.532    0.347
        17 -11.3542     74.0026    250.0063   1.2054230987e+02   1.4755635703e+01     0.261813    0.1745697  51.40 0.0009583685    1.183    0.154
        18 -11.9956     83.5151    250.4957   1.1895439026e+02   1.3387359989e+01    0.7738271    0.1250547  39.58  0.002605677    5.202    0.808
        19 -11.7481     78.1918    247.2824   1.1961144165e+02   1.4647379121e+01    0.4112159    0.1825872  55.08  0.001724696    1.838    0.456
        20 -15.7808     88.7350    221.6559   1.1536992399e+02   1.7697968712e+01     3.123127     2.376918  44.96   0.02053833    1.262    0.208
        21 -13.4214     58.3950    187.6633   1.1796039654e+02   2.8718989074e+01    0.8199549    0.7925943  81.72  0.004396826    1.334    0.250
        22 -15.4979      2.6738    124.9843   1.2447795088e+02   4.8288920505e+01     5.421573     1.158203 -77.63   0.01852377    4.307    0.768
        23 -13.5458     31.5631    213.7411   1.2538883449e+02   2.6548731397e+01    0.6076384      0.47397  27.18   0.00194168    1.855    0.461
        24 -15.6718     40.8334    199.6302   1.2261770222e+02   2.8330095418e+01     3.849708     1.654292  70.84   0.01822184    2.604    0.616
        25 -10.0393     56.3898    234.3926   1.2241361754e+02   1.9744175924e+01    0.2342234    0.1093344  65.59  0.001294161    2.001    0.500
        26 -13.8500    143.3646    228.4975   1.0567142002e+02   7.9085376636e+00     1.184095    0.6122013  46.02  0.005784917    1.611    0.379
        27 -13.8743     24.3038    231.1380   1.2769031506e+02   2.4059740226e+01     0.787599    0.3422498 -83.84  0.001254935    2.075    0.518
        28 -12.9789    208.0564    214.5958   9.1258050991e+01  -9.0287009802e-01    0.4933312    0.4303259  78.43   0.00309026    1.789    0.441
        29 -12.7935    236.8305    212.1564   8.5659213783e+01  -5.2459807832e+00    0.9618959    0.5605512   5.47  0.004991828    2.068    0.516
        30 -12.7309    246.9975    209.8428   8.3492903400e+01  -6.5228242446e+00    0.8916284    0.5352858   6.89  0.004933661    1.792    0.442
        31 -15.0017      3.3150    229.0122   1.3101265249e+02   2.6551120633e+01     1.042596    0.4182596 -77.52  0.005305431    2.148    0.534
        32 -10.8723    136.7871    214.5260   1.0506696123e+02   1.1382201877e+01    0.5845717    0.3659094  10.46  0.002433561    3.517    0.716
        33 -11.9903    200.7257    209.2734   9.1715005016e+01   1.1129665140e+00     0.500063    0.2910498  30.46  0.002598512    1.597    0.374
        34 -14.0934    247.1303    188.0523   7.9382487182e+01  -3.6905068145e+00     1.406871    0.5951824 -40.13  0.006324871    2.606    0.616
        35 -11.3709    195.2784    195.9660   9.0399552141e+01   4.1310656350e+00    0.5036168    0.3501349  66.08   0.00246682    2.243    0.554
        36 -15.0737     11.5184    207.7203   1.2860967954e+02   2.9777046560e+01      1.66124    0.8185663  81.49  0.005199932    1.672    0.402
        37 -10.9146     76.9474    181.8811   1.1330197562e+02   2.7462488460e+01    0.2613675    0.1913607 -29.28   0.00137546    2.265    0.559
        38 -11.7043     66.1068    177.9320   1.1521495073e+02   2.9829325710e+01    0.2672639    0.2215952 -58.94 0.0004702599    1.365    0.267
        39 -10.7398     97.0202    175.5159   1.0793082735e+02   2.5809620940e+01    0.2652044    0.2211433  76.51  0.001553997    1.118    0.106
        40 -11.0425     72.7831    175.9848   1.1348690578e+02   2.9347145706e+01    0.3193311    0.2451251  46.71   0.00105342    1.304    0.233
        41 -10.8487     73.8643    171.8479   1.1270735688e+02   3.0117961945e+01    0.3365851    0.2318026  66.87  0.001169992    1.412    0.292
        42 -11.2023     75.9142    167.6140   1.1166280084e+02   3.0781263242e+01    0.2614579    0.2333445 -55.59 0.0004082085    1.293    0.227
        43 -13.5463    248.0514    163.7227   7.4304566508e+01  -3.6933844363e-01    0.8433598    0.4727803 -23.79  0.004156626    1.740    0.425
        44 -13.8940    248.6983    147.5167   7.0726575281e+01   1.9672304762e+00     1.354322     0.407978 -32.74  0.004763946    3.152    0.683
        45 -10.7790     87.9769    171.4944   1.0941425588e+02   2.8119161101e+01     0.263749    0.1795058 -87.50  0.001034486    1.574    0.365
        46 -13.4535     63.4397    163.2585   1.1399698383e+02   3.3484215612e+01    0.6995174    0.2976498 -49.19  0.002924531    2.830    0.647
        47 -13.2400     81.3951    159.8523   1.0923722782e+02   3.1754344416e+01     1.025042    0.5040652  54.76  0.001507816    2.219    0.549
        48 -14.2387     66.3677    142.4517   1.1028063034e+02   3.7954302931e+01     1.746548    0.8669475  83.72  0.005957609    4.009    0.751
        49 -15.6751     10.1698    244.1392   1.3057422135e+02   2.3218273599e+01     1.270132    0.8530484  62.27  0.005593162    1.126    0.112
        50 -11.2947     97.3422    145.1261   1.0278988980e+02   3.2656534297e+01    0.2938417     0.275985  -7.75  0.001272528    1.300    0.231
        51 -12.1220     85.6075    144.1244   1.0560702286e+02   3.4781243991e+01    0.2832294    0.2313761 -57.45 0.0004745183    1.201    0.167
        52 -10.8899    107.3730    132.1694   9.7599452496e+01   3.3935790626e+01    0.4860792    0.2826563  59.89  0.001996156    2.171    0.539
        53 -12.2379    102.0001    170.5027   1.0601743974e+02   2.6100885895e+01    0.5708243    0.3032103  48.23  0.002622361    1.804    0.446
        54 -10.9263     96.1652    129.4617   1.0000425074e+02   3.6533800178e+01    0.2858415    0.2410215 -22.35 0.0007470569    1.467    0.318
        55  -9.7880    106.2868    120.9714   9.5394598060e+01   3.6740684130e+01    0.2043742    0.1833353 -56.25  0.000262983    1.067    0.062
        56 -10.4208     44.3095    122.6583   1.1304500261e+02   4.5330656826e+01    0.1357898   0.09039517  77.31 0.0001265377    1.693    0.409
        57 -10.0836    168.1245    113.2265   7.7950413394e+01   2.5317493720e+01    0.3030909    0.2047136 -67.56  0.001216594    2.086    0.521
        58  -9.7189    205.3457    110.3165   6.9554899338e+01   1.7225236682e+01    0.1584519    0.1180317  11.96 0.0007048309    1.721    0.419
        59 -13.0509     57.2223    211.3287   1.2043141983e+02   2.3992626316e+01    0.6664206    0.4186037  79.99  0.002620461    1.445    0.308
        60 -10.2384     52.4957     89.5328   1.0413310816e+02   5.2245456099e+01    0.1353008    0.1164512 -54.73 0.0001464665    1.008    0.008
        61 -11.8852      6.8540     50.5959   1.1153608527e+02   6.4677299960e+01    0.2563066    0.2021919 -26.57  0.001830565    1.283    0.220
        62 -14.7104    158.5314    226.5028   1.0249710150e+02   5.7010350354e+00     2.003647     1.695187  -7.07   0.01252149    1.461    0.315
        63 -12.1231    172.8693    242.2848   1.0200565802e+02   1.0062867044e+00    0.4190537    0.4076111  -8.84  0.002332574    1.270    0.213
        64 -13.2368    122.1468    225.3232   1.0934811245e+02   1.1902551921e+01     1.193521    0.6753883  38.13  0.005261972    1.617    0.381
        65 -12.4671    128.6612    232.5738   1.0897986528e+02   9.6286169976e+00    0.8203305    0.5467483  62.09  0.004431801    1.512    0.338
        66 -13.1319    201.7473     34.2781   4.9525782223e+01   3.0315506647e+01    0.5877765    0.5245946 -23.50  0.001880601    1.225    0.184
