#   1 NUMBER                 Running object number                                     
#   2 MAG_AUTO               Kron-like elliptical aperture magnitude                    [mag]
#   3 X_IMAGE                Object position along x                                    [pixel]
#   4 Y_IMAGE                Object position along y                                    [pixel]
#   5 X_WORLD                Barycenter position along world x axis                     [deg]
#   6 Y_WORLD                Barycenter position along world y axis                     [deg]
#   7 A_WORLD                Profile RMS along major axis (world units)                 [deg]
#   8 B_WORLD                Profile RMS along minor axis (world units)                 [deg]
#   9 THETA_WORLD            Position angle (CCW/world-x)                               [deg]
#  10 FWHM_WORLD             FWHM assuming a gaussian core                              [deg]
#  11 ELONGATION             A_IMAGE/B_IMAGE                                           
#  12 ELLIPTICITY            1 - B_IMAGE/A_IMAGE                                       
         1 -13.8363    226.5358    188.6772   8.6447980098e+01   1.9307450033e+00     3.303025     1.106972 -39.34   0.01365955    3.455    0.711
         2 -13.7345    247.8078    189.9959   8.3147039799e+01  -1.6555133620e+00     5.013615    0.7359914 -32.16   0.01485865    6.803    0.853
         3  -9.6957      3.3358      6.3481   1.0393670196e+02   7.4234737135e+01    0.1931106   0.09625102 -32.70  0.001128947    1.723    0.420
         4  -9.1276    139.4637      3.5086   5.1384714622e+01   5.0104937543e+01    0.1418749    0.1315913  44.66 0.0001683087    1.013    0.013
         5 -13.2384    223.6722    159.3481   8.1261021470e+01   6.4046537412e+00     1.621753     1.016673  15.02  0.008039153    1.857    0.461
         6 -10.2408     24.9682    249.9940   1.2920370321e+02   2.2118543660e+01     0.313257   0.07845332  35.03  0.001482248    4.168    0.760
         7 -11.2857     12.1403    249.0916   1.3110481016e+02   2.3526973215e+01    0.3359071    0.2153859  45.76  0.002823299    1.431    0.301
         8 -10.2226    235.2690    241.9662   9.3642343714e+01  -5.2900274375e+00    0.3740729    0.2248605 -25.99  0.002596579    1.896    0.473
         9 -10.4111      3.2994    249.1071   1.3241269011e+02   2.4354383038e+01    0.2610763    0.2283092  59.10   0.00254407    1.568    0.362
        10  -9.0099    216.6931    240.1871   9.6370279603e+01  -2.4938555739e+00      0.32542    0.1423472 -21.72  0.001650261    3.388    0.705
        11 -10.4252      2.6484    243.8681   1.3235956207e+02   2.5231307681e+01    0.2087304    0.1346925  57.94  0.001803156    1.140    0.123
        12  -9.3371      5.9884    237.5070   1.3166151024e+02   2.5940668999e+01    0.1397469   0.07022639  44.93  0.001033705    1.597    0.374
        13  -9.7654    171.7858    235.3698   1.0329667428e+02   4.7713899164e+00    0.2181746    0.1600083  45.89  0.001492139    1.209    0.173
        14 -12.4067    246.5249    172.8734   8.0119839556e+01   6.0529309590e-01     1.856677    0.8839569  20.58  0.007973736    2.865    0.651
        15  -9.4672    226.0422    247.4812   9.5880194623e+01  -4.5411168440e+00    0.2587329    0.1475785 -20.71  0.001730613    2.042    0.510
        16  -8.7618    136.9772    231.6790   1.0899135765e+02   1.0584957108e+01    0.1872596   0.08307827  26.58 0.0007049975    4.358    0.771
        17 -13.3831    241.1167    197.5710   8.5596329012e+01  -1.4885164098e+00     2.535093     0.782823 -38.70   0.01037482    3.997    0.750
        18 -11.9955    234.5462    216.8582   8.9931093463e+01  -2.6417164867e+00    0.9247739    0.4756227 -39.17  0.005220821    2.533    0.605
        19  -9.1312    206.3607    247.3442   9.9029143997e+01  -1.7510570969e+00     0.297049    0.1604254 -20.69  0.001804229    2.507    0.601
        20  -8.0205    218.3069    215.3005   9.2386427674e+01   3.6925676783e-03    0.1200956   0.07565551  14.88 0.0002288432    1.596    0.373
        21  -9.3354    211.1335    212.2265   9.3125153012e+01   1.4970939110e+00    0.1898395    0.1590113 -68.18  0.001219688    2.098    0.523
        22  -9.0149    195.8389    209.3868   9.5362922126e+01   4.3259573573e+00    0.3065614   0.08607811 -35.19  0.001139238    4.662    0.785
        23 -10.0125    217.4307    205.9553   9.1019011870e+01   1.2589559553e+00    0.2421574    0.1786998 -24.43  0.001314276    1.468    0.319
        24  -8.4307    208.0000    203.9387   9.2327364174e+01   3.0412013677e+00    0.1767865   0.06834032 -36.32 0.0008004726    2.929    0.659
        25  -8.0659    124.0607    205.9749   1.0836059926e+02   1.6616657982e+01    0.1397407     0.117625  54.08  0.000934252    1.022    0.022
        26 -10.5196    202.3054    197.4243   9.2252633927e+01   4.8494618538e+00     0.508128    0.2496125 -42.39  0.002540948    2.452    0.592
        27  -9.0598    188.8560    197.7080   9.4754928546e+01   7.0985292064e+00     0.209571    0.1682073 -10.41  0.001215145    1.368    0.269
        28 -11.9672    215.2622    190.0681   8.8660992401e+01   3.6422912674e+00     0.815359    0.5459278 -54.49  0.004315258    2.486    0.598
        29  -9.6659    209.5055    192.1079   9.0044441874e+01   4.3471136981e+00     0.197633    0.1688584  47.31  0.001276567    1.366    0.268
        30 -12.3327    240.6913    149.7543   7.6356881358e+01   4.6407331094e+00      1.57108    0.9679453  -5.83  0.007858359    1.838    0.456
        31  -8.1903    176.3465    195.6757   9.6767241230e+01   9.5519195620e+00    0.1247491   0.09627406  68.43 0.0007049943    1.743    0.426
        32  -8.6385    187.4916    185.0035   9.2847696393e+01   9.2086377009e+00    0.1836182    0.1282718 -36.25 0.0009126448    1.590    0.371
        33 -11.5279    193.4041    178.1554   9.0492686095e+01   9.1834429824e+00     0.793969    0.5253783 -72.52  0.003310362    3.688    0.729
        34  -9.8045    177.2572    170.8474   9.2269399911e+01   1.3335459060e+01    0.3864304    0.1808842 -31.04  0.001572219    2.824    0.646
        35 -11.6951    206.9643    171.3778   8.6677580833e+01   7.7239063566e+00    0.8351395    0.4626461 -10.63  0.003510633    2.868    0.651
        36  -9.9033      2.4056    168.2949   1.2951889833e+02   3.8936578218e+01    0.2115016   0.07854205 -76.69  0.001146977    2.168    0.539
        37  -9.7597    197.5069    163.9756   8.6991856006e+01   1.0617113636e+01    0.2799156    0.2070333  -1.49   0.00102082    1.532    0.347
        38  -9.1155    200.1355    170.7312   8.7821268355e+01   9.0781274250e+00    0.2512864    0.1632955  -4.66 0.0008543609    2.029    0.507
        39  -9.6099    202.6566    162.1896   8.5659513638e+01   9.9178378751e+00    0.1903562     0.166906  36.23  0.001135057    1.140    0.123
        40 -10.7838      3.1043    157.6658   1.2880932527e+02   4.1081053900e+01    0.3203258    0.1716778 -61.09  0.001985275    1.961    0.490
        41  -9.7635    189.8037    154.1672   8.6484195955e+01   1.3701800878e+01    0.2007341    0.1588885  11.19 0.0006462953    1.346    0.257
        42 -11.6594      7.8981    150.4989   1.2733678770e+02   4.2234666305e+01    0.4466965    0.2199628  77.05  0.002570848    1.767    0.434
        43 -12.4004      4.6350    140.5682   1.2741738314e+02   4.4629335111e+01    0.8340402    0.3862894 -58.57  0.004675657    2.176    0.540
        44 -10.7890    219.0315    144.4433   7.8910407733e+01   9.4872996028e+00    0.6281304    0.2128365 -32.91  0.002293603    2.966    0.663
        45 -11.3542    240.7651    133.0241   7.2681362260e+01   6.9675935547e+00     0.685289    0.4366898 -13.31  0.003460397    1.618    0.382
        46 -11.2461      2.6257    130.0070   1.2715597049e+02   4.7093573428e+01    0.5738566    0.1810507 -76.89  0.002705754    2.412    0.585
        47  -9.8302    192.2867    134.6775   8.1727918731e+01   1.6509920319e+01     0.334668    0.2027851 -41.09  0.001533112    1.696    0.410
        48 -10.4122    237.3807    118.3334   6.9836986741e+01   9.7568649269e+00    0.6624675    0.3663516  -6.71   0.00266142    2.637    0.621
        49 -11.0883      2.4335    117.7897   1.2626350948e+02   4.9840435141e+01    0.4941626    0.1493274 -75.18  0.002260958    2.458    0.593
        50 -10.4347    244.4572    112.4461   6.7346811482e+01   9.1956654932e+00    0.4685678     0.231321 -10.74   0.00170011    3.206    0.688
        51 -11.4814      4.6915    104.8701   1.2448762393e+02   5.2641513144e+01    0.4623262    0.2500558  84.85  0.002637939    1.674    0.403
        52 -11.5832      6.8872     97.2341   1.2304591669e+02   5.4265802376e+01    0.6049585     0.222288 -88.82   0.00253952    2.985    0.665
        53  -9.3200    242.2230    104.1976   6.5705961939e+01   1.0838845344e+01    0.3366929     0.189453  -5.95  0.001362693    2.546    0.607
        54  -8.0128    240.2982     85.3236   6.1313128286e+01   1.3978212796e+01    0.1431029    0.1048477  10.06 0.0004335909    1.626    0.385
        55 -10.4729    243.4064     80.5255   5.9674235941e+01   1.3991520365e+01    0.4158131    0.3454484 -20.39  0.002355891    1.110    0.099
        56  -9.6743    243.0012     66.5026   5.6161267585e+01   1.6035919447e+01    0.2814718    0.1913311 -10.24  0.001378973    1.656    0.396
        57  -9.4405    230.3017     56.3902   5.5121055076e+01   2.0323495510e+01    0.3479182    0.1685566 -53.96  0.001339161    2.546    0.607
        58 -10.2611    230.0868     39.3124   5.0550520028e+01   2.2619375055e+01    0.5428886    0.2647913 -61.78  0.002072054    2.803    0.643
        59  -8.8296    208.5118     30.5279   5.0622244423e+01   2.9044617739e+01    0.1434079    0.1352498 -56.97 0.0008099115    1.003    0.003
        60  -9.0550    246.8668     22.3393   4.4463703610e+01   2.0716619970e+01    0.2439986    0.1563008 -39.38  0.000768857    1.351    0.260
        61  -8.8537    241.0000     17.0056   4.3609984827e+01   2.2659308214e+01    0.2224933   0.07018557 -25.63 0.0008052291    2.962    0.662
        62 -11.6445    246.8727    158.7709   7.7237534813e+01   2.3433218958e+00     1.437613    0.7495887   9.45  0.005921802    3.060    0.673
