#   1 NUMBER                 Running object number                                     
#   2 MAG_AUTO               Kron-like elliptical aperture magnitude                    [mag]
#   3 X_IMAGE                Object position along x                                    [pixel]
#   4 Y_IMAGE                Object position along y                                    [pixel]
#   5 X_WORLD                Barycenter position along world x axis                     [deg]
#   6 Y_WORLD                Barycenter position along world y axis                     [deg]
#   7 A_WORLD                Profile RMS along major axis (world units)                 [deg]
#   8 B_WORLD                Profile RMS along minor axis (world units)                 [deg]
#   9 THETA_WORLD            Position angle (CCW/world-x)                               [deg]
#  10 FWHM_WORLD             FWHM assuming a gaussian core                              [deg]
#  11 ELONGATION             A_IMAGE/B_IMAGE                                           
#  12 ELLIPTICITY            1 - B_IMAGE/A_IMAGE                                       
         1  -9.0846     41.3055     11.3384   5.8854831507e+01   7.2858783514e+01     0.141122    0.1007551   1.91 0.0005759374    1.676    0.403
         2 -11.7455     17.2492    241.9684   1.0782179928e+02   2.3144348860e+01    0.5912037    0.3355125  44.94  0.002424465    1.214    0.176
         3 -10.9163    108.0761    180.8121   8.2452672778e+01   2.3945391334e+01    0.2337057    0.2050164 -21.81  0.001447214    1.311    0.237
         4  -9.4116     80.3176    177.3267   8.9010232708e+01   2.8568587178e+01    0.1282276    0.1007274 -14.97 0.0003855442    1.677    0.404
         5 -12.0529    123.5860    173.4851   7.7611922447e+01   2.2988249455e+01    0.5022801     0.225813  28.64   0.00210462    2.250    0.556
         6 -11.7859    139.0555    171.1292   7.3601743689e+01   2.0964697696e+01    0.4176826    0.2689757  61.84  0.001944396    2.425    0.588
         7 -11.9150    103.9980    166.9776   8.1475478768e+01   2.7313235035e+01    0.3279714    0.3113604  62.43  0.002043901    1.120    0.107
         8 -11.8678     97.8914    170.4634   8.3560738022e+01   2.7515168415e+01    0.4305696    0.2330118 -59.94  0.002049749    2.100    0.524
         9 -11.5194    150.7349    167.9836   7.0431995259e+01   1.9626798862e+01    0.2905439    0.2431404 -52.31  0.001733199    1.452    0.311
        10 -11.8310     86.6920    166.8859   8.6011464174e+01   2.9897088130e+01    0.5118104    0.2958173 -12.59   0.00181442    4.176    0.761
        11  -9.3485     47.3218    167.6523   9.6885238110e+01   3.4735245286e+01    0.1454078   0.08028789  57.62 0.0007049279    1.739    0.425
        12 -10.8017    121.5474    163.5192   7.6488556771e+01   2.5235014643e+01     0.254098    0.1844376  62.77  0.001300581    1.738    0.424
        13  -9.6597     57.4886    164.0033   9.3695204558e+01   3.4390137569e+01    0.1903726   0.09870818  72.20  0.000809379    2.463    0.594
        14 -12.0391    155.0294    161.3878   6.8294627781e+01   2.0062641579e+01     0.460301    0.3287784 -76.52  0.002164362    2.685    0.628
        15 -11.6675    119.4608    159.0694   7.6253206770e+01   2.6460563591e+01    0.4421134    0.1918691  34.57  0.001509276    2.123    0.529
        16 -12.1368     95.7666    158.4025   8.2341043912e+01   3.0380470615e+01    0.4422178    0.2592914  37.66  0.001714882    1.518    0.341
        17 -12.4650     78.0245    155.0487   8.6777326932e+01   3.3741247774e+01    0.6483701    0.3097486 -42.91  0.002614365    2.783    0.641
        18 -10.3916    170.9791    150.1769   6.2743313048e+01   1.9248251112e+01    0.2335909    0.1466417  13.08   0.00109734    2.011    0.503
        19 -11.7965    107.1342    149.4831   7.7794701393e+01   3.0489290441e+01    0.4369076    0.2920402 -19.95  0.001962055    2.216    0.549
        20  -9.5085     49.3172    157.6719   9.5380928681e+01   3.6799541488e+01    0.1463065   0.08518106  58.23 0.0007046018    1.679    0.405
        21 -10.7679    138.2623    147.7057   6.9522719921e+01   2.5473763951e+01    0.2930016    0.1649485  19.22  0.001175596    2.499    0.600
        22 -10.3846    169.6325    146.1933   6.2214324967e+01   2.0152949452e+01    0.2598856    0.1002944  43.65  0.001017675    2.576    0.612
        23 -11.2794     99.4933    142.2671   7.8616741479e+01   3.3332101268e+01    0.3370159     0.225291 -15.10  0.001442301    2.385    0.581
        24 -11.7206    114.4204    144.2187   7.4880422766e+01   3.0378673473e+01    0.3701465    0.2763849  63.49  0.001667034    1.601    0.375
        25 -11.6996    115.9135    153.4747   7.6182105503e+01   2.8188127349e+01    0.4197067    0.2052033  33.59  0.001784075    1.929    0.482
        26 -10.1542    165.7609    136.9836   6.1092208251e+01   2.2435550921e+01    0.1869172    0.1136932 -37.94 0.0008940706    1.656    0.396
        27 -10.4812    147.3939    135.4082   6.4827523304e+01   2.6155283117e+01     0.291242    0.1221514  29.67 0.0009579766    3.376    0.704
        28  -9.6833    178.4779    134.5137   5.7964975435e+01   2.0513753520e+01    0.1366858    0.1230493   0.47 6.100053e-05    1.001    0.001
        29 -11.2201    129.1495    162.8239   7.4512455418e+01   2.4124569417e+01     0.257502    0.2079589 -77.23  0.001315842    1.664    0.399
        30  -9.7288    142.3185    132.6741   6.5432856349e+01   2.7640456099e+01    0.1418531    0.1161915  81.45 0.0007045817    1.677    0.404
        31  -9.5300    149.6411    129.3197   6.2968653335e+01   2.6879369014e+01    0.1437489    0.1161835  82.09 0.0007044062    1.764    0.433
        32 -10.5126    134.4190    132.3103   6.7284601497e+01   2.9211765450e+01    0.2725762    0.1387229 -41.33 0.0009561064    2.080    0.519
        33  -9.1917    151.6657    125.6508   6.1672608863e+01   2.7176504643e+01    0.1527678    0.1107002   1.98 0.0007047625    1.778    0.437
        34 -10.9700    129.4121    123.8643   6.6677404107e+01   3.1894219399e+01    0.3747891    0.2302668   9.57  0.001363475    3.035    0.670
        35  -9.4245    162.6729    120.3187   5.7999397278e+01   2.5978941700e+01     0.139424    0.1160242 -84.02 0.0002449326    1.680    0.405
        36  -9.3968    158.3298    107.6701   5.5851825585e+01   2.9151996082e+01    0.1465199    0.1175108 -79.62 -0.001456469    1.714    0.417
        37  -9.3150    138.3421     97.3258   5.7755711868e+01   3.5409388261e+01    0.1578273    0.1195465   7.64 -2.783014e-05    1.735    0.424
        38 -10.1028    162.6225     92.7780   5.1053514250e+01   3.0880316517e+01    0.2209615      0.12976 -45.36 0.0009602691    1.738    0.425
        39  -9.7432     94.8294     52.1934   5.5502694362e+01   5.4287016075e+01    0.2249855    0.2070442 -83.71 0.0003871413    1.180    0.152
        40  -8.8232     80.6297     12.3238   4.1505811127e+01   6.4077172032e+01     0.151146    0.1091646 -69.29 0.0007033811    1.808    0.447
