#   1 NUMBER                 Running object number                                     
#   2 MAG_AUTO               Kron-like elliptical aperture magnitude                    [mag]
#   3 X_IMAGE                Object position along x                                    [pixel]
#   4 Y_IMAGE                Object position along y                                    [pixel]
#   5 X_WORLD                Barycenter position along world x axis                     [deg]
#   6 Y_WORLD                Barycenter position along world y axis                     [deg]
#   7 A_WORLD                Profile RMS along major axis (world units)                 [deg]
#   8 B_WORLD                Profile RMS along minor axis (world units)                 [deg]
#   9 THETA_WORLD            Position angle (CCW/world-x)                               [deg]
#  10 FWHM_WORLD             FWHM assuming a gaussian core                              [deg]
#  11 ELONGATION             A_IMAGE/B_IMAGE                                           
#  12 ELLIPTICITY            1 - B_IMAGE/A_IMAGE                                       
         1 -11.7428     80.1343     23.3830   7.0093619411e+01   6.0925294563e+01    0.7093785    0.2758017  38.02  0.002876924    2.648    0.622
         2  -8.9030     46.1853     20.5929   8.1967452745e+01   6.6794742195e+01    0.3722571    0.1865014 -37.22  0.001943117    1.805    0.446
         3  -9.4344     79.3305     12.8420   6.5637154404e+01   6.2385220008e+01    0.3737313    0.2408486  50.74  0.001360879    1.614    0.380
         4  -9.2085     74.4609     13.5226   6.7576603771e+01   6.3220901302e+01    0.4618174    0.2572725  -3.09  0.001736172    2.235    0.553
         5  -9.6940    133.9192     13.5677   5.2115859278e+01   5.0227536750e+01    0.2934368    0.2213922  46.25  0.000272698    1.218    0.179
         6  -9.3701     64.1460     14.2159   7.1612367047e+01   6.4956639787e+01    0.3135998    0.1856412  20.20 0.0009456989    1.798    0.444
         7  -8.5355     96.7892     12.4436   6.0241043677e+01   5.8892109790e+01    0.3899505    0.1848193  28.51  0.001303357    2.601    0.616
         8  -9.7245     31.1877     11.2205   8.4462747530e+01   7.0050659615e+01    0.3906935    0.2364784   9.27 0.0009544211    1.717    0.418
         9  -8.7642     32.1164      6.1360   8.1420465677e+01   7.0658542591e+01    0.2369437    0.1779493  -7.94 0.0002901856    1.037    0.036
        10  -8.2255     13.8405     10.6505   9.3200182452e+01   7.1848083436e+01     0.223338    0.1484166  33.44  0.001158606    2.002    0.501
        11  -9.4668     20.4798      8.7431   8.8714520425e+01   7.1550407493e+01    0.2563642    0.1928963  -9.95 0.0004658161    1.096    0.087
        12  -8.6028    125.3744     10.1312   5.2541063695e+01   5.2631018861e+01    0.2226277    0.1668859  45.73 0.0003856008    1.202    0.168
        13  -6.9518    142.6890      9.7057   4.9145853127e+01   4.8447583077e+01    0.1430052   0.09305716  37.11 0.0002215802    1.592    0.372
        14  -8.7320     71.5024      8.8357   6.6381745327e+01   6.4299903532e+01    0.1782173    0.1680617   1.98 0.0006754884    1.264    0.209
        15  -7.0495     65.3395      9.2754   6.8786858600e+01   6.5348659823e+01    0.1310603   0.08211357  16.85 0.0001530532    1.614    0.380
        16  -8.4165      2.8993      7.6957   9.7979174212e+01   7.3129437174e+01    0.3252417    0.1349387 -19.49  0.001563216    2.909    0.656
        17 -10.1920    119.1880      6.8530   5.2564437807e+01   5.4404171822e+01    0.2464583    0.2180816  33.55 0.0002444781    1.044    0.042
        18  -9.6320     76.2873      5.9596   6.3411271370e+01   6.3711515284e+01    0.4206338    0.2497282 -20.14    0.0013704    1.657    0.396
        19  -7.5851    156.0186      7.0855   4.6133815918e+01   4.5359828160e+01    0.1590865    0.1495891  65.69 0.0004226363    1.039    0.038
        20  -8.2584    131.5174      5.4834   4.9628419302e+01   5.1580103271e+01    0.2834874    0.1871595 -45.68  0.001122469    1.759    0.432
        21  -7.5630    134.2704      3.3021   4.8344738451e+01   5.1099991358e+01    0.2088186    0.1534459  51.47 0.0001516121    1.207    0.172
        22  -9.3439     46.6721      6.2258   7.4716653277e+01   6.8701118569e+01    0.2319405    0.1937607   0.38 0.0003072782    1.125    0.111
        23  -8.4362     41.2942      5.6876   7.6830697832e+01   6.9531424438e+01     0.257033     0.149298   4.26 0.0007800091    1.912    0.477
        24  -8.2829    100.3084      5.8022   5.6475157094e+01   5.8790424141e+01    0.2304725     0.178435  43.26  0.001362315    1.142    0.124
        25  -9.0115     92.2954      5.0942   5.8262433429e+01   6.0577138761e+01    0.4218595    0.2195637  41.42  0.002098039    1.703    0.413
        26  -9.6425     84.8649      5.3839   6.0495375971e+01   6.2082930368e+01    0.2772624    0.2059597  -7.29  0.001657093    1.312    0.238
        27 -10.1712     13.3795      4.4602   9.0450523340e+01   7.2848132999e+01    0.2935365    0.2050296  11.12  0.002089798    1.421    0.296
        28  -8.5549    125.3332      3.1998   4.9938241810e+01   5.3268963989e+01    0.3002241     0.177682 -13.43  0.001500219    1.896    0.473
        29  -9.0922    110.7451      2.3455   5.2585126923e+01   5.6758399974e+01     0.313206    0.2306767 -34.23  0.001791256    1.532    0.347
        30  -8.6442     57.6550      3.3318   6.8705402675e+01   6.7319066900e+01    0.2256501    0.1805007  13.17 0.0006482828    1.042    0.040
        31  -7.7925    143.1340      2.1616   4.6467397047e+01   4.9017054862e+01    0.2005481    0.1578425  44.04 0.0003094427    1.210    0.173
        32  -8.1313    105.0875      1.8565   5.3656971608e+01   5.8081176260e+01    0.2487599    0.1546889  50.01 0.0009923368    1.391    0.281
        33  -7.5016      2.8722      1.3595   9.5003919273e+01   7.4143206961e+01    0.1420101    0.0820805  -3.81 0.0004195817    1.697    0.411
        34  -8.5331      2.5088    109.5706   1.2181619967e+02   5.1743920892e+01    0.3306946    0.1295226 -38.31  0.001458946    3.434    0.709
        35  -9.8834    215.8196    249.4960   9.3603203546e+01  -6.8966296909e+00    0.3466523    0.1587017  35.05  0.001901444    1.760    0.432
        36  -7.8942    134.0220    106.4395   8.2555667835e+01   3.4544560324e+01    0.2529424    0.2053222 -42.03 0.0007848653    1.202    0.168
        37  -7.9709    109.5447    106.4735   8.9228124082e+01   3.9526732325e+01    0.2684574    0.2077008 -11.02 0.0007481096    1.694    0.410
        38  -8.8442     13.6783    105.9444   1.1812802274e+02   5.1908275020e+01    0.2126537    0.1125698 -56.79  0.001165396    1.537    0.349
        39  -7.6207     66.6586    104.6748   1.0160269745e+02   4.6962377110e+01    0.1469167    0.1012682 -30.20  0.000506424    1.732    0.423
        40  -7.8025     93.7500    103.3870   9.3023740241e+01   4.3111820054e+01    0.2016473    0.1446634  24.10 0.0009461302    1.671    0.402
        41  -7.5577     64.8164    100.6472   1.0126597318e+02   4.8169716860e+01    0.1838722    0.1274885  44.54 0.0009379201    1.634    0.388
        42  -7.3882    140.5078     99.4308   7.8954582968e+01   3.4634105546e+01    0.1570207     0.151197  -7.78 0.0001342136    1.065    0.061
        43  -7.9042    129.7355     97.3810   8.1176723137e+01   3.7441780473e+01    0.2186792    0.1471743  34.08 0.0004117207    1.656    0.396
        44  -8.3033    242.6606     96.3352   5.8043360520e+01   1.1780364847e+01    0.1482381      0.10206 -62.38 0.0001604022    1.753    0.430
        45  -9.7496     12.2790     94.1279   1.1684273526e+02   5.4768446435e+01    0.3636197    0.1794804 -52.54  0.001377705    1.661    0.398
        46  -8.3880     44.2539     91.9160   1.0598226897e+02   5.2661884223e+01     0.355215    0.1936693 -30.05  0.001600852    2.416    0.586
        47  -8.2111     95.7120     90.7347   8.9024127205e+01   4.5663997121e+01    0.4262602    0.2700714  -0.88  0.001575153    3.053    0.672
        48  -7.8619    110.2125     90.4646   8.4620344792e+01   4.2990776990e+01    0.3233998    0.2126731   5.05  0.001230921    2.656    0.624
        49  -7.9727    126.9874     83.8015   7.7923808715e+01   4.0898549190e+01    0.2612906    0.1798019  16.38  0.001074431    2.055    0.513
        50  -8.3992     66.0575     84.0126   9.6714676161e+01   5.1877854522e+01    0.2169341    0.1830555 -39.50 0.0004231775    1.081    0.075
        51  -9.9766     37.6049     80.8213   1.0576898021e+02   5.5896375175e+01    0.5638718    0.3119062 -15.43  0.002535034    2.833    0.647
        52  -8.8695     20.4054     84.1499   1.1245868513e+02   5.6545473582e+01    0.1970152    0.1616483 -27.17 0.0007322488    1.350    0.259
        53  -9.8390      9.0171     76.6705   1.1502889761e+02   5.8971514122e+01    0.5886136    0.2184443 -36.00  0.002376856    3.112    0.679
        54  -8.7345     88.5886     78.7250   8.7734271917e+01   4.9554273539e+01    0.5588426    0.3044858  19.38  0.002061797    3.059    0.673
        55  -7.7676    184.2123     78.1366   6.3064689160e+01   2.8361373097e+01    0.2117012    0.1763511 -64.06 0.0004930616    1.287    0.223
        56  -8.9089     49.5150     77.0709   1.0060847207e+02   5.5514750610e+01    0.4768698    0.2547412   3.40  0.001932045    3.345    0.701
        57  -9.8654    110.2399     74.8194   7.9834894944e+01   4.6276638414e+01     0.461047    0.2760223  33.07  0.001143969    1.899    0.474
        58  -8.5171     23.4994     74.4788   1.0939667681e+02   5.8529571375e+01    0.3683806    0.1487927 -54.25  0.001616268    1.845    0.458
        59  -8.5743     24.1070     69.9752   1.0815701635e+02   5.9493692330e+01    0.3433156    0.2276616  44.50  0.001587505    1.955    0.488
        60  -8.8953     29.5087     68.5117   1.0577176987e+02   5.9388856006e+01    0.4024228    0.2125426   2.97  0.001934434    2.735    0.634
        61  -8.5045     74.9531     74.1361   9.0852502951e+01   5.2770169258e+01    0.2429742    0.1885352 -32.24   0.00037437    1.222    0.182
        62  -8.0216     49.2897     71.5531   9.9196861858e+01   5.6767789377e+01     0.229314    0.1262294  34.52  0.001032029    2.079    0.519
        63  -8.1015    207.0662     69.2410   5.6598955742e+01   2.4276719897e+01    0.2453104    0.2006308 -21.52  0.000542462    1.316    0.240
        64  -9.1833     82.4609     65.8746   8.5669774710e+01   5.3283546676e+01    0.6874222    0.3465257 -22.73  0.002321496    3.591    0.722
        65  -7.3310    116.5173     68.4894   7.5962668629e+01   4.6206321836e+01    0.1509213    0.1432039 -10.54 -7.956964e-05    1.014    0.014
        66  -7.9365    106.3678     67.4890   7.8587515508e+01   4.8514990689e+01    0.3106913    0.2052113  10.64  0.001286927    2.251    0.556
        67  -8.2363     15.9638     64.0246   1.0988202524e+02   6.1376714823e+01    0.2085897     0.142233 -20.73  0.001285683    1.616    0.381
        68  -8.2936     19.3731     61.1136   1.0785648636e+02   6.1783126825e+01     0.196441    0.1440904 -29.01 0.0006284161    1.336    0.251
        69  -7.1261    148.3211     63.3562   6.6132143025e+01   3.9806032299e+01     0.162082    0.1192977  14.65 0.0004159457    1.760    0.432
        70  -9.8437     62.4266     61.3011   9.1240253117e+01   5.7295483801e+01    0.6548331    0.2929927  23.58 0.0001800879    3.108    0.678
        71  -9.1598     26.3275     60.4090   1.0492108945e+02   6.1415877207e+01    0.3358551    0.2193121 -19.21  0.001944269    1.705    0.414
        72  -8.3983     11.0905     60.9819   1.1108869828e+02   6.2336803645e+01    0.1864477    0.1449617 -54.21 0.0006018822    1.027    0.027
        73  -8.5455     97.5370     58.2346   7.8120234515e+01   5.2021604392e+01    0.4935057    0.2528777 -13.82  0.001328125    5.629    0.822
        74  -9.3633     37.5697     58.8401   1.0001430542e+02   6.0748798482e+01    0.3443977    0.1916104 -22.96  0.001059406    2.200    0.545
        75  -8.1835    111.3485     58.3272   7.3988222760e+01   4.9191412239e+01    0.3310758    0.2038285  24.76  0.001384306    2.105    0.525
        76  -8.1860     49.1824     58.4025   9.5319059549e+01   5.9587253389e+01    0.1695062    0.1214661  40.50 0.0009473686    1.702    0.413
        77  -9.9968     74.9939     50.5077   8.2887028737e+01   5.7495135450e+01    0.4625607    0.2885526 -15.48 0.0003514322    2.006    0.501
        78  -7.8026    128.9925     69.5169   7.2890052436e+01   4.3256726041e+01    0.2208031    0.1264724  27.67 0.0008095808    2.480    0.597
        79  -8.6241    118.3846     51.0043   6.9428314683e+01   4.8917423759e+01    0.2832708    0.2125899  48.90 0.0008329288    1.338    0.253
        80  -9.1392     45.0919     49.1135   9.3869664956e+01   6.1933646572e+01    0.3828582    0.2089616 -25.51  0.001295944    2.082    0.520
        81  -8.3233    106.2993     49.2436   7.2207510610e+01   5.1830386217e+01    0.3616253    0.2048808  22.03  0.001395045    2.644    0.622
        82  -7.2979     53.2837     48.3423   9.0298969025e+01   6.1086323259e+01    0.1375481   0.08832415 -21.73 0.0007015283    1.637    0.389
        83  -8.5726     10.2892     47.5588   1.0812157823e+02   6.5230484264e+01    0.2437269    0.1594758 -47.46  0.001056721    1.150    0.130
        84  -9.0584     13.7626     45.6139   1.0607789561e+02   6.5418880832e+01    0.3037771    0.2106804  44.17 0.0006873622    2.038    0.509
        85  -7.4731    156.0112     47.0399   5.9201327742e+01   4.0525728076e+01    0.1720051    0.1653145 -29.78            0    1.064    0.060
        86 -11.0138     83.1791     40.0412   7.6007889769e+01   5.7890878453e+01    0.3785831     0.260529 -13.27 -0.0009232552    1.557    0.358
        87  -8.7002     87.6295     37.7348   7.3600147745e+01   5.7429489224e+01    0.2456946    0.1977119  37.30 0.0005020074    1.253    0.202
        88  -8.4142     55.6708     43.6585   8.7622973742e+01   6.1649655834e+01    0.3342453    0.1765196 -16.64  0.001358442    2.964    0.663
        89  -8.8730     58.4707     41.0338   8.5503887201e+01   6.1736056810e+01    0.2597617    0.1840342  -7.43  0.001000058    1.494    0.331
        90  -8.7606      2.8864     44.7101   1.1058965524e+02   6.6207691614e+01    0.2465843    0.2060036  29.39  0.001441878    1.580    0.367
        91  -8.4720     92.2508     37.9406   7.2188687013e+01   5.6504087766e+01    0.3970373    0.1683253 -42.88  0.001283263    2.602    0.616
        92  -7.5276    124.4698     39.5060   6.3694394095e+01   4.9308861041e+01    0.1479964    0.1326619  21.14 1.211258e-05    1.088    0.081
        93  -8.1244      3.0789     25.2931   1.0477533859e+02   7.0018677378e+01    0.2119137    0.1087455 -38.65 0.0004059065    1.472    0.320
        94  -9.4168      5.6738     35.1038   1.0665765950e+02   6.7999100945e+01     0.550567    0.2661533 -36.57  0.003169885    1.703    0.413
        95  -7.8734      2.5738     31.5719   1.0705720527e+02   6.8849381695e+01    0.1126159   0.08622129 -44.70            0    1.066    0.062
        96  -8.5417      1.4595     28.5419   1.0665412119e+02   6.9487976057e+01     0.208021   0.09086292 -59.66 0.0005960899    1.946    0.486
        97  -8.2526    105.8325     36.8446   6.7664560902e+01   5.3874344444e+01     0.400421    0.2034878  27.81  0.001478003    2.748    0.636
        98  -9.3715     67.4931     37.9936   8.0809695541e+01   6.0905976693e+01    0.2383606    0.1856527  20.71 0.0009058313    1.277    0.217
        99  -9.7184     70.4927     35.4881   7.8668049251e+01   6.0833041332e+01    0.6544876    0.2394138  36.04  0.002561666    2.973    0.664
       100  -8.7523     35.5098     37.5396   9.3785369388e+01   6.5190982973e+01    0.2402643    0.1588293 -37.66 0.0008335199    1.234    0.190
       101  -9.3511     38.4848     35.4723   9.1687557858e+01   6.5252243935e+01    0.3788997     0.195224  12.06  0.001813121    2.583    0.613
       102  -9.0763     22.0021     32.0817   9.7925363741e+01   6.7464260149e+01    0.2976609    0.2607247  18.64  0.001071134    1.410    0.291
       103  -8.9387     55.1409     36.0756   8.4869093160e+01   6.3070652127e+01     0.490417    0.2684453  -7.04  0.001633403    3.059    0.673
       104  -9.6119     19.4195     36.0667   1.0054440073e+02   6.6917230969e+01    0.4765815    0.2818855  31.45   0.00283864    2.087    0.521
       105  -8.6635     42.3223     28.0507   8.6975194065e+01   6.6100570613e+01    0.2146512    0.1456308  -8.97  0.000587273    1.468    0.319
       106  -9.1840     61.7084     26.9570   7.8389653282e+01   6.3579995145e+01    0.2905895    0.1961884   0.94 0.0009324902    1.590    0.371
       107  -8.0576    109.5036     26.0272   6.2416412778e+01   5.4546722739e+01    0.2051934    0.1336109 -26.26  0.001022861    1.562    0.360
       108  -9.6191    204.1709    249.7230   9.5689832481e+01  -5.2185276337e+00    0.2886628   0.08287151  37.57  0.001220351    2.835    0.647
       109  -8.5676     26.2415     24.5206   9.2939945570e+01   6.8442876276e+01    0.4101126    0.1406046 -30.07  0.001514748    3.975    0.748
       110  -8.5279     28.9946     21.0000   9.0101811259e+01   6.8764951803e+01    0.5804492    0.2580018  35.53  0.002971578    2.682    0.627
       111  -7.5913    102.4964     25.4492   6.4088688398e+01   5.6152652348e+01    0.1399415    0.1217425  19.79 0.0003179641    1.048    0.046
       112  -8.5665    144.5548     23.4105   5.3551447032e+01   4.6534229980e+01    0.2282974    0.2146722  50.51 0.0001897129    1.007    0.007
       113  -7.8328    128.9089     22.6678   5.6472754527e+01   5.0452846130e+01    0.2325949    0.1524265  40.26 0.0008011067    1.482    0.325
       114  -9.5597    184.9211    249.1243   9.9057257159e+01  -2.2407452473e+00    0.2607307     0.146264  50.76  0.001433172    1.973    0.493
       115  -9.0166     92.4983     20.5864   6.4955753329e+01   5.8859682401e+01    0.2497874    0.2206592  23.19 0.0005690389    1.048    0.046
       116  -8.4188    140.2363     19.9982   5.3190599156e+01   4.7993139542e+01    0.2389121    0.1823125  57.94 0.0004730031    1.213    0.175
       117  -9.0887      8.1273     19.7400   1.0014452934e+02   7.0731763566e+01    0.3316062    0.2140809  15.37  0.002236529    1.734    0.423
       118  -8.8378     12.8517     18.3415   9.7107765526e+01   7.0645629219e+01     0.378548    0.1758194  -0.10  0.001883577    2.933    0.659
       119  -7.2191    146.9962     19.0233   5.1593524846e+01   4.6419151447e+01    0.1654539    0.1490806  58.61  0.000337665    1.031    0.030
       120  -8.1581    127.4009     16.8742   5.4648291063e+01   5.1461114822e+01     0.220981     0.179289  67.80 0.0004976605    1.259    0.206
       121  -9.3812    171.0022    247.8105   1.0141468861e+02   8.4077935598e-02    0.2418707    0.1701258 -72.19  0.001410945    2.450    0.592
       122  -8.9811    147.0948    249.3834   1.0600279869e+02   3.5666512811e+00    0.2414106     0.133099  27.81  0.001115074    2.022    0.505
       123 -10.1279    115.0052    247.0272   1.1163127990e+02   8.8217175502e+00    0.1928673    0.1750767  69.78 0.0003260708    1.185    0.156
       124 -10.3354    161.9230    243.3101   1.0249589403e+02   2.1507833248e+00    0.3164407    0.2391269  57.15  0.002041114    1.430    0.301
       125  -7.4295    147.3365     14.3236   4.9931828046e+01   4.6832088650e+01    0.1496724   0.09496664  35.39 0.0007050956    1.715    0.417
       126  -7.9647    105.2878     14.3723   5.8804663271e+01   5.6840204942e+01    0.1448188   0.09180568  22.37  0.000668893    1.716    0.417
       127  -8.9427    193.6727    241.9368   9.6445115583e+01  -2.6295295492e+00    0.1640984    0.1411247  20.23  0.001156848    1.099    0.090
       128  -8.4665     87.9322     12.8742   6.2965590232e+01   6.0686919747e+01     0.208738    0.1549682  20.42 0.0005209097    1.258    0.205
       129  -7.8772    240.2886    235.2867   8.7135650715e+01  -8.7158984618e+00    0.1168504   0.07269881   8.67            0    1.534    0.348
       130  -9.5501    188.2056    233.9620   9.6270344629e+01  -6.7338240570e-01    0.2635591    0.2241229 -64.58  0.001735838    1.705    0.413
       131  -8.4538    227.0998    223.2471   8.7432000678e+01  -5.2985937788e+00    0.1826086    0.1477297   0.12 0.0003268257    1.107    0.097
       132  -8.5426    225.3885    205.5186   8.4624705374e+01  -2.6088043847e+00    0.2303793     0.212007 -58.45 0.0009691551    1.617    0.381
       133  -7.6120    163.8454    203.1748   9.6178345229e+01   8.3497749559e+00    0.1806093    0.1520528   3.51 0.0005199389    1.337    0.252
       134  -7.7684    245.1661    198.1825   7.9754671160e+01  -4.7099214154e+00    0.1578254    0.1411599 -21.51 0.0005299199    1.328    0.247
       135  -8.2647    214.8984    195.7993   8.4767362711e+01   5.7864426678e-01    0.2074597     0.175026 -15.30 0.0003729724    1.150    0.131
       136  -7.2018    215.3362    191.2926   8.3830399860e+01   1.2047959873e+00    0.1385386    0.0943523   8.14 0.0003993639    1.642    0.391
       137 -10.1740    183.0996    186.6766   8.9295564368e+01   7.7924795693e+00    0.2449952    0.2401017  14.23 0.0004156556    1.120    0.107
       138  -7.5800    241.7102    186.3210   7.8073182898e+01  -2.4841752931e+00     0.113492      0.10367 -56.02 0.0002839218    1.604    0.376
       139  -8.1885    203.8109    170.8861   8.1992377437e+01   6.6910423480e+00    0.2061226    0.1736763  -1.53 0.0003220953    1.171    0.146
       140  -7.6262    189.5157    168.9781   8.4478152147e+01   9.7902017734e+00    0.1991306    0.1221226 -15.55 0.0008080291    2.383    0.580
       141  -8.3533     68.9319    167.0865   1.1182793982e+02   3.1622672622e+01      0.19472    0.1680499  80.68 0.0003312822    1.029    0.029
       142  -7.6257    133.5036    147.4899   9.2557102708e+01   2.5411308134e+01    0.1486681    0.1462648  84.55   8.7227e-05    1.015    0.015
       143  -9.1537     67.1646    144.6750   1.0900842316e+02   3.7181711059e+01    0.4243338    0.2763095 -86.86  0.002110407    1.649    0.394
       144  -7.4146    161.3242    143.2573   8.5019782121e+01   2.0656174241e+01    0.1505691    0.1197627   8.85 0.0002501652    1.550    0.355
       145  -7.6986     67.6688    127.6635   1.0597018318e+02   4.1250599480e+01    0.1438163    0.1014814 -34.63  0.000705211    1.735    0.423
       146  -7.3104    143.6802    126.6806   8.5306459991e+01   2.7995324862e+01     0.158502    0.1251927  -3.33  0.000704286    1.665    0.399
       147  -7.7184    132.9841    124.5233   8.7468090380e+01   3.0719272611e+01     0.219243    0.1390202  18.24 0.0005568473    2.545    0.607
       148  -8.8260     12.0073    121.5014   1.2055195705e+02   4.8352800264e+01    0.2791328   0.09157972 -57.30  0.001248856    2.408    0.585
       149  -8.0379    100.2799    118.8526   9.4906304882e+01   3.8326410466e+01    0.2879547    0.2036958   2.85  0.001230667    2.243    0.554
       150  -7.5316    120.0113    119.0000   8.9515491666e+01   3.4603740557e+01    0.2483179   0.08851681  42.01 0.0005598611    2.904    0.656
       151  -7.4818     85.1916    121.6014   9.9797103739e+01   4.0177079600e+01    0.1975315    0.1432457  19.10 0.0009479274    1.775    0.437
       152  -8.1018     28.4843    112.5535   1.1471215705e+02   4.9215473234e+01    0.1289317    0.1050895 -72.53 9.095674e-05    1.018    0.017
       153  -7.1634    142.6507    111.6997   8.1757242316e+01   3.1516596829e+01    0.1612746    0.1260998   3.62 0.0007037738    1.690    0.408
