#   1 NUMBER                 Running object number                                     
#   2 MAG_AUTO               Kron-like elliptical aperture magnitude                    [mag]
#   3 X_IMAGE                Object position along x                                    [pixel]
#   4 Y_IMAGE                Object position along y                                    [pixel]
#   5 X_WORLD                Barycenter position along world x axis                     [deg]
#   6 Y_WORLD                Barycenter position along world y axis                     [deg]
#   7 A_WORLD                Profile RMS along major axis (world units)                 [deg]
#   8 B_WORLD                Profile RMS along minor axis (world units)                 [deg]
#   9 THETA_WORLD            Position angle (CCW/world-x)                               [deg]
#  10 FWHM_WORLD             FWHM assuming a gaussian core                              [deg]
#  11 ELONGATION             A_IMAGE/B_IMAGE                                           
#  12 ELLIPTICITY            1 - B_IMAGE/A_IMAGE                                       
         1 -13.1771     57.7675    131.1713   9.9912460027e+01   4.2153241812e+01     3.427247     1.035354 -70.36  0.006564099   10.157    0.902
         2 -12.8349    200.6604     49.7934   4.3132430715e+01   2.9481096160e+01     1.598002    0.9593369  59.62  0.008249784    1.663    0.399
         3 -13.6867    216.1169     36.5533   3.8186711993e+01   2.7813675250e+01     1.014828    0.7771579 -78.89  0.004087968    1.223    0.183
         4 -13.2871    223.1382     29.7803   3.5978373674e+01   2.7147247462e+01    0.7621133    0.5184028  60.79  0.001421676    1.564    0.361
         5 -13.7409    237.5327     16.8380   3.2045913441e+01   2.5684176024e+01    0.7364022    0.6154462 -61.81  0.002767866    1.098    0.089
         6 -11.0259      2.5562      3.5495   8.4839590343e+01   7.3724869442e+01    0.2491039    0.1466349 -35.64  0.001657639    1.500    0.333
         7 -11.2866     32.3548    222.2174   1.1756676686e+02   2.3339326076e+01    0.2642362    0.2366517  53.90  0.001568174    1.200    0.167
         8 -13.7520     85.8586    222.2728   1.0611629650e+02   1.6769401504e+01     1.878722     1.050981  62.29 0.0006197481    2.143    0.533
         9 -14.7693      9.3384    207.5025   1.2126710224e+02   2.8723096431e+01     1.952221     1.103427 -85.58  0.004117484    1.523    0.343
        10 -13.4057     11.2386    232.5288   1.2237680176e+02   2.3312737013e+01      0.90703    0.4758208  85.64  0.001799767    1.714    0.417
        11 -12.2301     14.9422    248.9231   1.2257416346e+02   1.9757621826e+01    0.4014813    0.2920462  34.38 0.0008301047    1.517    0.341
        12 -14.1198      5.2342    244.2126   1.2406616100e+02   2.1577311958e+01     2.116465     1.149927  37.34   0.01382401    1.742    0.426
        13 -15.1295     58.1195    248.5181   1.1446546257e+02   1.5111458740e+01     9.887991      3.00845  24.35   0.02125619   13.654    0.927
        14 -10.8250    183.9536    216.0517   8.3688674884e+01   2.8659014638e+00    0.3254916    0.2300081  67.43  0.001506457    2.815    0.645
        15 -10.3448    192.1671    193.3335   7.7819052525e+01   5.5980299321e+00    0.4719102    0.2739573 -65.76  0.001584004    4.708    0.788
        16 -12.6899     58.3367    242.7381   1.1394849987e+02   1.6199616278e+01    0.4879149    0.3580882  52.74 0.0007076229    1.145    0.127
        17  -9.7919     56.0682    192.9802   1.0955489998e+02   2.7173956553e+01    0.2040754    0.1717808  75.27 0.0005400461    1.102    0.093
        18 -12.0598     55.0788    177.9536   1.0797388086e+02   3.0862894531e+01    0.4428114     0.292788 -34.29  0.002199709    1.988    0.497
        19 -12.0296     60.9475    172.4381   1.0572705651e+02   3.1483407146e+01    0.3477032    0.2769763 -40.88 0.0008072806    1.400    0.286
        20 -11.6827     71.7443    162.8692   1.0141124690e+02   3.2422702613e+01    0.3135502    0.3036187 -68.31 0.0003987883    1.054    0.051
        21  -9.3938    139.3278    249.6727   9.8130788270e+01   3.8449546289e+00    0.1248061   0.08952013  58.46 0.0004724735    1.703    0.413
        22 -13.9331     68.2556    144.3349   9.9214577861e+01   3.7509276688e+01     3.975648     1.864256  65.19   0.01000109    6.791    0.853
        23 -13.4208     58.2507    159.0736   1.0450476766e+02   3.5114136031e+01    0.5432417    0.3141065 -39.56  0.001490056    2.046    0.511
        24 -11.9357     36.5553    160.8235   1.1062633031e+02   3.7096875260e+01     0.552029    0.3005951  64.78  0.001530616    2.252    0.556
        25 -11.6819     32.5269    157.0205   1.1123385889e+02   3.8429623032e+01    0.3767904    0.2366317 -50.01 0.0007932084    1.581    0.367
        26 -13.0921     79.2491    156.6213   9.8292445903e+01   3.2911961381e+01     1.104629    0.8446064  87.30  0.001996063    1.520    0.342
        27 -11.6718     54.2507    148.5950   1.0399415341e+02   3.8213345788e+01    0.4031961    0.1890298 -53.27  0.001730882    1.925    0.481
        28 -12.1565     21.7777    147.4930   1.1300616060e+02   4.1738482419e+01    0.3813759    0.2848616 -88.47  0.001704692    1.247    0.198
        29  -9.9775    133.9091    145.6772   8.1238877134e+01   2.6192907749e+01    0.7368839    0.1631045 -52.90  0.001556563    6.802    0.853
        30 -13.1242     24.9191    204.8951   1.1780008808e+02   2.7853953494e+01      0.47393    0.3549066 -47.74 0.0009595974    1.648    0.393
        31 -12.2596     82.7441    141.0185   9.4347759889e+01   3.6259015458e+01    0.3191424    0.2774589 -52.91 0.0004391458    1.087    0.080
        32 -10.4900     94.8688    142.8451   9.1226906307e+01   3.3893434906e+01    0.3347407     0.305776  -5.98 0.0008928923    1.179    0.152
        33  -9.7903     98.1726    139.2580   8.9518899489e+01   3.4217093543e+01    0.3799964    0.2542879 -17.91  0.001071139    2.138    0.532
        34 -16.1123     33.3182    190.5086   1.1467084318e+02   3.0289201408e+01     8.817266     3.811722  73.20    0.0340823    3.387    0.705
        35  -8.6223    131.5638    137.2798   7.9906308550e+01   2.8563693738e+01    0.1618189    0.1218852  74.24 0.0002638175    1.868    0.465
        36 -12.2530     67.3996    128.8863   9.6489177151e+01   4.1475232912e+01    0.7365668    0.4671803 -81.00  0.001632043    2.110    0.526
        37 -10.7943    106.8048    131.1463   8.5221891755e+01   3.4660560520e+01    0.3852213    0.3478182   9.65  0.001132261    1.170    0.145
        38 -11.1867     94.2445    127.6167   8.8052728554e+01   3.7694102105e+01    0.2889444    0.2424678 -37.06 0.0003362033    1.168    0.144
        39 -11.0373     14.7098    128.7809   1.1269564895e+02   4.6889534312e+01     0.224387    0.2063877 -86.81 0.0006666132    1.132    0.117
        40  -9.8435    114.9569    125.0295   8.1445483381e+01   3.4586693770e+01     0.257339    0.1897526 -11.05  0.001132401    1.758    0.431
        41 -10.5041    244.2303    123.0137   5.3737588307e+01   9.1483187877e+00    0.1891601   0.09497958 -37.86 0.0008289878    1.681    0.405
        42 -11.0824     49.0125    122.7045   1.0104588647e+02   4.5289784624e+01    0.3066317    0.2307456  61.59 0.0007420237    1.609    0.379
        43  -9.7922    105.0932    119.8594   8.2985164162e+01   3.7625075046e+01    0.2223976    0.2080239 -26.07 0.0003229677    1.037    0.036
        44  -8.8399    167.8023    113.1839   6.5161808198e+01   2.6187706948e+01    0.2539899    0.1688776 -80.88 0.0009427849    2.826    0.646
        45 -10.0288    205.1703    110.6395   5.7208159453e+01   1.8727982425e+01    0.3188998    0.2481577  30.08  0.001269083    1.506    0.336
        46 -11.4392      1.7633     97.2924   1.1240621442e+02   5.5252654523e+01    0.4188104     0.143219 -70.33  0.001778119    2.447    0.591
        47 -10.6737     52.9657     90.6928   9.2514381140e+01   5.2485341027e+01    0.3138785    0.2105677 -44.69 0.0009651102    1.316    0.240
        48  -9.3382     49.4712     88.5281   9.3228788984e+01   5.3397735904e+01    0.1929888    0.1681044  70.60 0.0007022056    1.508    0.337
        49  -9.7304     41.5938     92.1877   9.7043579127e+01   5.3438460465e+01     0.204005    0.1875567  23.83 0.0003297028    1.238    0.192
        50 -10.2639     44.4411     90.4485   9.5571831418e+01   5.3533391181e+01    0.2610411    0.2305324 -88.62 0.0007689485    1.405    0.288
        51 -11.7774      1.8870     81.0012   1.0962959474e+02   5.9013806684e+01     0.567549    0.1305996 -65.95  0.002087952    3.334    0.700
        52 -10.0554    162.1514     83.4375   5.8472248933e+01   3.3065217547e+01    0.2536232    0.1759634 -43.41  0.001201861    1.427    0.299
        53 -10.1344     57.2731     76.5894   8.6973136863e+01   5.5025197633e+01    0.3906125    0.2662327  67.81  0.001699061    2.886    0.653
        54 -10.5537     13.4563     60.1835   1.0020105796e+02   6.2914670024e+01    0.2255331    0.1823329 -38.43 0.0004115532    1.039    0.038
        55 -10.0709     28.6973    237.0780   1.1933476774e+02   2.0671018316e+01    0.1593403    0.1219739  81.33 0.0005517557    1.126    0.112
        56 -12.5550    208.1930     40.9549   4.0081933773e+01   2.8979121446e+01    0.6476291    0.4201372  72.25  0.001986511    1.521    0.342
        57 -10.9209     33.2489    234.2394   1.1825898185e+02   2.0759840513e+01    0.4211045    0.1705233  48.95  0.002161875    2.081    0.519
        58  -9.3879    170.7229    233.8992   8.9380338664e+01   1.8469357332e+00     0.175282    0.1551673 -13.01  0.001126678    1.151    0.131
        59  -9.0538     26.9244     51.8489   9.1694628002e+01   6.3510058471e+01    0.1497567    0.1400861   0.99 0.0004486392    1.284    0.221
        60 -10.8012    128.0215     35.6707   5.1356868726e+01   4.8247223913e+01    0.3529754    0.2547857 -75.12  0.001143128    1.916    0.478
        61  -9.2678    130.4885     30.0176   4.8994821217e+01   4.8345905153e+01    0.1934023    0.1642413  57.85 0.0003504004    1.083    0.077
        62 -11.5559     59.1197    229.7472   1.1265163567e+02   1.8709422296e+01    0.3313807    0.2356265 -60.75  0.001132763    1.528    0.346
        63 -10.6273      7.1162     25.6505   9.2083224814e+01   6.9931920815e+01    0.2068915   0.08939157  27.18  0.001095256    2.510    0.602
        64 -10.4257    189.8430     15.3449   3.5998858284e+01   3.6049404699e+01    0.2108508     0.155154 -51.17 0.0007355433    1.324    0.245
