#   1 NUMBER                 Running object number                                     
#   2 MAG_AUTO               Kron-like elliptical aperture magnitude                    [mag]
#   3 X_IMAGE                Object position along x                                    [pixel]
#   4 Y_IMAGE                Object position along y                                    [pixel]
#   5 X_WORLD                Barycenter position along world x axis                     [deg]
#   6 Y_WORLD                Barycenter position along world y axis                     [deg]
#   7 A_WORLD                Profile RMS along major axis (world units)                 [deg]
#   8 B_WORLD                Profile RMS along minor axis (world units)                 [deg]
#   9 THETA_WORLD            Position angle (CCW/world-x)                               [deg]
#  10 FWHM_WORLD             FWHM assuming a gaussian core                              [deg]
#  11 ELONGATION             A_IMAGE/B_IMAGE                                           
#  12 ELLIPTICITY            1 - B_IMAGE/A_IMAGE                                       
         1 -13.3679     97.6259     49.1012   8.7975669872e+01   5.3248399615e+01     1.083622    0.8935037  31.59  0.004437853    1.289    0.224
         2 -15.0961    233.1485     15.4298   5.0963407518e+01   2.4400209441e+01     2.770566     1.364252 -47.81   0.01170497    2.056    0.514
         3 -13.6559    241.6402     41.0532   5.7053311118e+01   1.9534099256e+01     1.539972    0.9770129 -63.72  0.006027407    1.956    0.489
         4 -13.6288    220.9094     31.6419   5.6879028753e+01   2.5718187336e+01       1.6463     1.049323 -87.47  0.006286793    1.977    0.494
         5 -12.6066    187.2016     33.0482   6.1968357615e+01   3.4314208159e+01    0.8866641    0.8325099 -16.44   0.00265895    1.063    0.059
         6 -12.6511    194.5585     22.6762   5.7569110292e+01   3.3587062084e+01    0.7132813    0.6199602  -3.98  0.001327562    1.199    0.166
         7 -12.4058    103.4743     37.9222   8.2069895440e+01   5.4062087510e+01    0.8187242    0.5351988  -0.44  0.003612524    2.172    0.540
         8 -14.1518    207.9625      6.0514   5.0798192644e+01   3.1751139689e+01     1.922225     1.245218 -72.39  0.006717786    1.755    0.430
         9 -11.7097     40.7457     16.0984   9.5731403211e+01   6.7971928392e+01     0.311356     0.145949 -46.08  0.001579525    1.837    0.456
        10  -9.7476     57.6677      2.6773   8.1780930859e+01   6.7746940271e+01    0.1319082   0.08610007   2.56 0.0007050106    1.703    0.413
        11 -10.4533     44.9923      2.0000   8.6839800671e+01   6.9714848783e+01    0.1788222   0.06759045  39.73 0.0008059285    2.967    0.663
        12 -11.7811    194.2984    193.7700   9.9707941302e+01   8.7608800548e+00    0.6046033    0.4959809  71.38   0.00391998    1.684    0.406
        13 -19.4735     17.0101    141.3826   1.2877027557e+02   4.3789663122e+01     16.34278      2.95963 -77.56   0.05619437    5.375    0.814
        14 -10.5166    207.5768    183.3296   9.5678378485e+01   7.7612945963e+00    0.2927801    0.2090473 -43.60   0.00146204    1.794    0.443
        15 -11.4078    102.9436    171.0795   1.1368470675e+02   2.7715980171e+01    0.5428132    0.1690964  49.70  0.002176205    3.061    0.673
        16  -9.7528    137.6126    170.8167   1.0665818158e+02   2.2123234908e+01    0.1671012    0.1188251 -68.37 0.0009506902    1.702    0.412
        17  -9.7269    145.5447    168.5016   1.0471489382e+02   2.1128108131e+01    0.1278758    0.1124538  49.38 0.0001827934    1.012    0.012
        18 -11.4493     90.5681    164.9263   1.1543963373e+02   3.0695485144e+01    0.3528933    0.2380576  53.36  0.001129261    1.314    0.239
        19 -12.0810     70.3735    135.2633   1.1595091123e+02   3.9422076938e+01    0.4071516    0.2749578  54.78   0.00188596    1.427    0.299
        20 -13.8408     67.7506    143.3354   1.1764453094e+02   3.8085309274e+01     2.222244    0.9974071  84.73   0.00328696    5.023    0.801
        21 -11.2123     96.4855    157.2764   1.1317237066e+02   3.1292044318e+01    0.4718435    0.3459315 -34.40  0.002709373    2.021    0.505
        22  -9.9413    141.0345    157.8118   1.0385073553e+02   2.3779065052e+01    0.1960699    0.1816479 -88.49 0.0003244437    1.146    0.127
        23 -10.6127    133.7047    144.4091   1.0302608717e+02   2.7549466964e+01    0.9664332    0.2126991 -54.67  0.002272282    8.318    0.880
        24  -9.1977    174.6805    149.2949   9.5474766251e+01   1.8844670136e+01    0.1309628    0.1060578  79.05 0.0002154122    1.611    0.379
        25 -10.7311    210.8460    180.4986   9.4622569019e+01   7.5364479542e+00    0.3166662    0.2282314  -6.76  0.001913471    1.554    0.356
        26 -10.7056     79.8395    180.1739   1.1935777263e+02   2.9346011115e+01    0.1981797    0.1878982 -72.07 0.0003995236    1.370    0.270
        27 -10.3211    107.9305    141.1640   1.0816827061e+02   3.2659326301e+01    0.3865758    0.2400569 -32.47  0.001804121    2.576    0.612
        28 -11.5593     95.9611    141.9326   1.1101291246e+02   3.4408018045e+01    0.2373357    0.2299311 -79.88 0.0003560868    1.184    0.155
        29 -12.8929     79.3972    160.0414   1.1717976024e+02   3.3200822802e+01    0.4558744    0.3627267  81.51  0.001058298    1.116    0.104
        30 -10.7076    115.1633    131.4058   1.0476574278e+02   3.3387518735e+01    0.2646878    0.2184825 -14.16  0.000900351    1.685    0.407
        31 -11.6099     83.5923    174.6912   1.1802482740e+02   2.9844031537e+01    0.3937429    0.2458401 -47.82  0.002269516    2.141    0.533
        32  -9.8017    105.8315    130.8286   1.0684185215e+02   3.5090110679e+01    0.3047381    0.2334764 -85.06  0.001675309    1.417    0.294
        33 -10.3090    102.8241    127.6474   1.0697397511e+02   3.6238700964e+01    0.2386166    0.2044937 -19.47 0.0007321395    1.558    0.358
        34  -9.2617     99.3108    180.5960   1.1559247835e+02   2.6540228901e+01    0.1532782    0.1028958  38.76   0.00079617    1.501    0.334
        35 -10.1462    197.7112    176.6726   9.6251927839e+01   1.0399289166e+01    0.2707095    0.2043174  29.16  0.001103168    1.175    0.149
        36  -9.8772    136.4033    122.9170   9.8144028113e+01   3.1141390176e+01    0.2863414    0.2108949  74.84  0.000864675    1.697    0.411
        37  -9.6226    110.3034    120.0053   1.0369239417e+02   3.6552255639e+01    0.1838063    0.1673016 -68.68 0.0002983679    1.076    0.071
        38 -10.7056    196.9809    172.8034   9.5696746044e+01   1.1059328869e+01    0.3225212    0.2663144  -0.72  0.001269354    1.288    0.224
        39  -9.3482     65.4489    114.4594   1.1399755902e+02   4.4499641548e+01    0.1254559     0.108914 -82.20 8.674579e-05    1.006    0.006
        40 -10.3970    243.9662    114.6997   7.5487192403e+01   9.6733409493e+00    0.1935646    0.1709114  24.62 0.0006726597    1.105    0.095
        41  -9.4239    167.8967    112.7708   8.8862596791e+01   2.6485137014e+01    0.2745344    0.1921139 -67.97  0.001225569    2.063    0.515
        42  -9.4131    205.5235    110.0513   8.0809291871e+01   1.8568764359e+01    0.2246768    0.1898349  41.08 0.0007191372    1.150    0.130
        43 -12.1728     61.4554    104.3257   1.1333002474e+02   4.7211802211e+01    0.4852717    0.2822779 -58.71   0.00223545    1.526    0.345
        44 -11.5837    130.8360     84.5113   8.9998569582e+01   3.9794792665e+01    0.6174725    0.5062581  -4.31  0.003145085    1.483    0.326
        45 -12.1903    127.0285     78.7431   8.9312128091e+01   4.1713228591e+01    0.6566472    0.4837019 -23.58  0.003178409    1.552    0.356
        46 -11.9548    231.8048     67.8959   6.5548023274e+01   1.8534586343e+01     1.330947    0.6266678 -47.27  0.005137544    2.537    0.606
        47 -11.5533    223.7157     62.8785   6.5346339526e+01   2.1126776908e+01     0.576371    0.4472667 -57.23  0.002927555    1.479    0.324
        48 -12.3791    215.7325     65.5635   6.7290531681e+01   2.2706052238e+01     1.115525    0.9138321  35.92  0.004773775    1.245    0.197
        49 -12.1061    213.4439     59.8974   6.6041902018e+01   2.4044147283e+01     1.096093    0.6886219   2.98  0.004602025    2.115    0.527
        50 -10.3595    168.6891     68.5904   7.6608688312e+01   3.3933286216e+01    0.3717361    0.2736466 -75.94 0.0008101261    1.905    0.475
        51 -10.8467    129.7010     65.1052   8.4462442457e+01   4.3705634326e+01    0.2829799    0.2221523 -54.13 0.0009427495    1.380    0.276
        52 -11.7322    118.4061     67.3204   8.8120829947e+01   4.5704707849e+01    0.5530996    0.4055091   7.42  0.002576001    1.878    0.468
        53 -10.9227    108.1123     60.6393   8.8827234293e+01   4.9057671696e+01     0.290944    0.2057056 -32.36   0.00107013    1.408    0.290
        54 -12.1122     85.6907     54.5813   9.3586890799e+01   5.4344619686e+01      1.04353    0.4646575 -31.74  0.003817811    3.049    0.672
        55  -8.9263    168.2346    247.9957   1.1118309736e+02   6.4801118695e+00   0.09911187   0.09026764 -41.09 0.0002863965    1.536    0.349
        56  -9.7575    170.1517    239.8266   1.0997880409e+02   7.1025069822e+00    0.1431762    0.1031475  29.34 0.0003751273    1.327    0.246
        57 -10.7653    102.8012    236.9478   1.2053504684e+02   1.7150285586e+01    0.2658205    0.1580497  60.86  0.001889288    1.424    0.298
        58  -9.3698    184.6793    234.3273   1.0700557955e+02   5.5150816450e+00     0.103577   0.07426754  60.51 0.0005958311    1.685    0.407
        59 -11.7812    176.3678     42.4463   6.6837671994e+01   3.5931281290e+01    0.4094311    0.3592322  30.12 0.0008205747    1.153    0.133
        60 -10.0088     78.3775    232.3013   1.2410263959e+02   2.0976251746e+01    0.1784248    0.1504894  29.97  0.000712548    1.705    0.414
        61 -10.3026    140.2052    217.8669   1.1243381396e+02   1.4420519645e+01    0.2036221     0.127845 -86.86  0.001149147    2.721    0.633
        62 -10.0767    184.2449    215.9898   1.0470019623e+02   7.6873458713e+00    0.1227418   0.09883358 -34.27 0.0006202391    1.576    0.366
        63 -10.1175    116.3318    211.9672   1.1593516746e+02   1.8869652056e+01    0.2435864    0.1489453  68.65  0.001281281    1.790    0.441
        64  -9.0636    104.3078    201.3266   1.1696444296e+02   2.2289082886e+01    0.0991226   0.08816992  11.48 0.0007037605    1.654    0.395
        65 -12.7515     69.0487    194.6019   1.2276413062e+02   2.8173757428e+01    0.5702624    0.4495026  86.63  0.002887804    1.180    0.152
