#   1 NUMBER                 Running object number                                     
#   2 MAG_AUTO               Kron-like elliptical aperture magnitude                    [mag]
#   3 X_IMAGE                Object position along x                                    [pixel]
#   4 Y_IMAGE                Object position along y                                    [pixel]
#   5 X_WORLD                Barycenter position along world x axis                     [deg]
#   6 Y_WORLD                Barycenter position along world y axis                     [deg]
#   7 A_WORLD                Profile RMS along major axis (world units)                 [deg]
#   8 B_WORLD                Profile RMS along minor axis (world units)                 [deg]
#   9 THETA_WORLD            Position angle (CCW/world-x)                               [deg]
#  10 FWHM_WORLD             FWHM assuming a gaussian core                              [deg]
#  11 ELONGATION             A_IMAGE/B_IMAGE                                           
#  12 ELLIPTICITY            1 - B_IMAGE/A_IMAGE                                       
         1 -12.3414     60.5261     45.4229   9.9551260505e+01   5.9814811828e+01     0.972267    0.4366638 -48.10  0.004302078    1.902    0.474
         2 -12.5581    130.7730     13.6140   6.5929314414e+01   5.1201179369e+01     1.670767    0.8380865  66.80  0.006780759    2.259    0.557
         3 -11.7923    119.0569     58.3286   8.5647736021e+01   4.7103811470e+01     1.705862     1.291519 -69.26  0.008257724    1.729    0.422
         4 -12.3208    124.4713     27.5903   7.3009202139e+01   5.0920903828e+01     1.035339    0.7839018  -6.46  0.003455529    1.395    0.283
         5 -12.9649    120.0943     38.7284   7.8420347687e+01   5.0247135927e+01    0.8863195     0.619401 -65.21  0.002531494    2.060    0.515
         6 -11.1623    138.8806     32.3926   7.1491045495e+01   4.6786415104e+01    0.8831279     0.640374 -40.16  0.004299769    1.416    0.294
         7 -11.6620    154.4433     24.5460   6.5373703882e+01   4.3896737825e+01     1.039846    0.6478332  22.65  0.004405895    1.985    0.496
         8 -11.5319    140.2809     20.5271   6.6670963805e+01   4.8010181401e+01     1.530569    0.3456444  45.74  0.004073759    4.691    0.787
         9 -10.5588    145.5144     16.3579   6.4014650280e+01   4.7178781454e+01    0.4410441    0.3174396  79.68            0    1.635    0.388
        10 -11.5831    183.0816     24.9922   6.0650578364e+01   3.6287802045e+01    0.8156033    0.3598076  51.61  0.002650788    2.156    0.536
        11 -11.6288    178.3899     21.0424   6.0046995935e+01   3.7994771610e+01     0.711766    0.3559122  37.19  0.002518221    2.352    0.575
        12 -11.7528    104.7863     12.7157   7.1802654817e+01   5.7371918989e+01    0.9158187    0.7203036 -20.06  0.005076609    1.206    0.171
        13 -12.6576    113.5744     24.5133   7.4528366934e+01   5.3848832685e+01     1.134536    0.4820106  54.92  0.001518093    2.443    0.591
        14 -11.7183    198.8065     28.6050   5.9516697719e+01   3.1692326464e+01     0.701148    0.4535699  -8.28  0.001335479    1.753    0.429
        15 -10.0929      4.8855      8.8768   1.1069464387e+02   7.2307151184e+01    0.5191966    0.2660788 -54.79  0.002473458    1.457    0.314
        16 -11.7465     26.5490     27.7315   1.0703053716e+02   6.7082783936e+01    0.5343849    0.4900262  75.12   0.00390986    1.438    0.305
        17 -12.5476     15.6334     13.7317   1.0703350510e+02   7.0668036829e+01     0.962747    0.3813021 -43.16  0.002513277    1.964    0.491
        18 -11.7024     22.7453     11.0768   1.0241650363e+02   7.0575543912e+01    0.5005416    0.3276784 -17.52  0.002488049    1.641    0.391
        19 -11.6788     19.5841     22.9293   1.0850559358e+02   6.8598521146e+01     0.572301    0.2410832 -54.89  0.002991978    1.825    0.452
        20 -10.2859     87.2342      7.4591   7.4410298328e+01   6.1704561929e+01    0.5580506    0.3692292  46.33  0.002797103    1.544    0.352
        21 -11.3429     90.9135     20.4058   7.9259744917e+01   5.9202699312e+01     0.622111    0.4466169 -19.69  0.003345268    1.326    0.246
        22 -11.5115     85.9506     14.1303   7.7980732707e+01   6.1069251716e+01      0.57264    0.3260829 -22.35  0.001918106    1.720    0.419
        23 -10.7129     47.1002     18.6019   9.4534168787e+01   6.6604733919e+01    0.3406664    0.2607017 -36.50  0.001438772    1.098    0.089
        24 -10.1372     38.6459     21.3844   9.9350820005e+01   6.7106319552e+01    0.4156242     0.145113 -45.34  0.001861872    2.289    0.563
        25 -11.5575     35.9536     17.7468   9.9033955690e+01   6.8064924049e+01    0.6823106    0.2653981 -37.42  0.002334742    2.396    0.583
        26 -10.3508     42.2338     14.3606   9.4742628085e+01   6.7943919323e+01    0.2410885    0.2066126  41.66  0.001176981    1.524    0.344
        27 -11.9899     69.2420     18.6248   8.5790467785e+01   6.3380414395e+01    0.6801085    0.4882167  38.17  0.003931722    1.520    0.342
        28 -11.1874    165.2318     17.3420   6.0856768973e+01   4.1915517786e+01    0.4939542    0.2844245  34.96  0.001161998    1.940    0.484
        29 -10.0252    225.2170     14.7992   5.2206484206e+01   2.6343314183e+01       0.5975    0.1633906 -28.32  0.002033644    3.043    0.671
        30 -12.5970    238.4673     15.6799   5.1150841432e+01   2.2948219984e+01    0.8500296    0.5103717  62.45  0.002877965    1.694    0.410
        31  -9.7838    183.9725      2.7134   5.3109043859e+01   3.8370640983e+01    0.3516863    0.2331968 -51.40  0.001664362    1.627    0.385
        32 -10.5903    186.4181     15.1384   5.6910170564e+01   3.6493370480e+01    0.3506213    0.2778223  22.81 0.0006812004    1.369    0.269
        33 -11.0782    186.8441      9.5415   5.5008625802e+01   3.6951087209e+01    0.7219546    0.3400683 -61.95  0.002345515    3.206    0.688
        34 -11.7601    192.5049      7.5577   5.3653298451e+01   3.5628047333e+01    0.7910671    0.5019448  24.60  0.003561794    1.892    0.472
        35 -10.8083     66.3297     10.3463   8.2952517239e+01   6.5126648775e+01    0.4313357    0.2111963  39.62  0.002086696    2.189    0.543
        36 -10.1941     63.0302      6.3458   8.2194536717e+01   6.6244633402e+01    0.2744104    0.2292875  17.32  0.001069938    1.192    0.161
        37 -11.6595    211.7377      9.8190   5.2163349567e+01   3.0315629443e+01     0.530072     0.338824   9.40  0.001184495    1.968    0.492
        38  -9.7901     31.8747     12.1181   9.8460098950e+01   6.9504790445e+01    0.1642333    0.1414468 -44.78 0.0004331458    1.239    0.193
        39 -10.6699    169.3117      9.7805   5.7529410280e+01   4.1631036556e+01    0.4063329    0.2341154  42.88  0.001770493    1.756    0.431
        40  -9.9781    157.1451      9.5260   5.9350038990e+01   4.4891731500e+01    0.4567623    0.1477894 -32.34   0.00132075    2.860    0.650
        41 -10.1205    152.1922      7.3708   5.9368891790e+01   4.6412090689e+01    0.5001413    0.1884123  55.49  0.001654278    2.324    0.570
        42 -11.8136    245.9564      7.6208   4.8332122082e+01   2.1931700340e+01    0.4978701    0.3699436 -17.41  0.002763304    1.356    0.263
        43 -11.4356    241.7441      4.4090   4.7825594732e+01   2.3253076561e+01    0.4306112      0.23523 -88.90  0.001970303    2.106    0.525
        44 -10.1484    162.9708      5.7376   5.7035122132e+01   4.3721607492e+01    0.3337635    0.2150419  -3.69 0.0008616683    1.735    0.424
        45 -10.1777    157.6690      2.5702   5.6679258942e+01   4.5428016345e+01    0.3028748    0.2625605  49.52  0.001014516    1.091    0.084
        46  -9.0366    162.3081      1.2169   5.5486498942e+01   4.4317475950e+01    0.3105072    0.1340966  75.13  0.001033206    2.567    0.610
        47 -12.0361     49.0591     13.0062   9.1153149493e+01   6.7300427613e+01    0.5948289    0.3882948  40.67  0.003423445    1.838    0.456
        48  -9.9313      1.3002      7.2464   1.1200477571e+02   7.2818484270e+01    0.1770659   0.07326262 -56.57 0.0002611443    1.756    0.431
        49 -10.8175     77.2202      5.2979   7.6564113352e+01   6.3907521046e+01    0.5322562     0.255827 -29.24   0.00250647    1.894    0.472
        50  -9.5433     82.0631      1.3499   7.2985859203e+01   6.3467812078e+01    0.2183073    0.1219108  54.56 0.0004047601    1.980    0.495
        51  -9.5721    202.5068      5.5476   5.1864895193e+01   3.3155809647e+01    0.2281542     0.218593 -89.93  0.001173013    1.024    0.024
        52 -11.1782    205.3922      2.5567   5.0637800609e+01   3.2670408377e+01    0.5018783    0.3092818  85.33  0.001158605    1.732    0.423
        53 -10.9055    175.3611      5.0403   5.5011157021e+01   4.0470292665e+01     0.685456    0.3329754  83.69  0.002573032    2.588    0.614
        54  -9.3111     50.7519      6.6914   8.7328745186e+01   6.8068684430e+01    0.1482807    0.1117754  42.81  0.000541607    1.637    0.389
        55 -10.5594     41.9681      3.9568   8.9782359537e+01   6.9680753096e+01    0.4280995    0.2136068 -21.44  0.002034731    2.406    0.584
        56 -11.1247    218.7517      2.8600   4.9407869548e+01   2.9157791799e+01    0.3310829    0.3103167 -46.36  0.001001432    1.039    0.037
        57 -11.7209    224.1985      1.7605   4.8593259344e+01   2.7864108317e+01    0.8348588    0.3836999 -77.15  0.003098505    3.050    0.672
        58  -9.6722    122.7983      1.2389   6.2410451516e+01   5.4468064214e+01    0.4850177    0.1244802  61.95  0.001537409    3.639    0.725
        59 -10.0667    117.2227      2.3879   6.4121875683e+01   5.5695326060e+01    0.3351472    0.1983044  51.54   0.00135583    1.584    0.369
        60 -11.2326    105.4153      1.7127   6.6604082758e+01   5.8499064704e+01    0.5996569    0.3494344  73.36  0.002028557    2.364    0.577
        61 -10.5374    112.9764      1.7701   6.4811443361e+01   5.6757986649e+01    0.4212007    0.2046939  60.55  0.001822366    2.082    0.520
        62 -10.6078    141.9211      3.3730   5.9598706341e+01   4.9470576237e+01    0.3720269    0.3257397  77.79  0.002059551    1.228    0.185
        63 -12.0634    133.7132      2.6274   6.0813120125e+01   5.1631509399e+01    0.4162074    0.2848199  54.18 0.0007038158    1.372    0.271
        64 -10.3401     71.3267      3.8070   7.7833145199e+01   6.5173262838e+01    0.3939595    0.2268487  24.29  0.001944381    2.019    0.505
        65  -9.4228     55.2290      4.2165   8.4179759745e+01   6.7776940995e+01    0.1549548    0.1396776 -38.82 0.0004450146    1.358    0.264
        66  -9.8519     13.6412      2.2271   1.0317727319e+02   7.2921317430e+01    0.2628951    0.1598033 -23.74  0.001677519    1.611    0.379
        67 -11.1216      3.0553      1.7863   1.0887978818e+02   7.3735406110e+01    0.3418882    0.1773351   2.51  0.002053294    2.527    0.604
        68  -8.9300     29.4441      2.4201   9.4979607345e+01   7.1411090088e+01    0.1165437   0.09228528 -28.64 0.0001217642    1.046    0.044
        69 -11.0694     92.6910    130.1862   1.1024615815e+02   3.7195184661e+01    0.5252461    0.2671238 -61.39  0.002535141    1.947    0.487
        70 -10.2213     18.4572    124.7230   1.2722929605e+02   4.7011733232e+01    0.3244314    0.1308005 -65.23   0.00152485    2.052    0.513
        71 -11.0463     55.1840    123.1423   1.1821413084e+02   4.3744409407e+01    0.5939205    0.3111227  31.13   0.00285464    2.311    0.567
        72 -10.4739     45.8758    120.4999   1.2015267668e+02   4.5344517652e+01    0.3073457    0.1766075  67.97  0.001411517    1.880    0.468
        73  -9.7017      2.0968    125.7523   1.3106923429e+02   4.8019314202e+01    0.2461412    0.1127009  75.94  0.001429674    1.995    0.499
        74 -10.1952     83.6432    124.2104   1.1140482691e+02   3.9797568795e+01    0.3646362    0.2479486   4.13  0.001676447    3.096    0.677
        75  -9.6379     79.3175    124.6707   1.1253531019e+02   4.0319721746e+01    0.2081361    0.1465506 -84.25 0.0005129284    1.447    0.309
        76 -11.0016    240.7037    122.6217   7.8500872309e+01   9.1821283565e+00    0.4609283    0.2865033 -27.60  0.002370798    1.554    0.357
        77  -8.6913     40.6680    122.2614   1.2165401060e+02   4.5508850620e+01    0.1182904   0.07456637  69.23 0.0004629423    1.572    0.364
        78  -9.6944      4.4786    121.3481   1.3020403141e+02   4.8759411750e+01    0.2702413    0.1283837  60.19  0.001460735    2.009    0.502
        79  -9.4718    221.4721    120.5220   8.1172184393e+01   1.3443560897e+01    0.1398225    0.1265356  12.10 6.746696e-05    1.012    0.012
        80  -9.0890    148.3934    119.7918   9.5311004014e+01   2.9212382687e+01    0.1963063    0.1348356 -31.75 0.0005001993    1.677    0.404
        81  -9.5698     72.8680    119.8239   1.1333065914e+02   4.2240421121e+01    0.1780525    0.1636807 -53.62 0.0005157968    1.250    0.200
        82 -10.4666     34.3145    119.0344   1.2282782436e+02   4.6820122011e+01    0.1867807    0.1547449 -45.13  0.000899016    1.524    0.344
        83  -9.6522    113.8498    115.9261   1.0246467138e+02   3.6628917921e+01    0.1957325    0.1858712 -20.11 0.0003727484    1.223    0.182
        84  -9.4400     87.5539    114.5053   1.0869781681e+02   4.1276541236e+01    0.3361298    0.1769146  59.55  0.001417425    2.377    0.579
        85 -10.8470     86.0228    104.5880   1.0714100583e+02   4.3633451583e+01    0.4946488    0.3495999 -15.08   0.00227042    2.477    0.596
        86 -10.0790     91.4829    104.0083   1.0558241053e+02   4.2909546735e+01    0.3995812    0.2833665  27.63  0.002108638    1.769    0.435
        87 -10.0609     82.9949    111.5055   1.0929380869e+02   4.2599250895e+01    0.3164272      0.21153  52.08  0.001100233    1.543    0.352
        88 -10.9402     79.0614    107.9888   1.0964708520e+02   4.3927928216e+01    0.4255101    0.3154004  32.34  0.002027574    1.587    0.370
        89 -10.5741     67.0939    112.0195   1.1349728684e+02   4.4683838499e+01    0.4613556    0.2520069 -70.70  0.002345837    1.781    0.438
        90  -9.5312     35.5560     93.0174   1.1896834667e+02   5.2352830087e+01      1.28695    0.7361783  85.91  0.006474078    2.000    0.500
        91 -12.5864     39.8539     85.8638   1.1651777216e+02   5.3517896895e+01     1.649331    0.4351631  25.51  0.005662567    5.907    0.831
        92 -12.0347      9.5581     96.6175   1.2668780571e+02   5.3628780360e+01    0.9486327    0.5093796  73.97  0.005606213    1.914    0.478
        93 -12.0226      7.4584     88.8821   1.2640958141e+02   5.5427150752e+01    0.4315077    0.3644455  84.88   0.00128343    1.161    0.139
        94 -13.0608     24.5445    109.2843   1.2415355817e+02   4.9781371735e+01     1.356238    0.6853333 -52.05  0.007655086    2.072    0.517
        95 -11.5402     28.3432    113.1064   1.2362756750e+02   4.8634615074e+01    0.5244994    0.2463076  31.59  0.001126662    2.460    0.593
        96 -11.7497     18.9530     95.9805   1.2404861892e+02   5.3100130411e+01    0.3712392    0.2451168  82.27 0.0007534975    1.420    0.296
        97 -11.3499     23.3597     94.8575   1.2268130403e+02   5.3002140154e+01    0.2886298    0.2138376 -85.47  0.001172593    1.131    0.116
        98 -12.7974     17.9397     90.3932   1.2361994953e+02   5.4388892378e+01    0.3384851    0.2461803 -70.26 0.0005069703    1.110    0.099
        99 -11.5639      2.3954    112.2127   1.2998278345e+02   5.0793526041e+01    0.3723541    0.2205453  63.33 0.0006617982    1.591    0.371
       100 -11.9507      3.9653    105.3050   1.2900642195e+02   5.2142852924e+01    0.4781562    0.2893689  86.04  0.001423417    1.365    0.267
       101 -10.4755    107.8977    112.3353   1.0316310424e+02   3.8419336888e+01    0.4690699    0.2942603 -86.46  0.001745394    2.552    0.608
       102 -10.7034    102.0798    109.7980   1.0408051464e+02   3.9946719408e+01    0.4316685    0.3362527  29.92  0.002383697    1.516    0.340
       103  -9.7816    103.2622    106.0092   1.0296430467e+02   4.0541176073e+01    0.2539224    0.2140916  79.44 0.0003684787    1.249    0.200
       104 -10.9953    170.4123    110.0599   8.8291975545e+01   2.6283291794e+01    0.4652676    0.3786983  33.21  0.001650345    1.240    0.194
       105  -9.8071     93.9605    111.6558   1.0651918927e+02   4.0886680677e+01    0.2560824    0.1833325 -84.47  0.001350803    1.604    0.377
       106  -9.8633     48.9659    112.0513   1.1820467221e+02   4.6834149459e+01    0.1926959    0.1563783  87.99  0.001286843    1.091    0.084
       107  -9.8488    130.2559    108.7445   9.6928843214e+01   3.4993590760e+01    0.2623199    0.1766772 -50.65  0.001283696    1.502    0.334
       108  -9.7333    120.0243    109.0338   9.9457524435e+01   3.6904243448e+01    0.2145461    0.1749788  -9.78  0.000762439    1.654    0.395
       109 -11.6351    104.5536    121.5089   1.0583891079e+02   3.7089016203e+01    0.4421232    0.3803143 -73.21  0.001470688    1.123    0.109
       110 -10.3271    157.7519    105.9522   8.9974794050e+01   2.9798235771e+01    0.3189355    0.2555721  -3.66  0.001002477    1.537    0.349
       111 -10.2600    143.4636    106.1846   9.3231895760e+01   3.2808621721e+01     0.325469    0.2814939  30.81  0.001219013    1.223    0.182
       112 -11.0650    145.6127    100.4542   9.1309616239e+01   3.3446037038e+01    0.5103925    0.3206167 -25.76  0.002212194    2.028    0.507
       113 -11.6725     48.2072    103.2127   1.1705890097e+02   4.8844306257e+01    0.4458709     0.270043 -33.59 0.0003197677    2.531    0.605
       114  -9.8918     52.5152     96.5039   1.1474172411e+02   4.9842054749e+01    0.2546373    0.1294132 -61.88 0.0008990696    1.671    0.401
       115  -9.3113     82.2002    102.7984   1.0779008740e+02   4.4592714432e+01    0.1748499    0.1461099 -42.99 0.0005211974    1.305    0.233
       116  -9.6301     61.2875    101.6107   1.1322270982e+02   4.7685605672e+01    0.2969428     0.100437  42.58  0.001232398    3.066    0.674
       117 -10.0219     57.3454    101.9912   1.1436735325e+02   4.8078275695e+01    0.2298503    0.1730713  86.95 0.0007359295    1.326    0.246
       118 -10.1068     57.1723     97.6785   1.1364750596e+02   4.9045323744e+01    0.3125346     0.196292 -77.50  0.001091784    1.581    0.368
       119 -11.6475     67.9360     96.8270   1.1048086696e+02   4.7886940208e+01    0.5301833    0.3289779 -52.57 0.0007286524    1.497    0.332
       120  -9.0874     96.0095    100.0052   1.0351591537e+02   4.3030341539e+01    0.1560118    0.1469436  71.14 0.0003080968    1.081    0.075
       121  -9.9232     66.6566     73.7231   1.0569594312e+02   5.3090093223e+01    0.4477104    0.2473073 -71.24  0.002025823    2.277    0.561
       122 -11.2159     89.4202     90.0612   1.0300046553e+02   4.6222546815e+01    0.4564755     0.275149 -45.67  0.001612389    1.621    0.383
       123  -9.2499     92.9224     85.5248   1.0090785441e+02   4.6616133636e+01    0.2541526    0.1743217  42.83 0.0005760632    1.561    0.360
       124 -10.4337     78.0177     97.0167   1.0772469033e+02   4.6456063888e+01    0.3528177    0.1755243 -60.79 0.0003236931    1.903    0.474
       125 -11.1985     81.1586     92.7603   1.0592819748e+02   4.6918598884e+01     0.629371    0.4717829  56.13  0.002398165    1.446    0.308
       126 -11.0749     66.7365     81.8280   1.0761997530e+02   5.1323339148e+01    0.3930833    0.3154941  31.39  0.002382914    1.461    0.316
       127 -11.1598     79.4946     82.5815   1.0401977066e+02   4.9362855330e+01    0.6335953    0.4788051 -88.56  0.002969841    1.594    0.373
       128 -11.2781     73.4130     77.6268   1.0460067620e+02   5.1315739982e+01    0.5672461    0.4123555 -27.59  0.003069117    1.712    0.416
       129  -9.8964    210.2399     97.7334   7.7545907435e+01   1.9235851993e+01    0.2864794    0.2425504 -10.14  0.001539575    1.167    0.143
       130 -10.7907    117.2958     93.0020   9.6277276074e+01   4.0686103054e+01    0.6037864    0.3886191  19.91  0.002551933    2.501    0.600
       131 -10.8368    122.5799     93.7960   9.5140457234e+01   3.9496823936e+01    0.3708751    0.2394331 -52.80  0.001193529    1.572    0.364
       132 -10.4353    126.3241     93.1416   9.4035431982e+01   3.8881542872e+01    0.3627826    0.3116621  39.98  0.001039491    1.206    0.171
       133  -9.7817    138.0366     93.3651   9.1242638068e+01   3.6415947106e+01    0.3597822    0.2445522  20.38  0.001197357    2.105    0.525
       134 -11.2283    102.4302     90.5420   9.9558007269e+01   4.3932865869e+01    0.5261561    0.4500797 -56.24  0.001712754    1.108    0.098
       135  -9.4044    160.5291     93.5162   8.6152734944e+01   3.1436547079e+01    0.2701828    0.1455084  62.21  0.001033593    2.347    0.574
       136 -10.2346    152.8441     92.1004   8.7472937324e+01   3.3426171859e+01    0.3708589    0.2822752  39.70  0.001602759    1.338    0.252
       137  -9.8821    236.4046     92.0994   7.1852161325e+01   1.4121511851e+01    0.2251581    0.2066537 -81.27 0.0009282852    1.360    0.264
       138  -9.9719     50.6922     91.3248   1.1432447824e+02   5.1185944417e+01    0.1952838    0.1444727 -38.87 0.0008294975    1.576    0.365
       139  -9.9621     51.8891     87.8705   1.1332159555e+02   5.1813190469e+01     0.188536    0.1468381 -52.12 0.0004849064    1.234    0.190
       140 -10.1848    183.9773     86.5704   7.9417794550e+01   2.7150157498e+01    0.5009793    0.2313773 -42.85  0.001894059    2.278    0.561
       141 -10.2190    104.6750     76.5309   9.5208933048e+01   4.6423703191e+01     0.371195    0.3230569 -53.60  0.001894648    1.103    0.093
       142 -10.8854    113.2812     83.3312   9.4767032924e+01   4.3421125675e+01    0.6635877     0.310567 -39.13  0.002360566    2.260    0.557
       143 -11.1485    109.3001     80.4600   9.5042992004e+01   4.4761378442e+01    0.3252763    0.3074785 -24.91  0.001094439    1.102    0.093
       144  -9.3596     67.4848     87.9635   1.0876994158e+02   4.9885643276e+01    0.2038716    0.1125334 -55.80  0.001021448    1.592    0.372
       145  -9.4133    212.4714     87.0501   7.4375006657e+01   2.0298255795e+01    0.2197206    0.1414753 -26.31 0.0003977879    1.530    0.346
       146 -11.3689    143.3775     84.0060   8.7416185765e+01   3.7036378569e+01    0.3736148    0.3357726 -16.86  0.002009055    1.171    0.146
       147 -10.9383    120.4078     85.1373   9.3397734589e+01   4.1663285255e+01    0.4202639    0.2139448  45.36  0.001767399    2.023    0.506
       148 -10.4559    165.4739     83.0531   8.2198563663e+01   3.2140451120e+01      0.36246    0.3413902 -56.30  0.001339619    1.125    0.111
       149 -11.9304     52.7815     75.9441   1.1056871689e+02   5.4330669084e+01    0.8411906    0.2803072 -59.82  0.003440928    2.569    0.611
       150 -11.8169     18.7721    106.0939   1.2528374244e+02   5.0931452133e+01     0.262228    0.1816545 -68.64 0.0002153314    1.226    0.184
       151 -10.9077     58.7735     78.3588   1.0924783448e+02   5.3093822144e+01    0.2744993    0.2507433  64.64  0.001040023    1.209    0.173
       152  -9.8726     20.5539     71.7006   1.2003074345e+02   5.8275582251e+01    0.1892145    0.1711742 -22.75 0.0009236929    1.388    0.280
       153 -11.8835     13.4916     74.7519   1.2276410783e+02   5.8101754673e+01    0.4422598    0.3603862 -48.29  0.003265627    1.316    0.240
       154 -10.9039     14.3494     66.4846   1.2117707507e+02   5.9841335266e+01    0.3196268    0.2087189 -74.77 0.0009239897    1.244    0.196
       155 -12.0253      6.1785     62.5343   1.2327025167e+02   6.1189762714e+01    0.6736639    0.2923808 -53.82    0.0035887    1.864    0.464
       156 -11.6206     12.6911     62.1598   1.2099467457e+02   6.0884347653e+01    0.2227784    0.1811474 -39.62 0.0003057361    1.359    0.264
       157 -11.2725    242.8179     77.0389   6.7083639868e+01   1.4672123123e+01    0.5221003    0.3180453  80.68  0.002227776    2.607    0.616
       158 -10.7034     94.0503     76.4801   9.8199850844e+01   4.8324083811e+01    0.5287875     0.397834  33.19  0.001599808    1.503    0.335
       159 -10.5076     81.8306     50.0155   9.3821314502e+01   5.5722024970e+01    0.7822507    0.4232014 -41.18  0.003685684    1.683    0.406
       160 -11.7296     86.0290     73.7135   9.9785285371e+01   5.0233388208e+01    0.6268119    0.6027049 -77.09  0.003918943    1.080    0.074
       161 -11.6509     78.9364     67.4716   1.0019509084e+02   5.2654819790e+01     1.387512     0.660162 -63.54  0.005373245    2.899    0.655
       162 -11.5363     74.5710     52.8016   9.7134380010e+01   5.6326265568e+01     0.578471    0.3067198 -51.48  0.002628451    1.762    0.432
       163 -10.5506     72.7687     47.3042   9.5905842151e+01   5.7688955541e+01    0.7191746    0.4562776 -59.61   0.00360522    1.798    0.444
       164 -11.8050      1.9772     71.4084   1.2591212479e+02   5.9506571589e+01    0.6171587    0.1372782 -71.91  0.002547576    3.196    0.687
       165 -10.3555    127.3650     83.0119   9.1036060936e+01   4.0667593254e+01    0.4099747    0.2773035 -50.83  0.001845388    1.506    0.336
       166  -9.2586    134.7185     77.5343   8.7633790864e+01   4.0155216749e+01    0.2074674    0.1443741  63.29 0.0009471917    1.679    0.404
       167  -9.5164    126.8689     76.8628   8.9397728281e+01   4.1964134441e+01    0.2128792    0.1976071  -5.70 0.0003016121    1.143    0.125
       168  -9.0717     46.9289     77.0000   1.1263475916e+02   5.4746389715e+01    0.1734859   0.07224444  31.05 0.0007899663    2.857    0.650
       169 -12.1084    186.3310     70.4231   7.4375326610e+01   2.9153808689e+01    0.8864383    0.6513094 -38.01  0.003385836    1.360    0.265
       170 -11.5773     40.6233     71.1134   1.1340130274e+02   5.6682458476e+01    0.5682847    0.2762209 -60.73  0.002943741    1.673    0.402
       171 -11.3847     33.8574     71.9872   1.1577890645e+02   5.7128660857e+01    0.4960651    0.2473916  33.26  0.002687621    2.343    0.573
       172  -9.4875    230.2949     73.3505   6.7907832014e+01   1.8028998428e+01    0.2734585    0.1804078 -87.07  0.001162109    2.440    0.590
       173  -9.1115    151.2230     73.5928   8.2563168334e+01   3.7147222891e+01    0.2190868    0.1372544  40.72 0.0008168307    1.674    0.403
       174 -11.8892    122.8018     68.7928   8.8015181716e+01   4.4362725381e+01    0.5728697    0.4657067  54.69  0.001696065    1.305    0.234
       175 -10.5057    161.9769     70.5041   7.9263626383e+01   3.5125909509e+01    0.3604893    0.2955561  73.90  0.001120304    1.404    0.288
       176 -10.4929    171.9762     67.6739   7.6334081987e+01   3.3148715989e+01    0.4515425    0.2975699 -42.49   0.00185579    1.553    0.356
       177  -9.1815     60.8412     72.6550   1.0725675992e+02   5.4076984573e+01    0.1666077    0.1155164  48.62 0.0005114655    1.659    0.397
       178 -11.6989    219.6552     66.3315   6.7588268163e+01   2.1516567507e+01    0.7157732    0.3700022  56.72  0.002260661    1.960    0.490
       179 -10.1126    208.6563     68.0104   6.9786707677e+01   2.3975352322e+01    0.3655634    0.2014666  44.83  0.001231468    1.854    0.461
       180 -10.3649    128.6580     64.5468   8.5173301222e+01   4.3897393698e+01    0.5098696    0.1992382 -46.52  0.001763988    2.746    0.636
       181  -9.0292     69.7765     66.9097   1.0292234265e+02   5.4117806087e+01    0.1695288   0.09652802 -50.92 0.0002869715    1.538    0.350
       182 -10.0288    192.3866     65.6956   7.1883983565e+01   2.8362606698e+01    0.3156834     0.237396 -67.78  0.001055503    1.699    0.412
       183  -9.7935     21.4340     65.1080   1.1855923927e+02   5.9646515377e+01    0.2193938    0.1520808  82.27  0.001223639    1.602    0.376
       184  -9.3205     25.8874     65.2788   1.1708832612e+02   5.9267597790e+01    0.2056353    0.1433497 -35.51 0.0003963794    1.617    0.382
       185 -10.8623     58.3733     61.8737   1.0527274954e+02   5.6698328824e+01    0.4767314    0.2952859 -65.47  0.002049705    1.647    0.393
       186 -10.3180    142.9914    249.3074   1.1564622903e+02   9.9910237034e+00    0.1567578    0.1003013  46.49  0.001172151    1.110    0.099
       187 -11.2360     60.8672     36.2704   9.6202204983e+01   6.1550919432e+01    0.3349575    0.1896098 -43.46 0.0009148196    1.518    0.341
       188 -10.1936     98.2600     63.0275   9.3011222924e+01   5.0313532949e+01    0.3840862     0.264308  -2.56  0.001711363    2.326    0.570
       189  -9.6826     84.6984     62.0216   9.6794640708e+01   5.2864428361e+01    0.3182712     0.247977 -41.62  0.001754823    1.180    0.152
       190 -11.1132     91.4787     62.4370   9.4846271291e+01   5.1637684609e+01    0.4281654    0.3790127 -51.07  0.001553612    1.080    0.074
       191 -10.7375     91.2421     57.6017   9.3381525444e+01   5.2638689448e+01    0.3357276     0.269574  35.63  0.001355481    1.359    0.264
       192 -10.7261     87.5183     56.9498   9.4319310010e+01   5.3410298520e+01    0.4937632    0.2067344 -41.89  0.001467112    2.233    0.552
       193  -9.4109    205.6556     62.6641   6.8746436617e+01   2.5478161728e+01    0.3331659    0.1941487  17.24  0.001242951    2.623    0.619
       194  -9.3438    198.3607     63.1211   7.0090130648e+01   2.7241449367e+01    0.2331227    0.1262556 -39.70 0.0009479878    1.843    0.457
       195 -10.7682    159.4269     61.6908   7.7078253356e+01   3.7214118728e+01     0.496578     0.291461  39.57  0.002065595    1.842    0.457
       196 -10.6605    105.2899     62.0724   9.0674545505e+01   4.9182299298e+01    0.4008468    0.2624147 -45.93  0.001945244    1.457    0.314
       197  -9.9516     18.8094     41.4207   1.1433275725e+02   6.4901078303e+01    0.2415945     0.211673  21.86  0.001802691    1.441    0.306
       198  -9.9641     51.9186     48.1570   1.0354707365e+02   6.0352329569e+01    0.2520319    0.1742822 -43.82 0.0008259405    1.247    0.198
       199 -11.2305     34.0044     43.2517   1.0882935217e+02   6.3270320611e+01    0.5349732     0.392231 -28.01  0.002673595    1.461    0.315
       200 -10.3909     26.0254     47.9774   1.1317958030e+02   6.2974082548e+01    0.2391753    0.1760583 -23.38  0.001185519    1.589    0.371
       201 -10.8085     21.0541     47.3232   1.1491540985e+02   6.3496280872e+01    0.3530435    0.2265897 -55.06  0.001308312    1.213    0.176
       202 -12.3908     49.4945     60.3088   1.0786722555e+02   5.8085734009e+01     0.643374    0.4709988  69.98  0.001562939    1.811    0.448
       203 -11.6815     40.4235     56.0166   1.0992554192e+02   5.9965485006e+01    0.6091604    0.4383987  23.62  0.003798007    1.715    0.417
       204 -11.3838     46.0791     49.0637   1.0595867211e+02   6.0835614967e+01     0.423191     0.320783 -11.28  0.001519061    1.635    0.388
       205 -11.7766     42.1909     45.2050   1.0626155939e+02   6.2053167105e+01    0.3988755    0.3081061  14.53 0.0009058667    1.584    0.369
       206 -10.0332    175.3831    246.8658   1.1039210997e+02   5.5604785691e+00    0.2088397    0.1116976  55.59  0.001304477    1.958    0.489
       207  -9.6722    199.0065    244.5000   1.0648964466e+02   2.3084620491e+00    0.1698958   0.07667402  42.94  0.001035634    1.602    0.376
       208 -11.3917    127.1866    241.8242   1.1741509352e+02   1.3145611702e+01    0.2834295    0.1893406 -85.30  0.002052919    2.036    0.509
       209 -11.1081    113.5011     49.7451   8.4214510174e+01   4.9819237792e+01    0.6334521    0.4129769  21.39  0.002467916    2.091    0.522
       210  -9.6127    131.2059    240.6040   1.1666728794e+02   1.2730169508e+01    0.1514502    0.0774397  38.81 0.0009512632    1.683    0.406
       211  -8.5039     26.0640     59.9431   1.1593269755e+02   6.0410554859e+01    0.9905833    0.4502939  57.73  0.004243691    3.922    0.745
       212 -10.6004     29.4636     52.5012   1.1301372785e+02   6.1728950697e+01    0.3154326    0.2132911  26.97  0.001153139    1.825    0.452
       213  -9.6331    147.3714     60.6304   7.9399782699e+01   4.0305081939e+01    0.3636239    0.1504945  58.20  0.001247174    2.740    0.635
       214  -8.9218    228.3030     59.6263   6.4477432999e+01   2.0314511613e+01    0.1556232    0.1042119 -54.73 0.0007030164    1.758    0.431
       215 -10.2008    219.3039     57.1503   6.5070692787e+01   2.2836700348e+01    0.3857093    0.2442709  79.58  0.001674198    2.063    0.515
       216 -10.1832    139.6633     43.7487   7.5452028028e+01   4.4906159355e+01    0.5593354    0.2635696  52.07  0.001848321    2.093    0.522
       217 -10.7675    136.2258     55.2127   8.0233135267e+01   4.3844530766e+01    0.8670267    0.7142168 -32.31  0.004474686    1.185    0.156
       218 -10.3579    145.6096     52.2023   7.7016770214e+01   4.2127086837e+01    0.3309909    0.2875259  15.77  0.001356621    1.212    0.175
       219 -11.3028    146.0126     46.4244   7.4948664524e+01   4.2949232370e+01    0.6930746    0.3839604 -23.12   0.00225319    1.975    0.494
       220 -10.4128    157.6451     56.6779   7.5850933473e+01   3.8465766130e+01    0.3726041    0.2305493  27.56  0.001105705    2.092    0.522
       221 -11.3838    155.8123     50.8960   7.4337272681e+01   3.9834907583e+01    0.9817675    0.5720236 -57.15  0.003246413    2.389    0.581
       222  -9.4825      1.8165     56.2244   1.2377020850e+02   6.2773047874e+01    0.1445912    0.1013292 -50.75 0.0004567989    1.318    0.241
       223  -9.4026    187.4969     55.3178   6.9627221889e+01   3.1129233912e+01    0.2756918    0.1394873  59.00  0.001079174    1.995    0.499
       224 -10.2759     66.7175     54.7839   1.0039692939e+02   5.7073635895e+01    0.2426355     0.210691 -63.76 0.0007278454    1.183    0.155
       225 -10.6737     25.5653     55.2356   1.1507851183e+02   6.1464182554e+01    0.3177732     0.195096 -47.45   0.00144179    1.433    0.302
       226 -10.9018    240.1331     50.2273   6.0363956073e+01   1.8664152263e+01    0.3857766    0.2993059 -11.83  0.000811608    1.284    0.221
       227 -10.2956    249.1892     52.7106   5.9929588711e+01   1.6253266241e+01     0.348316     0.224232 -64.68  0.001172207    2.051    0.512
       228  -9.9620    244.8356     50.8421   5.9956184785e+01   1.7484338261e+01    0.2569463    0.2426758 -76.93 0.0008319058    1.162    0.140
       229  -9.7229    210.8195     52.8597   6.5094785965e+01   2.5525766485e+01     0.238318    0.1979592  24.93  0.001223605    1.273    0.214
       230 -12.7865    116.6347     42.6734   8.0807567202e+01   5.0366063834e+01     1.008368    0.6964683  80.62  0.004418785    2.315    0.568
       231 -10.9711    202.2587     47.2021   6.4721000603e+01   2.8460249938e+01    0.5591845    0.4329927 -54.15  0.002757992    1.412    0.292
       232 -10.2725    194.5703     46.4224   6.5694901428e+01   3.0550139484e+01    0.7149537    0.3408307  84.70  0.001975819    4.936    0.797
       233 -11.2105    173.9575     47.9836   6.9765726059e+01   3.5670012426e+01    0.6347011    0.4166315  66.88  0.002388878    1.661    0.398
       234  -9.7917    176.9362     43.7893   6.7858787877e+01   3.5494421520e+01    0.3165339    0.2454675 -88.57  0.001244574    1.574    0.365
       235  -9.7201      2.7384     48.8578   1.2217761826e+02   6.4296797984e+01    0.1985821    0.1714734  51.97  0.001550606    1.453    0.312
       236  -9.5579     90.9680     48.0700   9.0235532396e+01   5.4517984902e+01    0.2198588    0.1709895 -75.50  0.001126604    1.785    0.440
       237  -9.7931     14.1599     46.1784   1.1729789843e+02   6.4214625816e+01    0.2608528   0.06836419 -50.82  0.001137349    2.757    0.637
       238 -10.0330    232.9344     45.2224   5.9891518109e+01   2.1000509189e+01    0.2755493     0.183896  41.74  0.001117379    1.611    0.379
       239  -9.1154    132.4554     45.4685   7.7774380752e+01   4.6340550110e+01     0.149041    0.1408703  -0.41 4.798315e-05    1.026    0.025
       240 -10.6017    101.0606     43.7199   8.5591679502e+01   5.3411386803e+01    0.3680858    0.2849891 -64.50  0.001207951    1.649    0.394
       241 -11.2152     94.1062     41.3715   8.6820224705e+01   5.5163830624e+01    0.5654907    0.3039024  43.34  0.002231761    1.990    0.497
       242  -9.8771    162.5069     43.7925   7.0577313558e+01   3.9216362968e+01    0.3341525     0.223454  65.22  0.001494475    1.608    0.378
       243 -11.6646    156.1718     41.7642   7.1159839335e+01   4.1122911161e+01    0.4352539    0.3814474 -30.72 0.0008021173    1.136    0.119
       244 -10.8878    153.2452     36.1234   6.9783401104e+01   4.2671697299e+01    0.2976853    0.2723911  66.91 0.0003852056    1.152    0.132
       245  -9.4094     26.1064     43.6687   1.1203171439e+02   6.3873743231e+01    0.1520527    0.1320183 -42.94 0.0003351127    1.142    0.124
       246  -9.2771      2.9645     44.5090   1.2127231946e+02   6.5206165548e+01    0.1627606    0.1088713  23.72 0.0007434905    1.940    0.485
       247  -9.0380      6.0000     42.4784   1.1967408638e+02   6.5477170742e+01    0.2924691    0.1183747 -69.62   0.00152038    1.993    0.498
       248 -11.4695      4.1605     35.9152   1.1897701270e+02   6.6946606103e+01    0.2686625    0.1857542 -63.23 0.0004191296    1.094    0.086
       249  -9.2244      6.5147     30.7438   1.1671897259e+02   6.7889270844e+01    0.2976631    0.1542603   0.98  0.001708676    2.756    0.637
       250 -10.9655    189.0699     42.2467   6.5285756222e+01   3.2540719638e+01    0.3267555    0.2223263 -26.03 0.0006495498    1.455    0.313
       251 -10.6518     69.5005     32.7057   9.1676719080e+01   6.0941667659e+01    0.5089183    0.2776428  42.41  0.002010693    2.079    0.519
       252 -11.0413     81.1025     39.7188   9.0369154316e+01   5.7785552688e+01    0.5272756    0.4017211  44.83  0.002518734    1.476    0.323
       253 -10.8952     77.6785     34.4269   8.9488327294e+01   5.9315957603e+01    0.3693897    0.2620464  33.30  0.001140314    1.547    0.354
       254 -11.1230     82.3008     31.3671   8.6702009671e+01   5.9056376358e+01    0.5095651    0.3764435  53.04  0.002705755    1.632    0.387
       255 -10.2538    231.5861     39.6134   5.8501335194e+01   2.2002313361e+01    0.2618116    0.2278726 -51.80 0.0006089977    1.167    0.143
       256 -10.7255     22.6479     36.8669   1.1154329768e+02   6.5560060383e+01    0.3304288    0.2432868  62.47  0.001639279    1.890    0.471
       257  -9.1648    218.0081     39.0240   6.0049805583e+01   2.5467190523e+01    0.1771308    0.1732818  61.01  0.000726641    1.056    0.053
       258  -9.8356    133.6292     37.3609   7.4546416724e+01   4.7330980640e+01    0.4059885    0.3022317 -69.03  0.001892707    1.824    0.452
       259 -10.0484    150.3965    237.7734   1.1333459863e+02   1.0289192936e+01     0.118354    0.1016404 -26.03 0.0009515578    1.675    0.403
       260 -10.7168    147.6044     31.6746   6.9343920659e+01   4.4715251929e+01    0.2778044    0.2607999  27.15 0.0005274854    1.035    0.034
       261  -9.3541     15.1965    233.8284   1.3407990335e+02   2.7667512937e+01      0.11056    0.0890457  76.42  0.001067203    1.366    0.268
       262 -10.6105    144.2262     24.9929   6.7561927100e+01   4.6454111348e+01    0.5460908    0.3669831  74.47  0.002477465    1.775    0.437
       263  -9.5354    247.3308    231.3047   9.7452680896e+01  -3.6068412024e+00    0.1115997   0.06007812  21.74 0.0003926812    1.657    0.396
       264  -9.3029     23.4829    231.5163   1.3277612219e+02   2.7216773357e+01   0.09474546   0.06134484  65.60 0.0003842864    1.018    0.018
       265 -10.9445    176.6321     36.9609   6.5669999380e+01   3.6501013343e+01    0.4062855    0.3320193  -4.29  0.001236462    1.297    0.229
       266 -11.1053    172.1519     33.2381   6.5203604506e+01   3.8165042772e+01    0.4318579    0.3230742  52.81  0.001939721    1.307    0.235
       267 -10.4514    176.4909     29.8707   6.3327841623e+01   3.7448538873e+01    0.4053347    0.3035632  41.94  0.001390003    1.345    0.257
       268  -9.0599      9.3177    227.3114   1.3470964344e+02   2.9191456797e+01   0.07333539   0.06431217 -85.85 0.0002415543    1.642    0.391
       269  -9.2099    234.6657    222.6830   9.8103091045e+01  -9.8610725954e-01    0.1156618    0.0649672  21.33 0.0003389493    1.693    0.409
       270 -10.3687    181.1068     16.1909   5.8006966369e+01   3.7804161836e+01    0.2723461    0.2187712 -51.77 0.0004353276    1.320    0.243
       271 -10.2725    206.0758     37.0493   6.1091555479e+01   2.8772697312e+01    0.3634297    0.2270099  65.86  0.001227606    1.649    0.394
       272  -9.6973    226.6770     36.5757   5.8245485182e+01   2.3577127838e+01    0.2759623    0.1314219  60.18  0.001137869    2.087    0.521
       273  -9.3653    165.6901    212.3688   1.0783615805e+02   1.1112649102e+01      0.11263   0.08068638  69.07 0.0007036077    1.764    0.433
       274 -11.8939    105.7312     32.9607   8.0104694717e+01   5.4273716969e+01     0.775132    0.5317179   2.62   0.00235422    1.868    0.465
       275  -9.7093    152.9341    207.7870   1.0944172969e+02   1.3788252458e+01    0.1922375    0.1120083  60.88  0.001081307    1.931    0.482
       276 -11.9217    106.0144     20.1563   7.4729353050e+01   5.6121645730e+01    0.2941649     0.228885 -20.61 0.0004108463    1.218    0.179
       277 -10.1114      4.2952    204.9514   1.3467868139e+02   3.3173710781e+01    0.1587462    0.1010446 -77.31  0.001315028    1.594    0.373
       278 -11.7629    159.9239     30.1341   6.6348269333e+01   4.1764640651e+01    0.6352757    0.3718785 -36.85  0.002199718    1.707    0.414
       279 -11.2496    164.0170     27.4520   6.4648957270e+01   4.1038624384e+01    0.3955652    0.2841567 -33.01 0.0004264701    1.389    0.280
       280 -10.6044    240.4375     31.5619   5.5274363671e+01   2.0770760954e+01    0.4329212    0.3148522  -1.10  0.002219021    1.537    0.350
       281 -10.3923    189.1386     28.3108   6.0820613345e+01   3.4284886642e+01    0.5203846    0.3206332   0.08  0.002175297    2.054    0.513
       282 -10.1186    182.7457     32.2382   6.3091440478e+01   3.5498186346e+01    0.3128853    0.2154846  71.22  0.001168643    1.547    0.354
       283 -10.9293     56.2793     30.9041   9.5900999272e+01   6.3186121881e+01    0.2853485     0.245246  14.14 0.0002080684    1.284    0.221
       284 -11.9301     48.4299     30.5480   9.8856254562e+01   6.4258008526e+01    0.8163776    0.3363637  28.46  0.003609577    3.164    0.684
       285  -9.4875    238.5956    204.1777   9.4652920654e+01   1.6300818888e-01    0.1501632   0.09607969  -5.36 0.0009497713    1.692    0.409
       286  -9.9495    233.9321    197.0301   9.4219507384e+01   1.6370490542e+00    0.2124614    0.1561196 -17.08  0.001299829    1.468    0.319
       287 -10.0917     17.0025    192.2609   1.3204756470e+02   3.4180914884e+01    0.1599015    0.1073427  83.73 0.0004594581    1.166    0.142
       288  -9.8697    169.8134    191.2204   1.0416208993e+02   1.3288060628e+01    0.3312726     0.132219  35.69 0.0009918724    2.674    0.626
       289 -12.2127      4.9255    184.5657   1.3375569133e+02   3.6585953005e+01    0.5400805     0.309307  67.46  0.004156471    1.275    0.216
       290 -10.8353     15.1641     22.6000   1.1043469206e+02   6.8989798921e+01    0.2316132    0.1718841 -22.84 0.0007519929    1.414    0.293
       291  -9.3135    221.6126     29.7224   5.6897889153e+01   2.5647091888e+01    0.2129993    0.1215578 -35.36 0.0009464498    1.643    0.391
       292  -9.3990    210.7913     29.8398   5.8282299288e+01   2.8412509798e+01    0.2112983    0.1640767 -52.84 0.0005622318    1.344    0.256
       293 -10.3342    230.0332     27.3013   5.5234361695e+01   2.3798978413e+01    0.3506359    0.1979909 -28.97  0.001439752    1.642    0.391
       294  -9.8975    250.5412     25.3594   5.2593469636e+01   1.9041667146e+01    0.2799779    0.1254447 -23.50 0.0009621863    2.082    0.520
       295 -10.9822    214.4363     23.5997   5.5965979758e+01   2.8174690538e+01    0.4747348    0.3457142  -5.30  0.001859171    1.511    0.338
       296  -9.4996     59.6711     24.2371   9.1875711055e+01   6.3916578358e+01     0.218717    0.1543149 -45.11 0.0005642776    1.341    0.254
       297  -9.3360     62.0122     21.2392   8.9676316920e+01   6.4086819567e+01    0.1972859    0.1514916 -10.19 0.0006547552    1.316    0.240
       298  -8.9135     57.3910    174.8493   1.2349299899e+02   3.3093588486e+01    0.1362382   0.09151181 -66.96 0.0004636208    1.544    0.352
       299  -9.6400     51.6815    173.3228   1.2446634826e+02   3.4041010456e+01    0.1182444   0.06487946  68.34  0.000385899    1.670    0.401
       300 -10.1150     81.4094     19.3492   8.1855394567e+01   6.1159671576e+01    0.3897194    0.1955706  41.53 0.0009843123    2.105    0.525
       301  -9.7948     39.6088    173.2631   1.2678725601e+02   3.5375057518e+01    0.1413571   0.08473043 -70.20  0.000946175    1.610    0.379
       302 -10.8245     36.0348    170.3110   1.2725108119e+02   3.6299220942e+01    0.3151226    0.1399336 -79.44  0.001832807    2.032    0.508
       303 -10.3268      8.8872    156.1962   1.3159048463e+02   4.1476698564e+01     0.198818    0.1432778 -80.07  0.001558047    1.266    0.210
       304 -11.9193      9.9397    165.5835   1.3192197973e+02   3.9611232070e+01    0.4475343    0.3138153 -83.49  0.002608817    1.249    0.199
       305 -10.9209     13.8672    157.7938   1.3070887987e+02   4.0757806887e+01    0.3409915    0.1464013 -83.84    0.0010857    1.935    0.483
       306  -9.8790    223.4928     22.4393   5.4579764714e+01   2.5978301367e+01    0.2507908    0.2085424  73.90 0.0006398135    1.239    0.193
       307  -9.8631    221.1839     19.0307   5.3851041826e+01   2.6931534617e+01    0.2424663    0.1934569 -39.50            0    1.207    0.172
       308  -9.2829    197.9977    167.7684   9.5183255408e+01   1.1487280304e+01    0.1819944    0.1502707  34.57 0.0006580779    1.040    0.038
       309  -8.9896      1.4604     20.5436   1.1624770666e+02   7.0218897334e+01    0.1128372   0.08127137 -52.80 0.0001933508    1.029    0.029
       310 -10.3191     18.9237    165.2316   1.3019308731e+02   3.8900071268e+01    0.1976252    0.1808335  60.37  0.001190814    1.417    0.294
       311  -9.6844    188.8666    164.2097   9.6187179566e+01   1.3712772063e+01    0.2337282      0.16142   2.84   0.00113992    1.963    0.491
       312  -9.7865    205.0131    163.1935   9.3081918177e+01   1.0794298205e+01    0.2061577    0.1812679   1.42 0.0006545323    1.146    0.128
       313  -9.4686      6.2239     16.5715   1.1271650687e+02   7.0748115171e+01    0.1688292    0.1270898 -21.04 0.0007476516    1.416    0.294
       314 -10.0935     28.1998    162.9424   1.2823507733e+02   3.8475638298e+01    0.1965522    0.1257649 -66.12  0.001371451    1.607    0.378
       315  -9.0533    223.6737    156.7016   8.8586872631e+01   8.1193965122e+00    0.1358993   0.08837038  18.58 0.0005275575    1.633    0.387
       316 -10.7379    104.5134    153.9683   1.1136133966e+02   3.0597612069e+01    0.3574702    0.2500043 -71.57  0.002091204    1.493    0.330
       317 -10.5658     30.7755    154.0654   1.2703753562e+02   3.9951814480e+01    0.3279193    0.1961208  61.72  0.002190798    1.447    0.309
       318 -10.5007     30.4145    149.1810   1.2671075301e+02   4.0954342977e+01    0.2554112    0.1436046  75.28 0.0009025853    1.601    0.375
       319 -10.0601     22.8990    155.1731   1.2873029361e+02   4.0472910368e+01    0.2062222    0.1469098  27.61  0.001481212    1.886    0.470
       320  -9.9149    191.4612     16.6634   5.6725725467e+01   3.4982885703e+01    0.3256526     0.227445  16.63  0.001516895    1.688    0.407
       321 -12.1018     23.1587    149.0923   1.2822383129e+02   4.1645522276e+01    0.4664233    0.3078055 -33.70  0.002391479    2.841    0.648
       322  -9.2111    169.4720     23.5147   6.2324994783e+01   4.0080453228e+01    0.1496879    0.1428212  28.89  8.86604e-05    1.025    0.024
       323 -11.3819     16.6125    148.1585   1.2951429891e+02   4.2402288566e+01    0.3815791    0.2058141  60.56  0.001785353    1.614    0.380
       324 -10.2881     72.2579    151.9729   1.1803796917e+02   3.5655606018e+01    0.4257735    0.1762474  57.54  0.001915921    2.721    0.632
       325 -10.0050      3.5783    152.7523   1.3243828608e+02   4.2555800879e+01    0.2333858    0.1136128  66.42  0.001414998    1.706    0.414
       326 -11.5619      3.7800    147.5091   1.3209929639e+02   4.3555931548e+01    0.3993591    0.2937913  33.97  0.003151024    1.696    0.410
       327 -11.5924      3.7850    141.7106   1.3175034891e+02   4.4693875397e+01    0.3873806    0.2426539  50.10  0.001590543    1.526    0.345
       328 -11.8130      3.9249    136.6157   1.3139890284e+02   4.5696568416e+01    0.2097818    0.1547231  85.38  0.000362639    1.016    0.015
       329 -11.4032     62.3162    149.8291   1.1993684924e+02   3.7346734836e+01    0.4088662    0.3133567  63.90  0.001924156    1.158    0.137
       330 -10.6876     44.1163    150.4607   1.2392202968e+02   3.9309558293e+01    0.3288431    0.1855261 -86.81 0.0003542308    1.619    0.382
       331 -10.7740     46.8473    145.9003   1.2287669652e+02   3.9933561632e+01    0.4450287    0.2049411 -77.13  0.001852021    2.022    0.505
       332  -9.4153    214.6781    151.3561   8.9061073419e+01   1.0548051705e+01    0.1248051    0.1069566 -80.62 0.0007045734    1.762    0.433
       333  -9.5360     85.5840    149.8154   1.1486030562e+02   3.4258755036e+01    0.1729378    0.1083559 -78.87 0.0007513926    1.675    0.403
       334  -9.5413     48.2224    151.7800   1.2317711062e+02   3.8598724963e+01    0.1594051     0.148078  86.46 0.0006217841    1.285    0.222
       335 -10.8254    249.4198    143.0531   8.1602883409e+01   4.9669038207e+00    0.4681222    0.1510451 -32.26  0.001875902    3.007    0.667
       336  -9.5970    239.9346    146.5284   8.3829939796e+01   6.3225811534e+00     0.191483    0.1174948  44.38 0.0007154656    1.546    0.353
       337 -10.3813    108.2866    146.0810   1.0932224817e+02   3.1520713889e+01    0.2923402    0.1768644  41.02  0.001539482    1.637    0.389
       338 -10.6925     33.0844    144.2733   1.2571265830e+02   4.1682660245e+01    0.2424608    0.1737892  70.26 0.0007651019    1.185    0.156
       339  -9.9297    133.4684    140.8408   1.0290834857e+02   2.8151647360e+01    0.2855611    0.2360802 -30.56  0.001446161    1.466    0.318
       340 -10.3907     14.3155    133.4505   1.2890995512e+02   4.5545146596e+01    0.3110735     0.181854  47.13  0.002105454    1.681    0.405
       341 -10.7470     14.3454    140.3156   1.2942550247e+02   4.4153158424e+01     0.196802    0.1629645 -63.16  0.001551526    1.446    0.309
       342 -11.3021     10.9950    138.1861   1.2999008619e+02   4.4848574773e+01    0.3711663    0.1627481  85.65  0.002087325    2.058    0.514
       343 -10.0994     33.4836    138.0074   1.2503943574e+02   4.2921618481e+01    0.2066843    0.1511168  36.86  0.001340389    1.595    0.373
       344  -9.5121     26.7203    139.6725   1.2669012363e+02   4.3216233732e+01    0.1515412    0.1219018  68.24  0.000386557    1.159    0.137
       345 -11.7744     22.8278    135.5693   1.2719331514e+02   4.4401450231e+01    0.4900824    0.2990042  54.29  0.002308928    1.537    0.349
       346 -11.7979     29.8832    132.9494   1.2536307575e+02   4.4306534190e+01    0.4520662    0.2729506  88.49 0.0004723963    1.431    0.301
       347 -10.3752     81.8060    134.9993   1.1357267045e+02   3.7805174574e+01    0.3419035    0.2124025  27.49  0.001403726    2.172    0.540
       348 -10.5274     47.3753    134.9437   1.2156277654e+02   4.2129492819e+01     0.336511    0.1788613 -55.33  0.001502333    1.967    0.492
       349  -9.1593     44.2990    132.7311   1.2202091924e+02   4.2921574238e+01     0.171556    0.1244796 -89.94            0    1.165    0.141
       350 -10.8044     71.3293    134.0817   1.1588272800e+02   3.9429759085e+01    0.5010687    0.3183376  21.64  0.002635938    2.418    0.586
       351  -9.6891     62.6241    131.4125   1.1755809728e+02   4.1099900770e+01    0.3062654   0.08987268 -60.03  0.001261238    2.961    0.662
       352 -10.7944     10.5920    127.2864   1.2926063969e+02   4.7096176746e+01    0.3791441    0.1362945 -62.07  0.001607582    2.433    0.589
