#   1 NUMBER                 Running object number                                     
#   2 MAG_AUTO               Kron-like elliptical aperture magnitude                    [mag]
#   3 X_IMAGE                Object position along x                                    [pixel]
#   4 Y_IMAGE                Object position along y                                    [pixel]
#   5 X_WORLD                Barycenter position along world x axis                     [deg]
#   6 Y_WORLD                Barycenter position along world y axis                     [deg]
#   7 A_WORLD                Profile RMS along major axis (world units)                 [deg]
#   8 B_WORLD                Profile RMS along minor axis (world units)                 [deg]
#   9 THETA_WORLD            Position angle (CCW/world-x)                               [deg]
#  10 FWHM_WORLD             FWHM assuming a gaussian core                              [deg]
#  11 ELONGATION             A_IMAGE/B_IMAGE                                           
#  12 ELLIPTICITY            1 - B_IMAGE/A_IMAGE                                       
         1 -13.4708    207.0042     19.8820   4.8900580883e+01   2.9965592558e+01      1.30516    0.9064159  15.67  0.006336191    1.806    0.446
         2 -13.7658    195.7960     33.0350   5.4166123554e+01   3.1370042656e+01      2.11045     1.386995  18.22  0.008671978    1.992    0.498
         3 -11.0024    163.9945     13.0193   5.1695019059e+01   4.2178014103e+01    0.4577553    0.3521361 -76.69  0.001940539    1.383    0.277
         4 -10.3956     40.7852     17.0173   9.1612177592e+01   7.0606640994e+01    0.3836516   0.07041521 -42.97  0.001046187    5.280    0.811
         5  -9.0752     63.8324      8.6515   7.4906078967e+01   6.8173569642e+01    0.1860936    0.1298583  58.85 0.0009400424    1.741    0.426
         6 -10.2422     49.0075      2.9951   7.8600563358e+01   7.1791044546e+01    0.1988137    0.1666364 -65.80  0.001114687    1.701    0.412
         7  -8.3867    100.5736    234.5165   1.1484370158e+02   1.7166153698e+01    0.1083129   0.07871722  44.41 0.0001812401    1.023    0.023
         8 -16.0046     53.5740    204.7350   1.2175770139e+02   2.7640907181e+01     5.521442     3.321363 -57.75   0.03576463    2.192    0.544
         9 -17.5590     10.4469    140.9323   1.2790734051e+02   4.4473586781e+01     11.16364     4.642348  84.54   0.05679445    2.161    0.537
        10  -8.9603     95.0182    200.0566   1.1287010150e+02   2.3228231959e+01    0.1973457     0.111421  59.37  0.001119885    1.766    0.434
        11  -8.6906    114.3285    195.3135   1.0835505105e+02   2.1253442310e+01    0.1142709    0.0894054  10.51 0.0007043614    1.671    0.402
        12  -8.4770    180.1671    192.4107   9.4910684636e+01   1.1348032964e+01     0.169897   0.09667365  45.49 0.0005506448    1.642    0.391
        13  -8.7565    168.3698    189.1340   9.6640559015e+01   1.3697057745e+01    0.1493933    0.1179782 -55.84 0.0009448619    1.760    0.432
        14  -9.3140    207.1990    182.2009   8.8381474417e+01   8.2960923697e+00    0.2440639    0.1488206 -57.49  0.001074332    4.251    0.765
        15 -11.0858     71.7488    180.6011   1.1601986939e+02   2.9839461834e+01     0.326248    0.2446179 -34.85  0.001293991    2.064    0.515
        16 -10.9579     76.0665    175.2435   1.1451742578e+02   3.0300393802e+01    0.2543207    0.2213906 -37.72 0.0008105318    1.579    0.367
        17  -9.1461     99.7886    180.7802   1.0977312816e+02   2.5923412210e+01    0.1757955    0.1541889  37.31 0.0005535917    1.178    0.151
        18  -9.0049    211.5142    178.9742   8.7080304686e+01   7.9918857619e+00    0.1659869    0.1128382 -26.51 0.0007712928    1.576    0.366
        19  -9.5768    143.9951    179.4948   1.0006363410e+02   1.9163980460e+01    0.2039216    0.1066878  39.99  0.001031616    1.586    0.369
        20 -12.0323    104.8712    172.1827   1.0756564635e+02   2.6740346669e+01     1.751134    0.3033176  46.30  0.004770444    5.833    0.829
        21 -11.5035     90.7056    158.0140   1.0903354038e+02   3.1644997707e+01    0.6987855     0.426879 -46.24  0.003017571    2.063    0.515
        22 -11.4473     84.2944    164.7574   1.1143253367e+02   3.1226404643e+01    0.5675691    0.3502087  64.78 0.0008014427    1.686    0.407
        23 -12.5007     72.6447    160.9675   1.1380695676e+02   3.3603079667e+01      3.10036     1.261565 -88.61  0.001250496    5.864    0.829
        24 -11.9660     70.4925    145.0358   1.1246073645e+02   3.7256844340e+01    0.5345104    0.4014655 -68.30  0.001371916    1.372    0.271
        25 -12.8772     64.9774    141.9803   1.1353893374e+02   3.8656934709e+01     1.522702    0.8843274 -75.13  0.001581202    1.755    0.430
        26  -9.6261    195.7052    169.7895   8.8274840930e+01   1.1779777418e+01    0.2433638    0.2102837   6.07   0.00111376    1.111    0.100
        27  -9.1557    145.5095    168.4597   9.8023323224e+01   2.0716381336e+01    0.1322562     0.111957  32.71 7.377589e-05    1.058    0.055
        28 -15.7040     19.4538    115.5352   1.2375131494e+02   4.9512638326e+01     3.524853     1.194403  72.27   0.01279603    3.910    0.744
        29  -8.3203    140.2455    156.6634   9.7191752683e+01   2.3675565304e+01    0.1258227    0.1018346  77.68 0.0001993423    1.555    0.357
        30 -15.5149      2.8353    238.9422   1.3240753743e+02   2.7063962033e+01     1.225005    0.4780631  88.76  0.006990016    2.504    0.601
        31  -9.5762    189.1496    154.8199   8.6719290664e+01   1.5026371185e+01    0.2612276    0.1858782 -46.32  0.001445081    1.759    0.432
        32 -10.4940    134.0000    144.0038   9.6342627065e+01   2.7131234140e+01    0.7904398    0.2500155 -56.75  0.002267071    5.582    0.821
        33  -9.1410    174.9667    148.9457   8.8357094967e+01   1.8550467760e+01    0.1971976    0.1653375  73.60 0.0005438589    1.627    0.386
        34 -14.0873     34.6524    180.6964   1.2430098186e+02   3.4103630431e+01     1.248694    0.8479421  65.72  0.006905699    1.178    0.151
        35 -10.4464    133.4787    171.5281   1.0109846908e+02   2.2245507101e+01    0.4516088     0.253087  15.17  0.001739383    3.705    0.730
        36 -10.3110    104.0354    142.0760   1.0332768621e+02   3.2806361714e+01    0.5000448    0.3176982 -31.40  0.002295931    2.431    0.589
        37 -11.5520     91.5884    142.4018   1.0657718884e+02   3.4748386282e+01    0.2509627     0.245953  31.37  0.000303907    1.193    0.161
        38  -9.5443    112.6946    131.5417   9.9232475247e+01   3.3498174724e+01    0.3384948    0.2422149  18.14 0.0009474018    1.847    0.459
        39  -9.6203    105.8143    130.7548   1.0087866300e+02   3.4879181939e+01    0.3069009     0.246777 -76.87  0.001404907    1.355    0.262
        40 -11.7965     44.5647    127.9738   1.1754622241e+02   4.4265646282e+01    0.6264259    0.2866282  52.20  0.002956568    2.086    0.521
        41 -10.8884    161.7915    128.2678   8.6820085030e+01   2.4585590738e+01    0.4412365    0.4096506  45.12  0.002572172    1.091    0.083
        42 -10.4134    135.0000    120.4180   9.1286364021e+01   3.1507304057e+01    0.4465307    0.1015911 -48.28  0.001212768    4.929    0.797
        43 -10.9922    118.1906    127.0809   9.6942486135e+01   3.3419922155e+01    0.4988253    0.2965426 -54.77  0.002315519    1.819    0.450
        44 -10.2852    100.0371    128.0171   1.0191307933e+02   3.6460702437e+01    0.2874995    0.2448752 -15.96 0.0007593362    1.537    0.350
        45  -9.3615    125.2122    127.0119   9.5141690440e+01   3.2109522006e+01    0.2335822    0.1672915 -87.96  0.001079551    2.008    0.502
        46 -11.0523    163.5968    118.6259   8.4238226903e+01   2.5905822092e+01    0.7196078    0.2082433 -38.92  0.002277578    3.675    0.728
        47  -8.8662     64.1681    223.8002   1.2086959016e+02   2.3257701408e+01     0.169009    0.1000449  54.33 0.0006835949    1.284    0.221
        48 -10.9587    183.6392    215.9237   9.7669676731e+01   7.9058944988e+00    0.2680573    0.1355591  40.43  0.001508611    1.578    0.366
        49  -9.1253    108.7710    120.1056   9.8006451686e+01   3.6629084325e+01    0.2054243    0.1808597  70.93 0.0003781139    1.139    0.122
        50  -9.7664    167.8658    112.6001   8.1881233543e+01   2.6046068346e+01    0.3196534    0.2352895 -62.47  0.001081346    1.818    0.450
        51  -8.8595    107.6151    113.5931   9.6944984223e+01   3.8250225407e+01    0.3887559    0.2295487  74.63   0.00142029    3.104    0.678
        52 -11.2538    120.1755    110.3921   9.2802224140e+01   3.6522626690e+01    0.4091269    0.3242659  89.29  0.002038165    1.555    0.357
        53  -9.9789    134.5047    103.8541   8.7479665050e+01   3.4909377499e+01    0.4876895    0.1468738 -46.46  0.001500759    3.512    0.715
        54  -9.4170     86.4138     99.5116   1.0007099500e+02   4.5179731921e+01     0.288486    0.2131809  66.68 0.0005277141    1.499    0.333
        55  -9.3516    205.5725    110.0900   7.3980532938e+01   1.8369086350e+01    0.2651416    0.1902771  36.03 0.0007204216    1.362    0.266
        56 -10.1344    164.3684     92.5377   7.7468361660e+01   3.0339813969e+01    0.4308583    0.1433082 -36.52  0.001391461    3.051    0.672
        57 -12.7381     52.4515    108.4498   1.1259400534e+02   4.7953386183e+01    0.7969792    0.4228797 -76.23  0.003755543    1.880    0.468
        58 -16.5248      5.1179    209.6597   1.3142002270e+02   3.1568393272e+01     3.039062    0.8395646  77.82   0.01495457    3.505    0.715
        59  -9.6103     24.9954     82.4881   1.1828573924e+02   5.7008695021e+01    0.1938246    0.1520089 -79.24 0.0004140514    1.092    0.084
        60  -9.7375     61.8396     69.0517   1.0110423241e+02   5.6205153402e+01    0.2859972    0.2202051  61.39  0.001157187    1.460    0.315
        61 -10.1186    164.3476    206.4122   9.9880132518e+01   1.1979613713e+01    0.4101588    0.1143145 -46.18  0.001684004    4.732    0.789
        62 -10.6214    164.0000     57.5809   6.7120675355e+01   3.6288469236e+01    0.6932513   0.08727667 -31.10  0.001340241    7.916    0.874
        63 -10.1640    156.7309     58.9397   6.9041583953e+01   3.7940977227e+01    0.2802256    0.2288089  73.05 0.0005212586    1.333    0.250
        64 -10.2773    159.2255     52.8812   6.6527252102e+01   3.8257399864e+01    0.3262783    0.2536959  77.02 0.0005791679    1.440    0.306
        65 -11.0968    193.6599    194.1023   9.2714071935e+01   8.9942221322e+00    0.6190006    0.4345693 -56.91  0.003622007    2.547    0.607
        66  -9.4178    174.0137    248.6766   1.0330247684e+02   5.6556090458e+00    0.1682102    0.1277653  51.29  0.001154862    1.617    0.381
        67 -12.2752    186.6690     39.8678   5.7548502341e+01   3.2897235114e+01    0.6886992    0.5577223  31.72  0.001153501    1.352    0.260
        68  -9.9859    170.8352    239.1374   1.0277630557e+02   7.0972641050e+00    0.1534501    0.1011686  22.09  0.001089921    1.353    0.261
        69  -8.8331     78.6096    236.9749   1.1903118785e+02   1.9549309027e+01    0.1433808    0.1040254  55.05 0.0004977817    1.119    0.106
        70 -10.2725     84.3312    233.9334   1.1778065134e+02   1.9296711799e+01    0.2010139    0.1533741  46.62 0.0005623837    1.091    0.083
        71 -10.1894    164.0000     24.0025   5.5646258915e+01   4.0951565569e+01    0.5098366   0.08597201 -23.97  0.001162357    5.995    0.833
        72  -9.1770    182.6630    234.3326   1.0019822201e+02   5.9921464483e+00    0.1019796   0.07279643  51.38  0.000705205    1.740    0.425
