#   1 NUMBER                 Running object number                                     
#   2 MAG_AUTO               Kron-like elliptical aperture magnitude                    [mag]
#   3 X_IMAGE                Object position along x                                    [pixel]
#   4 Y_IMAGE                Object position along y                                    [pixel]
#   5 X_WORLD                Barycenter position along world x axis                     [deg]
#   6 Y_WORLD                Barycenter position along world y axis                     [deg]
#   7 A_WORLD                Profile RMS along major axis (world units)                 [deg]
#   8 B_WORLD                Profile RMS along minor axis (world units)                 [deg]
#   9 THETA_WORLD            Position angle (CCW/world-x)                               [deg]
#  10 FWHM_WORLD             FWHM assuming a gaussian core                              [deg]
#  11 ELONGATION             A_IMAGE/B_IMAGE                                           
#  12 ELLIPTICITY            1 - B_IMAGE/A_IMAGE                                       
         1 -13.0225    216.7522     41.9242   1.9180872119e+01   2.6018716190e+01    0.6955934    0.6674945 -59.04   0.00152032    1.192    0.161
         2 -12.3000    246.9245     18.7106   1.1728111839e+01   2.2604348959e+01    0.8441941     0.387554 -39.52  0.004727348    1.714    0.417
         3 -11.7935    241.1597     19.4246   1.2229533307e+01   2.3646202158e+01    0.7163596    0.2636626 -35.91  0.003547709    2.179    0.541
         4 -10.1624      2.2944     10.3918   7.2474246074e+01   7.5968446670e+01    0.2212048     0.112072 -41.09 0.0009803547    1.650    0.394
         5  -9.2599    158.2555      8.9575   1.6507321207e+01   4.3581497285e+01    0.1837436    0.1626992 -71.59  0.001052895    1.077    0.071
         6 -10.2274    111.7671    240.6581   8.0435159527e+01   1.0442834508e+01    0.2201757    0.2043886 -65.14 0.0007098808    1.335    0.251
         7 -11.2145     74.1447    244.8135   8.8831784643e+01   1.4689881610e+01    0.5568138    0.3247709 -76.83   0.00323774    2.114    0.527
         8 -10.5386     71.3982    241.2505   8.9121520488e+01   1.5680735035e+01    0.4509942    0.3261173  84.04  0.002226782    1.558    0.358
         9 -14.5658     47.8435    177.9925   8.8905639533e+01   3.2020128139e+01     10.20954          nan  40.10   0.02451411    6.865    0.854
        10 -16.2409      7.4243    140.6984   9.6993428775e+01   4.5108811068e+01     20.07577     4.465204 -86.61   0.04920579    7.203    0.861
        11 -10.6169    155.1521    230.1795   6.9983491295e+01   6.0282507378e+00    0.3120877    0.2037519 -36.98   0.00127794    1.740    0.425
        12 -15.5060      8.1081    207.4651   1.0083825925e+02   2.9402209327e+01     1.230161    0.9647011  84.69  0.007532942    1.181    0.153
        13 -10.9719    148.5016    228.4597   7.1124724260e+01   7.2653164796e+00    0.2733278    0.2578678  33.96  0.001891787    1.229    0.186
        14 -15.6499      3.9268    236.8380   1.0286026383e+02   2.3844282252e+01      1.16658    0.4103279 -78.17  0.006048174    2.819    0.645
        15 -10.8004     71.0201    226.2716   8.7912387010e+01   1.8571345126e+01    0.3975532     0.280114  41.23  0.002261836    1.167    0.143
        16  -9.8305    167.1426    224.6300   6.6729072835e+01   5.1757519338e+00    0.1867012    0.1751427 -30.50 0.0006766616    1.328    0.247
        17 -16.6484      7.1930    229.2123   1.0193168052e+02   2.5025221613e+01     1.678415     1.268535  52.83  0.009074385    1.078    0.072
        18  -9.4452    142.2066    216.2079   7.0726715314e+01   1.0277669203e+01    0.2098871    0.1884127  36.82  0.000467712    1.143    0.125
        19 -11.3906    110.6738    197.7254   7.5273842021e+01   1.8704448538e+01    0.5251433    0.3281287   2.57  0.002210871    2.724    0.633
        20 -11.8750    117.3841    195.0984   7.3270300503e+01   1.8183045872e+01    0.4564732    0.3527834 -35.68  0.002503168    1.490    0.329
        21 -10.3406    191.7767    192.6839   5.6554866209e+01   6.5838657672e+00    0.7186394    0.4012992 -63.10  0.002326668    6.159    0.838
        22  -9.8460     58.2176    196.0761   8.8067528329e+01   2.6563459393e+01     0.307912    0.2156058  86.90  0.001486316    1.491    0.329
        23 -14.0341     23.2512    199.5832   9.6918835884e+01   2.9703407319e+01     1.966343    0.7792962  69.48  0.008380827    2.816    0.645
        24 -11.1151    127.2347    190.9894   7.0272499016e+01   1.7420744983e+01    0.3367745    0.2217826 -55.84  0.001689503    1.724    0.420
        25  -9.7834    162.6310    190.8112   6.2197695936e+01   1.1581350887e+01    0.1852964    0.1295508 -54.35  0.000957349    1.764    0.433
        26 -10.4561     80.1512    182.3326   8.0818038612e+01   2.6713217178e+01    0.2674155    0.2271398 -59.05 0.0003230487    1.272    0.214
        27 -10.2875     76.3788    183.1954   8.1923085631e+01   2.7058191453e+01    0.4198283    0.2641855  76.89  0.001424694    1.990    0.497
        28 -10.8824     98.9891    180.9688   7.5708220607e+01   2.4152018187e+01    0.3060775    0.2767482  40.71 0.0007195828    1.031    0.030
        29 -10.1873    126.9785    177.4678   6.8064198106e+01   2.0260086049e+01    0.2660666    0.1948761  67.58  0.001282732    1.783    0.439
        30 -11.0007    181.2327    174.7994   5.5333371941e+01   1.1327115544e+01    0.4690887     0.309858  -9.19  0.002271902    1.900    0.474
        31  -9.4719    199.6205    173.8017   5.1537777959e+01   8.4305574552e+00    0.1807223    0.1181293 -45.52 0.0004156756    1.684    0.406
        32 -10.3716    111.7231    173.2935   7.1180287896e+01   2.3775203129e+01    0.2692751    0.1701953  39.36 0.0009322605    1.465    0.317
        33 -10.6225    102.1627    170.3540   7.3183279721e+01   2.6038955287e+01     0.603447    0.3322852  52.66  0.002537489    2.009    0.502
        34 -10.2379    229.2948    171.5705   4.5889626317e+01   4.1649953496e+00    0.2192702    0.1182469  43.52  0.001142254    2.143    0.533
        35  -9.7845     66.6367    169.3444   8.2728465722e+01   3.1693956822e+01    0.2646938    0.2078938  62.08 0.0005860507    1.233    0.189
        36 -13.9897     76.7056    154.2253   7.7601266265e+01   3.3937838180e+01     4.091534     2.195019  78.17  0.005429911    3.542    0.718
        37 -13.3003     65.2524    148.7837   8.0134971112e+01   3.6963794785e+01     0.870506    0.5807823 -64.10  0.001332584    1.478    0.323
        38 -12.7392     70.6937    145.1598   7.7885009065e+01   3.7092571405e+01     1.057078    0.6090799  83.27  0.003298767    2.680    0.627
        39 -11.5080     63.2893    165.3556   8.3132024112e+01   3.3119300565e+01    0.5844718     0.316507  25.28  0.001489141    2.017    0.504
        40 -11.7013     68.5304    160.9603   8.1017863476e+01   3.3473653313e+01    0.5249113    0.3964931  37.87  0.001473625    1.277    0.217
        41 -11.1772    247.0710    164.0058   4.1679127120e+01   2.7032270358e+00     0.488011    0.2334049 -20.60  0.001390132    2.413    0.586
        42 -11.1925    245.5182    158.9857   4.0953132655e+01   3.6401769519e+00    0.4009487    0.2034131 -38.65  0.001266904    1.755    0.430
        43 -10.4902    229.6963    165.9951   4.4756620806e+01   4.9390587671e+00    0.1847017    0.1441771 -23.35  0.001165601    1.099    0.090
        44 -10.5342    236.7112    161.6983   4.2812006071e+01   4.5315985801e+00    0.2169653    0.1596272  67.63   0.00119018    2.531    0.605
        45  -9.7418     50.5176    158.2824   8.5884748884e+01   3.6512253754e+01    0.4214218    0.1745311  49.98   0.00163144    2.525    0.604
        46 -10.6418    133.8746    145.9061   6.0188631083e+01   2.5811076113e+01     1.219285    0.3307639 -54.55  0.002943339    5.821    0.828
        47 -11.8031     84.7241    147.5595   7.4090753564e+01   3.4326010248e+01    0.6966322    0.5090905 -33.82  0.001727692    1.652    0.395
        48  -8.7530     47.4912    145.5004   8.5101193836e+01   4.0104089706e+01    0.1403563    0.1302268  85.71 9.812062e-05    1.017    0.017
        49 -10.0015     29.4482    142.8503   9.0390474184e+01   4.2730854697e+01    0.3866677    0.2734652   1.01  0.002010533    1.849    0.459
        50  -9.7896     54.1426    147.5409   8.3336831592e+01   3.8764623001e+01    0.4332566    0.2050441 -67.67  0.001800137    2.068    0.516
        51  -8.9594     90.3959    237.7328   8.4720423936e+01   1.3861851789e+01     0.188078    0.1218276 -71.26    0.0010961    1.909    0.476
        52  -9.4095    109.8470    127.7537   6.2607098832e+01   3.4629142267e+01    0.3014856    0.2341168 -18.56 0.0007102609    1.625    0.385
        53 -10.5737    100.7738    134.8864   6.6837430755e+01   3.4647732456e+01    0.5412993    0.3663648  -5.18    0.0021302    2.494    0.599
        54  -9.9942    105.2240    130.2937   6.4525346727e+01   3.4916564100e+01    0.4243161    0.3880575   5.88  0.001196932    1.200    0.167
        55 -11.5511     87.2949    134.1321   7.0722042815e+01   3.7210894449e+01    0.3083355     0.278857 -55.24 0.0004656115    1.117    0.105
        56 -12.9581    133.5549    228.4445   7.4293952640e+01   9.4423221448e+00      1.07868    0.5839157  44.63   0.00554351    1.758    0.431
        57 -10.1036     44.6402    130.1447   8.3763366644e+01   4.4383048052e+01    0.2861827    0.2040413  61.61  0.001362865    1.487    0.327
        58  -9.2073    136.3663    128.8106   5.5685034506e+01   2.9040098102e+01    0.2287644     0.141229 -36.00 0.0009546593    1.771    0.435
        59 -11.1202     67.2579    127.0663   7.5684376889e+01   4.2180346081e+01    0.5564169    0.3889715 -79.81  0.002602897    1.603    0.376
        60  -9.2608     75.5104    127.9571   7.3167551801e+01   4.0688409385e+01    0.2260505    0.1465352 -61.56 0.0004535601    1.541    0.351
        61  -9.8634     42.8144    125.4287   8.3635388462e+01   4.5811599074e+01    0.2591527    0.1840916 -69.67  0.000251212    1.323    0.244
        62 -10.6243     17.0385    124.3554   9.2316904599e+01   4.8553151592e+01    0.3912424    0.2192674  50.35  0.001621265    1.859    0.462
        63 -10.3704     97.1003    122.8302   6.5241094240e+01   3.8224464941e+01    0.3536309    0.2779384  -9.76 0.0008393669    1.658    0.397
        64  -9.3514    117.1472    122.5571   5.9301425299e+01   3.4382448290e+01    0.3972693    0.1524338  38.96  0.001311468    2.672    0.626
        65  -9.4775    135.0000    120.4532   5.4000995266e+01   3.1136294841e+01    0.3406402   0.08791719 -45.50 0.0009299323    3.896    0.743
        66 -10.6291     53.2538    116.6334   7.8440762870e+01   4.6802564653e+01    0.4684319    0.3661423  75.48  0.001490929    1.422    0.297
        67 -10.2978     32.4628    118.3734   8.6142840764e+01   4.8738779981e+01    0.2579624    0.2226612  69.81 0.0002453708    1.170    0.145
        68  -9.2101    106.8440    116.9053   6.0880057541e+01   3.7755435386e+01    0.2201342    0.2044844  -5.23 0.0003234362    1.172    0.147
        69  -8.4800    183.4956    116.5032   4.2250477348e+01   2.1560237672e+01    0.1446464    0.1356655 -18.75 -2.479768e-05    1.053    0.050
        70 -10.4327    133.5557    104.9957   5.0367647689e+01   3.4747101515e+01    0.8842294    0.3626566 -53.97   0.00277504    3.213    0.689
        71  -9.8398    205.4053    110.3799   3.6943751003e+01   1.8156690746e+01    0.2713643    0.2452105  23.42 0.0007866179    1.218    0.179
        72 -10.5934     52.8795    109.5258   7.7149838577e+01   4.8667944324e+01    0.4576677     0.246398 -82.29  0.001724898    2.673    0.626
        73  -9.9899     30.2366    108.2334   8.5338184082e+01   5.1569892110e+01    0.2886437    0.1603917  43.03 0.0008862918    1.913    0.477
        74 -10.2579     24.4887    105.3297   8.7046575854e+01   5.2836629287e+01    0.4236472    0.2608573  53.69  0.002071387    1.830    0.453
        75  -9.9288     67.5336    105.3986   7.0911757796e+01   4.7596980467e+01    0.3009879    0.2126968  61.66 0.0008707027    1.707    0.414
        76  -9.5028    120.3223    103.3402   5.3450546950e+01   3.8012016565e+01    0.1610176    0.1255569  -1.26 0.0007050643    1.722    0.419
        77  -9.4592     43.0489    100.3439   7.8939718057e+01   5.2225800236e+01    0.2487499    0.1898942  75.43  0.000711068    1.530    0.347
        78 -10.2189     53.1217     94.3027   7.3630861870e+01   5.2459598237e+01    0.3931441    0.1692327 -68.57  0.001349253    3.024    0.669
        79  -9.6570    244.4917     94.4796   2.7967370037e+01   1.3271805690e+01    0.1264631    0.1041329 -41.26 -3.208251e-05    1.021    0.021
        80  -9.7600     27.8665     94.2336   8.3773502312e+01   5.5362604917e+01    0.2648138    0.1664983  37.67 0.0009354088    1.704    0.413
        81  -8.3090     72.5087     84.5130   6.3514166913e+01   5.1787029017e+01    0.1464027    0.1451101 -61.49 0.0008100619    1.046    0.044
        82  -9.1375    107.2331     77.4485   4.9566752586e+01   4.6344318464e+01    0.2627245    0.2094691 -46.83 0.0002779217    1.283    0.221
        83  -9.5131     33.1841     68.5578   7.5462957410e+01   6.1106199307e+01      0.27105    0.1036916 -62.68  0.001016386    2.698    0.629
        84 -10.0972     21.2022     64.5577   8.0191354394e+01   6.3198897168e+01    0.2771271    0.2184298   6.32 0.0009716044    1.353    0.261
        85 -15.9632     32.5632    184.7574   9.3549713753e+01   3.2129525940e+01     9.432276      3.37869  58.46   0.03372195    3.150    0.683
        86  -9.5975     71.5568     63.2755   5.6967529707e+01   5.6581459596e+01    0.3306625    0.2426023  68.19  0.001234226    1.924    0.480
        87 -11.3934     13.4482     60.5552   8.3110065137e+01   6.4733082326e+01     0.390589    0.2589597 -71.73 0.0007592796    1.525    0.344
        88 -12.1645    194.8222     57.9363   2.5641454135e+01   2.8737094856e+01    0.5974993    0.4873409  37.42 0.0008669979    1.513    0.339
        89 -12.8869    206.0706     50.0579   2.2270376693e+01   2.7292571460e+01    0.9066119    0.8158633 -53.38   0.00300666    1.077    0.072
        90  -8.6858     83.4484     61.5349   5.1902849164e+01   5.4601465738e+01    0.1464481     0.140346  11.95 7.197587e-05    1.010    0.010
        91  -8.8709     29.3992     51.4759   7.2069909213e+01   6.5358950858e+01    0.2406221    0.1058667  38.16  0.001026508    2.542    0.607
        92  -9.5326    139.9978    250.0000   7.5651833930e+01   5.0675708765e+00    0.2102808   0.05522703  33.64 0.0008114231    3.005    0.667
        93  -9.5850     24.7880     32.1999   6.7230245287e+01   6.9802978596e+01    0.1805956     0.131228 -16.55  0.000434186    1.324    0.245
        94  -9.6598    124.6627    249.2693   7.8693473971e+01   7.2609971236e+00    0.1879084    0.1330887  33.63  0.000818715    1.111    0.100
        95  -9.1125    125.0000    245.0010   7.8140123167e+01   7.8982035347e+00    0.2390184   0.07143696 -54.76 0.0009669419    4.199    0.762
        96 -11.9842    126.0677    229.0007   7.5981254156e+01   1.0433328454e+01    0.5155713    0.4344378 -84.58  0.003292141    1.578    0.366
        97  -9.4380     60.3842     20.9939   4.3447009757e+01   6.5977498489e+01     0.246657    0.1739936  36.48 0.0004819157    1.296    0.228
        98  -8.7691    189.6059     15.1838   1.5114560737e+01   3.5299617957e+01    0.1625365    0.1245927 -16.22 0.0007445563    1.624    0.384
        99 -10.4036    119.1294    241.9781   7.9023807200e+01   9.2039541072e+00    0.2337331    0.2036895 -75.56  0.000530778    1.480    0.324
