#   1 NUMBER                 Running object number                                     
#   2 MAG_AUTO               Kron-like elliptical aperture magnitude                    [mag]
#   3 X_IMAGE                Object position along x                                    [pixel]
#   4 Y_IMAGE                Object position along y                                    [pixel]
#   5 X_WORLD                Barycenter position along world x axis                     [deg]
#   6 Y_WORLD                Barycenter position along world y axis                     [deg]
#   7 A_WORLD                Profile RMS along major axis (world units)                 [deg]
#   8 B_WORLD                Profile RMS along minor axis (world units)                 [deg]
#   9 THETA_WORLD            Position angle (CCW/world-x)                               [deg]
#  10 FWHM_WORLD             FWHM assuming a gaussian core                              [deg]
#  11 ELONGATION             A_IMAGE/B_IMAGE                                           
#  12 ELLIPTICITY            1 - B_IMAGE/A_IMAGE                                       
         1 -17.4461    165.2184     71.2116   7.0299987080e+01   3.4162721509e+01     7.930545     4.180422  42.24   0.03064573    2.063    0.515
         2 -17.9809    191.5107    167.5774   8.8850780481e+01   1.1182432910e+01     5.146323     3.325552  -2.86   0.02406062    2.225    0.551
         3 -16.4271    128.7005    154.0821   9.9524989337e+01   2.5561505501e+01     3.787232     1.938712 -67.25   0.01470507    2.948    0.661
         4 -16.5740    199.9321     93.1162   6.9839784563e+01   2.1938750636e+01      3.19118     2.485797 -26.64   0.01590561    1.248    0.199
         5 -16.5031    228.5950    124.2773   7.2670396956e+01   1.0645082958e+01     3.557261     1.967434 -19.61   0.01569322    1.982    0.495
         6 -17.0401    212.7433    142.4392   7.9601162760e+01   1.1037386590e+01     2.855957     1.465748 -35.62   0.01281358    1.931    0.482
         7 -19.1594    181.8016    136.3296   8.4213085407e+01   1.8424241505e+01     8.964232     4.972833  44.82   0.03942982    1.751    0.429
         8 -12.0225    201.8517     22.5868   4.9085828096e+01   3.1692235931e+01    0.5392291    0.2068072 -31.95  0.001711615    2.346    0.574
         9 -11.0954    222.8519     21.7956   4.6553921198e+01   2.6476440084e+01    0.2039476    0.1853655  31.03  0.000616454    1.262    0.208
        10 -12.0659    229.1455     18.4792   4.5044489133e+01   2.5311162379e+01    0.5105197    0.1215739 -33.87  0.001756504    3.122    0.680
        11 -11.2676     12.2495     15.3014   1.0254055615e+02   7.1967729751e+01    0.3449096    0.1637093 -54.83  0.001888154    1.761    0.432
        12 -12.5938    238.7829     17.5598   4.3940768478e+01   2.3116614671e+01    0.5247178    0.1958763 -34.72  0.002188783    2.208    0.547
        13 -12.5588    248.6202      5.5838   4.0170795636e+01   2.2111972144e+01    0.5786805    0.2553728 -19.43  0.002526524    2.498    0.600
        14 -13.0350    238.5671      4.6943   4.0668833553e+01   2.4516595141e+01    0.4731202    0.3180079 -26.73  0.002608015    1.450    0.310
        15 -10.2763     26.7063      7.0018   9.0430254032e+01   7.2151588122e+01    0.1674416    0.1268314 -29.35 0.0004038663    1.068    0.064
        16 -10.2643    178.1914      5.7970   4.6688043967e+01   3.9669114395e+01    0.2903949    0.1376117 -40.45  0.001208556    2.086    0.521
        17 -11.1717    224.1793      4.8529   4.1829302187e+01   2.7947067375e+01    0.1761819     0.158591  28.14 0.0004801418    1.318    0.241
        18  -9.9283      8.1728      5.1052   1.0034371896e+02   7.4143023588e+01    0.1338899    0.1235973 -18.75  0.001040447    1.316    0.240
        19 -11.2448    201.9670      3.9589   4.3554692505e+01   3.3618087331e+01       0.2113    0.1920985 -79.19 0.0004472444    1.029    0.028
        20 -10.5622     62.8757      6.9111   7.3257895678e+01   6.6991743998e+01    0.1929987    0.1608284  -2.14 0.0003616314    1.009    0.009
        21  -9.8081    123.6972      2.3024   5.3748715328e+01   5.4231429713e+01    0.1380727    0.1052636 -59.64 0.0003026673    1.592    0.372
        22 -10.1965     85.5005      2.2261   6.2957811597e+01   6.3131142067e+01    0.1896596    0.1233976 -18.12 0.0009958962    1.481    0.325
        23 -11.1923     40.0922      2.7629   8.1000577319e+01   7.1145915614e+01    0.2429036    0.1974937  33.25  0.001009659    1.451    0.311
        24  -9.5881    141.2824      1.6342   5.0353731150e+01   4.9798439608e+01    0.1473086    0.1010933 -54.62  0.000701642    1.687    0.407
        25 -10.6014    201.8323    233.5865   9.7909997933e+01   4.1412961145e-01    0.1643699   0.08768796  45.90 0.0009498018    1.750    0.429
        26 -11.1384    213.6328    249.2698   9.8106364188e+01  -2.9818484449e+00    0.1772862    0.1244405  -5.54  0.001296759    1.572    0.364
        27 -11.1000    202.0541    249.4519   1.0000646807e+02  -1.3536250524e+00    0.1838088    0.1519317  22.67 0.0005324561    1.162    0.139
        28 -12.7152    193.3745    249.6659   1.0145552787e+02  -1.2598147694e-01    0.3624326    0.1762157  42.66 0.0006795581    1.628    0.386
        29 -11.9880    174.8496    231.6487   1.0228346256e+02   4.7748479983e+00    0.3502061    0.2667093  17.77  0.002170258    1.354    0.262
        30 -11.5276    214.4062    230.0772   9.5298175823e+01  -1.0784144512e+00    0.2208073    0.1574666  46.24  0.001137734    1.537    0.350
        31 -11.9511    140.8183    228.9099   1.0798661170e+02   1.0403295022e+01    0.4528749    0.2052418  53.72  0.002272435    2.285    0.562
        32 -10.3626     81.9059    230.1695   1.1866307180e+02   1.8660496140e+01    0.1672161    0.1120115  58.99 0.0002781664    1.164    0.141
        33 -10.4029     69.3197    230.1671   1.2086947665e+02   2.0275951542e+01    0.1718622    0.1225742  43.74 0.0004954408    1.325    0.245
        34 -12.5944    243.8087    223.8582   8.9554926146e+01  -4.7181835967e+00     0.582723    0.3870988   4.61  0.003512133    1.357    0.263
        35 -11.5274    237.9514    221.2807   9.0085244788e+01  -3.6122208190e+00    0.3305699    0.2629595  67.86  0.002059243    2.673    0.626
        36 -12.0420    197.6630    221.8624   9.6939151574e+01   2.4443848047e+00    0.5689452    0.2130388  31.02   0.00243973    2.929    0.659
        37 -11.7385    196.9936    226.6599   9.7752786893e+01   1.9645867130e+00    0.2833353     0.170084  37.94 0.0005487281    1.322    0.244
        38 -12.1193    202.9043    225.6645   9.6593915336e+01   1.1705080823e+00    0.2890254    0.1992258  36.80 0.0006462922    1.187    0.157
        39 -11.8971    206.1810    222.7816   9.5606781053e+01   1.0052641207e+00    0.2566276    0.2155668  21.20  0.000966962    1.108    0.097
        40 -10.5434    219.3495    226.1178   9.3886026521e+01  -1.3814597089e+00    0.2142413    0.1176645  31.80  0.001291373    1.454    0.312
        41 -15.6219    214.0407    194.3900   8.9639982697e+01   3.2787056287e+00     2.203824     1.440423  29.28  0.008541877    1.328    0.247
        42  -9.6267    125.2778    249.3451   1.1284911330e+02   9.8081188950e+00   0.09652194   0.07787775  18.04 0.0002804313    1.631    0.387
        43 -11.7870    105.7440    205.8896   1.1191490990e+02   1.9442605191e+01    0.3539273    0.2464324  14.53  0.001934479    2.422    0.587
        44 -11.1596    126.0536    204.9364   1.0784262595e+02   1.6477790237e+01    0.3138663    0.2047734  87.76  0.001252583    2.211    0.548
        45 -10.7297     68.8865    202.7574   1.1876584537e+02   2.5147337431e+01    0.2494136    0.1492037  69.92   0.00131775    1.558    0.358
        46 -11.2152     45.2178    201.5920   1.2319776989e+02   2.8225371402e+01    0.2843183    0.2201559 -45.59  0.001971593    2.016    0.504
        47 -10.1402     76.5898    201.2051   1.1712670071e+02   2.4427177680e+01    0.2031648    0.1060569 -76.67  0.001117483    2.069    0.517
        48 -12.3618    130.3923    220.1596   1.0886941960e+02   1.3322118778e+01    0.3523423    0.2855842 -27.63  0.002308582    1.749    0.428
        49 -10.5979     34.0604    197.9343   1.2505675900e+02   3.0137691829e+01    0.1644411    0.1201686  71.08 0.0003457868    1.018    0.018
        50 -10.3411     78.6797    196.6588   1.1627300911e+02   2.5000512686e+01    0.2352022    0.1463454  26.31  0.001296414    2.184    0.542
        51 -11.9740    101.6752    194.4122   1.1139791400e+02   2.2130680621e+01    0.4200455    0.1301965  39.13  0.001418533    2.903    0.656
        52 -10.9556     95.9202    196.0251   1.1274819782e+02   2.2685118482e+01    0.1766567    0.1502067  62.68            0    1.043    0.041
        53 -10.3025     46.8484    194.8256   1.2239325025e+02   2.9331006784e+01     0.155871    0.1351925  81.69  0.000302359    1.221    0.181
        54 -10.3934     49.6570    192.8452   1.2169122020e+02   2.9392020359e+01    0.2180675    0.1220503 -76.20  0.001326433    1.688    0.408
        55 -10.2159     71.6982    193.0736   1.1732022945e+02   2.6619605473e+01    0.1570744    0.1295479  82.05 0.0002099494    1.107    0.096
        56 -11.8997     91.4669    188.4717   1.1279163552e+02   2.4770809756e+01     0.348565    0.2177812  76.25  0.001687472    1.786    0.440
        57 -10.2514    244.9269    190.9188   8.3782036673e+01  -1.3125747611e+00    0.1919413    0.1329046  10.11 0.0005488263    1.280    0.219
        58 -10.9165    239.7933    189.7469   8.4410249032e+01  -3.6193002819e-01    0.2615758    0.1905984   5.08 0.0008110388    1.216    0.178
        59 -16.5038    189.2187    114.8250   7.7560422511e+01   2.0654380335e+01     1.517552     1.229658  77.12  0.007521695    1.585    0.369
        60 -10.2212    248.1705    185.4767   8.2255498121e+01  -1.1854608113e+00    0.2141861    0.1010236  36.31 0.0008088801    1.914    0.477
        61 -10.9213     96.3499    185.1294   1.1137416966e+02   2.4698246975e+01    0.1668757    0.1428009  84.84 0.0004711718    1.120    0.107
        62 -10.0115     17.3830    184.7077   1.2744440582e+02   3.4358539292e+01    0.1381946    0.0831943 -76.83 0.0003274939    1.501    0.334
        63 -11.2042     86.1890    180.4606   1.1295878481e+02   2.7112736484e+01     0.423314    0.2044608 -75.59  0.001981918    2.477    0.596
        64 -11.0026     50.7432    180.1893   1.2041715438e+02   3.1787205068e+01    0.2661285    0.1715201  23.27  0.001542739    2.211    0.548
        65 -10.5872     16.9572    176.5302   1.2705356804e+02   3.6032145008e+01    0.1416368   0.09731296  43.44 -2.438405e-05    1.486    0.327
        66 -12.8732     84.1560    166.7714   1.1169651563e+02   3.0220730932e+01    0.4530632     0.387715  67.24  0.002914167    1.039    0.037
        67 -10.5241    216.6454    222.0238   9.3715910394e+01  -5.1497512355e-01    0.1810366    0.1315282  36.92 0.0004250189    1.242    0.195
        68 -10.5182     70.2484    168.4325   1.1501813010e+02   3.1800084157e+01    0.1697863    0.1011117  51.74 0.0002457514    1.526    0.345
        69 -12.4143     92.0072    163.3399   1.0944810409e+02   2.9780509137e+01    0.4851104    0.2258721 -62.85  0.002228968    2.188    0.543
        70 -10.1221     38.2720    165.9710   1.2182893395e+02   3.6136165546e+01    0.1681002    0.1267597  84.76 0.0004331588    1.073    0.068
        71 -11.8411    128.7885    211.4139   1.0812290438e+02   1.4968336488e+01    0.2667885    0.2169721  79.59 0.0006148775    1.358    0.264
        72 -11.4837     65.3976    163.5328   1.1553941792e+02   3.3479268127e+01    0.3299425     0.189276  80.13 0.0005703093    1.932    0.482
        73 -10.2476     49.0500    165.4876   1.1941548837e+02   3.5051642823e+01    0.1673612    0.1071156  43.88 0.0003972461    1.516    0.340
        74 -10.0989    248.9076    159.6122   7.7083180877e+01   1.8853920280e+00    0.2927801    0.2383585 -70.38  0.001647519    2.298    0.565
        75 -11.2049     98.6476    160.7644   1.0754949945e+02   2.9295930409e+01    0.2429174    0.1960695  58.25  0.000569983    1.139    0.122
        76 -11.8563     41.8779    159.2089   1.2041233369e+02   3.7202114237e+01    0.4233777    0.1745374 -83.61  0.001927814    2.542    0.607
        77 -10.3292     15.8271    161.3588   1.2632702499e+02   3.9270275779e+01    0.1316658    0.1075877  19.21 0.0009448587    1.755    0.430
        78  -9.9049     33.5209    169.5244   1.2314714984e+02   3.5880377630e+01    0.1189616   0.08928872  76.19 -2.738123e-05    1.049    0.047
        79 -11.0571     15.9306    156.2001   1.2595063173e+02   4.0357793747e+01    0.1947244    0.1286629 -89.29 0.0003014777    1.192    0.161
        80 -11.9751     55.5258    147.3311   1.1592243942e+02   3.8271955732e+01    0.3896678    0.1861643 -56.07  0.001904547    2.096    0.523
        81 -13.0840    124.3664    215.9396   1.0950169147e+02   1.4919394681e+01    0.5987705    0.4258827  29.27  0.003757264    1.542    0.352
        82 -11.0271     75.1595    142.3975   1.1040947726e+02   3.6836076703e+01    0.2188978    0.1706432 -62.63 0.0009072191    1.255    0.203
        83  -9.7972     14.4804    140.5478   1.2511082927e+02   4.3885845122e+01    0.1168152   0.09014085  88.36  9.32782e-06    1.019    0.019
        84 -11.4900    121.5165    212.4903   1.0963726674e+02   1.5921734809e+01     0.263918    0.2501279 -69.92  0.001359507    1.280    0.219
        85 -12.0315     71.9313    138.3226   1.1060511610e+02   3.8208978995e+01    0.3090987    0.2171572  45.38  0.001697137    1.436    0.304
        86 -11.2690     80.4184    137.4082   1.0829900152e+02   3.7216185501e+01    0.2267579    0.2000969 -87.32 0.0002459627    1.018    0.018
        87 -10.7276    230.4530    220.1134   9.1121791131e+01  -2.3844031769e+00    0.2184463    0.1397114  38.39 0.0007847226    1.403    0.287
        88 -11.2326     78.0238    131.7500   1.0797648366e+02   3.8859097739e+01    0.2327858    0.1741506 -44.89  0.000379996    1.516    0.340
        89 -10.3823     79.4627    128.5263   1.0704170181e+02   3.9393053978e+01    0.2205951    0.1645484  56.89 0.0009015048    1.356    0.262
        90 -10.9788     75.5137    128.4489   1.0807599729e+02   3.9980680938e+01    0.2546644    0.2260936  81.28  0.001209945    1.057    0.054
        91 -11.0153     63.6470    126.8815   1.1098597288e+02   4.1951366349e+01    0.2360038    0.1892034  70.55 0.0003913202    1.220    0.181
        92 -10.1561     60.4155    123.2341   1.1127753684e+02   4.3213614000e+01    0.2169412    0.1413615  61.89 0.0004839761    1.647    0.393
        93  -9.9463     63.5340    122.5001   1.1030478851e+02   4.2989935810e+01    0.1721616    0.1347981  18.83 0.0001157984    1.671    0.402
        94  -9.8157     81.3452    124.8687   1.0588139079e+02   3.9960671298e+01    0.1929895    0.1143136 -52.12 0.0003691933    1.650    0.394
        95 -10.7490     30.0063    121.9525   1.1936359852e+02   4.6785243777e+01    0.1829859    0.1482187 -80.94  0.001211548    1.038    0.037
        96 -10.4107     69.8960    121.3551   1.0836236591e+02   4.2414989135e+01    0.2202841    0.1535054  62.71  0.001163936    1.538    0.350
        97 -11.3811     71.0314    117.2663   1.0731029856e+02   4.3217668680e+01    0.2599536     0.180585 -57.52 0.0005021668    1.331    0.249
        98 -10.1255    108.3656    219.7981   1.1291705890e+02   1.6689208934e+01    0.1414431    0.1059122 -52.44 0.0009455107    1.701    0.412
        99 -10.9488    173.0715    247.3340   1.0454791877e+02   3.1086648192e+00    0.1649375    0.1520417  39.06 0.0003646798    1.267    0.211
       100 -11.3935      9.8075    116.9841   1.2424776200e+02   4.9539328202e+01      0.18613    0.1685408  62.70 0.0002780186    1.278    0.218
       101 -11.9088    213.3546    217.4353   9.3564479813e+01   5.2306515863e-01    0.3623893    0.1800641  25.16  0.001872996    2.086    0.521
       102 -11.2119     33.3136    109.0799   1.1676372952e+02   4.9493022176e+01    0.1970618    0.1702476  67.45 0.0003391253    1.208    0.172
       103 -11.5250     85.1917    106.9714   1.0119053237e+02   4.3531697183e+01    0.3602908     0.210055 -49.49 0.0006957373    1.635    0.389
       104 -10.6523    241.4153    104.5346   6.5908634693e+01   1.0955902714e+01    0.2786569    0.1490748 -27.69 0.0009775236    1.715    0.417
       105 -10.9431    105.9651    102.9424   9.4341804868e+01   4.0887648677e+01    0.2269112    0.2167868 -66.77 0.0007575389    1.007    0.007
       106 -10.4585     85.3229    100.4594   9.9664081743e+01   4.5021799609e+01    0.2430672    0.1682017 -78.44 0.0007228212    1.722    0.419
       107 -11.7631     93.9062     99.5328   9.6924834203e+01   4.3811893852e+01    0.3671594    0.2452925  86.97  0.001564598    2.305    0.566
       108 -12.4941     72.9370     97.4737   1.0269711799e+02   4.7600268203e+01    0.4931198    0.3252471 -58.65 0.0008305748    1.365    0.267
       109 -10.7340     13.4220    216.6640   1.2970644110e+02   2.8764522952e+01    0.1307673     0.119022  39.63  0.001138052    1.636    0.389
       110 -10.9161     60.8783     97.5553   1.0643098641e+02   4.9216048934e+01    0.2471685    0.1743873 -69.66 0.0005538502    1.309    0.236
       111 -10.0842     33.3171     96.1198   1.1478022415e+02   5.2550093148e+01    0.3366606     0.109776 -77.20  0.001090787    4.208    0.762
       112 -12.1583    231.0412     85.2287   6.2625947056e+01   1.6024519564e+01    0.2787299    0.2656107  31.24 0.0003079722    1.123    0.109
       113 -10.3602    227.0058     94.9508   6.5739042429e+01   1.5457752134e+01    0.2570271    0.1848356 -19.67 0.0005020414    1.362    0.266
       114 -12.3685    227.2679     90.5688   6.4574751605e+01   1.6065289982e+01    0.3901447    0.2985569  67.22  0.002005607    1.554    0.357
       115 -12.3783    104.5016     93.3484   9.2265284962e+01   4.3303988319e+01    0.3989129    0.2736549  19.37  0.001765525    2.044    0.511
       116 -11.7052     98.4402     91.4919   9.3526169342e+01   4.4833648695e+01     0.324764    0.2541047 -50.01 0.0008713549    1.201    0.167
       117 -11.5692     92.2246     92.9481   9.5752745185e+01   4.5600422481e+01    0.2466123     0.215251  42.29 -0.000430966    1.230    0.187
       118 -11.4069     65.3519     90.1173   1.0337648152e+02   5.0378384737e+01    0.4140582    0.2873622  23.68  0.002159264    1.783    0.439
       119 -11.5206     88.2255     88.9228   9.5903237277e+01   4.7192614154e+01    0.4230975    0.2937367  12.07   0.00190416    2.139    0.532
       120 -11.0476     78.9892     88.9938   9.8780963718e+01   4.8665786246e+01    0.2943835    0.1845271 -48.30  0.000378465    1.470    0.320
       121  -9.9626    248.4724     87.9855   6.0847169881e+01   1.1863643765e+01     0.206791    0.1247124 -24.86 0.0004610836    1.521    0.342
       122 -11.3512    239.7866     83.1123   6.0825534136e+01   1.4407136868e+01    0.4685012    0.2089055 -29.26  0.001340546    2.037    0.509
       123 -11.0505     26.9792     79.3183   1.1391838470e+02   5.7040636918e+01    0.2282002    0.1443739 -59.65 0.0004885057    1.272    0.214
       124 -12.4288    222.9196     77.1688   6.1722685800e+01   1.9073435335e+01    0.3788165    0.2909393 -57.89 0.0007636701    1.462    0.316
       125 -10.2412    225.4954     72.5752   6.0115107949e+01   1.9154786854e+01    0.2874599    0.1980431  -4.10 0.0008690709    1.772    0.436
       126 -10.4322      8.9699     81.3753   1.2039004786e+02   5.7808879581e+01    0.1510453    0.1350649 -77.86 0.0004192514    1.158    0.137
       127 -12.3764     87.6424     72.7112   9.1450141737e+01   5.0891766210e+01    0.3808956     0.284903 -43.83 0.0001692187    1.233    0.189
       128  -9.8797    230.9152     74.4469   5.9835889227e+01   1.7634620815e+01    0.1898167    0.1445573  61.52 0.0002655563    1.453    0.312
       129 -10.0597    235.9924     71.9498   5.8481240114e+01   1.6842452853e+01     0.205615    0.1885462 -34.31  0.001189416    1.032    0.031
       130 -11.1786     99.9306     71.6594   8.7261650758e+01   4.8869761403e+01    0.2647906    0.2048339 -50.77 0.0003464544    1.260    0.206
       131  -9.8071     24.0447     71.0522   1.1335734645e+02   5.9189573111e+01    0.1485557    0.1209909 -62.39 0.0004192113    1.022    0.021
       132 -11.8247     52.8726     68.3893   1.0214558189e+02   5.6975897715e+01      0.43036    0.2692452 -63.51  0.001458136    1.530    0.346
       133 -10.1158     43.9713     68.9715   1.0555679744e+02   5.7853077251e+01    0.1594859    0.1333371 -55.29 0.0003732027    1.004    0.004
       134 -10.7604    244.7847     66.6433   5.5974304414e+01   1.5622561526e+01    0.2799671     0.217719 -75.07  0.001189942    1.555    0.357
       135 -10.5404    241.6535     65.2811   5.6016956324e+01   1.6503300760e+01    0.2819156    0.1948078 -47.66  0.001040241    1.421    0.296
       136 -11.8793    120.8074     65.9425   7.9311439446e+01   4.5701551729e+01    0.4556166    0.3100577  75.75  0.001158236    2.244    0.554
       137 -15.9581    231.3588    166.4809   8.1380377882e+01   4.0248142018e+00     2.213777     1.449415  -9.91   0.01203348    1.596    0.373
       138  -9.6152     36.9761     65.0203   1.0717227550e+02   5.9460348211e+01    0.1562578    0.1267986 -56.29 0.0003722681    1.017    0.017
       139  -9.5832     23.2792     65.5959   1.1250827276e+02   6.0500953156e+01    0.1259035   0.08567921  83.25 0.0006984479    1.775    0.437
       140 -10.5499    132.8410    246.5408   1.1129118390e+02   9.1092477542e+00    0.1904312    0.1276211  56.93 0.0004669968    1.368    0.269
       141 -11.7530    129.9542     62.0502   7.5553593863e+01   4.4358064867e+01    0.2537457    0.2348991  74.95 0.0003353557    1.193    0.162
       142 -11.3922    155.9942    245.0940   1.0718206834e+02   5.9104521273e+00    0.2652526    0.1728247  24.40  0.001253183    1.671    0.402
       143 -10.5383     29.9845     62.7206   1.0928447546e+02   6.0617001771e+01    0.1732443    0.1453945 -55.62 0.0004244867    1.037    0.036
       144 -11.8459     18.4993     58.1021   1.1272304918e+02   6.2545636173e+01     0.260043     0.185072 -74.07 0.0004118744    1.293    0.227
       145 -10.8850     10.0748     59.3581   1.1632469658e+02   6.2788200517e+01    0.2572397    0.1140814 -54.18  0.001357847    1.710    0.415
       146 -12.4880    138.2279     58.2532   7.2177987429e+01   4.3075359395e+01    0.4187178    0.3157202  11.50  0.001046876    1.649    0.394
       147 -11.0073     34.7107     58.0593   1.0624268421e+02   6.1242431520e+01    0.2862722    0.1694608 -46.30 0.0005267274    1.438    0.305
       148 -12.3957    243.8304    243.4050   9.2510547120e+01  -6.5875802175e+00    0.3069184    0.1710293  35.06  0.001822795    1.423    0.297
       149 -10.0200     44.9902     57.9630   1.0216204451e+02   6.0213622472e+01    0.1846868    0.1491525 -87.11 0.0004560305    1.525    0.344
       150 -10.4172      1.4249     57.8382   1.1943831716e+02   6.3567687049e+01    0.1763359   0.08936507 -70.49 0.0005871397    1.506    0.336
       151 -11.7234    112.2323     55.5857   7.8120155059e+01   4.9533643761e+01     0.442611    0.2940698  65.67  0.001477093    1.997    0.499
       152  -9.8322    241.1974     56.2798   5.3747317665e+01   1.7823678252e+01    0.1986909    0.1431494 -50.88  0.001032019    1.371    0.271
       153 -10.1104    225.6227     56.1971   5.5676232699e+01   2.1457369801e+01    0.2079683    0.1329128 -15.00 0.0009298159    1.748    0.428
       154 -12.4406    249.3791     52.9313   5.1952082625e+01   1.6433847534e+01    0.2701189    0.2237258 -42.84 0.0003994139    1.088    0.081
       155 -12.9285    125.9581     52.9139   7.3390724195e+01   4.6920549993e+01    0.5381045    0.3995584  11.15 0.0007395748    1.678    0.404
       156 -12.2718    119.3257     51.7211   7.4727868566e+01   4.8655714327e+01    0.5917802    0.3180833 -55.46  0.002177184    2.668    0.625
       157 -12.4742      6.6162     68.0869   1.1919472139e+02   6.0993677906e+01    0.2841012    0.1967777 -53.34 0.0003582191    1.253    0.202
       158 -12.8479    147.2407     46.4533   6.5981668757e+01   4.2789183389e+01    0.5502399    0.3913119 -22.22 0.0007045749    1.463    0.317
       159 -11.3453    145.6787     42.7088   6.4991553354e+01   4.3756752452e+01    0.2866042    0.2157904  17.33 0.0006800581    1.561    0.359
       160 -12.4729    242.3834     48.4480   5.1582256520e+01   1.8581490429e+01    0.3029615    0.2686464  35.79 0.0007009383    1.284    0.221
       161 -10.8686    230.5168     47.5011   5.2706298512e+01   2.1463707002e+01    0.3480477    0.2120238 -58.79   0.00116612    1.860    0.462
       162 -10.7623    121.7510    243.8716   1.1292846343e+02   1.1071370761e+01    0.2038325    0.1272964  51.77  0.001115264    1.271    0.213
       163 -12.4035    140.9395     46.8181   6.7522418065e+01   4.4313331912e+01    0.5795536    0.2399655 -30.80  0.001225013    2.420    0.587
       164 -10.0662     29.4797     49.4852   1.0599675220e+02   6.3606948700e+01    0.1265406    0.1031912 -52.03 1.122398e-05    1.029    0.028
       165 -10.4905    114.1170     47.7617   7.4699117727e+01   5.0517313541e+01    0.2847638    0.1931281  -3.61  0.001011253    1.984    0.496
       166  -9.7931     94.3197     48.2966   8.0868040861e+01   5.4584074075e+01    0.1467785    0.1101642   1.92 0.0003625422    1.615    0.381
       167 -17.4858    171.1529    153.9489   9.0213403089e+01   1.7435966116e+01     3.355369     1.947204  31.21   0.01130987    1.911    0.477
       168 -11.5367    191.7130     40.1023   5.5775644666e+01   3.2150615361e+01    0.2604723    0.1893593 -39.60 0.0003717398    1.330    0.248
       169 -10.9625    186.3139     43.9279   5.7801937936e+01   3.3033537866e+01    0.2431698    0.2056607 -89.31 0.0002866197    1.278    0.218
       170 -10.2250     47.4720    243.4072   1.2536779550e+02   2.0732678090e+01    0.1731876   0.07603004  85.22  0.001025563    2.494    0.599
       171 -12.3789    124.6755     42.2908   6.9792243160e+01   4.8990684717e+01    0.6118472    0.2320442 -40.94 0.0008910302    2.669    0.625
       172 -12.2115    117.3841     40.5621   7.1039576937e+01   5.0972479006e+01    0.6403899     0.294987  35.84  0.001755218    2.785    0.641
       173  -9.3188    236.3080    213.6774   8.9125861904e+01  -2.5595538812e+00   0.09776518   0.09083373  47.08 0.0007035107    1.645    0.392
       174  -9.6887     37.4295     42.5310   1.0039723559e+02   6.4335212167e+01    0.1283365     0.105188 -44.00 9.436056e-05    1.023    0.022
       175 -10.7754     93.7301     40.9879   7.8191358225e+01   5.6009833882e+01    0.2509359    0.1667805 -32.53 0.0003243481    1.422    0.297
       176 -10.9816     92.5422     37.5216   7.7160314241e+01   5.6840264079e+01    0.2475588    0.2251258 -18.41 7.632455e-05    1.031    0.030
       177 -11.9057    133.4788     39.2528   6.6482806817e+01   4.7329066518e+01    0.3384641    0.2756752  16.15 0.0009779545    1.332    0.249
       178 -10.1502    105.2483     41.5979   7.4875257133e+01   5.3512145008e+01    0.2029894    0.1332111  37.47 0.0007903813    1.596    0.373
       179 -11.3255    165.4267     38.3433   5.9540050132e+01   3.9279321348e+01    0.3701867    0.2514748  70.59 0.0002195067    1.576    0.366
       180 -10.6933     55.5279     38.7776   9.1325397458e+01   6.2908899608e+01    0.1809505    0.1174067 -53.53 0.0003740537    1.592    0.372
       181  -9.8544     79.0863    213.5609   1.1777737669e+02   2.1852704477e+01    0.1630053   0.09218277  44.40 0.0003782975    1.477    0.323
       182 -10.4849    219.6974     34.9224   5.0538991787e+01   2.5696556041e+01    0.2072039    0.1705121 -39.40 0.0005466538    1.130    0.115
       183 -12.1357     85.6800     33.2403   7.7631600816e+01   5.8902858297e+01    0.2864652    0.2268527 -25.18  0.000208026    1.168    0.144
       184 -12.3291    199.2302     32.7294   5.2460688342e+01   3.1154711905e+01    0.3158674    0.3049428  80.57 0.0007254096    1.050    0.047
       185 -12.1525    132.5197     33.1216   6.4375136092e+01   4.8459137819e+01     0.334634    0.2860947  47.03 0.0005093977    1.150    0.130
       186 -12.7760    214.4926     31.5718   5.0204904127e+01   2.7405858962e+01    0.4334427    0.2870302  66.69 0.0002474053    1.543    0.352
       187 -12.1145    216.6425     25.9723   4.8372154104e+01   2.7536843433e+01    0.3399688    0.2421626 -51.28 0.0003914449    1.353    0.261
       188 -11.7896    214.1315     19.6764   4.6861640986e+01   2.8886782901e+01    0.2927463    0.2497575  -1.45  0.000334123    1.337    0.252
       189 -12.0402    140.9525     31.9276   6.2055596262e+01   4.6503927003e+01    0.3915281    0.2535206  -3.62  0.001682629    1.931    0.482
       190 -11.6494    226.6452    209.9560   9.0114608374e+01  -6.6974378694e-01    0.2462925    0.1713222  16.77 0.0005465762    1.245    0.197
       191 -11.7637     94.4801    214.2561   1.1495274191e+02   1.9619381034e+01    0.3183937     0.198178  37.47   0.00109256    1.550    0.355
       192 -11.2122     68.6634     31.3598   8.2977597078e+01   6.2277327970e+01    0.2593775    0.2278943  51.11  0.001556187    1.418    0.295
       193 -11.5716    125.6078     28.4983   6.4179935651e+01   5.0801117465e+01    0.2634026    0.2149953  16.71  0.001358814    1.279    0.218
       194 -10.1516     28.6999     28.4135   9.9255498595e+01   6.8062090457e+01    0.2152313    0.1106622 -38.15 0.0005330677    1.673    0.402
       195 -12.2442    188.1053     32.9892   5.4093310868e+01   3.4021008323e+01    0.3138407    0.2580897 -41.82 0.0003980446    1.191    0.160
       196 -11.4292    116.3931     31.6150   6.7740171555e+01   5.2567539708e+01    0.5029103    0.3079394  13.87   0.00204478    2.336    0.572
       197  -9.9044      6.7073     28.7177   1.1033314754e+02   6.9640360397e+01    0.1196823   0.06545474 -39.95 0.0001695025    1.534    0.348
       198 -11.6164     58.8414    216.0778   1.2171151654e+02   2.3979956813e+01    0.3922516    0.2410663  34.58  0.002534698    1.784    0.440
       199 -10.9697    209.6063     25.2409   4.8956440137e+01   2.9397071916e+01    0.3636955    0.1948356  80.19  0.001543556    2.107    0.525
       200 -10.3319    201.7067    243.0287   9.9221099333e+01  -6.1799422975e-01    0.1505765     0.116611  23.66 0.0003789446    1.080    0.074
       201 -11.2278    175.1971     22.3579   5.2551815882e+01   3.8723447761e+01    0.2515155    0.2458852 -61.14 0.0002983882    1.024    0.023
       202 -11.3215    133.6794    222.3251   1.0851610516e+02   1.2481316103e+01    0.1931923    0.1710148 -81.98 0.0008478197    1.340    0.253
       203 -10.3907     81.7176    242.9481   1.1967854538e+02   1.6661654709e+01    0.1460054    0.1074543  61.94 0.0003593157    1.069    0.064
       204 -11.4230    189.5561    241.5782   1.0105723495e+02   1.3374370855e+00    0.1929519    0.1431171  32.68 0.0004755608    1.011    0.011
       205  -9.9562     70.5270     19.9675   7.7009692281e+01   6.3808659615e+01     0.194944    0.1200709 -30.79 0.0003000615    1.485    0.327
       206 -11.3604     16.3523     18.6950   1.0168567850e+02   7.1013484896e+01    0.2119982    0.1882362 -34.58 0.0003064169    1.185    0.156
       207 -10.4068    207.8473    241.3347   9.7978862429e+01  -1.3322153351e+00    0.1736887    0.1107357  41.34 0.0008330278    1.367    0.269
       208 -10.0348     20.5187     18.5122   9.9367246346e+01   7.0708369852e+01    0.1212175    0.0939279 -36.23 -3.001617e-05    1.008    0.008
       209 -10.5815    110.9034    241.0226   1.1453103900e+02   1.3018911622e+01    0.2815443    0.1024099  46.47 0.0008513746    2.065    0.516
       210 -11.5754     12.5466    203.6795   1.2929524582e+02   3.1184969058e+01    0.3375725     0.126416  70.15  0.001855187    2.342    0.573
       211 -10.0020    160.9884     16.2944   5.2639150275e+01   4.3178267410e+01    0.2012927    0.1941981  37.06  0.001142792    1.041    0.039
       212 -10.3803     52.9826     15.7137   8.2050841693e+01   6.7345645019e+01    0.2277318    0.1669387  28.58 0.0003982758    1.427    0.299
       213 -10.5053     49.3458     16.3152   8.3976416476e+01   6.7784723647e+01    0.2109141    0.1130859 -33.45 0.0009015632    1.632    0.387
       214  -9.5299      1.6957     15.2805   1.0854256234e+02   7.2620033495e+01   0.09639626   0.08365755 -89.93 0.0002347576    1.553    0.356
       215 -10.3364     90.0000     13.9808   6.7437293327e+01   6.0838233745e+01    0.2224699   0.07413086 -27.61 0.0006466702    2.904    0.656
       216 -10.5902    214.5030    240.4589   9.6765829199e+01  -2.2059897260e+00    0.1114536   0.08281963  27.50 2.727922e-05    1.038    0.037
       217 -12.5636    126.7799    237.4361   1.1141572026e+02   1.1266737804e+01    0.2301745    0.1892997  74.29 0.0002722355    1.318    0.241
       218 -11.7649    245.3698    236.1827   9.1206150934e+01  -6.1303540098e+00    0.2454689    0.1711281 -20.89 0.0008887403    1.579    0.367
       219 -12.2244    193.7547    235.9101   9.9596327479e+01   1.3639451658e+00    0.2928455    0.2376456 -37.13  0.002178885    1.607    0.378
       220 -11.8233    182.8797    237.4808   1.0165683205e+02   2.8218254575e+00    0.3722674    0.1874667  33.51  0.002147938    1.652    0.395
       221 -10.9724     30.3138    214.0763   1.2668081246e+02   2.7548704743e+01    0.1550941    0.1222942  56.26 0.0002932794    1.248    0.199
       222 -10.9762    103.0650    236.6368   1.1549628814e+02   1.4772708235e+01    0.2856294    0.1485976  67.28  0.001591799    2.306    0.566
       223 -11.8299    232.6049    235.8976   9.3181958008e+01  -4.3307358324e+00    0.2581864    0.1773653  18.00 0.0008063036    1.150    0.131
       224 -10.3900     33.2394    236.0020   1.2729745881e+02   2.3484122172e+01    0.1209135   0.07011311 -87.18 0.0006504108    1.606    0.377
       225 -10.2991    118.8002    235.1423   1.1258846597e+02   1.2765294725e+01    0.1720054    0.1231373  56.34 0.0005754147    1.177    0.151
       226 -10.1176    149.3721    234.0494   1.0706209054e+02   8.3705221249e+00    0.1470234    0.1253404  45.78 0.0004319965    1.106    0.096
       227 -10.7610    227.8945    232.2125   9.3395326610e+01  -3.2865481982e+00      0.18593    0.1372935  25.21 0.0003360645    1.055    0.052
