#   1 NUMBER                 Running object number                                     
#   2 MAG_AUTO               Kron-like elliptical aperture magnitude                    [mag]
#   3 X_IMAGE                Object position along x                                    [pixel]
#   4 Y_IMAGE                Object position along y                                    [pixel]
#   5 X_WORLD                Barycenter position along world x axis                     [deg]
#   6 Y_WORLD                Barycenter position along world y axis                     [deg]
#   7 A_WORLD                Profile RMS along major axis (world units)                 [deg]
#   8 B_WORLD                Profile RMS along minor axis (world units)                 [deg]
#   9 THETA_WORLD            Position angle (CCW/world-x)                               [deg]
#  10 FWHM_WORLD             FWHM assuming a gaussian core                              [deg]
#  11 ELONGATION             A_IMAGE/B_IMAGE                                           
#  12 ELLIPTICITY            1 - B_IMAGE/A_IMAGE                                       
         1 -12.1903    214.3931      2.7049   9.4211211664e+01   3.9252385445e+01  0.002958582  0.001822246 -17.27   0.00460767    1.606    0.378
         2 -13.1751    190.3021     27.0498   9.4189333849e+01   3.9269286617e+01  0.004729238  0.002609605 -63.34  0.006425917    1.724    0.420
         3 -12.9232    197.3251     20.2569   9.4195703785e+01   3.9264569567e+01  0.004155952  0.002239626  81.31  0.006687627    1.873    0.466
         4 -12.4187    204.1055     13.2187   9.4201866972e+01   3.9259684444e+01  0.002315865  0.001599422 -80.83  0.001369151    1.413    0.292
         5 -10.5761     33.2685      7.1796   9.4051981731e+01   3.9256322707e+01  0.001179223 0.0003674056 -83.72  0.001600716    3.112    0.679
         6 -10.8333     32.5142      2.4748   9.4051464213e+01   3.9253084082e+01  0.001267545 0.0005083886  -0.96  0.001945956    2.524    0.604
         7 -10.1037    101.5234    250.3231   9.4104567150e+01   3.9423561474e+01  0.001030538  0.000420026 -13.01  0.001596372    2.437    0.590
         8 -10.9306    140.5875    248.8622   9.4139007056e+01   3.9422373603e+01  0.001195357 0.0007082035 -68.67  0.002243036    1.616    0.381
         9 -11.2663     93.7517    249.1213   9.4097760752e+01   3.9422768240e+01  0.001332604 0.0008180714  -6.55   0.00152956    1.637    0.389
        10 -11.2013     83.6195    244.0011   9.4088995743e+01   3.9419285103e+01  0.001711403 0.0008470377  50.27  0.002893706    2.132    0.531
        11  -9.8379     63.8715    250.3571   9.4071413391e+01   3.9423749953e+01 0.0009332005 0.0003752781 -13.82  0.001160387    2.466    0.595
        12 -15.0487     20.1073    171.2162   9.4035337135e+01   3.9369400632e+01   0.02491694  0.005635689  71.52   0.02729821    5.008    0.800
        13 -14.6981     55.2164    211.3896   9.4064991654e+01   3.9396937032e+01   0.02113662  0.003793408  15.93   0.02138419    5.940    0.832
        14  -8.4006    110.3506    208.3038   9.4113612461e+01   3.9394568543e+01 0.0003976247 0.0002231667 -43.31 0.0007040667    1.701    0.412
        15 -11.3662    108.0465    245.1373   9.4110468054e+01   3.9419958694e+01 0.0009839494  0.000791222 -39.37  0.001143295    1.199    0.166
        16  -9.4724    225.6974    200.3473   9.4215365865e+01   3.9388513756e+01 0.0007330567 0.0004732978  50.02 0.0007096357    1.619    0.382
        17 -10.0009    192.7457    194.3564   9.4186543572e+01   3.9384558198e+01  0.002166436 0.0004228595  64.40  0.002120353    6.265    0.840
        18 -10.9500     70.5617    190.9567   9.4079123783e+01   3.9382792773e+01  0.001267832 0.0005461538 -53.10  0.001999935    2.180    0.541
        19 -10.9613     75.1533    184.3453   9.4083366490e+01   3.9378217379e+01 0.0009263442  0.000567868 -53.43 0.0006471914    1.553    0.356
        20 -10.4839     83.6504    172.9820   9.4091189940e+01   3.9370350501e+01 0.0006865308 0.0005733805 -64.08 0.0004172279    1.150    0.130
        21 -12.5214     71.3319    170.1502   9.4080438364e+01   3.9368453115e+01  0.001451519 0.0006180474 -56.01  0.001272989    2.203    0.546
        22 -11.7385     89.1449    164.9849   9.4096267626e+01   3.9364815908e+01  0.002876443  0.001407407  20.19  0.001124839    2.123    0.529
        23 -12.7799     67.6638    144.4651   9.4077997605e+01   3.9350771124e+01  0.003549156  0.001350866  57.00  0.002263797    2.815    0.645
        24 -11.0021     32.8662    155.3997   9.4047051872e+01   3.9358451288e+01  0.001557254 0.0004707848 -89.58  0.002071003    3.286    0.696
        25  -9.4005    102.0274    148.7123   9.4108094658e+01   3.9353545583e+01  0.000769262 0.0006137204 -41.62 0.0008413832    1.206    0.171
        26  -9.2358    104.4841    145.0247   9.4110367298e+01   3.9350993514e+01 0.0009636806 0.0004267872 -49.68  0.001569229    2.127    0.530
        27 -11.3784     90.9406    147.9835   9.4098364577e+01   3.9353093304e+01 0.0007512795 0.0005900555 -48.31 0.0004511853    1.219    0.180
        28  -9.8540     44.2439    149.4133   9.4057245240e+01   3.9354279756e+01 0.0005099529 0.0003163512  17.67 0.0009561093    1.667    0.400
        29 -14.2562     46.2049    224.0996   9.4056667928e+01   3.9405732211e+01    0.0119268  0.003659843 -56.15    0.0133436    2.977    0.664
        30  -9.2565    134.0087    145.8634   9.4136311634e+01   3.9351434111e+01  0.001542418 0.0002628009  84.73  0.001479883    6.307    0.841
        31  -9.1363    112.1006    135.0593   9.4117367930e+01   3.9344092120e+01 0.0008674972 0.0004187863 -45.40  0.001032203    1.965    0.491
        32  -9.8106     99.7774    131.7754   9.4106629232e+01   3.9341885633e+01 0.0008376498 0.0004472194 -44.15 0.0008213485    1.785    0.440
        33 -11.7162     44.1952    128.1944   9.4057856159e+01   3.9339659545e+01  0.001326986 0.0007926023  67.54  0.001877686    1.728    0.421
        34 -13.6336     10.9420    206.7426   9.4026167316e+01   3.9393915157e+01  0.004386039   0.00297204   4.96  0.007487993    1.506    0.336
        35  -8.9030    108.5621    122.7551   9.4114628052e+01   3.9335630278e+01 0.0005413491 0.0004395696 -31.09  0.001118162    1.198    0.166
        36  -9.9590     73.4713    246.5463   9.4079982783e+01   3.9421083059e+01 0.0007549548  0.000378405  51.90  0.001062476    2.103    0.524
        37 -10.0804    168.1628    113.1073   9.4167327265e+01   3.9328697272e+01 0.0008279259  0.000573021  48.85 0.0007330882    1.509    0.337
        38 -12.2870     58.9058    133.3481   9.4070635310e+01   3.9343148693e+01  0.005723121 0.0009251019  73.46  0.004992705    7.867    0.873
        39  -9.5689     41.1637    107.8511   9.4055817264e+01   3.9325655109e+01 0.0005247897 0.0003807314 -48.68 0.0007956887    1.318    0.242
        40  -9.9593     33.3437    107.4123   9.4048954919e+01   3.9325384988e+01 0.0008865166 0.0003071942  84.03  0.001244184    2.931    0.659
        41  -8.6851    206.0347    110.2248   9.4200712964e+01   3.9326517594e+01 0.0004808216 0.0002869226  -3.15  0.000883789    1.692    0.409
        42  -8.3006    155.7132     77.3259   9.4157447325e+01   3.9304103598e+01 0.0003723417 0.0002421472  48.85 0.0002532114    1.608    0.378
        43  -9.8549     70.5521    243.9667   9.4077491534e+01   3.9419318220e+01  0.001273957 0.0003109658 -52.52  0.001586358    3.638    0.725
        44 -11.6278    152.5867    228.1526   9.4150192142e+01   3.9408045977e+01  0.002007288 0.0006436479 -10.75  0.002774019    3.101    0.677
        45 -15.3703      4.3734    236.4569   9.4019458679e+01   3.9414414300e+01   0.06942551  0.005207101 -86.25   0.04833742   12.042    0.917
        46  -8.0426    169.6331    215.3186   9.4165580264e+01   3.9399118992e+01 0.0003934526 0.0002315567  44.13 0.0007038167    1.783    0.439
        47  -9.4430    161.5016    249.0527   9.4157416025e+01   3.9422403666e+01  0.000555263 0.0003393675 -86.10  0.001039512    1.609    0.379
        48 -10.9334     58.4570    239.7604   9.4066971746e+01   3.9416471539e+01  0.001040335 0.0009067932  56.20  0.002353854    1.190    0.160
        49 -11.0611     99.6648    237.6057   9.4103317184e+01   3.9414807080e+01 0.0009200462 0.0005531596  58.06 0.0009546764    1.734    0.423
        50  -9.6066    148.5075    248.9967   9.4145976535e+01   3.9422428279e+01 0.0005511229 0.0003398822 -87.50  0.001035901    1.599    0.375
