#   1 NUMBER                 Running object number                                     
#   2 MAG_AUTO               Kron-like elliptical aperture magnitude                    [mag]
#   3 X_IMAGE                Object position along x                                    [pixel]
#   4 Y_IMAGE                Object position along y                                    [pixel]
#   5 X_WORLD                Barycenter position along world x axis                     [deg]
#   6 Y_WORLD                Barycenter position along world y axis                     [deg]
#   7 A_WORLD                Profile RMS along major axis (world units)                 [deg]
#   8 B_WORLD                Profile RMS along minor axis (world units)                 [deg]
#   9 THETA_WORLD            Position angle (CCW/world-x)                               [deg]
#  10 FWHM_WORLD             FWHM assuming a gaussian core                              [deg]
#  11 ELONGATION             A_IMAGE/B_IMAGE                                           
#  12 ELLIPTICITY            1 - B_IMAGE/A_IMAGE                                       
         1  -8.5880     55.7653      9.7345   4.5165019814e+01   6.6724885070e+01    0.2205537    0.1497456 -34.09 0.0007739881    1.589    0.371
         2  -8.4133     90.9202      8.9092   3.2790829868e+01   6.0473974089e+01    0.1838823    0.1567215 -61.32 0.0007774921    1.655    0.396
         3  -7.7994     47.5333      9.5493   4.8484440882e+01   6.7962057844e+01    0.1181694   0.09680237  -2.41  4.12615e-05    1.081    0.075
         4  -8.1820     70.4625      6.0225   3.7927070180e+01   6.4692962351e+01    0.1758495    0.1113288 -23.50 0.0009218015    1.562    0.360
         5  -8.5122     33.3424      4.9850   5.2654313170e+01   7.0398300448e+01    0.2507486     0.156849 -49.40  0.001152843    2.611    0.617
         6  -8.5504     79.2097      3.6020   3.3935334641e+01   6.3313517127e+01    0.2340278    0.1433503 -36.78  0.001043288    1.947    0.486
         7  -8.2317     15.8258      2.6060   6.0393671006e+01   7.2563678796e+01    0.1310686   0.09353268  25.35 0.0008793247    1.631    0.387
         8  -8.1781     62.5106      1.4432   3.8545930299e+01   6.6550083911e+01    0.1737259    0.1128055  54.91 0.0001246728    1.930    0.482
         9  -9.4412    103.5992    246.4042   8.5401903066e+01   1.0953830211e+01    0.3479726    0.2056685 -89.48  0.001955877    2.186    0.543
        10  -9.5465    246.4630    229.2769   5.6554738711e+01  -9.3592280822e+00    0.4231155    0.1973423 -29.92  0.002081269    2.214    0.548
        11  -9.9871    248.8390    243.5976   5.8517932468e+01  -1.1348601847e+01    0.8261521    0.1877449 -35.34  0.003278889    4.780    0.791
        12  -9.0183    248.2382    234.6891   5.7160193800e+01  -1.0254305368e+01    0.2308584     0.203954 -47.28  0.001630043    1.875    0.467
        13  -7.9234     40.5414    247.7968   9.6533456861e+01   1.9216378234e+01    0.1478657   0.07951042  82.28 0.0007593911    1.655    0.396
        14  -9.1163    224.6586    245.6671   6.3025436688e+01  -8.1034176107e+00    0.2365855     0.168397   1.45  0.001131874    1.385    0.278
        15  -9.5362    223.6704    242.3484   6.2682977749e+01  -7.5553085853e+00    0.2392126    0.2092082 -64.41  0.001367833    1.981    0.495
        16  -9.2565    210.9061    246.2965   6.5567389058e+01  -6.0956962007e+00    0.2099587    0.1683123 -54.58 0.0008111234    1.937    0.484
        17  -9.1565    146.9660    245.6841   7.7278139608e+01   4.2549128022e+00    0.2897266    0.1823516  70.29  0.001352205    2.255    0.557
        18  -9.2648    120.0669    245.1347   8.2234960887e+01   8.6394194122e+00     0.287965    0.1815047  81.30  0.001608309    2.109    0.526
        19  -9.0915     10.1155    244.7596   1.0126483335e+02   2.3081058310e+01     0.281219   0.08529429 -89.32  0.001369586    3.340    0.701
        20  -8.6602     67.4691    244.7593   9.1738435373e+01   1.6371931210e+01    0.1940758    0.1005859 -79.68  0.001136552    2.038    0.509
        21  -9.0365     77.8255    242.8419   8.9746462577e+01   1.5303402218e+01    0.2914498    0.1321638  73.27  0.001341079    3.001    0.667
        22  -7.9123     58.3648    244.6710   9.3316947789e+01   1.7576580606e+01    0.1255517   0.06087609  64.32 0.0007037545    1.807    0.447
        23  -8.7821    201.7965    242.8064   6.6691757677e+01  -4.2251370098e+00    0.1954933    0.1673913 -46.11 0.0006878735    1.577    0.366
        24  -8.4083    169.0981    243.1745   7.2803766778e+01   1.0171290192e+00    0.2195884    0.1424428  53.29 0.0007683891    1.557    0.358
        25  -8.3938     49.5135    242.0286   9.4658034092e+01   1.9161577451e+01    0.2566586   0.08830687 -87.43  0.001034504    4.372    0.771
        26  -9.2711    194.2901    239.6535   6.7599941261e+01  -2.5988513095e+00    0.2664586    0.2047584 -55.99  0.001545462    1.872    0.466
        27  -9.1283    183.2721    240.0856   6.9714550436e+01  -8.6289707934e-01    0.4148354    0.2555481  66.18  0.001950832    3.053    0.672
        28  -9.2134    160.1053    240.0431   7.4074737495e+01   2.9687503173e+00     0.309219    0.2234112 -87.01  0.001346124    2.194    0.544
        29  -8.7840    132.0086    247.5392   8.0286092357e+01   6.3661897416e+00    0.2031407    0.1516879  78.26 0.0005474258    1.557    0.358
        30  -8.0795     88.2362    241.9968   8.7788813592e+01   1.3978711132e+01     0.161106    0.1243544  78.93 0.0006936851    1.202    0.168
        31  -9.3220    233.2782    245.8020   6.1538352582e+01  -9.3876653180e+00    0.4202037    0.2345448  -9.71  0.002221903    2.242    0.554
        32  -8.0176    146.1225    239.2143   7.6624295237e+01   5.4097128459e+00    0.1719546    0.1254487  59.61 0.0005427343    1.366    0.268
        33  -9.3842    135.5947    238.7877   7.8577497600e+01   7.2048370068e+00    0.2296634    0.1591152  69.81 0.0008108725    1.660    0.397
        34  -9.1701    231.2064    236.2254   6.0371544177e+01  -7.9426527079e+00    0.3705878    0.2411015 -38.72  0.001527107    1.900    0.474
        35  -9.9205    215.0841    233.2683   6.2784142351e+01  -5.0768528183e+00     0.531494     0.391105 -85.77   0.00250517    3.959    0.747
        36  -8.2736    209.3059    237.9682   6.4581495126e+01  -4.7793673389e+00    0.2038151    0.1083081 -45.28  0.001074901    2.491    0.599
        37  -8.0100    129.3040    238.6179   7.9755532226e+01   8.2536585210e+00    0.1285074   0.08304365  68.47  0.000702264    1.784    0.439
        38  -9.7770    175.6385    233.1436   7.0144976430e+01   1.4233672265e+00    0.4629792    0.2570345 -59.49  0.002247903    2.886    0.653
        39  -8.3209     25.9581    236.6822   9.8316525631e+01   2.2870136268e+01    0.2824441    0.0911109  63.75  0.001341685    2.944    0.660
        40  -9.1390    203.1187    234.2860   6.5143285924e+01  -3.2945102399e+00    0.3083798    0.1932207 -51.64  0.001323932    2.334    0.572
        41  -8.4462    170.3058    235.4765   7.1501221069e+01   1.9656224390e+00    0.1767749    0.1170583 -46.79 0.0005980583    1.851    0.460
        42  -9.1710    109.4143    234.4704   8.3076634765e+01   1.2129543797e+01    0.4842505    0.1902895  55.24  0.002090316    2.644    0.622
        43  -8.2871    122.9511    233.9553   8.0419981177e+01   1.0072439011e+01     0.205001    0.1285318  67.34 0.0009803278    1.786    0.440
        44  -8.0803     99.8408    234.0818   8.4857821253e+01   1.3671398347e+01    0.2036458    0.1166457  73.85  0.001064033    2.071    0.517
        45  -8.3472     78.7131    233.9535   8.8810237480e+01   1.6785079337e+01    0.2483129     0.118962  80.23  0.001136858    2.939    0.660
        46  -9.7166     68.3168    231.8297   9.0545010411e+01   1.8610874236e+01    0.4953366    0.2212304  73.28  0.002274587    2.894    0.654
        47  -8.2197    194.1692    232.5186   6.6537128809e+01  -1.5816004894e+00     0.180363    0.1639874  57.13 0.0005970824    1.368    0.269
        48  -7.7451    164.2858    233.3418   7.2351726925e+01   3.3070916877e+00    0.1217708   0.09234889   9.91 0.0004479822    1.640    0.390
        49  -8.3943    144.8399    233.2393   7.6096254407e+01   6.5940635575e+00     0.204531     0.117698  68.41 0.0008130136    2.710    0.631
        50  -9.3735    186.2767    230.2492   6.7680087874e+01   6.5116376351e-02      0.31757    0.2270088 -64.73  0.001217965    2.209    0.547
        51  -8.3298    132.4462    232.2745   7.8377704427e+01   8.8140452801e+00    0.1543949    0.1172696 -84.68 0.0006331074    1.599    0.374
        52  -8.3648     92.8374    231.5615   8.5930317463e+01   1.5181623350e+01    0.2448584    0.1255417  69.66  0.001186342    2.363    0.577
        53  -9.5989    236.3142    229.7626   5.8403323720e+01  -7.9144122548e+00    0.4401408    0.2262287 -27.57  0.002107652    2.072    0.517
        54  -8.2858    157.6539    231.2380   7.3338076805e+01   4.7628924289e+00    0.1557998    0.1193126 -36.98 0.0009448512    1.617    0.382
        55  -8.8958      1.7499    230.8505   1.0199158523e+02   2.6397383368e+01    0.2055687   0.09509122  75.13  0.001320001    1.669    0.401
        56  -9.5461    148.7884    224.4799   7.4130990796e+01   7.3965153558e+00    0.3071402    0.2215811  74.14  0.001644115    1.773    0.436
        57  -8.4807    140.1912    230.0836   7.6586694848e+01   7.9006406749e+00    0.2468538    0.1349587  58.54 0.0008622609    2.036    0.509
        58  -8.3435    229.5924    228.7935   5.9432096899e+01  -6.7669828172e+00    0.1479187    0.1123317 -38.93 0.0006495668    1.664    0.399
        59  -8.7138    162.1932    227.5900   7.1934090622e+01   4.5782672453e+00    0.2641023    0.1793941  68.25  0.001392362    2.019    0.505
        60  -8.6856    127.9833    227.1125   7.8601889520e+01   1.0449334879e+01    0.3171507    0.1834019  68.58  0.001525916    2.307    0.567
        61  -8.1977    120.1502    227.7161   8.0218204602e+01   1.1625421116e+01    0.2093259    0.1122955  68.73 0.0008911733    2.656    0.623
        62  -9.0941    151.4669    228.9760   7.4229886356e+01   6.1829284165e+00    0.3372791    0.2275827 -84.79  0.001258448    2.404    0.584
        63  -8.1202    223.4645    226.5532   6.0158800212e+01  -5.5180050385e+00    0.2251081    0.1167157 -34.18 0.0009084264    2.111    0.526
        64  -8.2661     19.2048    227.6460   9.8959244250e+01   2.5267355503e+01    0.1296686   0.09319711  38.58 0.0004967438    1.672    0.402
        65  -8.7501    206.0148    225.6168   6.3216153814e+01  -2.5633286744e+00    0.2460053    0.1787909 -41.63 0.0009198367    1.666    0.400
        66  -8.0523    200.1767    226.1591   6.4400509906e+01  -1.6699724556e+00    0.1558142    0.1469319  61.07 0.0005147777    1.383    0.277
        67  -8.2405     49.2989    226.6231   9.3608860794e+01   2.2050007187e+01    0.1262761   0.06490764  68.84  0.000702576    1.756    0.431
        68  -8.9992     94.1220    224.0538   8.4904708760e+01   1.6389519600e+01    0.4073778    0.1824145  59.58  0.001856169    2.395    0.583
        69  -8.7629    216.3504    223.3542   6.0921347629e+01  -3.9444946619e+00    0.2173281    0.2118685 -72.60 0.0009928208    1.488    0.328
        70  -8.8198    180.5604    223.9359   6.7801809456e+01   1.9968000109e+00    0.2628593    0.1815307  55.84  0.001076577    1.636    0.389
        71  -7.9407    113.6232    223.7844   8.1032564857e+01   1.3396110896e+01    0.1600084    0.1140721 -82.95 0.0003361484    1.596    0.373
        72  -8.8165    105.0144    223.5380   8.2707635729e+01   1.4809928339e+01    0.2870243    0.1747196  81.44   0.00148894    2.057    0.514
        73  -8.1262     38.3662    224.2398   9.5411285281e+01   2.3813184621e+01    0.1575285   0.08424123  87.16 0.0005975514    1.685    0.407
        74  -8.5140    173.1073    222.7564   6.9073409019e+01   3.4728122770e+00    0.2008062    0.1771554 -71.72  0.000679354    1.456    0.313
        75  -8.4269    163.9803    223.1655   7.0931918051e+01   4.9918707408e+00    0.2624113    0.1638911  57.51  0.001350073    1.808    0.447
        76  -8.6702    159.1924    220.1712   7.1435048171e+01   6.3256688085e+00    0.2836869    0.1903426  66.69 0.0009902344    1.959    0.490
        77  -8.7684      7.8361    234.3926   1.0116893708e+02   2.5165145975e+01    0.1209912   0.08969232  42.36  0.000642794    1.607    0.378
        78  -9.2332    239.3974    221.6842   5.6481350951e+01  -7.3638517348e+00    0.2981628    0.2124601  54.51  0.001723243    2.133    0.531
        79  -9.3852    225.5292    221.6135   5.8947300099e+01  -5.1876324402e+00    0.2464572    0.2155851  56.31  0.001142272    1.618    0.382
        80  -9.2971    192.3147    221.0598   6.5070415862e+01   4.1529096762e-01    0.2926854    0.2438121 -67.90  0.001058613    1.736    0.424
        81  -7.8793    140.4909    222.5466   7.5515010448e+01   9.1522068701e+00    0.1320817    0.1085869  52.75 0.0001097826    1.063    0.059
        82  -8.4011      8.6548    222.6714   1.0048444667e+02   2.7265412984e+01   0.09288393   0.07446086 -62.11 0.0007050442    1.751    0.429
        83  -9.0461    120.5163    219.1548   7.9079657764e+01   1.3130172713e+01    0.4743555    0.2290873  64.82  0.001877077    3.205    0.688
        84  -8.6130     83.2272    220.6167   8.6676945338e+01   1.8662308982e+01    0.2828279    0.1552577  67.15  0.001480559    1.869    0.465
        85  -8.2726     73.7624    221.1561   8.8567695766e+01   1.9902418994e+01    0.2235915    0.0984951  68.00 0.0009605659    2.902    0.655
        86  -7.7274     27.5003    221.0000   9.7137078123e+01   2.5656831588e+01    0.1439403   0.07394396 -56.64 0.0008105962    2.567    0.610
        87  -8.1342    202.7236    220.0086   6.2908283824e+01  -1.2038402766e+00    0.1698284    0.1513583   1.58  0.000428158    1.139    0.122
        88  -8.3144    209.9419    219.0631   6.1387548237e+01  -2.2822017149e+00    0.1790244    0.1622788  38.53  0.000415851    1.264    0.209
        89  -9.6267    247.9659    215.5110   5.3899209964e+01  -7.8755124696e+00    0.5565399     0.292797 -36.38  0.003027693    2.043    0.510
        90  -8.3652     62.2374    217.3059   9.0435316617e+01   2.2219913294e+01    0.2960969    0.1200145  63.20  0.001128548    2.761    0.638
        91  -8.8995     51.6611    217.1698   9.2439818017e+01   2.3600507138e+01    0.2437683    0.1231776  89.11 0.0009318946    2.013    0.503
        92  -8.7669    169.3523    215.9846   6.8761551323e+01   5.2406855415e+00    0.2936971    0.2152544 -86.08  0.001165666    2.207    0.547
        93  -8.7225    143.0308    216.3785   7.4135254505e+01   9.8104377361e+00    0.2892096    0.2003533  87.81  0.001483912    2.084    0.520
        94  -7.7744    111.6770    216.3788   8.0519206705e+01   1.5102518689e+01    0.1396269   0.08686361  70.29 0.0007023795    1.831    0.454
        95  -8.1809     18.6216    215.8106   9.8397805390e+01   2.7600207152e+01    0.1580942   0.07909185  86.37 0.0009479786    1.683    0.406
        96  -9.2029    132.8768    215.8567   7.6130495088e+01   1.1659598713e+01    0.4688497    0.2747292  77.43  0.001999489    2.976    0.664
        97  -8.8057    232.2155    214.2135   5.6447187375e+01  -5.2558630714e+00     0.270098    0.1937551 -33.94  0.001092422    1.535    0.348
        98  -8.4733    185.7836    214.3063   6.5230228150e+01   2.6048381019e+00    0.1985145    0.1811246 -63.67 0.0007512636    1.397    0.284
        99  -7.8311    154.4768    214.9539   7.1599181245e+01   8.0540830881e+00    0.1710935    0.1156029 -85.52  0.000808676    2.456    0.593
       100  -9.2828    214.0785    212.0369   5.9396404396e+01  -1.9587302299e+00    0.3907473    0.2848478  61.23  0.001588707    2.047    0.511
       101  -8.6817     93.2299    213.9026   8.3966384530e+01   1.8490052230e+01     0.331076    0.1512467  60.15  0.001372483    2.431    0.589
       102  -7.8648     77.5065    214.4860   8.7182663276e+01   2.0691045374e+01    0.1277372   0.09849644  68.30 0.0008097165    1.062    0.059
       103  -9.0820     72.4609    211.2909   8.7865925779e+01   2.2042586609e+01    0.4581201    0.1822957  65.85  0.001704433    3.808    0.737
       104  -8.6931    161.8884    212.4481   6.9707823011e+01   7.1732523568e+00    0.2699659    0.1918897  61.39  0.001107835    1.602    0.376
       105  -7.6908    224.9838    212.4775   5.7451703794e+01  -3.8429215544e+00    0.1517922    0.1080769  59.45 0.0004274693    2.182    0.542
       106  -9.1793    204.1475    210.6161   6.1031676275e+01  -4.0779057815e-02    0.2545727    0.2062816 -40.59   0.00065274    1.443    0.307
       107  -9.3590    175.5474    209.9617   6.6545207182e+01   5.1452099464e+00    0.4003004    0.2571077  68.70  0.001694826    2.595    0.615
       108  -8.7531    147.8115    210.3584   7.2265844690e+01   1.0058606324e+01    0.3111562    0.2035752  68.29  0.001247163    1.998    0.499
       109  -8.8844    116.3011    210.1491   7.8769900276e+01   1.5545646513e+01    0.3521592    0.2091013  73.14  0.001107202    2.241    0.554
       110  -9.1179      6.4146    209.0120   1.0017842592e+02   3.0121428842e+01    0.4184378    0.1199645  78.72  0.001499648    5.155    0.806
       111  -8.2437    192.2148    210.2055   6.3275155538e+01   2.1209961300e+00    0.1677219    0.1536578  67.13 0.0005052182    1.362    0.266
       112  -8.3325     85.7658    209.6056   8.5001186282e+01   2.0472437475e+01    0.2467559    0.1398754  78.62  0.001212636    2.107    0.525
       113  -8.0674     32.7390    210.6095   9.5497869301e+01   2.7136361405e+01    0.1586551   0.08185096  51.68  0.000939601    1.625    0.385
       114  -9.3113    236.4141    207.7780   5.4535184657e+01  -5.0483589787e+00    0.3143421    0.2176549 -39.65  0.001380765    1.688    0.407
       115  -8.0903     46.3969    209.2496   9.2802706910e+01   2.5836970524e+01    0.1643224   0.09223614  88.59 0.0009369883    1.649    0.394
       116  -9.2433    246.5031    206.9218   5.2598087387e+01  -6.5290424921e+00    0.2681865    0.1869893 -22.91 0.0009957587    1.371    0.270
       117  -8.0074    156.4932    207.9412   7.0099754616e+01   8.9401099595e+00    0.1789591    0.1361592 -53.85  0.000636236    1.516    0.340
       118  -8.1129    139.0790    207.9864   7.3720148996e+01   1.2046034048e+01    0.2123228    0.1506661  73.54 0.0009015058    1.723    0.420
       119  -7.9246    126.4001    208.2500   7.6406133424e+01   1.4205767124e+01    0.1708178    0.1238522 -78.63 0.0005161976    1.623    0.384
       120  -9.0667     99.4102    205.9588   8.1752378444e+01   1.9121908169e+01    0.3480327     0.197818  76.79  0.001088857    2.336    0.572
       121  -8.5007     12.2116    206.6050   9.9012475219e+01   3.0055469963e+01    0.1260687     0.102248  34.98 0.0007628228    1.657    0.396
       122  -8.1038    109.1659    205.1483   7.9600813251e+01   1.7714684130e+01    0.1865459    0.1386223  76.18 0.0006648403    1.375    0.273
       123  -8.3972     56.2650    205.1221   9.0509631203e+01   2.5464538682e+01    0.2371215      0.11548  61.88 0.0007881486    1.959    0.490
       124  -9.2828    194.7836    203.3108   6.1564710557e+01   2.7721674050e+00    0.2900265    0.2576223 -41.71 0.0009720267    1.308    0.235
       125  -9.5118    192.4651    197.1911   6.0922080962e+01   4.2089899582e+00    0.3901369    0.3023361 -68.38  0.001204745    1.891    0.471
       126  -9.6489    163.9057    202.9456   6.7754970964e+01   8.4883128303e+00    0.4716665    0.2466417  56.01  0.001069912    2.311    0.567
       127  -8.6710    131.1655    203.6991   7.4746424257e+01   1.4260063410e+01    0.2767463    0.1936373  79.22  0.001079481    1.797    0.443
       128  -9.3820    250.1777    201.6452   5.0983352077e+01  -6.3929590212e+00    0.4049168    0.1638152 -34.99  0.001176329    2.438    0.590
       129  -9.4637    245.5964    193.3886   5.0213945677e+01  -4.5210485016e+00    0.2741027    0.2381434  77.08   0.00104763    1.965    0.491
       130  -9.1000    243.1224    200.6101   5.2018496778e+01  -5.1348057362e+00    0.3131302    0.1712917 -33.35 0.0009232221    1.821    0.451
       131  -8.3769    211.1137    201.7016   5.8101505365e+01   1.1116774383e-01    0.2023477    0.1809471 -46.01 0.0006018146    1.392    0.282
       132  -8.8238    140.5389    201.0132   7.2349244609e+01   1.3113131134e+01    0.3774297    0.2393503  74.64  0.001259987    2.360    0.576
       133  -8.1853     48.4974    201.9972   9.1779461938e+01   2.7079503767e+01    0.1765702   0.08183528  79.77  0.000810193    2.508    0.601
       134  -8.1249     10.2080    202.3784   9.9133510341e+01   3.1094737602e+01    0.1544926   0.07628386  50.56 0.0009514341    1.729    0.422
       135  -8.0303    222.0151    201.0170   5.5918530652e+01  -1.6818502065e+00    0.1802745    0.1640101 -79.53 0.0005692704    1.666    0.400
       136  -8.1273     79.7867    201.0036   8.5273277381e+01   2.3121539692e+01    0.2205205    0.1237821  76.35  0.001065359    2.077    0.518
       137  -9.5466    149.6528    198.5209   7.0013875277e+01   1.1931439460e+01    0.4574556    0.3013158  79.87  0.001377193    2.454    0.593
       138  -8.6924    124.0054    199.0421   7.5586191336e+01   1.6432861427e+01    0.2893751    0.1928401  78.09 0.0009906662    1.920    0.479
       139  -9.1996    113.0450    198.3628   7.7849558748e+01   1.8447467604e+01    0.4510824    0.2411592  68.56  0.001851588    2.719    0.632
       140  -8.9416    237.1333    198.2703   5.2641507190e+01  -3.8290185750e+00    0.2587412    0.1681464 -36.72 0.0008446367    1.632    0.387
       141  -8.4633    177.0653    198.6898   6.4311423032e+01   6.8093504624e+00    0.2156111    0.1885069 -63.71 0.0005581623    1.390    0.280
       142  -8.9185     88.6959    198.3526   8.3077764499e+01   2.2354992767e+01    0.3403093       0.1918  76.12  0.001585579    2.219    0.549
       143  -8.5316    202.2880    197.7274   5.9077128929e+01   2.3207623435e+00     0.229184    0.2080988 -79.77  0.001039635    1.512    0.339
       144  -9.1941     61.3187    196.7616   8.8674596630e+01   2.6569166867e+01    0.4413632    0.2096238  76.78  0.001929898    2.736    0.635
       145  -8.1820     29.3956    197.1803   9.5161428371e+01   3.0256668242e+01    0.1736721   0.08758454  88.47  0.000952656    1.790    0.441
       146  -8.0712     12.8229    197.5951   9.8364419402e+01   3.1824933259e+01    0.1536191   0.07764452  52.35 0.0005172365    1.699    0.411
       147  -8.8425    215.8849    195.2720   5.5995559970e+01   2.6764992879e-01    0.2655523     0.186275 -52.91 0.0009650257    1.943    0.485
       148  -8.5178    133.0221    195.7595   7.3140145251e+01   1.5496573908e+01    0.2312014    0.1732431 -81.40 0.0005773975    1.593    0.372
       149  -8.8802    224.6704    193.6780   5.4042154302e+01  -1.0331985178e+00    0.3088508    0.1635238 -43.50  0.001252323    2.165    0.538
       150  -7.7827    209.3959    195.2286   5.7229873752e+01   1.4366833993e+00    0.1729965    0.1267344 -47.52 0.0006109737    1.645    0.392
       151  -8.9760    185.1469    194.5536   6.1917316433e+01   6.0230380160e+00    0.2746588    0.2188951 -51.87 0.0006657742    1.476    0.322
       152  -8.9014    160.8963    194.1423   6.6888564784e+01   1.0667243140e+01    0.3354631    0.2295422  70.60 0.0009501256    2.046    0.511
       153  -7.9600    230.8200    193.8146   5.2935824266e+01  -2.1160825409e+00    0.1603238    0.1534369 -15.42 0.0004056045    1.281    0.219
       154  -8.7229     76.8993    193.6924   8.5045660874e+01   2.5089694678e+01    0.2380157    0.1661418 -87.84 0.0005731769    1.378    0.274
       155  -8.9787     43.9653    193.2865   9.1925987065e+01   2.9460618646e+01    0.3957772    0.1712312  67.90  0.001790933    2.635    0.620
       156  -8.2045    198.8326    191.5821   5.8611115725e+01   3.9723859170e+00    0.1969436    0.1665321 -42.38 0.0004667145    1.331    0.249
       157  -8.5367    172.5766    191.5859   6.3973771644e+01   8.9302754786e+00      0.26026    0.1950328  79.58  0.001022468    1.960    0.490
       158  -9.1151    139.5148    190.3253   7.0849826567e+01   1.5404190261e+01    0.3728482    0.2512807  83.41  0.001229969    2.184    0.542
       159  -8.9474    183.8231    203.8556   6.3843737173e+01   4.6735133900e+00    0.3155799    0.2328297  67.55  0.001371068    1.877    0.467
       160  -7.6724    205.2980    191.6534   5.7350197688e+01   2.7636438260e+00    0.1276861    0.1107688  87.62 0.0007035322    1.678    0.404
       161  -7.9566    179.1361    191.1742   6.2532781305e+01   7.7569760074e+00    0.1829662    0.1656644 -87.81 0.0004606083    1.361    0.265
       162 -10.2860     92.6260    188.7953   8.0999283527e+01   2.3789590898e+01    0.9642765    0.2641635  49.32  0.003114989    3.782    0.736
       163  -8.3930     22.0021    191.6685   9.6206494589e+01   3.2173546114e+01    0.1947017   0.03759466  50.91  0.000705219    4.379    0.772
       164  -8.6466      6.5519    190.7744   9.9132982261e+01   3.3802775491e+01    0.1623504   0.07962342  85.35 0.0007103959    1.676    0.403
       165  -9.2257    156.1014    187.4183   6.6735284261e+01   1.2863287536e+01    0.3319654    0.2422436 -68.85 0.0007833156    1.726    0.421
       166  -8.3801    148.4793    189.0203   6.8671191758e+01   1.3993537548e+01    0.2373845    0.1822146  81.39 0.0009290193    1.637    0.389
       167  -8.7281    129.3219    188.4685   7.2791696925e+01   1.7644633137e+01    0.2959412    0.1950653  70.80 0.0008554114    1.894    0.472
       168  -8.2190    237.3026    188.0986   5.0656721183e+01  -2.3708650366e+00    0.1836355    0.1507574 -19.84 0.0007607907    1.165    0.142
       169  -8.8332    216.4789    187.6876   5.4427181911e+01   1.3630840645e+00    0.2361485    0.2248346 -57.65 0.0007342322    1.352    0.261
       170  -8.8744    191.4034    187.0264   5.9238055541e+01   6.1559443600e+00    0.3185473    0.2312023 -71.24  0.001089692    2.206    0.547
       171  -9.5269    120.6046    185.9132   7.4327184971e+01   1.9737372552e+01    0.4784434     0.270934 -75.65   0.00201506    2.506    0.601
       172  -8.9411     54.9332    186.8128   8.9004453759e+01   2.9537890995e+01      0.39114    0.1786701  72.38  0.001549221    2.863    0.651
       173  -8.8288     34.2972    187.9408   9.3444235756e+01   3.1695961679e+01    0.2799377    0.1196107  70.05  0.001272967    2.647    0.622
       174  -8.3524    230.5007    187.0655   5.1686285262e+01  -1.0405344829e+00    0.1958404    0.1243392 -34.53  0.001025604    1.581    0.368
       175  -8.7657    164.7135    186.3901   6.4694672136e+01   1.1409341947e+01    0.2822507    0.2198875  80.98 0.0008162674    1.714    0.417
       176  -9.1476    109.7074    186.0532   7.6795622663e+01   2.1595569429e+01    0.3901959    0.2305689  72.72  0.001521964    2.291    0.564
       177  -9.1572    249.3286    185.3320   4.7999892946e+01  -3.9784732516e+00    0.2686799    0.2041666 -43.53 0.0009936041    1.600    0.375
       178  -8.6112    202.8947    184.4980   5.6443609214e+01   4.4100491950e+00    0.2371809      0.19564 -58.64 0.0006831408    1.556    0.357
       179  -8.7434    183.0196    184.5567   6.0487909389e+01   8.2089645254e+00    0.2456986    0.2004513 -64.34 0.0007553988    1.543    0.352
       180  -8.9834     66.4749    184.3367   8.6224990483e+01   2.8583221491e+01    0.3323015    0.1859017  74.52  0.000884906    2.001    0.500
       181  -8.1362     11.8175    184.6507   9.7725617629e+01   3.4620794890e+01    0.2653484   0.09284193  80.24  0.001087863    3.470    0.712
       182  -8.4924    224.1266    183.4067   5.2142489079e+01   6.6211437486e-01    0.2656208    0.1678572 -39.55   0.00104889    1.660    0.398
       183  -8.7445    210.1364    183.8191   5.4889569216e+01   3.1639419458e+00     0.252535    0.1887685 -28.67  0.000675505    1.365    0.267
       184  -8.5317    197.2694    183.3697   5.7345591172e+01   5.6744727027e+00    0.2244703    0.1719351 -61.77 0.0004511394    1.762    0.433
       185  -8.8554    174.3447    183.5145   6.2108381945e+01   1.0086788360e+01    0.2772481    0.2333445 -89.96 0.0007715197    1.539    0.350
       186  -8.1469    242.6814    183.3126   4.8758672694e+01  -2.5727452543e+00    0.1168037    0.1070546 -73.33 0.0004955301    1.647    0.393
       187  -9.5184    139.0436    181.0723   6.9377097580e+01   1.7381534139e+01    0.5420055     0.340427 -87.40  0.001786201    2.781    0.640
       188  -9.0768     44.6734    182.3522   9.0757271135e+01   3.1754872572e+01    0.3647749    0.1665332  66.61  0.001172815    2.459    0.593
       189  -8.0844      1.7877    183.5567   9.9615009066e+01   3.5712752531e+01    0.1497115   0.07907856  52.69 0.0009402158    1.693    0.409
       190  -7.9606    235.2019    181.2211   4.9674552618e+01  -9.6642351269e-01    0.2007227   0.09468686 -44.27 0.0006372863    2.453    0.592
       191  -9.3318    147.3517    180.4175   6.7402839683e+01   1.5935555640e+01    0.3485223    0.2377853  62.50 0.0008140778    1.673    0.402
       192  -9.3846     26.9136    180.7532   9.4371287240e+01   3.4025237275e+01    0.4603528    0.1773464  70.11  0.001913514    3.286    0.696
       193  -8.5988     24.3260    176.0034   9.4520765114e+01   3.5320938127e+01    0.2459357    0.1112611  87.22  0.001204428    2.192    0.544
       194  -9.4521    191.5168    178.0736   5.7469477541e+01   7.7289690677e+00    0.3070781    0.2643147  86.86 0.0006161761    1.553    0.356
       195  -8.2758    169.4858    178.4764   6.2185223290e+01   1.1999526976e+01    0.2405074     0.192735  83.70 0.0006783513    1.652    0.395
       196  -9.1420     36.0431    176.4756   9.2054983119e+01   3.4019136154e+01     0.523954    0.2016304  81.79  0.001839659    4.347    0.770
       197  -8.6109    250.5241    172.5257   4.5230279726e+01  -2.2927430229e+00    0.2852919    0.1579081 -25.04  0.000750597    1.776    0.437
       198  -9.1406    248.9231    177.2959   4.6470312162e+01  -2.7339162675e+00    0.3112964    0.2509763 -54.11   0.00118765    1.734    0.423
       199  -7.9843    247.3049    173.6871   4.6018142124e+01  -1.9177600189e+00    0.1390527    0.1156658  -1.81 0.0002958022    1.063    0.059
       200  -8.7770    205.3581    177.3734   5.4540889628e+01   5.1631631655e+00    0.2593023    0.2129245 -55.22   0.00060454    1.497    0.332
       201  -8.6817    129.3563    177.0762   7.0877401613e+01   2.0033970381e+01    0.3451441    0.2269116 -88.20 0.0009935368    2.217    0.549
       202  -8.4700    231.1712    176.7330   4.9501329110e+01   4.5041759266e-01    0.2269851    0.1704204 -39.02 0.0006096863    1.412    0.292
       203  -8.4499    217.4634    176.9073   5.2095288331e+01   2.9426624834e+00    0.2333175    0.1929751 -50.67 0.0007566463    1.465    0.317
       204  -9.0883    183.1316    176.0243   5.8801602207e+01   9.7604880477e+00    0.2947238     0.232271 -60.52 0.0006656249    1.547    0.354
       205  -7.7176     97.3182    177.2994   7.8309601666e+01   2.5570445179e+01    0.1278235    0.1106972 -19.12 0.0007021091    1.617    0.382
       206  -9.0882     89.2433    176.7106   8.0091782065e+01   2.6984112262e+01    0.2907926    0.1878015  69.88 0.0007631861    1.677    0.404
       207  -9.9210     57.5403    173.3243   8.6943596697e+01   3.2221024339e+01    0.8251773     0.355336  80.44  0.002693442    4.703    0.787
       208  -8.7541     13.1696    176.5684   9.6889299251e+01   3.6232404308e+01    0.2319044    0.1162855  58.92  0.001135442    1.817    0.450
       209  -7.7524    211.6739    176.3271   5.3091624841e+01   4.1337327539e+00    0.1330582    0.1142061 -89.18 0.0007049944    1.698    0.411
       210  -9.2352    158.6473    174.5149   6.3792334323e+01   1.4927992448e+01    0.3752496    0.2750282 -87.80  0.001087185    1.984    0.496
       211  -9.2528    104.2894    174.5734   7.6269510952e+01   2.5026762189e+01    0.5493418    0.2697651  63.97  0.001824819    3.062    0.673
       212 -10.4976     76.0247    169.4835   8.2162374903e+01   3.0605166732e+01     1.334912    0.4601282 -70.25  0.004644952    3.509    0.715
       213  -9.5351     81.8059    154.7865   7.8556409866e+01   3.3178178898e+01    0.5044653     0.316254  83.10  0.001314617    1.991    0.498
       214  -8.4154    224.6451    174.1400   5.0176143225e+01   2.0598979706e+00    0.2057687     0.169082 -47.37 0.0007676788    1.435    0.303
       215  -9.6213    175.6727    171.9498   5.9570875518e+01   1.2027549086e+01    0.3626696    0.2807585 -52.06  0.000992358    1.425    0.298
       216  -8.1859    142.8745    172.3652   6.6934473614e+01   1.8469604752e+01    0.2007527    0.1784276 -87.96 0.0005986734    1.205    0.170
       217  -8.3773    134.8353    171.5240   6.8626501022e+01   2.0195018818e+01    0.2755262    0.1917163 -77.88 0.0009331275    1.845    0.458
       218  -8.8571     45.1251    170.7976   8.9476164194e+01   3.4288210608e+01    0.3357441    0.1656494  82.20  0.001531858    2.388    0.581
       219  -9.5312    121.3246    170.2881   7.1556528265e+01   2.2987015364e+01    0.3527739    0.2483903 -89.06 0.0009236383    1.788    0.441
       220  -8.0684     68.2579    170.9241   8.4177520184e+01   3.1361981238e+01    0.1723775    0.1040074 -71.75 0.0008824723    1.546    0.353
       221  -8.4490    237.2612    169.3397   4.6885027005e+01   5.2368682830e-01    0.2256671    0.1795854 -29.84 0.0007133355    1.215    0.177
       222  -8.9808    230.3794    168.9636   4.8048124151e+01   1.8416816830e+00     0.386058    0.1925391 -45.35  0.001669929    2.274    0.560
       223  -8.4528    205.8114    169.9695   5.2935311689e+01   6.3683184387e+00    0.2513422    0.1967258 -58.18   0.00105945    1.620    0.383
       224  -8.3005    198.6468    170.1073   5.4398526682e+01   7.7606653431e+00    0.2178915    0.1787652 -59.23 0.0007241355    1.497    0.332
       225  -8.5766    149.9406    169.4216   6.4764375813e+01   1.7700528438e+01    0.2702301     0.207614 -77.42  0.001022306    1.615    0.381
       226  -8.2261    244.6422    169.1255   4.5543183917e+01  -7.5782714990e-01    0.2020968    0.1574944 -41.79 0.0004809358    1.419    0.295
       227  -9.0974    166.8968    168.2442   6.0733816000e+01   1.4532936581e+01    0.3315561     0.259206  89.67 0.0008978973    1.743    0.426
       228  -8.6712    218.6932    168.1342   5.0051981643e+01   4.1822471548e+00    0.2162899    0.1930644  46.25 0.0004441827    1.242    0.195
       229  -7.9542    211.3569    168.1176   5.1459783869e+01   5.6059264614e+00    0.2016068     0.127011 -48.82 0.0008995325    1.840    0.456
       230  -8.4178    112.0424    167.6418   7.3295186949e+01   2.5243910258e+01    0.3253607    0.1870662  72.53  0.001256739    2.711    0.631
       231  -8.0826     88.6845    168.3920   7.8998264476e+01   2.8959554714e+01     0.224359    0.1453283  70.39  0.001085481    1.722    0.419
       232  -8.8203    191.8975    166.6013   5.5049794776e+01   9.7598880519e+00     0.264649    0.2088593 -48.66 0.0005668237    1.386    0.278
       233  -8.7039    185.0955    166.1629   5.6379298158e+01   1.1227080284e+01    0.3016663    0.2028186 -47.25  0.000740764    1.595    0.373
       234  -9.0320     20.6426    166.1541   9.4478451424e+01   3.7850680889e+01    0.3191036    0.1323296  58.60  0.001541837    2.484    0.597
       235  -9.7403    137.2233    164.4159   6.6735323208e+01   2.1270810681e+01    0.7091742    0.3183689  58.23  0.002205665    3.368    0.703
       236  -9.9574     94.9294    162.5424   7.6568950622e+01   2.9312679351e+01    0.8828987    0.4616415  77.19  0.002935366    3.944    0.746
       237  -8.0817    234.0800    164.6795   4.6480548668e+01   1.8528601754e+00    0.2323476    0.1724654 -40.11 0.0006768705    1.395    0.283
       238  -9.4486     33.5640    163.2467   9.1312840288e+01   3.7257066589e+01    0.4944403    0.1899527  59.28  0.001785531    3.115    0.679
       239  -8.3551    239.8400    163.5644   4.5222226954e+01   9.7504072299e-01    0.2616499    0.2065516 -65.84   0.00138597    1.923    0.480
       240  -8.7172    212.9724    163.4823   5.0166946897e+01   6.0976252472e+00    0.2494567    0.1946239 -51.15 0.0006457223    1.490    0.329
       241  -8.6079    159.5401    164.0683   6.1526869852e+01   1.6880193780e+01    0.2783471    0.2034021  63.33  0.001148004    1.575    0.365
       242  -9.2980     59.5005    161.3212   8.4998931528e+01   3.4734155434e+01    0.5228315    0.3597001 -32.28  0.002686731    2.247    0.555
       243  -9.0028    246.1205    162.7668   4.3964669030e+01  -2.9969641427e-02    0.2238995    0.1670977 -37.20 0.0005831643    1.337    0.252
       244  -8.5430    204.9710    162.5766   5.1544276908e+01   7.8540801960e+00    0.2613698    0.1965972 -54.07 0.0006302447    1.584    0.369
       245  -9.5838      3.5621    162.1274   9.7854689523e+01   4.0171584853e+01     0.397622    0.1562144  57.05  0.001942493    2.510    0.602
       246  -7.8855    222.1521    161.2139   4.7933401417e+01   4.6920190169e+00    0.1881164    0.1635331 -52.04 0.0005484353    1.355    0.262
       247  -8.9702    177.3906    160.4027   5.6813809832e+01   1.3935311572e+01    0.3091932    0.2480814 -68.46 0.0006877044    1.542    0.351
       248  -8.7710    151.6781    160.7269   6.2638083443e+01   1.9181427690e+01    0.2944839    0.2286344 -77.41  0.001418567    1.593    0.372
       249 -10.1056    249.6450    157.2192   4.2197090150e+01   2.1048962543e-01    0.4317572    0.3143607 -56.42  0.001437755    1.894    0.472
       250  -8.8192    227.3454    158.8717   4.6467559912e+01   4.0850553850e+00    0.3400321    0.2160822 -57.15  0.001233082    2.310    0.567
       251  -7.4831    242.2809    159.6957   4.3978654770e+01   1.1481164585e+00    0.1246431    0.1070224 -60.99 0.0002723906    1.553    0.356
       252  -8.2947    237.3959    159.1385   4.4714935417e+01   2.1380640528e+00    0.1919204    0.1205359 -44.24 0.0005062452    1.700    0.412
       253  -8.7161    196.8844    157.9331   5.2174570363e+01   1.0357159586e+01    0.3066014      0.19832 -63.69  0.001272492    2.377    0.579
       254  -8.1092    128.0117    158.7838   6.7838448250e+01   2.4293341033e+01    0.2441818    0.1607195  68.44 0.0006505048    1.930    0.482
       255  -9.5457    105.8687    157.6594   7.3042818309e+01   2.8602109873e+01    0.5143898    0.3385321  84.66  0.001269614    2.025    0.506
       256  -8.9755    167.6586    157.1838   5.8268440134e+01   1.6616423245e+01    0.3412532    0.2570904 -85.73  0.001081615    1.899    0.474
       257  -8.6250    217.9751    156.4509   4.7692498089e+01   6.3359184677e+00    0.2722613    0.1884126 -49.97 0.0007912773    1.659    0.397
       258  -8.4062    188.0711    157.1129   5.3824590666e+01   1.2346813217e+01    0.2265977    0.1852651 -84.49 0.0005707708    1.660    0.397
       259  -9.0530    157.8389    155.8754   6.0211977945e+01   1.8938895278e+01    0.3932678    0.2095191 -53.59  0.001572054    2.094    0.522
       260  -9.1310    119.5698    155.1339   6.9189944281e+01   2.6713128954e+01    0.3887498    0.2623825 -88.19  0.001448216    2.036    0.509
       261  -9.4976     49.6910    155.2975   8.6597557485e+01   3.7334807565e+01    0.3862332    0.2082521  61.32   0.00188714    2.029    0.507
       262  -8.9178    233.6330    147.5177   4.2857650351e+01   4.7809873790e+00    0.2808757    0.1742726 -42.78 0.0008632395    1.620    0.383
       263  -9.6144    241.6338    153.8218   4.2834577102e+01   2.2133649365e+00    0.4049347    0.2851805  74.92  0.001871845    2.593    0.614
       264  -8.1347    204.5598    155.0714   4.9999712936e+01   9.3024024601e+00    0.2154258    0.1406326 -39.08 0.0005084269    1.533    0.348
       265  -8.3377    144.6246    154.6446   6.3032557590e+01   2.1923356279e+01    0.3582528    0.2161488  62.96  0.001177517    2.158    0.537
       266  -7.9651    232.8095    153.7802   4.4376161275e+01   3.8888792894e+00    0.1822077     0.161623 -54.84 0.0004643288    1.352    0.260
       267  -9.6731    132.8375    152.7416   6.5467487639e+01   2.4706350281e+01    0.4694205    0.3397457  81.79   0.00116709    1.819    0.450
       268  -9.0438    133.4973    148.4789   6.4423726097e+01   2.5530375854e+01    0.4397255    0.2064434 -46.26  0.001676684    2.199    0.545
       269  -9.1758     68.0954    153.5589   8.1805867615e+01   3.5427356278e+01    0.3778209    0.2110288  66.07  0.001327823    2.178    0.541
       270  -8.7966    151.9373    152.9382   6.0953508443e+01   2.0789576611e+01    0.2397163    0.1853961  84.95 0.0006412073    1.671    0.402
       271  -9.8232     29.1821    149.8900   9.0934949856e+01   4.0756135037e+01     0.585615    0.2484764  80.83  0.002291886    3.438    0.709
       272  -8.7518     20.2013    152.2560   9.3308991918e+01   4.1027336689e+01    0.1724131    0.1139465  77.59 0.0006344039    1.366    0.268
       273  -8.5612      8.9816    153.0000   9.5955208463e+01   4.1779566881e+01    0.1568959   0.06603497  26.74 0.0007985121    2.915    0.657
       274  -8.7451      3.2724    151.0579   9.7084398846e+01   4.2639363199e+01    0.2998044    0.1120011 -83.49   0.00143595    2.279    0.561
       275  -8.8512    189.5931    150.0676   5.1950160992e+01   1.3387057862e+01    0.3110754    0.2386657 -67.00 0.0008922678    1.688    0.408
       276  -8.1105    182.4644    150.9650   5.3664498373e+01   1.4733029281e+01    0.2219245    0.1479212 -45.15 0.0005989427    1.545    0.353
       277  -8.0699    162.9205    150.8986   5.7977762060e+01   1.8916074006e+01    0.2409609    0.1878317  86.25 0.0008566759    1.703    0.413
       278  -8.4668     98.6145    150.6849   7.3602016317e+01   3.1467552488e+01     0.293018    0.1903681  78.22  0.000923764    2.036    0.509
       279  -9.3532    248.9123    149.1675   4.0597086646e+01   1.6179894090e+00    0.3148013    0.1793648 -32.84 0.0007491402    1.603    0.376
       280  -8.8004    243.3441    149.5541   4.1617853489e+01   2.5874821087e+00    0.2826215    0.1514418 -37.70   0.00103615    1.741    0.426
       281  -8.3966    213.0499    149.5940   4.7122304654e+01   8.5492346171e+00    0.2335405    0.1953512 -45.94 0.0004676874    1.268    0.211
       282  -9.9787     39.7640    147.2642   8.8036499765e+01   4.0314362396e+01    0.5818318    0.3024793  82.64  0.002698997    2.297    0.565
       283  -7.9526    229.0000    148.9560   4.4003677814e+01   5.4454751120e+00    0.2280051    0.0766314 -37.27 0.0004721175    2.838    0.648
       284  -8.3335    198.7144    148.3988   4.9691104127e+01   1.1766154429e+01    0.2507658    0.1797862 -51.11 0.0005383121    1.541    0.351
       285  -9.9560     89.3146    146.0938   7.5159708322e+01   3.4074216140e+01    0.6843882    0.3726445 -89.92  0.002401681    3.423    0.708
       286 -10.2436     55.0612    144.7435   8.3822905995e+01   3.9188625617e+01     0.688262    0.3340386  71.00  0.002637255    3.301    0.697
       287  -8.8142     51.7354    148.4196   8.5186576054e+01   3.8713309434e+01    0.1592197    0.1309235  16.50 0.0009482355    1.621    0.383
       288  -8.2773    223.1723    146.7755   4.4583241292e+01   6.9852496222e+00    0.1984839    0.1921182 -44.55 0.0004431173    1.157    0.135
       289 -10.2814    148.9096    145.0372   5.9952037292e+01   2.3131177371e+01    0.5899253    0.3995734  84.56  0.001588491    2.410    0.585
       290 -10.0805    106.6331    144.3311   7.0342304475e+01   3.1571646918e+01    0.6739277    0.3890413  75.61  0.002099124    3.164    0.684
       291  -8.1745    105.9983    138.3221   6.9297467474e+01   3.3096074445e+01    0.2157328    0.1438994  26.22 0.0009584334    1.884    0.469
       292  -9.0866     77.9368    146.6852   7.8212324767e+01   3.5671669632e+01     0.274956    0.1716103 -84.40 0.0007294021    1.857    0.462
       293  -9.7748     13.3140    146.1190   9.4343503970e+01   4.2995659636e+01    0.3323472    0.1949769  80.84   0.00140977    1.572    0.364
       294  -7.8598    206.9546    146.3415   4.7578064829e+01   1.0409505144e+01    0.1986127    0.1886556  33.18 0.0004642698    1.079    0.073
       295  -8.3044    175.7714    146.0214   5.4009663388e+01   1.7164508359e+01    0.2317682    0.2043888 -81.68 0.0006515274    1.328    0.247
       296  -9.8734    139.1791    145.0081   6.2292566207e+01   2.5157619275e+01    0.4267353    0.2937604 -79.61  0.001287495    2.057    0.514
       297  -9.7791    241.2686    144.2947   4.0820468554e+01   3.8428681771e+00    0.4144206    0.2469574  15.76  0.001729932    2.596    0.615
       298  -8.9382    247.0043    143.5919   3.9701456231e+01   2.8701936451e+00    0.2595758    0.1838802 -31.48 0.0003031975    1.282    0.220
       299  -8.6817    165.7457    143.9109   5.5774697399e+01   1.9772748720e+01    0.2703261    0.2109932 -67.40 0.0006628187    1.525    0.344
       300  -9.6779    125.0397    142.4693   6.5256448507e+01   2.8564067456e+01    0.4951249    0.3374858 -83.93  0.001532615    2.067    0.516
       301  -9.3131      2.7758    141.6656   9.6430012493e+01   4.4775529791e+01    0.3404925    0.1675381  74.42  0.001407418    2.054    0.513
       302  -7.5272    230.6297    142.3141   4.2232146664e+01   6.2590609454e+00    0.1414891    0.1138363 -75.85 0.0007035334    1.780    0.438
       303  -8.2751    182.1898    141.4908   5.1572349374e+01   1.6678770285e+01     0.243818    0.2055275 -68.02 0.0005578524    1.388    0.280
       304 -10.9351     69.4832    139.8321   7.9281366050e+01   3.8506327605e+01    0.8618392     0.366872 -66.61  0.003489656    2.311    0.567
       305 -10.7271     60.2024    125.1208   7.9281800035e+01   4.3250890882e+01    0.7300321    0.4067492  83.18  0.002836204    2.865    0.651
       306  -8.2807    250.4264    140.2932   3.8416588272e+01   2.7629145342e+00    0.1905208    0.1181119 -41.90 0.0009401345    1.560    0.359
       307  -9.8745     23.1937    137.5605   9.1040982653e+01   4.4155038709e+01    0.4685526    0.2284485  73.07  0.001898453    2.520    0.603
       308  -7.6070    218.6513    138.3000   4.3500640448e+01   9.4151254530e+00    0.1443394    0.1174599 -78.94 0.0006550228    1.688    0.407
       309  -8.4068    207.6302    137.6805   4.5458107532e+01   1.1868601283e+01    0.2767806    0.1628187 -55.47 0.0007771727    2.199    0.545
       310  -8.6774    197.4355    137.1845   4.7372380455e+01   1.4176630174e+01    0.3250228    0.2238175 -60.73 0.0009235236    1.864    0.464
       311  -8.7161    172.1932    137.8849   5.2927291041e+01   1.9613543655e+01    0.2932957    0.2274635 -83.24 0.0007315453    1.744    0.427
       312  -9.2582    139.5233    137.2801   6.0490071566e+01   2.6809907445e+01    0.3841613    0.2500239  17.27  0.001479379    2.481    0.597
       313  -9.1364    150.8066    135.6880   5.7372980970e+01   2.4765502589e+01    0.5159912    0.3176322  21.07  0.001905302    2.609    0.617
       314 -10.3576     83.3614    133.1932   7.4345710205e+01   3.8083365074e+01    0.6105771    0.3725513 -64.21  0.001492553    1.575    0.365
       315  -8.4995    247.0053    130.0339   3.6692659665e+01   5.0891812765e+00    0.2498985    0.1866467 -45.09 0.0006381655    1.337    0.252
       316  -8.9929    248.4841    135.0926   3.7583708952e+01   3.9740580982e+00    0.2995323    0.2099523 -43.78 0.0007918833    1.414    0.293
       317  -9.1747    250.7357    130.0668   3.6104333442e+01   4.3625728705e+00    0.5145524    0.1170782 -34.94  0.001518182    4.153    0.759
       318  -8.2617    162.4900    136.1027   5.4715720228e+01   2.2127695323e+01    0.2399985    0.2120593 -86.67 0.0006138012    1.282    0.220
       319  -7.4404    194.3143    143.6530   4.9512895217e+01   1.3613113089e+01    0.1523823    0.1214649 -80.10 0.0007047224    1.718    0.418
       320  -9.9241     56.4628    135.0835   8.1989441009e+01   4.1323773153e+01     0.407387    0.2623521  -3.05  0.001846166    2.896    0.655
       321  -9.4293     38.9860    135.5867   8.6719232575e+01   4.3146584973e+01    0.3203605    0.2065747  87.66  0.001016876    1.556    0.357
       322  -8.7351     37.9562    131.2865   8.6398613222e+01   4.4267769118e+01    0.1903215     0.151166  83.08 0.0003444752    1.202    0.168
       323  -7.9549    237.6148    133.7627   3.9087922340e+01   6.3199509275e+00     0.202333    0.1211145 -44.89 0.0005800948    1.682    0.405
       324  -7.6840    231.2766    133.9786   4.0229428943e+01   7.5632348030e+00    0.1794545    0.1191318 -35.67 0.0004137209    1.409    0.290
       325  -8.6958    179.2133    133.6403   5.0370878644e+01   1.8918903550e+01    0.3094853    0.2318889 -70.27 0.0007816792    1.741    0.426
       326  -9.0413    112.9381    133.1886   6.6380258431e+01   3.3029764208e+01    0.3688098    0.2490698  75.30 0.0009985031    2.057    0.514
       327 -10.0637    132.2043    131.1245   6.0910972485e+01   2.9711042258e+01    0.5000597    0.3263249 -81.49  0.001154533    2.482    0.597
       328  -9.2494    143.1495    131.1958   5.8182218468e+01   2.7397527700e+01    0.4354493    0.2545263 -55.96  0.001396703    1.878    0.468
       329  -9.8210     97.9233    128.8851   6.9489441739e+01   3.6741216149e+01    0.6626214    0.2109375 -53.28  0.002004799    2.942    0.660
       330  -7.9050    220.5110    129.9796   4.1226676264e+01   1.0512259472e+01    0.2198017    0.1385427 -37.26 0.0003924639    1.509    0.337
       331  -7.8965    204.4542    130.2026   4.4317733538e+01   1.3957997075e+01    0.2068898     0.139233 -49.71 0.0004726149    1.583    0.368
       332  -8.1926    192.8648    130.1235   4.6629479791e+01   1.6554246301e+01    0.2261526    0.2078751 -67.34 0.0003532655    1.191    0.161
       333  -9.3317    168.3118    129.2033   5.1727818953e+01   2.2280736894e+01    0.3316988    0.2540859 -71.95 0.0004910972    1.647    0.393
       334  -9.6617    153.0193    128.7557   5.5193380647e+01   2.5788609892e+01    0.4993087    0.2559306 -54.40  0.001186108    2.237    0.553
       335  -9.6761     73.2546    129.2680   7.6383309545e+01   4.0516193818e+01    0.3966317    0.2505072  89.68  0.001131689    2.065    0.516
       336 -10.0628     12.6894    128.4071   9.2703920782e+01   4.7100018189e+01    0.5240508    0.2376436  87.21  0.002290114    2.439    0.590
       337  -8.0713    211.4977    128.4973   4.2552984105e+01   1.2727308789e+01    0.2577186      0.13196 -48.16 0.0007063947    2.119    0.528
       338  -8.8787     50.3514    128.6702   8.2632263903e+01   4.3574168893e+01    0.2646586    0.1774786  77.80 0.0006860453    1.690    0.408
       339 -10.5636     44.3790    123.1934   8.3420087496e+01   4.5533234163e+01    0.9244442    0.4435098  87.32  0.003350125    3.694    0.729
       340  -9.8302    118.0365    124.3785   6.3029701589e+01   3.4099995141e+01     0.694658    0.4977469 -60.27  0.001458321    1.437    0.304
       341 -10.4421     28.6038    122.0546   8.7655962286e+01   4.7316707928e+01    0.7953255    0.3636499  73.24  0.003052376    3.792    0.736
       342  -9.9311     26.8152    113.8423   8.6982243543e+01   4.9394166491e+01    0.4821246    0.1711927  20.64  0.002006256    3.856    0.741
       343  -7.6075    228.6190    125.2804   3.8681437193e+01   9.6252857080e+00    0.1444011    0.1142358 -77.77 0.0007007688    1.719    0.418
       344  -8.9456    179.2540    124.4737   4.8131027271e+01   2.0763675727e+01    0.3052693     0.252518 -74.34  0.000499881    1.448    0.310
       345  -8.0612    244.3483    124.1835   3.5796697368e+01   6.5827415508e+00    0.2052799    0.1156942 -43.44 0.0005647978    1.697    0.411
       346  -7.8582    188.5961    123.8115   4.5975935293e+01   1.8756410696e+01      0.21876    0.1425464 -50.35 0.0005713725    1.630    0.386
       347  -8.8661     85.2436    122.2809   7.1619727719e+01   4.0398735016e+01    0.3701235    0.2347295   3.83  0.001440019    3.099    0.677
       348  -9.5231     71.0283    119.8504   7.5191297388e+01   4.3085000432e+01    0.4224913    0.2669084  80.69  0.001563214    2.293    0.564
       349  -7.8250    195.0276    121.9582   4.4195472709e+01   1.7646809211e+01    0.1876385    0.1710888 -36.18 0.0004194127    1.077    0.071
       350  -8.8484    171.8421    121.4176   4.9004401980e+01   2.3088043037e+01    0.2730876    0.2182443 -43.46  0.000472652    1.250    0.200
       351  -9.6773    158.5436    121.1007   5.1985161906e+01   2.6194800971e+01    0.4132164    0.2911929 -69.16  0.001225479    1.866    0.464
       352 -10.0016    141.7514    118.2886   5.5371064442e+01   3.0548626715e+01    0.5345236    0.3561189 -70.94   0.00129037    2.105    0.525
       353  -9.9057    131.1145    118.5209   5.8154324610e+01   3.2779428456e+01    0.4948139    0.3322281  84.47  0.001786969    2.489    0.598
       354  -9.6430      3.0458    117.1216   9.4015060008e+01   5.0315869543e+01    0.4825806    0.2127074  70.78  0.002217346    3.019    0.669
       355  -8.0014    231.5115    117.4820   3.6353420667e+01   1.0369023768e+01    0.1449896    0.1339534 -38.95 0.0008098406    1.048    0.046
       356  -8.0916    185.7677    115.9305   4.4594673566e+01   2.0960108060e+01    0.2494377    0.1727223 -64.24 0.0007303007    1.855    0.461
       357  -9.2793    109.9052    106.9614   6.0978624763e+01   3.9668195750e+01    0.4740073     0.282455  26.59  0.001909646    2.224    0.550
       358  -8.3423    250.2513    114.7547   3.2724428128e+01   6.9606477735e+00    0.1863258    0.1566073  -0.60  0.001045681    1.316    0.240
       359  -8.2184    193.0849    115.0645   4.2867429842e+01   1.9423318899e+01    0.2399478    0.1856908 -72.03 0.0004191436    1.627    0.385
       360  -7.5109    203.2879    121.7073   4.2492699525e+01   1.5817251276e+01    0.1481397    0.1197328 -74.01 0.0002184723    1.544    0.352
       361 -10.1237     92.8260    112.5157   6.7257684342e+01   4.1470831568e+01    0.5258558    0.3256915 -69.62  0.001270766    1.948    0.487
       362 -10.0312     78.9539    112.3635   7.1291455540e+01   4.3720191124e+01    0.5643953    0.3660572  88.27  0.001722173    2.329    0.571
       363  -8.7701     59.3190    114.7721   7.7613897708e+01   4.5834165310e+01    0.3418891    0.1958452   3.70   0.00135583    3.476    0.712
       364  -8.0634    167.4884    114.4562   4.8212008240e+01   2.5527131333e+01    0.1560368    0.1538883 -86.35 9.217958e-05    1.023    0.023
       365 -10.3856    133.6725    108.9976   5.5039610501e+01   3.4345258052e+01    0.6785845    0.3433018 -50.69  0.002293013    2.047    0.511
       366  -9.8553    121.8336    112.4029   5.9074065722e+01   3.6076123682e+01    0.3685814    0.2889853  89.01 0.0007132629    1.625    0.384
       367  -8.4523    174.8017    111.7150   4.5865095320e+01   2.4371085941e+01    0.2958995    0.1968741 -64.74 0.0007938568    2.001    0.500
       368  -8.6011    159.1952    111.6928   4.9411702393e+01   2.8026554317e+01    0.2723655    0.2068203 -54.05 0.0004792781    1.382    0.276
       369 -10.3112     66.3954    109.6560   7.4459084360e+01   4.6140458219e+01    0.5963753    0.3217629 -63.22  0.002166464    1.760    0.432
       370  -9.9227     14.1868    110.7217   9.0167565260e+01   5.1072503457e+01    0.3731354    0.1979307  83.60  0.001577858    2.196    0.545
       371  -9.9968    248.7269    107.9009   3.1383045409e+01   8.3913035816e+00    0.3820833    0.2856424 -50.34  0.001732372    1.330    0.248
       372 -10.4711    249.4952    103.4772   3.0249367015e+01   8.9567857269e+00     0.477848    0.3502503 -65.88    0.0024696    1.652    0.395
       373  -7.9740    149.6025    109.7910   5.1215954313e+01   3.0631286341e+01    0.2251059    0.1469961 -54.13 0.0004577153    1.652    0.395
       374  -9.9286    109.4986    114.0895   6.2888749106e+01   3.8116622785e+01    0.5248929    0.3274845 -72.69   0.00139867    2.276    0.561
       375  -8.7890     42.7825    109.3567   8.1538873033e+01   4.8978951195e+01    0.2952071    0.1324127  12.06  0.001104502    4.251    0.765
       376  -8.3274    189.4226    107.7513   4.1740183705e+01   2.1690541516e+01    0.2939523    0.1438092 -43.74 0.0007106626    2.023    0.506
       377  -9.8768    139.8804    103.7812   5.2035745064e+01   3.4106830734e+01    0.5721362    0.3402551 -47.75  0.001608314    1.692    0.409
       378  -9.6901    119.1372    105.8443   5.8106809098e+01   3.8094632130e+01    0.2404833     0.216129 -89.84  0.001089413    1.225    0.184
       379 -10.7482     22.9469    102.6522   8.6411431711e+01   5.2304490065e+01    0.6203603    0.3421831  74.38  0.002306855    2.553    0.608
       380  -9.5936    150.6229    102.9089   4.9114610561e+01   3.1844154074e+01     0.498653    0.2952398 -63.29  0.001195958    2.443    0.591
       381  -8.7815     93.9950    104.1722   6.4879925734e+01   4.3206518386e+01    0.4669914     0.256175  13.44  0.001436166    4.530    0.779
       382  -8.4543     78.4557    104.7331   6.9693039553e+01   4.5586543614e+01    0.2368598    0.1793459  -5.17  0.001054583    1.788    0.441
       383 -10.5864     45.7431    102.0480   7.9252379299e+01   5.0389551112e+01    0.7086705    0.3945261  71.61  0.002936159    3.173    0.685
       384  -8.6021    166.6420    103.9725   4.5635826342e+01   2.7861434733e+01    0.2814383    0.2339531 -69.97 0.0006870475    1.369    0.270
       385 -10.2220    128.5725    101.8940   5.4478906180e+01   3.6992178490e+01    0.3890177    0.3125381 -80.05  0.001170303    1.539    0.350
       386  -9.2729      6.4169    102.6864   9.1359130244e+01   5.3400367762e+01    0.2460613    0.1587574  74.13 0.0008761149    1.722    0.419
       387  -8.0973    175.4946    101.9148   4.3122450241e+01   2.6152841238e+01    0.2349747    0.1535335 -41.31 0.0004551951    1.515    0.340
       388  -9.7374    115.9911    102.4689   5.8081151121e+01   3.9480565073e+01    0.3777222     0.215486  45.99  0.001304491    1.812    0.448
       389 -10.2158    108.5927     98.4842   5.9107015996e+01   4.1821992463e+01    0.5874451    0.4130476  72.66  0.001217073    2.049    0.512
       390  -8.9815    107.1865     92.8136   5.7946036443e+01   4.3339180452e+01    0.5500528     0.302826  23.05  0.001970493    2.958    0.662
       391  -8.6090    159.8034    100.8622   4.6363184532e+01   3.0113424457e+01    0.2909937    0.2124266 -61.73  0.000694313    1.598    0.374
       392  -9.2459     82.2627    100.0431   6.7389243320e+01   4.6087127177e+01    0.3428906    0.2490042 -79.02  0.001047398    1.728    0.421
       393 -10.2617     64.0407     96.1310   7.2162071968e+01   4.9610889678e+01    0.6938097    0.3688366 -69.98  0.002060762    2.344    0.573
       394  -8.4908     64.5405     87.6290   6.9909885757e+01   5.1479210651e+01    0.2694664    0.1688984  -1.49  0.001183173    2.571    0.611
       395  -9.2444     94.9699     96.8838   6.2698024712e+01   4.4692910115e+01    0.3259822    0.2411346 -67.23 0.0006799088    1.534    0.348
       396  -8.7023    151.1046     95.1525   4.6844000367e+01   3.3324463370e+01    0.3433469     0.238171   6.05  0.001337998    2.331    0.571
       397  -8.6319    249.5208     95.5194   2.8403810267e+01   1.0241787760e+01    0.1407006    0.1239388 -45.80 9.608461e-05    1.038    0.037
       398  -8.2967    164.8687     94.0271   4.3308794501e+01   3.0262813173e+01    0.2445196    0.2063122 -67.47 0.0005192465    1.313    0.238
       399  -7.5786    188.6441     93.3116   3.8082309306e+01   2.4606091703e+01    0.1631361     0.121315 -77.00 0.0007043876    1.734    0.423
       400  -8.3754    176.4343     93.1539   4.0538915290e+01   2.7618240405e+01    0.2512282    0.2133274  89.59 0.0004570616    1.342    0.255
       401  -9.1774    138.9644     92.1702   4.9020273868e+01   3.6744788867e+01    0.3751217    0.2784908 -74.98 0.0006967899    1.816    0.449
       402  -9.0309    120.4172     92.7905   5.4159862626e+01   4.0677983127e+01    0.3042892    0.2335695  36.09  0.001137107    1.364    0.267
       403 -10.1561    124.7147     90.7639   5.2390297772e+01   4.0194176302e+01    0.5763426    0.3578486 -55.04   0.00165908    1.800    0.445
       404  -9.3426     46.1901     92.1704   7.7057371310e+01   5.2629963912e+01    0.3517876    0.2101621  -0.38  0.001651397    2.620    0.618
       405  -9.2857     22.3014     90.7419   8.4605752370e+01   5.5083030967e+01    0.4452153    0.1828079 -42.94  0.002063833    2.412    0.585
       406  -9.5411      5.0419     91.7518   9.0275349210e+01   5.5944647349e+01    0.3225644    0.1649532  56.79  0.001436527    2.660    0.624
       407  -9.5654     34.9055     89.7038   8.0263502038e+01   5.4293742835e+01    0.4470333    0.2459624 -85.84  0.001442279    2.670    0.625
       408  -8.3275    157.6535     91.2452   4.4179613220e+01   3.2547588073e+01    0.2167983    0.1481305 -31.10  0.000611335    1.570    0.363
       409  -8.2414    151.0178     88.7795   4.5044772599e+01   3.4618899058e+01    0.2815547    0.1962407 -55.58 0.0006564346    1.600    0.375
       410 -10.1426     86.5648     85.8902   6.2279939395e+01   4.8565534704e+01    0.6418983    0.3783544 -59.38  0.001461329    1.901    0.474
       411  -8.7857     70.8421     86.3329   6.7490399210e+01   5.0900506016e+01    0.2680189    0.1177149  42.51  0.001088771    2.586    0.613
       412  -9.7225     48.5074     83.6602   7.4325172104e+01   5.4309926975e+01    0.5806172    0.3696377 -75.94  0.002560366    1.939    0.484
       413  -7.4967    179.3414     85.6545   3.7856085251e+01   2.8305450310e+01    0.1666964    0.1210063 -73.99 0.0007046849    1.787    0.440
       414 -10.0267    104.8524     83.0092   5.5792455897e+01   4.5883889204e+01    0.4746308    0.3339782 -73.51  0.001019052    2.100    0.524
       415  -8.5359    158.0897     83.6692   4.1896622599e+01   3.3906612133e+01    0.2699534    0.2067792 -49.67 0.0005652071    1.347    0.258
       416  -9.5800    249.3689     81.2888   2.5113696018e+01   1.2539750258e+01    0.3690061    0.1659193 -46.21  0.001509278    2.069    0.517
       417  -9.1914    140.8781     82.2245   4.5612077287e+01   3.8293665640e+01    0.4207523    0.2131674 -44.53 0.0009994975    2.000    0.500
       418  -8.7092     64.2372     82.6223   6.8703407648e+01   5.2633972852e+01    0.2493566    0.1573671 -63.98 0.0006875414    1.721    0.419
       419  -9.7034     24.8073     80.2006   8.1738730389e+01   5.7267408282e+01    0.4802703    0.2725154 -85.42  0.001528477    2.388    0.581
       420  -9.5216      9.7107     80.7555   8.7018767771e+01   5.8139033582e+01    0.3097071    0.1923532  71.33  0.001369135    2.185    0.542
       421  -8.4505    150.1698     80.2694   4.2748014634e+01   3.6467632702e+01    0.2911346    0.1951175 -63.41 0.0006547533    1.958    0.489
       422  -9.0326    119.4914     80.1625   5.0681202620e+01   4.3487617199e+01     0.330209    0.2289678 -63.55 0.0007351117    1.868    0.465
       423  -9.0447     74.5352     79.6989   6.4434247298e+01   5.1812733890e+01    0.4368904    0.2338331 -64.49  0.001532194    2.593    0.614
       424  -8.1876    166.9666     79.4548   3.8691629054e+01   3.2509790980e+01    0.2377189    0.2038529 -39.56 0.0004738293    1.171    0.146
       425  -7.8224    184.1976     78.0276   3.4757111262e+01   2.8467415671e+01    0.2097703    0.1205928 -35.75 0.0008546995    1.744    0.427
       426  -7.8371    174.6436     77.7780   3.6591351921e+01   3.0900782226e+01    0.2187284    0.1382141 -46.56 0.0003709279    1.617    0.382
       427  -9.5031    128.2728     75.4329   4.6809047025e+01   4.2494997702e+01    0.4776408     0.295204 -63.09  0.001514081    2.406    0.584
       428  -7.9029    157.3493     76.1763   3.9854978089e+01   3.5483642558e+01    0.2267324    0.1373774 -47.72 0.0004926223    1.740    0.425
       429  -8.3849    140.4992     75.0198   4.3517225054e+01   3.9759153837e+01    0.2310985    0.1507139 -40.87 0.0005433923    1.540    0.350
       430  -9.9764     63.2583     73.3671   6.6469543064e+01   5.4769000777e+01     0.467378    0.2629528 -62.20  0.001371976    2.093    0.522
       431  -9.6625     82.4483     72.3848   5.9617882207e+01   5.2107691217e+01    0.4298019      0.27245 -65.65  0.001050984    2.261    0.558
       432  -8.2833    163.4937     73.0560   3.7563589759e+01   3.4525181967e+01    0.2357874    0.1512193 -39.30  0.001018182    1.565    0.361
       433  -8.5945    115.5240     72.5402   4.9425287476e+01   4.5831129197e+01    0.2916819    0.1447967 -40.99  0.000585099    1.985    0.496
       434  -8.4795     42.7793     72.5034   7.3548626623e+01   5.7368816856e+01    0.2970308    0.1699271 -74.30  0.001363136    2.463    0.594
       435  -7.9694    175.5948     72.2700   3.4813008547e+01   3.1630286944e+01    0.2065869    0.1506938 -23.27 0.0006996685    1.548    0.354
       436  -9.4974    105.8566     71.4576   5.1913161780e+01   4.8026060225e+01    0.2752213    0.2243286 -66.39 0.0006293227    1.507    0.336
       437  -9.3995     95.0723     70.6604   5.4981621082e+01   5.0252165363e+01    0.4482188    0.2495554 -56.75  0.001340751    2.298    0.565
       438  -9.2933     29.2241     70.1172   7.7912687957e+01   5.9130327668e+01    0.5019031    0.2156891 -23.78  0.001859081    4.337    0.769
       439  -9.4427     51.4478     69.4257   6.9560462303e+01   5.7081507668e+01    0.4332528    0.2250359 -66.71  0.001417087    2.639    0.621
       440  -9.2175     16.5531     68.8769   8.2302841222e+01   6.0323487118e+01    0.4820508    0.1684439 -65.53  0.001981432    2.506    0.601
       441  -7.4800    157.2938     69.6667   3.7907089008e+01   3.6663427967e+01    0.1580924    0.1200842 -71.40 0.0003504644    1.638    0.390
       442  -8.7342    147.1121     68.1419   3.9775053137e+01   3.9429496392e+01    0.3221354     0.210281 -44.19 0.0007029145    1.577    0.366
       443  -8.7039    138.5840     65.8342   4.1112445825e+01   4.1883559509e+01    0.2821508    0.2154123 -61.84 0.0007898791    1.574    0.365
       444  -8.7871    121.7512     65.6801   4.5460114897e+01   4.5773046061e+01    0.2830879    0.2311981 -57.90 0.0006318578    1.403    0.287
       445  -8.9506    110.1844     63.6338   4.8065359882e+01   4.8628709339e+01    0.2884361    0.2480588 -69.47 0.0007417183    1.435    0.303
       446  -8.7856     37.4630     63.8945   7.3223377931e+01   5.9724123630e+01     0.221157    0.1925709  88.63 0.0009810214    1.491    0.329
       447  -8.6937     64.2727     62.8839   6.2927541962e+01   5.6795690562e+01    0.2573339    0.1666345  -3.55  0.001229419    2.116    0.527
       448  -7.8934    158.4057     61.5139   3.5167231997e+01   3.7777667577e+01    0.1509253    0.1449278 -76.86 0.0001250082    1.068    0.064
       449  -9.0435     97.5384     60.3509   5.0792166305e+01   5.1761389681e+01    0.2818848    0.2386781  51.86 0.0007419356    1.323    0.244
       450  -9.5690     73.4276     59.1418   5.8427775358e+01   5.6183606924e+01    0.3836416    0.2468085 -57.88  0.001059568    1.929    0.482
       451  -8.1697     88.9929     59.0566   5.3092828258e+01   5.3589349185e+01    0.2082095    0.1746876 -75.34 0.0005927582    1.649    0.394
       452  -8.4260    130.8195     57.5357   4.0360939809e+01   4.5138938555e+01    0.2336003    0.1764612 -41.99 0.0006117444    1.371    0.271
       453  -9.9272     23.5055     56.2263   7.6582903598e+01   6.2504257077e+01    0.3996014    0.2626311  89.81   0.00210354    2.575    0.612
       454  -9.6346      7.5931     56.8552   8.3061348519e+01   6.3388312115e+01    0.2989198    0.1926566 -85.99  0.001234522    1.993    0.498
       455  -8.0426    140.1324     56.1013   3.7587265835e+01   4.3167673917e+01    0.2041967     0.174304 -61.40 0.0004914601    1.322    0.244
       456  -9.0574    119.0498     55.0772   4.2643938271e+01   4.8228740940e+01    0.4079234     0.215183 -45.94  0.001179895    2.102    0.524
       457  -8.6878     44.2556     55.2614   6.8057742707e+01   6.0794604733e+01    0.2117335    0.1945325 -69.59 0.0007369124    1.359    0.264
       458  -9.4718     62.8632     53.6727   6.0399270125e+01   5.8787876685e+01    0.4955279    0.1844556 -50.41  0.001639007    2.819    0.645
       459  -9.2572     54.0304     53.3122   6.3623793176e+01   6.0031017128e+01    0.3849381    0.1791864 -55.43  0.001287695    2.463    0.594
       460  -8.3890    105.8629     53.1211   4.5730102757e+01   5.1382922026e+01    0.2149527    0.1954246 -66.71 0.0006635903    1.338    0.252
       461  -9.4615     92.4818     50.3434   4.8880114020e+01   5.4501350440e+01    0.3982572    0.2339031 -50.51  0.001102198    2.071    0.517
       462  -8.6642     74.6290     51.7086   5.5424770377e+01   5.7382201200e+01    0.2217294    0.1503395  -8.18   0.00110073    1.784    0.439
       463  -8.4247    144.6571     48.7730   3.4132859821e+01   4.3219803563e+01    0.2069425    0.1328058 -41.81 0.0004594504    1.634    0.388
       464  -8.5097    129.9664     49.2332   3.7773728348e+01   4.6683466763e+01    0.2046512    0.1930994  38.31 0.0005387461    1.025    0.024
       465  -8.1729    120.8414     47.1844   3.9414357157e+01   4.9105317850e+01    0.2099531    0.1979209 -61.05 0.0006787002    1.207    0.171
       466  -8.3923    112.2197     46.7166   4.1605105963e+01   5.1087791339e+01    0.2428174    0.1829796 -43.07 0.0005930606    1.429    0.300
       467  -8.9959     82.1998     46.3679   5.0834249356e+01   5.7049221367e+01    0.2579218    0.2053005 -49.21 0.0005106834    1.455    0.313
       468  -8.5604     45.0457     44.4912   6.4159996020e+01   6.2773225720e+01     0.213059    0.1637368 -55.61 0.0005210278    1.497    0.332
       469  -9.1202     16.7115     44.5504   7.6134643628e+01   6.5330458160e+01    0.2060638    0.1613557 -81.33 0.0006712497    1.733    0.423
       470  -8.8757    149.1517     43.1721   3.1315102148e+01   4.2932098789e+01    0.1994396    0.1720469 -86.26 0.0003645979    1.295    0.228
       471  -8.3128    132.5409     43.0704   3.5025031868e+01   4.7005969063e+01    0.2100618    0.1435345 -30.74 0.0005424836    1.520    0.342
       472  -8.7655     93.2086     42.2221   4.5639862452e+01   5.5699251990e+01    0.2655939    0.1801526   7.64 0.0009216372    1.815    0.449
       473  -8.7706     95.7283     38.0921   4.3273556388e+01   5.5841142900e+01    0.2862626    0.1771016 -37.69 0.0007384584    1.658    0.397
       474  -8.6629     58.4635     42.6233   5.8118725746e+01   6.1416747391e+01    0.2507254    0.1989764 -68.97 0.0009340131    1.959    0.490
       475  -9.6791      5.3575     42.0155   8.0338582647e+01   6.6500872918e+01    0.3046192     0.187476 -74.89   0.00134726    1.960    0.490
       476  -9.2992     69.5738     41.2368   5.3378940470e+01   6.0013202864e+01    0.3266483    0.2476701 -56.81  0.001315211    1.783    0.439
       477  -8.8183    105.9013     41.1075   4.1361265526e+01   5.3303870256e+01    0.2035669    0.1929866 -72.93 0.0005036878    1.292    0.226
       478  -8.6097     36.8523     40.3424   6.6114288932e+01   6.4424384992e+01    0.2000836    0.1520565 -50.07 0.0006836531    1.356    0.263
       479  -7.6331    160.7029     39.3580   2.7774146081e+01   4.0550012107e+01    0.1534136    0.1091148 -66.09 0.0007034102    1.703    0.413
       480  -8.0153     80.6239     36.7508   4.7688234017e+01   5.8886877415e+01    0.1826806    0.1181518 -42.27 0.0004189861    1.663    0.399
       481  -7.7728    133.6846     36.2826   3.2403525514e+01   4.7688179582e+01    0.1400803    0.1124671 -76.39  0.000211602    1.578    0.366
       482  -9.2779     26.1939     35.1426   6.8934876400e+01   6.6380139639e+01    0.2792179    0.1823477 -59.13  0.000918124    1.770    0.435
       483  -8.1231    126.0006     35.2980   3.3874824478e+01   4.9646977345e+01    0.1945676    0.1774936  46.76 0.0004138239    1.058    0.055
       484  -8.6035    111.8301     34.1966   3.7112859097e+01   5.3021868052e+01    0.2008965    0.1913059 -65.96 0.0005969756    1.255    0.203
       485  -8.5431    119.2958     32.8063   3.4637435443e+01   5.1533901125e+01    0.2413821    0.1690112 -33.07 0.0007322931    1.494    0.331
       486  -8.8356     60.8608     32.3348   5.3162591519e+01   6.2792618508e+01    0.2590302    0.1677389 -47.82 0.0009286237    1.836    0.455
       487  -8.8623     48.4929     32.9274   5.8398574463e+01   6.4392704776e+01     0.196304    0.1916918 -52.67 0.0006828951    1.457    0.314
       488  -8.8982     72.3351     30.7590   4.8197137293e+01   6.1224682544e+01    0.2374359    0.2057399 -58.82 0.0007628234    1.643    0.392
       489  -8.8607     12.9689     29.9027   7.3204535389e+01   6.8346682323e+01    0.2879581    0.1517603 -61.60   0.00143325    2.143    0.533
       490  -8.6210    101.4982     29.0747   3.8037271777e+01   5.5934881230e+01    0.1962372    0.1304067 -29.17 0.0004805673    1.532    0.347
       491  -8.8343     81.6048     27.2389   4.3500864187e+01   6.0101360699e+01    0.2641034    0.2055293 -52.76 0.0008747909    1.768    0.434
       492  -9.2740      3.7075     27.4220   7.6806286662e+01   6.9352685652e+01    0.2244466    0.1539776 -62.16 0.0009189798    1.538    0.350
       493  -8.7241     91.8252     26.1456   3.9754176976e+01   5.8295248499e+01    0.2505653    0.1714086 -39.62 0.0006081462    1.638    0.389
       494  -8.1730     34.9412     22.9769   6.0235335667e+01   6.7606958112e+01    0.1597122    0.1507331 -83.53  0.000814808    1.769    0.435
       495  -8.0204    104.4784     22.5362   3.4620245379e+01   5.6125777476e+01    0.1343078    0.1224209  26.29 0.0008087162    1.047    0.045
       496  -8.9630     63.6465     20.9560   4.7247346809e+01   6.4043401696e+01     0.267969     0.188978 -50.23  0.001023486    2.047    0.512
       497  -8.8598     48.2697     21.4026   5.3658268554e+01   6.6232898718e+01    0.2128723     0.179623 -32.83 0.0007041507    1.341    0.254
       498  -7.7580    120.6266     20.7921   2.9853767049e+01   5.2706672278e+01    0.1891121    0.1207827 -38.42 0.0008590548    1.737    0.424
       499  -8.2441     19.4937     21.0825   6.6782717531e+01   6.9397506058e+01    0.1686198   0.09310011 -45.09 0.0005656281    1.542    0.351
       500  -8.8680     74.1095     19.3024   4.2688541042e+01   6.2502970646e+01    0.2274816    0.1721991 -31.86 0.0006884545    1.403    0.287
       501  -8.1740     38.8519     18.1360   5.6343252431e+01   6.7906778122e+01    0.1670323    0.1442195 -22.64 0.0004810444    1.264    0.209
       502  -7.9201    112.7734     16.9429   3.0274681022e+01   5.4932178001e+01    0.1637156    0.1107255 -18.98  0.000378995    1.574    0.365
       503  -8.3369     87.9791     17.3224   3.7268756611e+01   6.0149820363e+01    0.1808203    0.1533041  29.48 0.0004629216    1.078    0.072
       504  -8.1286     30.4477     15.9347   5.9268039818e+01   6.9183655673e+01     0.138849   0.09847965 -58.35 0.0007146185    2.371    0.578
       505  -8.1067     97.2456     14.9193   3.3536117672e+01   5.8535519911e+01    0.1608941     0.107702 -23.67 0.0005652893    1.542    0.352
       506  -8.2330      7.8166     15.5904   7.0490239304e+01   7.1180334057e+01    0.1301569   0.09540934  23.54 0.0005527234    1.680    0.405
       507  -7.9367     17.2155     13.9846   6.4958567342e+01   7.0739745840e+01    0.1454393   0.07402264 -42.78 0.0003603232    1.640    0.390
       508  -7.7485      1.6395     11.3089   7.2065225327e+01   7.2271153193e+01   0.08824897   0.08443733  71.83 0.0007040885    1.739    0.425
       509  -7.9330    191.5002    249.5135   6.9546654839e+01  -3.4775748786e+00    0.1204886   0.09539417  36.27  0.000519052    1.095    0.086
       510  -9.0337    175.6732    247.3564   7.2150545847e+01  -6.5335905491e-01    0.2942616    0.2282548 -88.37  0.001361664    2.097    0.523
       511  -8.2978    113.0270    248.2915   8.3867434768e+01   9.2085474692e+00     0.208411     0.140627  76.15  0.001285759    1.637    0.389
       512  -8.7203     93.8979    248.8242   8.7387519874e+01   1.1978483767e+01    0.2766578    0.1602091  77.25  0.001587183    1.977    0.494
       513  -9.4533    243.1914    245.9364   5.9852246968e+01  -1.0819697110e+01    0.3595664    0.1786542 -24.86  0.002057242    2.179    0.541
       514  -8.7150    218.5401    246.7986   6.4281209208e+01  -7.3215783232e+00    0.2934908    0.1126545 -35.44  0.001427978    3.044    0.672
       515  -8.8375    156.1271    247.7790   7.5832090254e+01   2.4520526990e+00    0.1849217    0.1590204  80.69 0.0007315234    1.428    0.300
