#   1 NUMBER                 Running object number                                     
#   2 MAG_AUTO               Kron-like elliptical aperture magnitude                    [mag]
#   3 X_IMAGE                Object position along x                                    [pixel]
#   4 Y_IMAGE                Object position along y                                    [pixel]
#   5 X_WORLD                Barycenter position along world x axis                     [deg]
#   6 Y_WORLD                Barycenter position along world y axis                     [deg]
#   7 A_WORLD                Profile RMS along major axis (world units)                 [deg]
#   8 B_WORLD                Profile RMS along minor axis (world units)                 [deg]
#   9 THETA_WORLD            Position angle (CCW/world-x)                               [deg]
#  10 FWHM_WORLD             FWHM assuming a gaussian core                              [deg]
#  11 ELONGATION             A_IMAGE/B_IMAGE                                           
#  12 ELLIPTICITY            1 - B_IMAGE/A_IMAGE                                       
         1 -12.9820     42.8059     20.3221   1.0495355902e+02   6.7069378745e+01    0.7706006    0.4642459  13.57  0.002995985    1.888    0.470
         2 -12.6701    215.9268     15.5529   6.3699470556e+01   2.9031770565e+01    0.6583667    0.3591403 -64.74  0.002644462    2.012    0.503
         3 -14.3662    185.5246      7.1917   6.4686441342e+01   3.7531177539e+01     1.082574    0.7078623 -52.58  0.005577562    1.578    0.366
         4 -12.4616     58.2720      8.2964   9.2895333285e+01   6.6436184615e+01    0.4725513     0.254152  28.92  0.002498119    1.877    0.467
         5 -11.1021    110.0082      8.9775   7.7754110411e+01   5.6127785002e+01     0.164629    0.1446605  35.22 0.0005275774    1.015    0.014
         6 -12.3094     43.4441      8.3871   9.8945571408e+01   6.8669106399e+01     0.312233    0.2340121  32.51 0.0007616901    1.437    0.304
         7 -12.1806    164.3727      1.9817   6.5710604438e+01   4.3414247882e+01    0.4511829     0.189899  74.17  0.001827838    2.316    0.568
         8  -9.8706    177.6692    237.3114   1.2073920756e+02   2.0353821713e+00    0.1160674   0.08541345  61.69 0.0007043052    1.672    0.402
         9 -12.4876    220.9505    248.2145   1.1478655414e+02  -6.0573536451e+00    0.4242827    0.2616704  49.14  0.002611721    1.882    0.469
        10 -10.2784    204.6643    235.6767   1.1571156717e+02  -2.0915366143e+00    0.1233644   0.07880783  15.36 0.0007050824    1.712    0.416
        11 -11.4155     12.4775    227.3478   1.4923034431e+02   2.6900931657e+01    0.2001764    0.1202142  67.09 0.0005664754    1.201    0.168
        12 -11.4606     75.8701    225.8886   1.3812375624e+02   1.9709006851e+01    0.3289132    0.1345531  44.72  0.001220946    1.992    0.498
        13 -10.0695    104.0000    224.9362   1.3281083604e+02   1.5816267143e+01      0.17031   0.06713005 -60.88 0.0007947627    2.890    0.654
        14  -9.9420    248.6567    224.3243   1.0640225423e+02  -7.5007110302e+00    0.0990833   0.09255899  53.05 0.0007050692    1.734    0.423
        15 -12.5069    226.4410    220.3439   1.0947611083e+02  -3.6403050383e+00    0.2959396    0.1995035 -12.44  0.001812637    1.575    0.365
        16 -11.6525    149.4829    221.0540   1.2369024708e+02   9.1380716034e+00    0.4042681    0.2068205 -40.70  0.002012834    2.547    0.607
        17 -10.4730    173.8570    221.2276   1.1911150347e+02   4.9704769025e+00     0.217685    0.1487282 -27.72  0.001251705    1.856    0.461
        18 -10.6177    183.2477    220.7436   1.1729035615e+02   3.4439622144e+00    0.1794786    0.1001788 -27.86  0.000893906    2.427    0.588
        19 -11.0670    211.2800    217.9384   1.1173751190e+02  -8.7653191067e-01     0.259068    0.1654044 -37.97  0.001259736    1.817    0.450
        20 -11.3385     95.6312    222.4509   1.3411921526e+02   1.7512420013e+01    0.2976328    0.2058119   7.35   0.00144756    3.419    0.708
        21 -10.7684    218.6744    212.0885   1.0943491209e+02  -1.3229853506e+00    0.1756486     0.159009 -42.46  0.001184434    1.473    0.321
        22 -10.4809    205.6171    207.1918   1.1094368394e+02   1.5588097622e+00    0.1729685    0.1151821 -21.39 0.0009582869    1.704    0.413
        23 -11.0844    185.7735    203.0927   1.1395355940e+02   5.6621266731e+00     0.302103    0.1742554 -51.63  0.001462795    2.258    0.557
        24 -12.1849      4.5805    198.8540   1.4913075002e+02   3.2974424488e+01    0.3468658     0.146774  57.79   0.00178981    1.929    0.482
        25 -10.9392    112.0000    195.5070   1.2761103676e+02   2.0009121682e+01    0.2697627   0.07326704 -56.95 0.0009419254    3.993    0.750
        26 -10.3199    132.8010    195.0136   1.2321971024e+02   1.6565724705e+01    0.1712463    0.1053673 -54.77 0.0008727443    1.804    0.446
        27 -10.3154    215.3293    193.8339   1.0677692381e+02   1.7874560229e+00    0.2447208    0.1126162 -44.19  0.001082691    2.634    0.620
        28 -12.3703    158.3436    190.2461   1.1718489404e+02   1.2828367715e+01    0.6803315    0.4406798 -67.77  0.003267965    2.224    0.550
        29 -10.3518    193.1993    188.4384   1.0992359456e+02   6.6308920129e+00    0.1927938    0.1197789  52.13 0.0009454759    1.733    0.423
        30 -10.6687    226.2965    187.6704   1.0364214148e+02   7.4702614683e-01    0.1156234    0.1060953 -80.43 0.0006404113    1.636    0.389
        31 -10.4265    217.4663    187.0128   1.0510398239e+02   2.4081871506e+00    0.1954651     0.125261 -31.77 0.0008778482    1.614    0.380
        32 -10.8613    183.2027    182.5233   1.1077640421e+02   9.4942721055e+00    0.3552974    0.1783072 -30.48  0.001485896    2.567    0.610
        33 -10.6491    210.5488    182.6958   1.0554607811e+02   4.3194528270e+00    0.2459852     0.127685 -30.96  0.001132518    2.083    0.520
        34 -10.2460    174.1974    181.1791   1.1233277356e+02   1.1450181124e+01    0.2952257    0.1052782 -37.54  0.001032012    3.478    0.712
        35  -9.9768    243.6794    181.3301   9.9399335554e+01  -1.3626684517e+00    0.1145981    0.1041803 -67.86 0.0007048631    1.692    0.409
        36 -10.6034    147.5600    177.3976   1.1719588243e+02   1.7238914933e+01     0.406735    0.1671335 -35.05  0.001304469    4.351    0.770
        37 -10.3589    137.5764    177.6862   1.1939520887e+02   1.9048885379e+01    0.2637137    0.1327402 -46.28  0.001152674    2.187    0.543
        38 -10.7645    121.2078    178.1937   1.2304889662e+02   2.1901494612e+01    0.2175923    0.1531911  -7.49  0.000949826    2.815    0.645
        39 -10.1422    217.6270    176.2154   1.0296524280e+02   4.0086277049e+00    0.1915258      0.12085 -23.07 0.0009569647    1.696    0.410
        40 -10.3448    224.0000    183.0363   1.0315677094e+02   1.8241010262e+00     0.207768   0.07210301 -35.87 0.0008041991    2.955    0.662
        41 -10.7269    159.3858    175.1730   1.1427664315e+02   1.5400615125e+01    0.1940878    0.1335813 -59.39  0.000951422    1.734    0.423
        42 -10.2736    100.9865    175.9977   1.2717821767e+02   2.5783477886e+01    0.1855906    0.1643251  72.25   -0.0106749    1.004    0.003
        43 -10.3948    167.6626    168.1774   1.1119023445e+02   1.5090259572e+01    0.2821606    0.1300025 -52.26  0.001091812    2.635    0.620
        44 -11.0224    120.8107    167.6097   1.2136284364e+02   2.4163499199e+01    0.2703124    0.1042065 -51.22  0.001030634    2.683    0.627
        45 -11.7848     55.2538    166.7090   1.3621753166e+02   3.4374264339e+01     0.381101    0.2224622 -86.08  0.001833141    1.700    0.412
        46 -10.0574    138.3315    164.0005   1.1675629429e+02   2.1660080620e+01    0.2298201    0.1173944 -71.29 0.0007052026    4.366    0.771
        47  -9.8241    213.0000    162.9566   1.0110331271e+02   6.9866374837e+00     0.225102   0.07705206 -37.23 0.0008037959    2.952    0.661
        48 -12.1411     50.4857    159.5307   1.3645119755e+02   3.6545110794e+01    0.3751005    0.1961602  51.90  0.001949557    1.888    0.470
        49 -11.1387     39.2519    159.1181   1.3898702329e+02   3.7907107687e+01    0.2689109    0.1440348 -43.24  0.001304666    2.753    0.637
        50 -12.2924    105.6668    155.7253   1.2279896335e+02   2.9387579121e+01    0.5948611    0.3050584 -54.98  0.002644137    1.938    0.484
        51 -10.9501    166.9204    156.3516   1.0894191801e+02   1.7488674257e+01    0.3498088    0.1948088 -52.97  0.001477136    2.081    0.520
        52 -10.8079     39.8364    152.2853   1.3808240065e+02   3.9373063184e+01    0.2393865    0.1500446  66.90  0.001363364    1.589    0.371
        53 -10.3870    228.4954    152.5224   9.6065476695e+01   5.6428931126e+00    0.1379404    0.1251868  -1.87 0.0001208065    1.020    0.020
        54 -11.1535    189.8188    149.6054   1.0271620749e+02   1.3986900540e+01    0.4445979     0.197229 -46.79  0.001685638    2.506    0.601
        55 -10.4921    162.2502    150.2500   1.0865683669e+02   1.9645677854e+01    0.2350651    0.1201541 -55.36  0.000894771    2.443    0.591
        56 -11.7446    234.2265    147.0715   9.3881796647e+01   5.3885349176e+00     0.310899    0.1547677 -30.20  0.001366075    1.963    0.491
        57 -10.1503     11.9546    148.7580   1.4419189013e+02   4.2776455962e+01    0.1279116   0.09624711  36.25 0.0008796568    1.595    0.373
        58 -10.4107    223.5887    146.3085   9.5568657170e+01   7.6020735014e+00    0.2725465    0.1267628 -39.19  0.001134716    2.112    0.527
        59 -10.3822    181.4253    141.2131   1.0254818375e+02   1.7325978417e+01    0.2148014    0.1390184 -51.88 0.0009506353    1.744    0.427
        60 -12.0966     28.0478    155.8730   1.4120095050e+02   3.9773941819e+01    0.3966284    0.2031509  78.14  0.001471385    2.064    0.515
        61 -11.0299     83.0000    131.9805   1.2412445833e+02   3.8469623277e+01    0.2330379   0.07406074 -57.81 0.0007831246    2.939    0.660
        62 -10.9302    131.4912    130.0013   1.1127558456e+02   3.0219104200e+01    0.3533279     0.144791 -53.76  0.001218806    2.711    0.631
        63 -12.1174     98.1972    127.4337   1.1919915522e+02   3.7049669818e+01    0.6840957    0.3299043 -75.04  0.001930607    5.107    0.804
        64 -11.7479    192.8119    118.5320   9.4798565561e+01   1.9029337277e+01     0.601026    0.4177521 -62.81  0.002648452    1.892    0.472
        65 -11.4061     86.7999    119.4661   1.2057319083e+02   4.0767279351e+01    0.2895939    0.1922511 -56.30  0.001434533    1.401    0.286
        66 -11.7551    141.4109    114.4867   1.0508210075e+02   3.1453412300e+01    0.6401259    0.2842021 -36.41  0.002230313    2.607    0.616
        67 -10.9999     37.7902    121.0150   1.3445197946e+02   4.6752562467e+01    0.1860019    0.1691026  87.45 0.0003844356    1.127    0.113
        68 -10.7362    107.8955    112.7786   1.1327134268e+02   3.8632276086e+01    0.3867856    0.1950204 -64.36  0.001383831    2.787    0.641
        69 -10.7705    173.9459    111.0875   9.6769135565e+01   2.4775307593e+01    0.3942373    0.2058241 -48.70  0.001517161    2.072    0.517
        70 -11.4771    159.5122    110.9541   9.9909439987e+01   2.8133733826e+01    0.5508991    0.2320987 -46.92  0.001916637    2.483    0.597
        71 -11.7917    121.5047    110.9854   1.0920793690e+02   3.6382747879e+01    0.4086942    0.1456624 -46.89  0.001365848    2.739    0.635
        72 -10.8997     78.2457    112.2379   1.2140650888e+02   4.3760480335e+01    0.2301487    0.1119966 -67.25 0.0008946703    2.463    0.594
        73 -10.3711     59.9312    109.7157   1.2617395982e+02   4.6879058542e+01    0.1804841     0.169155 -80.13 0.0007542492    1.083    0.076
        74 -12.2450    140.4965    100.3127   1.0154440375e+02   3.4595116075e+01    0.6241268    0.4657469 -52.49  0.002939734    1.387    0.279
        75 -10.9041    222.0000    103.9765   8.5852122076e+01   1.4945212399e+01    0.2445517   0.07930124 -34.47 0.0006621779    2.908    0.656
        76 -12.4210    150.2027    101.4355   9.9514797414e+01   3.2171591945e+01    0.5916453    0.2758943 -48.26  0.002153652    2.273    0.560
        77 -11.4808    127.8121    101.1748   1.0498292093e+02   3.7179701383e+01    0.3995469     0.214689 -49.68  0.001605213    1.892    0.472
        78 -12.0521     43.1676     99.8547   1.2923845304e+02   5.1094808868e+01    0.5206715    0.2838605  89.44  0.002191583    2.966    0.663
        79 -12.2861    107.2902     98.0742   1.0966552856e+02   4.1989169057e+01    0.5986406    0.3686563 -64.02  0.002396639    2.037    0.509
        80 -10.8511     81.3343     99.8551   1.1763240596e+02   4.6115299082e+01    0.2926548    0.1261247 -60.42  0.001085732    2.598    0.615
        81 -10.2667    244.6729     99.3311   8.1201100878e+01   1.0757255027e+01    0.1445272    0.1026612 -61.10 0.0007051271    1.711    0.415
        82 -13.0126    170.3505     90.7231   9.2020389149e+01   2.9473782215e+01    0.4102404     0.395501  77.66  0.001039636    1.069    0.065
        83 -11.0455    164.6791     86.9070   9.2147895593e+01   3.1550748267e+01    0.3976763    0.2871503 -59.07  0.001433431    1.607    0.378
        84 -11.7699    123.5816     90.7958   1.0318270029e+02   4.0238122934e+01    0.2833185    0.2123803 -48.56  0.001334374    1.325    0.245
        85 -11.8687    151.2931     88.3179   9.5558538285e+01   3.4489760687e+01    0.4431492    0.2111267 -40.02  0.001664745    2.070    0.517
        86 -11.1004     86.0148     87.0037   1.1285225440e+02   4.8204309730e+01    0.2278418    0.1769896  89.73  0.001136927    1.747    0.428
        87 -11.2971    140.7743     82.6458   9.6391172768e+01   3.8033863087e+01    0.4216757    0.1920913 -41.89  0.001560569    2.165    0.538
        88 -11.6569    103.9409     81.8923   1.0601527056e+02   4.6059066863e+01    0.5620304    0.1907735 -49.27  0.001830988    3.101    0.677
        89 -12.0747    249.5437     80.4223   7.6015694358e+01   1.2579506328e+01      0.39874    0.1917773 -37.74  0.001648667    1.811    0.448
        90 -11.1609     45.7608     80.6662   1.2420955214e+02   5.5150308590e+01    0.4337101    0.1635451 -44.90  0.001491938    2.464    0.594
        91 -11.4387    119.0195     80.5111   1.0135507167e+02   4.3283736097e+01    0.3371068    0.1803909 -56.35  0.001268229    2.427    0.588
        92 -11.6022     42.3082     87.6716   1.2698011480e+02   5.3955071957e+01    0.3460848    0.2117453  -3.00  0.001586394    2.609    0.617
        93 -10.7605    115.8558     72.7462   9.9797400830e+01   4.5467169615e+01    0.2944419    0.1936925 -63.57  0.001241027    2.128    0.530
        94 -12.5111    222.8812     70.5592   7.7208150705e+01   2.0071482764e+01    0.6637657    0.3827738 -80.43  0.001597524    2.998    0.666
        95  -9.6038    220.4602     65.4960   7.6238206121e+01   2.1409141095e+01    0.2959579    0.2011597  64.34 0.0009252852    1.540    0.351
        96 -10.9905     63.0172     71.5283   1.1586720455e+02   5.5005621375e+01    0.2702283    0.1854004 -64.65   0.00139861    1.660    0.398
        97 -11.6414    249.7590     69.0826   7.3277524873e+01   1.4183387182e+01    0.3536526    0.1669102 -35.55  0.001566033    1.850    0.459
        98 -10.9598    194.4430     66.7985   8.0638218035e+01   2.7598346437e+01    0.4664854    0.1367785 -34.13  0.001451899    3.206    0.688
        99 -13.3191    231.6867     60.9309   7.3538863168e+01   1.9425303797e+01     0.745152    0.5702422 -82.40  0.003950115    1.455    0.313
       100 -13.9104     30.3594     59.5544   1.2429111910e+02   6.1210127896e+01     1.113201    0.8278133  43.17  0.007018019    1.713    0.416
       101 -10.9837     98.4270     59.9548   1.0059261480e+02   5.1406781679e+01    0.2314084    0.1844128  39.17  0.001230995    1.293    0.226
       102 -12.4528     40.2356     52.2007   1.1827735604e+02   6.1734050661e+01    0.4962046    0.2152003 -43.35  0.001727583    1.938    0.484
       103 -11.1588     47.6687     57.3625   1.1706463674e+02   5.9870120422e+01    0.2658429    0.1579462 -23.67  0.001183372    2.021    0.505
       104 -12.2419     19.9831     58.6297   1.2803797333e+02   6.2253507167e+01    0.7230412    0.1734222 -59.78   0.00276725    3.262    0.693
       105 -11.4301    149.6194     52.4008   8.4796793184e+01   4.1152977481e+01    0.2637452    0.2254013  65.46 0.0005815235    1.200    0.166
       106 -11.8055    142.7876     46.3848   8.4273640950e+01   4.3747761538e+01    0.4143435    0.2444574  85.27   0.00149542    3.059    0.673
       107 -10.3852    157.1203     44.8831   8.0802257429e+01   4.0385179589e+01    0.2207041    0.1970948 -84.53  0.000421536    1.209    0.173
       108 -11.1480     10.0582     44.0000   1.2816951919e+02   6.5917731769e+01    0.2240239    0.1489093  27.14  0.001130546    1.867    0.464
       109 -11.1394      5.7810     43.1739   1.2976662510e+02   6.6336614339e+01    0.2629461    0.1745311  83.06  0.001524674    2.462    0.594
       110 -11.4761     70.6141     42.4677   1.0333555642e+02   5.9461182644e+01    0.2650093    0.2207946  87.43  0.001406639    1.951    0.488
       111 -12.4472     42.5068     38.5263   1.1261780555e+02   6.4071100830e+01     0.368589     0.300965 -18.20  0.001175615    1.091    0.084
       112 -10.8505     48.0031     35.0365   1.0902272299e+02   6.4012516058e+01    0.2052008     0.131589 -15.93 0.0005688269    1.686    0.407
       113 -11.0209    119.5809     33.5594   8.5099734586e+01   5.1095749548e+01    0.3404375    0.2367258 -58.06  0.001616634    1.927    0.481
       114 -11.1064    105.5063     30.5244   8.7582779713e+01   5.4647614800e+01    0.3628387    0.1766254  41.08  0.001362248    2.039    0.510
       115 -10.8126    101.3591     29.6876   8.8397893963e+01   5.5646959271e+01    0.3928578    0.1812449 -29.27  0.001678743    2.165    0.538
       116 -10.4749     81.8118    247.7971   1.3894962669e+02   1.5139218756e+01    0.1573862    0.1234091  -9.32 0.0009619744    2.910    0.656
       117 -10.7017    239.1128     21.3910   6.2945350840e+01   2.2839935915e+01    0.2752993    0.2095938  31.82  0.001539979    1.783    0.439
       118 -11.7172    233.5054     18.5984   6.2781407176e+01   2.4467094654e+01    0.2739417    0.1211431 -30.06  0.001216707    2.189    0.543
       119 -11.3986    134.5881     17.8592   7.5942265584e+01   4.9405684898e+01     0.231278    0.2048943  16.32 0.0007823562    1.149    0.130
       120 -10.5833      3.0349     18.0431   1.2301155934e+02   7.1224100442e+01    0.1637595    0.1218821 -36.23 0.0002993908    1.024    0.023
       121 -10.4406    196.5323    246.5266   1.1870339560e+02  -2.1529272496e+00    0.1170742   0.09071963  31.69 0.0006085337    1.015    0.015
       122 -12.3419     25.1747    242.6892   1.4795150182e+02   2.2911293208e+01    0.2695436    0.1549809  57.19  0.001312356    1.275    0.216
       123 -10.2302     88.3454     17.6598   8.7143559698e+01   5.9851870403e+01    0.1274339    0.1040916 -63.71 0.0007047465    1.783    0.439
       124 -10.8097      7.7927    240.4093   1.5055948956e+02   2.5078658867e+01    0.1183275   0.08475458  41.53 0.0008355984    1.646    0.392
       125 -10.4122    159.6577    237.5112   1.2401726473e+02   4.9342834890e+00    0.1804223    0.1152527 -47.98   0.00108922    1.956    0.489
       126 -11.8990     29.5973    233.4527   1.4674138455e+02   2.4034885285e+01    0.4905743    0.1756475  65.17  0.002539499    2.641    0.621
