#   1 NUMBER                 Running object number                                     
#   2 MAG_AUTO               Kron-like elliptical aperture magnitude                    [mag]
#   3 X_IMAGE                Object position along x                                    [pixel]
#   4 Y_IMAGE                Object position along y                                    [pixel]
#   5 X_WORLD                Barycenter position along world x axis                     [deg]
#   6 Y_WORLD                Barycenter position along world y axis                     [deg]
#   7 A_WORLD                Profile RMS along major axis (world units)                 [deg]
#   8 B_WORLD                Profile RMS along minor axis (world units)                 [deg]
#   9 THETA_WORLD            Position angle (CCW/world-x)                               [deg]
#  10 FWHM_WORLD             FWHM assuming a gaussian core                              [deg]
#  11 ELONGATION             A_IMAGE/B_IMAGE                                           
#  12 ELLIPTICITY            1 - B_IMAGE/A_IMAGE                                       
         1 -14.8342      3.5823    133.4900   1.5138932979e+02   4.6427141544e+01      4.21481    0.7850376 -84.06   0.01404121    4.762    0.790
         2 -13.6169    197.2951     25.7104   6.9845930883e+01   3.2067473682e+01     1.696956      1.37226  11.83  0.007097779    1.449    0.310
         3 -13.5299    212.8014      6.5516   6.2854577930e+01   3.0088650946e+01    0.8928259    0.7982984  78.98  0.004866472    1.141    0.124
         4 -10.6416      2.4755      3.4782   1.3557420678e+02   7.7403003878e+01    0.2606323    0.1003269 -66.92  0.001230114    2.237    0.553
         5  -9.5134     74.3166    250.3049   1.4151857978e+02   1.7201172288e+01     0.094049   0.07409458  15.06 0.0004776093    1.626    0.385
         6 -10.6702    249.2418    249.3364   1.1006789896e+02  -4.7415197247e+00    0.2189532    0.1352533  29.57  0.001675067    1.468    0.319
         7 -11.5453    244.2691    247.1621   1.1054472788e+02  -3.9954864353e+00    0.2341992    0.1398867  -9.91  0.001763971    1.559    0.359
         8 -12.7246    175.5605    249.1829   1.2244581482e+02   4.4117500070e+00    0.5808554    0.2900881  29.63  0.003625634    1.429    0.300
         9 -14.2182    142.8165    248.9484   1.2845014992e+02   8.7861476269e+00     1.894954    0.3538193  38.01  0.007428893    3.510    0.715
        10 -10.5586      8.6498    249.8033   1.5339533951e+02   2.3879767296e+01    0.2028325    0.1173173  17.35  0.001401952    2.367    0.577
        11 -10.7284      2.7581    248.4670   1.5438539881e+02   2.4576824538e+01    0.1977887    0.1747702  64.01  0.001205734    1.412    0.292
        12 -10.1010    200.3270    245.3185   1.1757980577e+02   1.5765522828e+00    0.1139611   0.06361462  13.56 0.0007046292    1.680    0.405
        13 -11.2441    186.6701    240.9801   1.1944702841e+02   3.8344790180e+00    0.1717398    0.1551858  59.90  0.001306509    1.895    0.472
        14 -10.4735     19.6748    237.2213   1.5114950819e+02   2.4868211862e+01    0.2507035    0.1207116  64.51   0.00114858    1.683    0.406
        15 -11.8275     36.5684    215.3126   1.4708382800e+02   2.6949032180e+01    0.5292608    0.4304804  -0.46  0.003869385    1.843    0.458
        16 -12.3852     99.9762    248.3927   1.3652730283e+02   1.4399552643e+01    0.4656804    0.2326218  40.38  0.002951228    1.382    0.277
        17 -13.1842    124.8018    232.1788   1.3023087524e+02   1.3455632246e+01    0.9577564    0.1992775  33.85  0.003412448    3.911    0.744
        18 -12.3209    106.5024    231.1711   1.3380912947e+02   1.6068022972e+01    0.4713352    0.1459025  36.55  0.002199968    2.275    0.560
        19 -12.2386     88.4185    227.0759   1.3713835923e+02   1.9044733754e+01    0.9570901          nan  41.35  0.002805081    5.969    0.832
        20  -9.6728      3.3399    227.7181   1.5394738138e+02   2.7817933822e+01    0.1966463    0.1009263  52.83  0.001419308    1.312    0.238
        21 -10.4374     56.2021    224.9515   1.4356973285e+02   2.3221016349e+01    0.3058261    0.2013006  24.07  0.002035442    1.633    0.388
        22  -9.5324    172.6536    222.6936   1.1967863221e+02   7.9474823540e+00    0.1228854   0.07536479  13.58 4.307874e-05    1.697    0.411
        23 -12.8142     47.6730    217.6631   1.4491199593e+02   2.5392702870e+01    0.5895088    0.4013226  45.86  0.002196067    1.092    0.085
        24  -9.1715     83.3115    219.6373   1.3759922099e+02   2.0903446126e+01    0.1246393   0.06759608  56.50 0.0007040568    1.752    0.429
        25 -10.5475     57.5732    212.0046   1.4250200616e+02   2.5303731471e+01    0.2332454    0.1113349  45.99 0.0008098804    1.561    0.360
        26 -10.0903     20.4447    211.8751   1.5024180925e+02   2.9084661400e+01    0.2858832    0.1431596  21.75  0.001552512    2.274    0.560
        27 -12.1975     10.3805    206.9001   1.5213587206e+02   3.0844949955e+01    0.5406732    0.3028885  22.98  0.003094444    1.943    0.485
        28 -11.9638     19.2774    247.1822   1.5148017386e+02   2.3344843166e+01    0.4053363    0.2769552  24.97  0.003195088    1.648    0.393
        29 -11.9914     59.5546    201.5759   1.4136573530e+02   2.6974787816e+01     0.233477    0.2069792  47.11 0.0005248611    1.180    0.153
        30 -10.1640     12.4797    196.2079   1.5139850466e+02   3.2648760381e+01    0.1931928    0.1206944  37.07 0.0005758855    1.377    0.274
        31 -12.2503     66.1458    192.8143   1.3919361658e+02   2.7853986128e+01    0.2312042    0.2115368  51.64 0.0004227681    1.173    0.148
        32 -13.3657     63.2110    177.7332   1.3858971017e+02   3.1207513420e+01    0.4637872    0.2724601 -45.51  0.002017935    2.344    0.573
        33 -10.9172     76.7833    179.3051   1.3539604620e+02   2.9173144787e+01    0.2191089    0.1880895  54.28 0.0002966563    1.042    0.040
        34  -9.6434    100.1037    176.9710   1.2938526400e+02   2.6357406201e+01    0.3045942    0.1485408  57.27  0.001291518    2.546    0.607
        35 -13.1917     10.3033    157.2231   1.5054753490e+02   4.0717955349e+01     1.512082      0.54061  72.26  0.006936747    2.671    0.626
        36 -11.7819    237.7575    247.1467   1.1157304306e+02  -3.2347552614e+00    0.3602728    0.1902818 -21.29   0.00253068    2.004    0.501
        37 -12.1893     67.3600    143.3767   1.3374060985e+02   3.8180858943e+01    0.6836748    0.3689607  54.21   0.00294153    1.872    0.466
        38 -10.1571    108.9923    138.0682   1.2098797184e+02   3.3008911798e+01    0.4160739    0.2854454 -15.15  0.001822148    2.295    0.564
        39 -10.6956     96.0327    135.6990   1.2423103630e+02   3.5727963960e+01    0.2312868    0.2200488 -17.50 0.0003596501    1.185    0.156
        40 -10.7932     30.3704    131.1094   1.4338951284e+02   4.5069505271e+01    0.2535235    0.1814196  42.21 0.0005720595    1.326    0.246
        41  -9.1625    115.4617    130.0519   1.1760842061e+02   3.3587522595e+01    0.2147038     0.122753 -29.16 0.0008090073    2.701    0.630
        42 -11.7168     21.4859    126.2903   1.4570739250e+02   4.6926225598e+01    0.4868853    0.1876143  42.36  0.001446743    2.299    0.565
        43  -9.2102    106.2042    124.4983   1.1911354245e+02   3.6503161569e+01    0.2059005    0.1396836  37.49  0.000436771    1.392    0.281
        44 -12.0649     84.2904    170.1113   1.3248791962e+02   3.0032172000e+01    0.6446698    0.5269293  12.12  0.003840831    1.465    0.317
        45 -10.3137    157.9478     75.9715   9.2214580281e+01   3.5137788321e+01    0.2442426    0.2334536  32.50 0.0005151025    1.013    0.013
        46 -10.8757     96.6698    153.8902   1.2704115588e+02   3.1622856046e+01     0.390564    0.3300142  -5.07 0.0007285617    1.482    0.325
        47  -9.7540     99.9617    149.5027   1.2546370244e+02   3.2044493707e+01    0.2126857    0.1919482 -44.18 0.0003423909    1.256    0.204
        48 -12.0870     85.5687    152.8909   1.2990791158e+02   3.3520136864e+01    0.2761835    0.2525562 -20.48 0.0007543784    1.326    0.246
        49 -14.7084     36.2417    231.8780   1.4785139553e+02   2.4164391312e+01    0.8752821    0.7852198 -41.06  0.007302959    1.723    0.420
        50 -10.9005     80.8240    249.0742   1.4021617813e+02   1.6623009753e+01    0.2002216    0.1315952  31.06  0.001433101    1.319    0.242
