#   1 NUMBER                 Running object number                                     
#   2 MAG_AUTO               Kron-like elliptical aperture magnitude                    [mag]
#   3 X_IMAGE                Object position along x                                    [pixel]
#   4 Y_IMAGE                Object position along y                                    [pixel]
#   5 X_WORLD                Barycenter position along world x axis                     [deg]
#   6 Y_WORLD                Barycenter position along world y axis                     [deg]
#   7 A_WORLD                Profile RMS along major axis (world units)                 [deg]
#   8 B_WORLD                Profile RMS along minor axis (world units)                 [deg]
#   9 THETA_WORLD            Position angle (CCW/world-x)                               [deg]
#  10 FWHM_WORLD             FWHM assuming a gaussian core                              [deg]
#  11 ELONGATION             A_IMAGE/B_IMAGE                                           
#  12 ELLIPTICITY            1 - B_IMAGE/A_IMAGE                                       
         1 -15.7767      8.7167    179.2016   9.1647194806e+01   3.5762085664e+01     2.208951     1.157305 -71.96   0.01136497    1.586    0.369
         2 -13.9332     55.8008     64.7996   5.6681543791e+01   5.7407481934e+01     1.751924    0.9563085 -19.65  0.007549867    2.505    0.601
         3 -14.9210      6.3499     70.8640   7.7857294159e+01   6.0885295608e+01     1.000182    0.6730148 -48.21   0.00399709    1.155    0.134
         4 -12.9927      8.0317      2.8483   5.3883455349e+01   7.2777313637e+01     0.469766    0.3886462   9.02  0.003218097    1.403    0.287
         5 -15.9147     11.6247     22.9985   6.1012078381e+01   6.9549491941e+01     1.856062    0.9291217 -25.21  0.008929363    1.817    0.450
         6 -14.2894     26.9027     11.9657   4.8507135834e+01   6.9581694900e+01    0.8166401    0.4856371  -5.78    0.0049281    1.646    0.393
         7 -13.7129    122.3039     36.8122   2.6311125619e+01   4.9236989008e+01    0.9123132    0.4755361  35.32  0.003728043    2.179    0.541
         8 -13.9103    166.5633     29.8736   1.5884143604e+01   3.9584607171e+01     0.960583    0.5441226  66.98  0.003706707    1.622    0.383
         9 -12.2683    139.6822     21.4711   1.7842128816e+01   4.6924075234e+01     0.944346     0.375903  70.72  0.002071929    2.887    0.654
        10 -13.6132    148.2548     29.9022   1.8884688558e+01   4.3969869050e+01    0.8874949    0.5492589  64.41  0.003418878    1.482    0.325
        11 -13.3972    188.4100     24.7006   1.1552997063e+01   3.4987059191e+01    0.9498643    0.3966753 -55.17  0.003862923    2.919    0.657
        12 -14.9690     98.7989     11.7320   2.3012500522e+01   5.7152757542e+01     1.273988    0.7522516  53.95  0.004372859    1.460    0.315
        13 -12.0159     60.1766     15.0795   3.5927737462e+01   6.4340649021e+01    0.4761038    0.2185054  32.75  0.002332274    2.069    0.517
        14 -13.0130    214.9428     10.1547   5.4157892934e+00   3.0526329872e+01    0.3812844     0.300307 -51.43  0.001263545    1.234    0.190
        15 -12.4928    186.6197     13.7498   9.0450977088e+00   3.6574098739e+01    0.2823427     0.188472 -34.22 0.0009636675    1.621    0.383
        16 -11.4679    188.0017      9.6973   7.9017470432e+00   3.6656287119e+01    0.2784792    0.2178222 -78.17  0.001401502    1.173    0.148
        17 -11.7562     46.7015     12.8818   4.0125592852e+01   6.6766381020e+01    0.2700887     0.232854  37.34  0.001501927    1.458    0.314
        18 -12.0003    123.3472     10.9756   1.7481261861e+01   5.1742660582e+01    0.2293847    0.2134339  85.30 0.0003980324    1.176    0.150
        19 -13.8584     41.7464      4.6115   3.8268039473e+01   6.8419515665e+01    0.6971796    0.4544817   7.27  0.003360034    1.385    0.278
        20 -11.4834     75.1441      9.8447   2.8691522496e+01   6.2151308619e+01    0.2507232    0.1683514  -7.13  0.001023047    1.555    0.357
        21 -11.6009    152.4539      8.8573   1.2048880927e+01   4.5102135647e+01    0.4476168    0.1848985  63.24  0.002039395    1.988    0.497
        22 -12.0415     85.5358     13.8145   2.7279120817e+01   5.9724101519e+01    0.3773626    0.3376368 -45.42  0.001688365    1.448    0.310
        23 -11.5047    119.9733      3.2316   1.5528440511e+01   5.3157755928e+01    0.4174641    0.1825414  76.27  0.001709626    2.904    0.656
        24 -10.7019    116.0086      1.0000   1.5503124863e+01   5.4228216284e+01    0.2574288    0.1319528  64.06  0.001311597    1.678    0.404
        25 -11.5797     81.0432      1.3843   2.3477935735e+01   6.1717108711e+01     0.634326          nan  53.86  0.001642357    6.953    0.856
        26 -11.1185     67.6773      2.7323   2.7942323965e+01   6.4201044525e+01    0.2727764     0.150915  27.40  0.001503777    1.700    0.412
        27 -10.8684    232.9434      1.6798   2.2502436826e+00   2.7552288695e+01    0.1681992    0.1233724 -86.00 0.0008252879    1.136    0.120
        28 -11.0742     61.4734      1.4777   2.9390282998e+01   6.5444392692e+01    0.3336032    0.1053862  52.49  0.001396887    2.981    0.665
        29 -11.6353    198.8398    181.6132   4.7246876442e+01   6.1598575434e+00    0.2586329     0.224121  74.69  0.001416735    1.625    0.385
        30 -13.7589     92.3959    230.2939   7.8421618129e+01   1.4658631259e+01     0.650265    0.6072143  66.91  0.004385411    1.102    0.092
        31 -12.8344    107.8864    247.6607   7.7221551595e+01   9.0870462177e+00    0.6992103    0.3873428  67.13  0.003309147    2.591    0.614
        32 -13.1212     99.3925    238.9339   7.7956836143e+01   1.1954634418e+01     1.120754    0.3846787  42.38  0.004765282    2.413    0.586
        33 -12.1929     50.8354    248.4813   8.8470248165e+01   1.6686024424e+01    0.3773552    0.3607014 -43.38   0.00287682    1.493    0.330
        34 -12.1790     58.3723    246.2510   8.6863663161e+01   1.6175656700e+01    0.4432864    0.3050983  26.41  0.002737662    1.773    0.436
        35 -12.3053      2.8584    249.5882   9.7080480175e+01   2.1676628394e+01    0.3837237    0.2397993  60.66  0.002270855    1.211    0.175
        36 -13.7159      9.7893    245.7932   9.5715540197e+01   2.1716070648e+01    0.8011108    0.3591607  58.56  0.003638855    1.795    0.443
        37 -10.8513    122.8038    181.9908   6.4399060198e+01   2.0036483775e+01    0.2411478    0.1709674  87.79  0.001078397    2.029    0.507
        38 -12.0276    124.4112    167.1215   6.1207977746e+01   2.3099236158e+01      0.61152    0.3859749 -68.96  0.002583701    2.063    0.515
        39 -12.2059     25.3677    159.2331   8.5738540182e+01   3.8974902479e+01    0.3893242    0.2459344  16.83  0.002126033    2.056    0.514
        40 -12.1159     77.2228    156.7955   7.1628387724e+01   3.3416472994e+01    0.4789458    0.3341622  23.98  0.001471588    1.662    0.398
        41 -13.1550     73.7517    153.2616   7.1958739788e+01   3.4777346026e+01    0.7700734    0.4619198  32.36  0.002826493    1.781    0.438
        42 -11.9566    188.9828    155.7170   4.3815677908e+01   1.2940974755e+01    0.2123419    0.1981198  25.32  0.001179651    1.086    0.080
        43 -12.7897      8.0307    150.0044   8.9172808161e+01   4.2588215975e+01    0.6166505     0.372512  78.52  0.003448917    1.687    0.407
        44 -11.2166     12.6665    148.6700   8.7836911728e+01   4.2557872665e+01    0.2410586    0.1515075 -57.37  0.001174411    1.432    0.301
        45 -11.7998    111.1761    155.8668   6.2359048580e+01   2.8102637792e+01    0.4927945    0.3420739  85.28  0.002094192    2.150    0.535
        46 -11.2156    103.5548    149.5873   6.3111991670e+01   3.0930994536e+01    0.3221852    0.2448794 -27.35   0.00116361    1.562    0.360
        47 -11.8860     60.4058    147.2454   7.4628006448e+01   3.8056037982e+01    0.3819215    0.2959872  -4.00  0.002017071    1.694    0.410
        48 -11.1000     38.0671    145.6832   8.0621231711e+01   4.1011685251e+01    0.1763109    0.1697824 -88.69 0.0005832228    1.118    0.105
        49 -12.5062     40.8126    137.4974   7.8613083121e+01   4.2719702789e+01    0.3891552    0.2452808  67.29  0.001904031    1.996    0.499
        50 -11.8259     45.3177    132.5897   7.6492219053e+01   4.3432084028e+01     0.373549    0.2662234  43.91  0.002034961    1.545    0.353
        51 -13.7968     40.0574    195.9254   8.6118043959e+01   2.8908573802e+01    0.8247575    0.4359718  57.79  0.004208792    1.891    0.471
        52 -11.2273    138.1547    132.1311   5.0049028019e+01   2.8336499855e+01    0.3980913    0.2197785  18.38  0.001218647    3.784    0.736
        53 -11.1987      5.2357    128.8670   8.7608763977e+01   4.7764374890e+01    0.2348047    0.1293318 -37.40  0.001246662    2.067    0.516
        54 -14.4181    105.8677    104.3536   5.1735215137e+01   4.0952666105e+01     1.230241     1.117555  -9.75  0.005336042    1.125    0.111
        55 -13.3333     28.9703    121.9515   7.9641765593e+01   4.7622569935e+01    0.8293193     0.455335 -55.95  0.004251252    1.520    0.342
        56 -12.1282     42.4912     90.4562   6.8834828221e+01   5.3661574370e+01    0.3683876    0.2507026 -67.35  -5.5531e-06    1.611    0.379
        57 -12.4720     49.1121     98.7080   6.8487227004e+01   5.1057701620e+01    0.8025692    0.4665867  15.16  0.003810625    2.116    0.527
        58 -11.9151     49.0245     93.5336   6.7277652694e+01   5.2240365819e+01     0.370723    0.3133613  78.93  0.002133925    1.543    0.352
        59 -13.3790      5.4225    117.1726   8.6089802265e+01   5.0500621120e+01     1.362036    0.3648353 -57.37  0.005600579    2.572    0.611
        60 -13.2829      2.2279     96.9077   8.4183902962e+01   5.5361363027e+01    0.8272061    0.3096108 -69.99  0.003558058    2.267    0.559
        61 -14.6366     24.4193     93.7772   7.5991903709e+01   5.4607869923e+01     1.563811     1.006185  -1.57  0.008606043    1.893    0.472
        62 -14.1288     18.2805    111.8728   8.1339339088e+01   5.0885122983e+01    0.6838142    0.5300402 -11.07  0.003017657    1.529    0.346
        63 -14.1206     14.1326    103.7263   8.1341318644e+01   5.3081919077e+01    0.9602982    0.4356015  26.28  0.001238039    2.515    0.602
        64 -11.6018    121.7120    112.1309   4.9336259425e+01   3.6118944425e+01    0.2907191    0.2604752  67.12 0.0007402643    1.249    0.199
        65 -12.2993    180.7761    122.3958   3.7803726336e+01   2.1231538781e+01      0.55793    0.3513002 -38.08  0.002486153    1.554    0.356
        66 -11.8301     61.8527    109.0918   6.6651619503e+01   4.7071468275e+01    0.5902716    0.3824352 -75.56  0.002709568    2.015    0.504
        67 -12.5672    102.0078    118.6587   5.6566398845e+01   3.8475162474e+01    0.9876579    0.4145563  31.49  0.003362909    2.929    0.659
        68 -12.6617     84.3557    115.0084   6.0942582951e+01   4.2365138378e+01    0.8330199    0.3721119  34.21  0.003227997    2.383    0.580
        69 -12.0717     78.8308    110.3374   6.1519230817e+01   4.4326935342e+01    0.3847415    0.3237156 -80.79  0.001420947    1.415    0.293
        70 -12.4011    136.5720    103.1548   4.3009429389e+01   3.4868463666e+01    0.6142917    0.3135438  53.50  0.001913404    2.188    0.543
        71 -13.0815    111.9180    116.5961   5.3210494456e+01   3.7080023683e+01    0.4851941    0.3359846  31.73  0.001707628    1.540    0.350
        72 -13.3338    106.0694    124.1089   5.6732062689e+01   3.6475509085e+01     1.266504    0.6376129  36.64  0.005001596    2.073    0.518
        73 -10.7716     64.5130    101.5472   6.3975199230e+01   4.8452382136e+01    0.2175386    0.2030942 -32.97 1.614535e-05    1.031    0.030
        74 -12.0134     61.3896     97.5704   6.4027674071e+01   4.9778997852e+01    0.4065705    0.3314645  75.26  0.001783604    1.652    0.395
        75 -12.0159    163.6783     98.0364   3.5239913351e+01   2.9777867425e+01     0.288003    0.2285651  49.96 0.0004045384    1.268    0.211
        76 -12.6586    137.0570     94.5063   4.0495813077e+01   3.6492760325e+01    0.4809055    0.4206317  62.66  0.001878732    1.228    0.186
        77 -12.1246     36.7378     92.9250   7.1459169239e+01   5.3698904654e+01    0.3774984    0.2675475  -5.01  0.001396012    1.639    0.390
        78 -12.3315     19.0253     86.0490   7.6319000664e+01   5.6761549077e+01    0.3844262    0.2771004 -15.94  0.001065509    1.496    0.331
        79 -13.2845    188.1259     84.1904   2.6787006371e+01   2.6620731986e+01    0.6174719    0.2992648  46.62  0.002015163    2.201    0.546
        80 -13.1624    164.1101     71.6361   2.7958225168e+01   3.4346109280e+01    0.5603603     0.499765  19.69  0.003066109    1.259    0.206
        81 -14.0000    169.3818     77.0510   2.8406895250e+01   3.2202157468e+01     1.381976    0.5061374  51.28  0.003067949    2.637    0.621
        82 -11.9289    158.4534     83.4973   3.2422129354e+01   3.3655781630e+01    0.3537665    0.2798483  59.68 0.0007896243    1.287    0.223
        83 -12.7858    161.0578     80.1946   3.0954417238e+01   3.3625176256e+01    0.5056942    0.3735278  26.04  0.001553099    1.665    0.399
        84 -13.5365    171.7414    242.4783   6.3565373755e+01   1.4540662560e-01    0.6442077    0.4204808  33.99  0.003693855    1.308    0.236
        85 -12.9656     65.8289     49.3649   4.7626274190e+01   5.8677440831e+01    0.5955864    0.5763683  62.34  0.003839525    1.416    0.294
        86 -13.7459     73.9095     73.9041   5.3027815897e+01   5.2945127629e+01     1.365952    0.6843193  15.24  0.004600091    3.935    0.746
        87 -12.9601     87.4471     65.2482   4.5695220369e+01   5.2228263159e+01    0.5120573    0.3770709   5.64 0.0008219903    1.545    0.353
        88 -12.7376     54.6311     81.2708   6.2062644282e+01   5.4233007681e+01    0.6011922    0.3846307 -33.22  0.003077107    1.510    0.338
        89 -13.8463     61.2342     75.6215   5.8034524026e+01   5.4516630197e+01    0.6973467    0.4656063 -30.85  0.001663567    1.452    0.311
        90 -12.8152    215.9510     80.8271   2.1456924950e+01   2.0930716413e+01    0.4665164    0.3193205 -86.51  0.002250367    1.860    0.462
        91 -11.7937    114.1637     79.9494   4.2316162354e+01   4.4252339263e+01    0.4433753    0.3300273 -45.15   0.00219209    1.396    0.284
        92 -12.3713    135.6035     79.3905   3.6508137600e+01   3.9663959682e+01    0.6947191    0.3373429  54.59  0.002332785    2.174    0.540
        93 -11.1867     42.6811     79.3176   6.5923028281e+01   5.6073510106e+01     0.217325     0.163518 -57.73 0.0008636005    1.352    0.260
        94 -11.1429     41.6142     75.7347   6.5349154157e+01   5.6948542461e+01    0.3092564    0.2370366 -76.94  0.001519384    1.788    0.441
        95 -12.1627    147.1833    238.9088   6.8043025125e+01   4.5917219614e+00    0.1979256    0.1646452  52.22 0.0007951107    1.255    0.203
        96 -14.2611      5.2654     63.3259   7.6581034009e+01   6.2525129821e+01    0.7078595    0.5586906 -22.59  0.003951222    1.210    0.174
        97 -11.5091     27.2669     75.4055   7.0761800454e+01   5.8424885178e+01    0.4439837    0.2474819 -76.07  0.001978955    2.842    0.648
        98 -13.0362    199.0151     70.1267   2.1429180067e+01   2.6402693502e+01    0.6331393    0.4264322  41.47  0.002299213    1.750    0.428
        99 -10.5655    117.7824     71.4268   3.8691422590e+01   4.5032177906e+01    0.2050793    0.1327494  36.34 0.0006473803    1.577    0.366
       100 -12.2729     39.2977     67.8934   6.4013348648e+01   5.8816243151e+01    0.5731999    0.2381581  31.16  0.002585576    2.564    0.610
       101 -12.2056    135.1729     66.4023   3.2720683481e+01   4.1996643797e+01    0.5003191    0.2908398  45.48  0.001364892    1.663    0.399
       102 -10.9925     99.8552     65.1847   4.1803950739e+01   4.9855694078e+01    0.2082811    0.2030637  64.16  0.001005073    1.198    0.165
       103 -11.5822    158.1774     63.2868   2.6787397177e+01   3.7087135116e+01    0.2907647    0.1784685 -59.93     0.001246    2.115    0.527
       104 -12.8386     78.8123     59.7212   4.6696895344e+01   5.4751183522e+01    0.6281847    0.4371698 -45.87  0.003282404    1.572    0.364
       105 -13.1694    177.9431     58.1496   2.1746744867e+01   3.3145414095e+01    0.6142706    0.5423357 -76.55  0.001976866    1.134    0.118
       106 -10.9039     34.7156     60.6945   6.3691535623e+01   6.0732011666e+01    0.3507867    0.1835668 -34.58  0.001670497    1.758    0.431
       107 -12.0179     38.7264     59.7633   6.1768603919e+01   6.0484405020e+01    0.2881444    0.2358472 -89.70  0.001665609    2.026    0.506
       108 -12.2061     36.4057     54.7714   6.1118571650e+01   6.1687521426e+01    0.4499203    0.2118136 -40.23  0.002213842    1.843    0.457
       109 -13.7028    100.8894     49.5031   3.6195941906e+01   5.2179320960e+01     1.089028    0.7295715  64.29  0.003777939    1.958    0.489
       110 -11.2867    111.2317     58.5831   3.6357869760e+01   4.8597755881e+01    0.2772377    0.1953829  22.81 0.0006600908    1.599    0.375
       111 -14.2002    119.8176     54.8922   3.2875920447e+01   4.7295936363e+01    0.8280697    0.4799571  38.85  0.002320522    1.738    0.425
       112 -11.3257     17.7165     55.4527   6.9261699998e+01   6.3290059307e+01    0.2884222    0.1658652 -54.40  0.001627601    1.580    0.367
       113 -13.2493     91.7953     57.8941   4.1831398457e+01   5.2674894156e+01    0.6646332     0.505553 -49.38  0.003480995    1.553    0.356
       114 -11.8286    136.1172     50.0166   2.7451368407e+01   4.4281557600e+01    0.3363241    0.2773645  31.10 0.0008752971    1.249    0.199
       115 -10.4295     23.5252     49.9356   6.5053240578e+01   6.3866366068e+01    0.1730252     0.101951 -45.85 0.0004199674    1.454    0.312
       116 -12.3199    152.5854     46.5527   2.3027948038e+01   4.0856154607e+01    0.5582153    0.2075131  49.02  0.001668258    2.555    0.609
       117 -12.1299    158.7966     43.0746   2.0877616992e+01   3.9828484092e+01     0.473328    0.3522537  63.96  0.002145624    1.256    0.204
       118 -11.6117     24.7403     59.2003   6.7372070893e+01   6.1975806308e+01    0.3741616    0.1973183 -44.47  0.002016247    1.550    0.355
       119 -13.0078    205.4887     40.2819   1.3263461602e+01   2.9156840368e+01     1.087855    0.4624607  87.52  0.003437607    4.844    0.794
       120 -12.4656    212.5168     43.1314   1.3088357107e+01   2.7199437658e+01    0.4329706    0.2749962  55.59   0.00174514    1.651    0.394
       121 -13.1465    219.4927     41.5257   1.1919907155e+01   2.5861565406e+01    0.5710033     0.359017  80.82  0.002058523    1.612    0.380
       122 -13.3355      6.1744     42.9972   7.0727008117e+01   6.6478767280e+01    0.7872098    0.3744942  16.69   0.00441002    2.269    0.559
       123 -11.7813     16.4719    235.8536   9.3981528730e+01   2.2964566472e+01    0.2328486    0.1309156  63.18  0.001473247    1.466    0.318
       124 -10.9707     27.8472    235.2957   9.1841485877e+01   2.1887757152e+01     0.191896    0.1099323  56.70  0.001184534    1.449    0.310
       125 -12.6805     23.3882    216.3387   9.1383900084e+01   2.6233842950e+01    0.7707188    0.3842862  51.30  0.004355374    1.759    0.431
       126 -11.6480    134.9231     39.6174   2.4445542738e+01   4.5960512255e+01    0.4117012    0.2763101  74.87  0.001642321    1.732    0.423
       127 -12.0175    109.8500     41.9474   3.1111155156e+01   5.1350618501e+01    0.4592334    0.1921725  53.86 0.0008902042    2.297    0.565
       128 -12.3575    131.4273     33.3671   2.3187119188e+01   4.7549107934e+01    0.4053806    0.3411679  23.35  0.001308501    1.258    0.205
       129 -13.3095     26.5594    225.7739   9.1433969651e+01   2.3943726178e+01    0.7395893    0.3525098 -56.77  0.003961261    2.419    0.587
       130 -12.9102    113.7861     37.8338   2.8691992992e+01   5.1025951390e+01    0.3858865    0.3522729  43.14  0.001259221    1.054    0.051
       131 -12.3067     32.9642     40.0728   5.7475514265e+01   6.4687192554e+01    0.3255797    0.2254049  -4.55 0.0008081358    1.370    0.270
       132 -12.4317     75.9946     37.0099   3.9395137004e+01   5.8820895021e+01    0.4238477    0.2494312  34.65  0.001303795    1.590    0.371
       133 -11.7291     70.8425     36.1504   4.0834804757e+01   5.9857247223e+01    0.2555038    0.2363512  26.64  0.000862873    1.234    0.190
       134 -12.4644    242.0069     36.0645   8.4695291437e+00   2.1783709228e+01    0.4535242    0.2575158  76.54  0.001903071    1.775    0.436
       135 -10.8267    104.5231     36.9767   3.0780284098e+01   5.3156847611e+01    0.1997612    0.1322098 -28.72  0.001035196    1.604    0.376
       136 -12.8282     44.2420     33.3451   4.9987706978e+01   6.4386303983e+01    0.8873386    0.3953433  31.51  0.004343469    2.211    0.548
       137 -13.8055     20.8031    223.9703   9.2422571803e+01   2.4911498530e+01    0.6002625    0.5344067  65.83  0.003307971    1.227    0.185
       138 -13.3256     65.2651    223.1379   8.3367661179e+01   1.9894132621e+01     1.106826    0.6550958  54.54  0.006109446    1.537    0.350
       139 -12.6759     59.4073    212.7820   8.3559793956e+01   2.2850542799e+01    0.4140762    0.2412743 -51.15  0.001471307    2.008    0.502
       140 -12.6978    142.9903     29.9974   1.9862660941e+01   4.5213996528e+01    0.5380345    0.3761769  86.81  0.002180403    1.690    0.408
       141 -12.2176     40.5438     40.3329   5.4282978982e+01   6.3756426100e+01    0.4890939    0.2573634  31.19  0.002572088    1.928    0.481
       142 -10.9084    191.6596    226.3238   5.6985988295e+01  -3.8040944344e-01    0.1220091    0.1028383  63.45 0.0007050974    1.726    0.421
       143 -11.5070     51.2100     20.4094   4.1677885424e+01   6.5172364522e+01    0.3219854    0.2209835  55.26  0.001800347    2.258    0.557
       144 -11.4626     45.9436     20.5347   4.3878179636e+01   6.5946576775e+01    0.2967725    0.1822092  15.09 0.0009689519    1.601    0.376
       145 -11.2407    216.5941     28.2177   9.2413041145e+00   2.8154356811e+01    0.1627771    0.1212224 -21.36 0.0009529709    1.702    0.413
       146 -11.9067    120.7469     26.1865   2.3102483461e+01   5.0838036966e+01    0.4081564    0.2742853  58.13  0.001629471    1.354    0.261
       147 -11.8494     30.5180     25.4795   5.2816361383e+01   6.7282912807e+01    0.3485008    0.2101151   6.66  0.001722129    1.685    0.407
       148 -12.7242     35.3879     23.4279   4.9717865066e+01   6.6991071720e+01    0.4086674     0.242932  35.50 0.0008186577    1.790    0.441
       149 -13.3418     57.1205     26.8288   4.2107426589e+01   6.3419264790e+01    0.9386613    0.3293633  38.89  0.003333028    2.671    0.626
       150 -10.7549    249.3305    225.3320   4.6051467937e+01  -8.6193319759e+00    0.1277286   0.07671468  -1.79 0.0007052005    1.721    0.419
       151 -11.1939    223.9716     21.0396   6.9609697706e+00   2.7378267455e+01    0.1802164    0.1419759  43.05 0.0008916931    1.689    0.408
       152 -11.4517     71.0595     16.5396   3.2798771113e+01   6.2248314342e+01    0.2237703    0.1755156 -13.77 0.0006007196    1.286    0.223
       153 -13.7142     64.5731    214.4099   8.2610741854e+01   2.1829887974e+01    0.5859336    0.3930449  72.61  0.003219835    1.502    0.334
       154 -10.9980      5.7109    218.9636   9.4989202347e+01   2.7395751486e+01    0.2135583    0.1151718 -85.59  0.001302678    1.571    0.363
       155 -11.8033     94.3139    217.9003   7.6507443124e+01   1.6894015910e+01    0.2430203    0.1619962  48.24  0.001317183    1.357    0.263
       156 -11.3060    156.3514    214.6703   6.2368460967e+01   7.4567992367e+00    0.2101688    0.1640621  66.76  0.001118826    1.680    0.405
       157 -12.3710      4.4716    211.9467   9.4811563413e+01   2.8962550439e+01    0.4585466    0.2238561 -70.31  0.002677409    1.822    0.451
       158 -12.5821     72.2842    207.4123   8.0124048225e+01   2.2311014742e+01    0.4457027    0.2735293 -77.31  0.002315425    1.720    0.419
       159 -13.3016     15.2846    198.8722   9.1752789866e+01   3.0786237431e+01     1.071875      0.28676 -55.57  0.004122663    4.124    0.758
       160 -12.1445     57.5221    203.3833   8.2978442121e+01   2.5150782297e+01    0.5506651    0.2688936 -88.54  0.002354211    2.706    0.630
       161 -13.5764     29.8377    169.3451   8.5749417477e+01   3.6146964123e+01    0.8865518     0.522132 -37.74  0.003804677    2.307    0.567
       162 -12.6274     28.5002    246.0954   9.2421603367e+01   1.9718413156e+01    0.4230241    0.2888845  77.06  0.002697455    1.218    0.179
       163 -11.8893    200.9672    191.3293   4.8744736082e+01   4.0330789050e+00    0.3153556     0.240478  25.61  0.001384225    1.262    0.208
       164 -10.4534     81.0460    193.0000   7.6258029592e+01   2.4294464640e+01    0.2195749   0.07457788  34.58 0.0007973411    2.907    0.656
       165 -13.0538     22.1151    180.9108   8.8753110480e+01   3.4189039159e+01     0.507862    0.3384929 -80.39  0.002197792    1.283    0.221
       166 -11.0089    155.6711    184.6676   5.7155207930e+01   1.3488635436e+01    0.1518324    0.1127887  -3.83 0.0007051821    1.718    0.418
       167 -11.5940     48.7690    181.3734   8.2512698150e+01   3.1259907197e+01    0.3748503    0.1879299 -52.61  0.001768388    2.058    0.514
