#   1 NUMBER                 Running object number                                     
#   2 MAG_AUTO               Kron-like elliptical aperture magnitude                    [mag]
#   3 X_IMAGE                Object position along x                                    [pixel]
#   4 Y_IMAGE                Object position along y                                    [pixel]
#   5 X_WORLD                Barycenter position along world x axis                     [deg]
#   6 Y_WORLD                Barycenter position along world y axis                     [deg]
#   7 A_WORLD                Profile RMS along major axis (world units)                 [deg]
#   8 B_WORLD                Profile RMS along minor axis (world units)                 [deg]
#   9 THETA_WORLD            Position angle (CCW/world-x)                               [deg]
#  10 FWHM_WORLD             FWHM assuming a gaussian core                              [deg]
#  11 ELONGATION             A_IMAGE/B_IMAGE                                           
#  12 ELLIPTICITY            1 - B_IMAGE/A_IMAGE                                       
         1 -17.2065     43.9644    175.1856   2.9231325255e+02   5.4447532613e+00    0.3009523    0.0907894 -44.44    0.0205751    3.726    0.732
         2 -17.3940     87.8121    114.3877   2.9145391883e+02   5.8939172387e+00    0.2747934   0.09420967 -65.57   0.02032102    3.243    0.692
         3 -17.0331     78.7249     83.8806   2.9138115379e+02   6.2862682773e+00    0.3292986    0.0478768 -53.88   0.01979098    4.652    0.785
         4 -16.7169     75.7309    151.2802   2.9180794934e+02   5.5434253794e+00    0.0871952   0.06718059 -41.68  0.005116276    1.287    0.223
         5 -15.8792     57.6424     84.2904   2.9162705098e+02   6.3950454670e+00    0.3030893   0.03317774 -59.60   0.01626834    5.909    0.831
         6 -14.4614     79.3361     31.2351   2.9106706509e+02   6.8752904148e+00   0.06184947   0.02815591 -38.01  0.005125404    2.626    0.619
         7 -14.9627    103.6934     12.7233   2.9067746212e+02   6.9521445311e+00    0.0924421   0.04445412 -35.06  0.007763895    2.603    0.616
         8 -11.6716    155.2008     14.5006   2.9009297129e+02   6.6539668334e+00   0.01169846  0.008404338 -61.56 0.0006117622    1.402    0.287
         9 -10.8128    156.3093      8.3166   2.9004399380e+02   6.7174486723e+00   0.01322471  0.008029715  85.33  0.001172435    2.590    0.614
        10 -11.1879    153.8691      1.8255   2.9003417875e+02   6.8035677165e+00  0.008889547   0.00757437  57.43 0.0004428563    1.302    0.232
        11 -13.0981    207.8627    142.8260   2.9023545648e+02   4.9260359557e+00   0.01527104   0.01310272 -20.94 0.0004446515    1.189    0.159
        12 -16.6351    161.7775    115.5825   2.9060757619e+02   5.4816561031e+00    0.2268246    0.1054875  17.34   0.01574708    2.442    0.590
        13 -16.2387    198.0218     46.1497   2.8978412180e+02   6.0665440104e+00    0.2245836   0.09296487  19.97   0.01828218    2.676    0.626
        14 -12.5323    213.3211    124.0731   2.9006316272e+02   5.1074977142e+00   0.01206199  0.009254204  30.13 0.0002395147    1.294    0.227
        15 -10.7828    162.9784    140.4915   2.9073896456e+02   5.1948141026e+00  0.009448597  0.004678216  47.45 0.0008083511    2.398    0.583
        16 -12.6806    207.7585    146.3719   2.9025734010e+02   4.8867004400e+00   0.01344112   0.01073429  18.66  0.000570674    1.253    0.202
        17 -11.7551    244.0251    116.9432   2.8966802590e+02   5.0214827046e+00   0.01179452  0.008980661  22.60 0.0004394886    1.308    0.235
        18 -14.4250    120.0450    110.0546   2.9105669345e+02   5.7690671828e+00   0.02866039   0.01939518  53.09  0.002098318    1.724    0.420
        19 -16.9244    156.5376     80.6162   2.9046395371e+02   5.9033945985e+00    0.2432995    0.1286662  87.86   0.01792278    3.885    0.743
        20 -14.5414    116.5579    101.6895   2.9104817497e+02   5.8820278155e+00   0.03559121   0.01734498  33.98  0.003303407    1.987    0.497
        21 -12.8984    219.3683    136.0582   2.9006347954e+02   4.9399536965e+00   0.01460871  0.009512316  47.41 0.0009748649    1.698    0.411
        22 -18.0810    231.4871    124.4708   2.8985631318e+02   5.0047163667e+00    0.6818492    0.1034056 -63.51   0.03251898    7.676    0.870
        23 -10.2482     24.3135    105.2874   2.9213421256e+02   6.3375867845e+00  0.006740852  0.004739559 -25.51 0.0004328415    1.583    0.368
        24 -12.3644    179.5477    103.0045   2.9032931782e+02   5.5271704992e+00   0.01353851  0.009300292  25.11 0.0003982734    1.442    0.307
        25 -12.9281    130.7372     97.6373   2.9086093050e+02   5.8511676685e+00   0.01655262   0.01113181  -8.93    0.0010227    1.797    0.443
        26 -13.2183    134.1395     92.7714   2.9079329341e+02   5.8875699610e+00   0.01659629   0.01309135  24.73 0.0008777574    1.257    0.205
        27 -11.0991    113.3291     95.2846   2.9104810182e+02   5.9715245122e+00   0.00679117  0.004751444 -24.18 0.0002960544    1.610    0.379
        28 -13.5582    144.8124     88.6409   2.9064605565e+02   5.8764390469e+00   0.01840029   0.01447221  60.37 0.0005651596    1.475    0.322
        29 -11.0223    202.2031     88.9649   2.8998621599e+02   5.5625522574e+00   0.01588956   0.01035571  75.51  0.001522378    2.227    0.551
        30 -11.8723    191.3708    191.0295   2.9070629562e+02   4.4726297571e+00   0.02011698   0.01388567  84.34  0.002049212    1.953    0.488
        31 -11.1231    196.3193     87.5199   2.9004558064e+02   5.6106431238e+00   0.01636747  0.009806823 -15.04  0.001505126    2.263    0.558
        32 -13.2008    127.8832     82.1655   2.9080361501e+02   6.0406728674e+00   0.01810166   0.01097039  35.83  0.001114478    1.641    0.391
        33 -13.1770    124.9454     77.1272   2.9080812535e+02   6.1132131144e+00   0.01711866   0.01422151  81.31 0.0007764635    1.413    0.292
        34 -11.4647    208.1156     77.4344   2.8985070509e+02   5.6602036793e+00   0.02477861   0.01099433 -50.94  0.002195814    2.136    0.532
        35 -13.1872    247.9081     78.0158   2.8939579657e+02   5.4380597473e+00   0.02474334   0.01246482   8.17  0.002064665    2.693    0.629
        36 -12.4394    142.9413     79.3113   2.9061319385e+02   5.9915104392e+00  0.009248796  0.008384686   6.38 0.0004515059    1.096    0.087
        37 -11.4344     13.9978     74.9942   2.9207726064e+02   6.7339897025e+00   0.01022132  0.007707013  66.43  0.000625509    1.624    0.384
        38 -16.5214    135.3064     16.5606   2.9033471389e+02   6.7383598429e+00    0.4923338    0.2922729  89.53   0.04378483    2.620    0.618
        39 -13.7924     66.3166    159.2238   2.9196272382e+02   5.5045474090e+00   0.02805226    0.0235245 -45.59  0.001116877    1.167    0.143
        40 -11.5619     13.3893     60.1730   2.9199805630e+02   6.9040771457e+00  0.008848672  0.006292037 -77.73 0.0004501991    1.625    0.385
        41 -13.4224     71.0268     53.6069   2.9129361393e+02   6.6683755868e+00   0.01480582  0.009488539 -61.46 0.0007311698    1.563    0.360
        42 -12.9182    119.0524     48.3491   2.9070817097e+02   6.4687375492e+00   0.01485082  0.009317778 -63.13 0.0009536374    1.619    0.382
        43 -14.4993      3.7476    205.6809   2.9295378016e+02   5.3166895425e+00   0.03069028   0.01933656 -29.21  0.002887395    1.831    0.454
        44 -11.3166    162.0991     45.7311   2.9019599163e+02   6.2656531045e+00   0.01032666  0.009039102 -54.45 0.0004930666    1.135    0.119
        45 -12.4609    194.4036    144.8880   2.9040249776e+02   4.9755881840e+00   0.01169949  0.009347818  13.64 0.0004280328    1.270    0.213
        46 -13.4506    107.7043     37.3447   2.9077496743e+02   6.6537074758e+00   0.01988744   0.01316762 -64.28   0.00211267    1.550    0.355
        47 -11.5142     17.3863     39.1461   2.9182940701e+02   7.1192464410e+00  0.008914636  0.006270862 -79.04 0.0005391603    1.671    0.402
        48 -11.0837    166.7613     34.1463   2.9007446454e+02   6.3706615801e+00   0.01495987   0.01028083  71.65   0.00151465    1.967    0.492
        49 -11.5805    195.0587     26.2179   2.8970167018e+02   6.3065648776e+00   0.02061841   0.01100089  11.56  0.001856749    2.252    0.556
        50 -10.5072    202.0476    185.9633   2.9055387099e+02   4.4720015810e+00  0.007558778  0.007296803  -8.39 0.0003120965    1.011    0.011
        51 -10.3503    199.6835     19.9646   2.8961174010e+02   6.3517554190e+00   0.01515192   0.01073143 -26.01  0.001628903    1.566    0.361
        52 -12.0456    189.6887    148.5502   2.9047816299e+02   4.9598509472e+00    0.0111921  0.008137165  83.02 0.0009404498    1.776    0.437
        53 -11.8766    137.7362    147.5899   2.9107130902e+02   5.2510962178e+00   0.02400977   0.01054878  42.57  0.001999688    2.467    0.595
