#   1 NUMBER                 Running object number                                     
#   2 MAG_AUTO               Kron-like elliptical aperture magnitude                    [mag]
#   3 X_IMAGE                Object position along x                                    [pixel]
#   4 Y_IMAGE                Object position along y                                    [pixel]
#   5 X_WORLD                Barycenter position along world x axis                     [deg]
#   6 Y_WORLD                Barycenter position along world y axis                     [deg]
#   7 A_WORLD                Profile RMS along major axis (world units)                 [deg]
#   8 B_WORLD                Profile RMS along minor axis (world units)                 [deg]
#   9 THETA_WORLD            Position angle (CCW/world-x)                               [deg]
#  10 FWHM_WORLD             FWHM assuming a gaussian core                              [deg]
#  11 ELONGATION             A_IMAGE/B_IMAGE                                           
#  12 ELLIPTICITY            1 - B_IMAGE/A_IMAGE                                       
         1 -13.7149    208.6088      4.5746   5.9705399810e+01   3.2535914687e+01     1.088403    0.7392014  72.77  0.002895813    1.275    0.216
         2 -14.0907    186.7395     28.9214   6.8178673134e+01   3.5086050955e+01      1.61141     1.176865   2.81  0.005059079    2.038    0.509
         3 -14.1870    195.2830     22.2703   6.5368137032e+01   3.3790655608e+01     1.653687     1.185669 -28.72  0.007592401    1.624    0.384
         4 -11.6173     33.1628      6.1847   9.8092782557e+01   6.8632937954e+01    0.3968988    0.1082587 -33.20  0.001789875    3.404    0.706
         5 -11.4900     29.7169      2.9827   9.8052862093e+01   6.9397690472e+01    0.2652081    0.1474568  31.45  0.001735273    1.701    0.412
         6 -12.5214    201.1569     14.2085   6.2716400757e+01   3.3281634191e+01    0.4949438    0.4208415  57.90  0.001208286    1.277    0.217
         7  -9.9948    110.9667    207.7125   1.2715187147e+02   1.6407910116e+01    0.2316473    0.1933784 -32.68  0.000716761    1.619    0.382
         8 -12.2461    198.5681    247.2252   1.1562182616e+02  -6.2002706610e+00    0.4194795    0.3556486 -23.18  0.002791966    1.310    0.236
         9 -11.6462    184.2377    249.3136   1.1864760393e+02  -4.1233426599e+00    0.3429455    0.1793373  36.02  0.001756999    1.666    0.400
        10 -12.4113    170.2954    247.7877   1.2107067504e+02  -1.5248656757e+00     0.671388    0.2892815  33.42  0.002907618    2.424    0.587
        11 -12.4946    161.1013    249.5005   1.2307322599e+02  -2.2777868073e-01    0.9580553    0.1854276  39.89  0.002851463    4.818    0.792
        12 -12.3978    140.0545    248.0667   1.2689621724e+02   3.6005056963e+00    0.4909222    0.4233367  77.86  0.003229908    1.227    0.185
        13 -13.8273     48.1132    230.9179   1.4229893995e+02   2.1008145681e+01     1.172528    0.5907581  73.56   0.00458894    1.985    0.496
        14 -13.2358     56.7878    226.6893   1.4032526502e+02   2.0729045789e+01    0.8944632    0.4443226 -56.59  0.003491526    2.303    0.566
        15 -16.1298      2.4972    118.2077   1.4022687950e+02   5.0575914753e+01     16.47507     1.003594 -69.09   0.03340952   11.883    0.916
        16 -13.2504     50.5861    220.2470   1.4088540514e+02   2.2881502961e+01    0.5115888    0.3887649 -74.08   0.00138691    1.300    0.231
        17 -15.9271     58.1689    208.7057   1.3825386742e+02   2.4342349115e+01      8.56403     1.721635  49.33   0.02750718    4.811    0.792
        18 -11.1107    193.0830    194.7806   1.0743381243e+02   3.5103965431e+00    0.8805191    0.4376309 -63.29   0.00255134    5.468    0.817
        19 -11.9469     73.5116    188.9566   1.3263850252e+02   2.6605636126e+01    0.4270495    0.2636721 -43.10  0.002067256    2.186    0.543
        20 -11.8512     77.6427    182.6638   1.3083166019e+02   2.7446109263e+01    0.3186843    0.2436371 -51.93  0.001116278    1.438    0.305
        21 -11.8729     84.9913    171.2458   1.2736605487e+02   2.8996611536e+01    0.5034015    0.2759543  52.05  0.001498811    1.894    0.472
        22 -13.5522     73.7945    168.2500   1.2955821189e+02   3.1407899247e+01    0.7683347    0.3729774 -43.77  0.002214913    2.682    0.627
        23 -13.2969     91.1437    164.2581   1.2469751742e+02   2.9668588206e+01     3.486784     1.015404  50.75 0.0009951752    4.830    0.793
        24 -14.4929     67.5375    144.1224   1.2707423065e+02   3.8077756740e+01     3.147714     2.000111 -87.34  0.003614321    1.932    0.482
        25 -11.4750     42.9437    171.9133   1.3726013196e+02   3.4582340488e+01    0.3869901    0.2428884  60.30  0.002074177    1.626    0.385
        26 -10.9167    230.3801    166.1942   9.4248072478e+01   1.5485982227e+00    0.2640705    0.1974817 -49.31 0.0008629159    1.423    0.297
        27 -10.3968    142.4471    169.4563   1.1339848070e+02   1.8939330657e+01    0.2762017    0.2581649  69.10 0.0006485205    1.041    0.040
        28 -10.2254    133.6160    143.0520   1.0982538054e+02   2.6776072458e+01    0.5954213    0.1547554 -54.73  0.001361514    5.696    0.824
        29 -10.0088    105.8331    143.7820   1.1701745965e+02   3.2020346115e+01    0.4142415    0.2611817 -31.09  0.001451937    2.202    0.546
        30 -12.2924     92.3987    146.8871   1.2112993887e+02   3.3619504923e+01    0.2883256    0.2647698 -41.55 0.0005089709    1.189    0.159
        31 -10.1615    113.2216    134.1032   1.1295262847e+02   3.2926331333e+01    0.3558076    0.2620082 -19.12 0.0009414398    1.899    0.473
        32 -10.3576    138.1680    171.8840   1.1487921574e+02   1.9253809156e+01    0.3246884    0.2137055 -66.16   0.00143032    1.748    0.428
        33 -13.5598     41.9747    126.4684   1.3078691639e+02   4.5395875994e+01    0.8922593    0.3459098 -54.71  0.003911879    2.087    0.521
        34  -9.2999    105.8351    130.8651   1.1415584855e+02   3.5070723252e+01    0.2147063    0.1784284 -83.56  0.001079978    1.329    0.248
        35 -10.2392    103.5006    147.5065   1.1839801692e+02   3.1554213033e+01    0.2976873    0.2615399  78.60 0.0007812615    1.162    0.140
        36  -9.6871    160.8360    128.0056   9.9691348401e+01   2.4212561588e+01    0.2740566    0.1845719 -71.17  0.001089578    2.053    0.513
        37 -10.9022    100.6411    131.0479   1.1558672318e+02   3.5968140423e+01    0.3148917    0.2517718 -26.33 0.0008401593    1.488    0.328
        38 -10.6698    119.0759    126.1154   1.0952808905e+02   3.3634740812e+01      0.52563    0.3174656 -19.07  0.001775997    3.342    0.701
        39  -9.8732    109.0360    121.9808   1.1118827809e+02   3.6535016198e+01    0.2158471     0.207924 -41.20 0.0003243769    1.052    0.049
        40  -9.8251    135.0000    120.9533   1.0414438565e+02   3.1499366267e+01    0.2666738   0.08773647 -45.89 0.0008074832    2.978    0.664
        41 -12.9796     41.8953    115.2575   1.2874586454e+02   4.8006192929e+01    0.6890006    0.3582315  29.19  0.003440988    2.279    0.561
        42 -11.0913    168.1978    113.0380   9.4219912935e+01   2.5674583979e+01    0.3749763    0.3118319 -74.52 0.0007399133    1.350    0.259
        43 -11.0940     58.7833    111.4749   1.2301621858e+02   4.6930217279e+01    0.3081854    0.2215495 -34.47  0.001329414    1.466    0.318
        44  -9.6843    205.1403    110.2207   8.6017444097e+01   1.7539213805e+01    0.3207806    0.2060501  41.37  0.001405956    1.762    0.433
        45 -15.0555     34.6337    247.1229   1.4588333971e+02   1.9516996775e+01     3.107518     1.194913  41.30   0.01661709    2.440    0.590
        46 -10.5708     18.8529     92.2464   1.3119121518e+02   5.5193118942e+01    0.3952768    0.1366245  30.92   0.00182713    3.321    0.699
        47  -9.4942    154.8439     76.8616   8.7271527323e+01   3.5846749917e+01    0.2082489    0.1787638 -77.15 0.0004687908    1.298    0.230
        48  -9.3237    235.6938     68.3395   7.1174399885e+01   1.7828786367e+01     0.148903   0.09434598 -66.51 0.0007041722    1.680    0.405
        49 -14.4053     10.9804    206.5567   1.4709617403e+02   3.0276602233e+01    0.9256155    0.6366346  24.02  0.003633779    2.246    0.555
        50 -12.0188    107.1620    243.5565   1.3260208393e+02   9.8825236600e+00    0.3786967    0.2978859  88.93  0.002416598    1.277    0.217
        51 -10.0877    247.7605    225.9892   1.0294429696e+02  -1.1006289145e+01    0.2286183    0.1145305  10.69 0.0008957914    3.581    0.721
        52 -11.5675     20.7285     35.5772   1.1529051422e+02   6.5907790090e+01    0.2152463    0.1701157 -40.90  0.001317216    1.321    0.243
        53 -16.2151      8.7082    241.0267   1.4969886363e+02   2.3593575168e+01     7.316406    0.2704105 -65.66   0.02309795    7.796    0.872
        54  -9.4700    169.7207    214.4679   1.1586794898e+02   4.2992984142e+00    0.2771208    0.1229868  46.57  0.001137616    2.117    0.528
