#   1 NUMBER                 Running object number                                     
#   2 MAG_AUTO               Kron-like elliptical aperture magnitude                    [mag]
#   3 X_IMAGE                Object position along x                                    [pixel]
#   4 Y_IMAGE                Object position along y                                    [pixel]
#   5 X_WORLD                Barycenter position along world x axis                     [deg]
#   6 Y_WORLD                Barycenter position along world y axis                     [deg]
#   7 A_WORLD                Profile RMS along major axis (world units)                 [deg]
#   8 B_WORLD                Profile RMS along minor axis (world units)                 [deg]
#   9 THETA_WORLD            Position angle (CCW/world-x)                               [deg]
#  10 FWHM_WORLD             FWHM assuming a gaussian core                              [deg]
#  11 ELONGATION             A_IMAGE/B_IMAGE                                           
#  12 ELLIPTICITY            1 - B_IMAGE/A_IMAGE                                       
         1 -14.5599    208.6826      6.8205   4.5745605950e+01   3.1112699418e+01      2.50323     1.223455  57.15   0.01056708    2.001    0.500
         2 -13.6861    174.4360     48.8664   6.3265541131e+01   3.5045817598e+01     1.089701    0.8597055   0.58  0.000916095    1.478    0.324
         3 -15.1360    189.6992     33.5098   5.5973181788e+01   3.3107274923e+01      3.04488     1.632812  26.79   0.01106076    2.951    0.661
         4  -9.2190     91.6601     14.2801   6.9115033855e+01   6.0048901507e+01    0.1288552    0.1082616 -68.46 0.0003561303    1.624    0.384
         5 -18.0876     38.0916    243.1848   1.2761611488e+02   2.2720321405e+01     7.354134     5.733573  45.36    0.0628599    1.463    0.316
         6 -10.4231    159.3022    203.4767   1.0230080750e+02   1.1784257304e+01    0.2608923    0.1515485 -63.36  0.001313032    2.718    0.632
         7 -10.6352     72.1169    230.1267   1.2119170097e+02   2.0747708768e+01    0.1577206      0.10766  60.50  0.000425195    1.095    0.086
         8  -9.6710     50.7006    204.5709   1.2314707527e+02   2.7770237859e+01    0.1431423   0.07880787  53.28   0.00038749    1.431    0.301
         9  -7.2819     45.5805    204.0701   1.2405963790e+02   2.8456831854e+01    0.2043569   0.09371343 -75.73 0.0009534977    2.123    0.529
        10 -19.1347     16.9483    103.6611   1.2147857082e+02   5.2227571657e+01      15.2168      1.01904 -71.76   0.03134526   11.648    0.914
        11 -10.2375     81.7162    195.8981   1.1644233254e+02   2.5368052336e+01    0.2507516    0.1958317 -57.46  0.001227335    1.580    0.367
        12 -11.0115    208.0034    196.2679   9.2281951684e+01   4.3899303625e+00    0.1817464      0.13963  32.11   0.00065066    1.078    0.073
        13 -12.1298    152.5851    193.0442   1.0204630158e+02   1.4565045352e+01    0.4085321    0.2496725  67.38   0.00198211    2.370    0.578
        14 -10.9469     95.6129    187.9834   1.1277942957e+02   2.4825087188e+01    0.5113584    0.2436237  69.90  0.002073905    3.449    0.710
        15 -12.1157     39.7736    213.0560   1.2569404350e+02   2.7509769759e+01     0.247015    0.1116309  54.71  0.001523369    1.689    0.408
        16 -12.8915     70.9703    188.1548   1.1781247518e+02   2.8286871077e+01    0.6406386    0.5645757  69.38  0.004663906    1.166    0.142
        17  -9.1370     61.2227    188.3474   1.1979328239e+02   2.9512579461e+01    0.1003723   0.08292572 -58.59 0.0006850957    1.545    0.353
        18 -10.3759    155.0044    187.5327   1.0072610340e+02   1.5031074815e+01    0.2062467    0.1107403  43.70 0.0009694747    1.589    0.371
        19 -10.4324     99.7311    186.1466   1.1171327024e+02   2.4543378355e+01    0.2504897    0.1754052  60.04  0.001076291    1.265    0.210
        20 -10.2852    136.5678    185.5013   1.0409252461e+02   1.8615866945e+01    0.1283568    0.1111063  50.41  0.000806694    1.016    0.016
        21 -11.5290    149.6532    180.9995   1.0075331407e+02   1.7077666792e+01    0.3200458     0.218121 -84.77  0.001310559    2.382    0.580
        22 -11.0636     99.4883    180.7521   1.1108606800e+02   2.5600479957e+01    0.2324605    0.1890005  58.03 0.0006089111    1.052    0.049
        23 -11.8177     54.6401    210.6226   1.2286216897e+02   2.6218631468e+01    0.3750356    0.1367088  58.27  0.001734005    2.507    0.601
        24 -10.1462     70.1777    178.6531   1.1700265483e+02   3.0241013908e+01    0.2090797    0.1407131  63.07 0.0009068109    1.295    0.228
        25  -9.4802    169.0044    177.7141   9.6349655174e+01   1.4079240972e+01    0.1866236    0.1529899  42.75 0.0004352223    1.073    0.068
        26 -11.8347    141.8563    175.9501   1.0152915918e+02   1.9359219602e+01    0.3500127    0.1707561  41.72  0.001271719    1.830    0.454
        27 -10.5850    164.9303    171.4442   9.6057857743e+01   1.5873628441e+01    0.2170703    0.1968207 -53.94 0.0003582302    1.269    0.212
        28 -12.0369     71.6643    210.5114   1.1972253546e+02   2.4100305230e+01    0.2966689    0.1687564  39.59  0.001829286    1.648    0.393
        29 -10.2166    201.6789    169.3291   8.8579000967e+01   9.2294759010e+00    0.2681986    0.2296079 -85.20  0.001502142    1.746    0.427
        30 -10.9801    204.6035    165.5415   8.7309510812e+01   9.2304286629e+00    0.4370451    0.3227768 -34.36  0.001456308    1.467    0.318
        31  -9.6084     76.5298    206.0315   1.1841848611e+02   2.4245114428e+01    0.2624112    0.1076296 -70.75  0.001233675    2.717    0.632
        32 -10.2167    139.1625    167.7769   1.0074072405e+02   2.1324712272e+01    0.2404116    0.1807647 -57.89 0.0008531236    1.490    0.329
        33 -11.6422    193.1428    165.3839   8.9414813333e+01   1.1448191920e+01    0.4701451     0.331857 -57.59  0.001499743    1.995    0.499
        34 -11.4153    230.0059    166.4960   8.3019704364e+01   4.3859949381e+00    0.2351015    0.1783544 -41.93  0.001380139    1.627    0.385
        35 -10.7935    159.4349    163.6990   9.5773894564e+01   1.8247914954e+01    0.2445127    0.2177458  86.12 0.0007868574    1.305    0.233
        36  -9.1788    117.7306    162.3226   1.0448367394e+02   2.6191420947e+01    0.1332304   0.09703678  77.21 0.0002668535    1.568    0.362
        37 -12.5166     97.4483    153.8242   1.0773409287e+02   3.1309176796e+01    0.5838177    0.4572663 -29.75  0.003248847    1.823    0.451
        38 -11.1187    189.0979    155.0018   8.8132533712e+01   1.3875282267e+01    0.4440061    0.3489628  54.58  0.002451033    1.349    0.259
        39 -11.5334    133.7482    145.0515   9.7811584477e+01   2.6690647448e+01     1.068032    0.2796077 -54.95  0.002826505    5.847    0.829
        40  -9.9118    113.2009    151.4980   1.0370618599e+02   2.9152233709e+01    0.2579672    0.1699541 -77.76 0.0007874895    1.877    0.467
        41 -10.5569    174.5605    148.8829   8.9768583111e+01   1.7832898021e+01    0.2770852    0.2325816  52.59 0.0007549511    1.189    0.159
        42 -10.9518    143.9255    147.0849   9.5924906796e+01   2.4319389877e+01     0.428046    0.2352462 -63.01  0.001753963    2.580    0.612
        43 -12.1414     63.3129    205.6925   1.2088032406e+02   2.6027925794e+01    0.3278818    0.1976347  69.95  0.001397367    1.473    0.321
        44  -9.8391    115.7837    144.5893   1.0188176969e+02   3.0117681769e+01    0.1964705    0.1198598  53.91 0.0005546231    1.628    0.386
        45 -12.5059     96.6713    139.4423   1.0555290432e+02   3.4486559741e+01    0.2969905    0.2470613 -78.78 0.0003639983    1.172    0.147
        46 -11.9823    108.3123    139.6244   1.0275232910e+02   3.2478142623e+01    0.5296838    0.3601875 -33.90  0.002575248    2.002    0.501
        47  -9.5455    160.2975    147.6242   9.2479532015e+01   2.0954063780e+01    0.1429915    0.1114847  89.77 0.0007025934    1.749    0.428
        48 -11.3429    105.9164    130.7536   1.0166120608e+02   3.4793683834e+01    0.3703766    0.3019395 -77.77  0.001223119    1.259    0.205
        49 -11.3811    103.2984    125.8325   1.0134831526e+02   3.6318271320e+01    0.2941271    0.2549488 -25.65 0.0007684498    1.432    0.301
        50 -11.0254    135.9071    128.5236   9.3903431948e+01   2.9585397332e+01    0.5227873    0.1415764 -50.59  0.001524786    4.215    0.763
        51 -11.1155    115.4005    129.9780   9.9154352699e+01   3.3251500564e+01    0.3110372    0.2606586 -34.16 0.0007522853    1.394    0.282
        52 -10.5255    160.5821    127.8408   8.8144495220e+01   2.4568267372e+01    0.3196441    0.2493796 -59.90  0.001380419    1.475    0.322
        53 -10.9819    120.1119    124.1187   9.6760002064e+01   3.3606543036e+01     0.262473    0.2062779 -22.91  0.001068423    1.660    0.397
        54 -10.2456    134.7318    119.5355   9.2158457893e+01   3.1655199013e+01    0.2663756    0.1285173 -47.15  0.001003575    2.120    0.528
        55 -10.1805    110.6302    119.0157   9.8043362761e+01   3.6481134496e+01    0.2279522    0.1950588  49.94  0.001252929    1.161    0.139
        56 -10.3066    168.0642    112.8580   8.2933599278e+01   2.5717201940e+01     0.348778    0.2528267 -72.74  0.001385617    1.966    0.491
        57  -9.8687    135.0000    112.5132   9.0425058598e+01   3.3035842530e+01    0.3206392   0.08445492 -45.24 0.0009244614    3.852    0.740
        58 -12.1303    119.3978    110.4441   9.3829179268e+01   3.6645170705e+01    0.6115341     0.394175  58.28  0.002784841    1.726    0.421
        59  -9.9188    134.5310    106.0155   8.8924635999e+01   3.4462216301e+01    0.2310695    0.1468124 -44.77 0.0007062444    1.587    0.370
        60 -10.3839    205.6637    110.0977   7.4818314636e+01   1.7647393498e+01     0.273715    0.2073039  40.90 0.0006026447    1.310    0.236
        61 -10.1529     41.7362     91.9595   1.1220390726e+02   5.2693356430e+01    0.1876891     0.181882  66.79 0.0004721389    1.187    0.157
        62 -11.1846     51.3793     90.3984   1.0885355936e+02   5.1988090256e+01    0.4295177    0.2072598  37.47  0.002057123    2.260    0.558
        63  -9.2255    153.4858     80.5152   7.7360652221e+01   3.5116863738e+01    0.1529682    0.1499405  14.71 0.0001133014    1.023    0.022
        64 -12.4038    166.0235     66.2162   7.0322855683e+01   3.4512956595e+01    0.7190658    0.5325146 -55.49 0.0009914631    1.513    0.339
        65 -12.6599     60.9713    202.1709   1.2103454050e+02   2.6958649325e+01    0.5085199    0.2777875 -73.47  0.001581433    1.849    0.459
        66 -11.7861    193.3242    195.1416   9.4711545759e+01   7.0825388153e+00    0.9045554    0.4895615 -62.55  0.003103049    6.229    0.839
        67  -9.5288    169.1740    236.8169   1.0497529853e+02   5.6168801630e+00     0.144294    0.1096266  26.75 0.0003303014    1.262    0.208
