#   1 NUMBER                 Running object number                                     
#   2 MAG_AUTO               Kron-like elliptical aperture magnitude                    [mag]
#   3 X_IMAGE                Object position along x                                    [pixel]
#   4 Y_IMAGE                Object position along y                                    [pixel]
#   5 X_WORLD                Barycenter position along world x axis                     [deg]
#   6 Y_WORLD                Barycenter position along world y axis                     [deg]
#   7 A_WORLD                Profile RMS along major axis (world units)                 [deg]
#   8 B_WORLD                Profile RMS along minor axis (world units)                 [deg]
#   9 THETA_WORLD            Position angle (CCW/world-x)                               [deg]
#  10 FWHM_WORLD             FWHM assuming a gaussian core                              [deg]
#  11 ELONGATION             A_IMAGE/B_IMAGE                                           
#  12 ELLIPTICITY            1 - B_IMAGE/A_IMAGE                                       
         1 -13.0618    250.0000     12.5157   5.8521967901e+01   2.1442931589e+01     0.536465   0.06600299 -28.67  0.001337047    7.879    0.873
         2 -12.5510    150.3506      3.1553   6.6427861448e+01   4.7182861449e+01    0.4016942    0.1773564  41.28  0.001632083    2.492    0.599
         3 -14.1176    241.6240      9.9266   5.8572435616e+01   2.3624551572e+01    0.5821929    0.1870527 -32.93  0.002420929    2.733    0.634
         4 -12.5173    142.5483      6.4941   6.8790278005e+01   4.8882935768e+01    0.2628346    0.2128852  62.27  0.001120593    1.096    0.088
         5  -9.7676    191.4914    237.1911   1.1663340004e+02  -6.6658301256e-01    0.2227489    0.1382542 -47.67  0.001296479    2.150    0.535
         6 -13.9285    228.3967    182.7025   1.0048218758e+02   7.4581537229e-01    0.4076774    0.3312423  68.65  0.000792985    1.869    0.465
         7 -17.0783    244.5829    222.7636   1.0496797067e+02  -7.1904738406e+00     4.119427     1.179925 -34.30   0.01748299    3.689    0.729
         8 -14.1445    235.7639    185.4121   9.9705229193e+01  -9.3365142540e-01    0.5030831    0.3380696 -36.45  0.002831258    1.575    0.365
         9 -18.2169     13.2816    220.8445   1.4827758768e+02   2.8036984469e+01     4.846551     2.175374 -73.75    0.0299326    2.045    0.511
        10 -12.6651    208.4177    201.6686   1.0771442654e+02   1.4753468082e+00     0.242192    0.1900959   6.23 0.0006633478    1.273    0.214
        11 -11.9995    191.2824    204.6229   1.1149571111e+02   4.0746687655e+00      0.25161     0.111943  43.32   0.00109935    1.988    0.497
        12 -12.8557    193.0613    201.6832   1.1064118446e+02   4.2133878615e+00    0.4474601    0.2818608  56.52  0.002224755    1.962    0.490
        13 -12.3990    222.4202    234.1029   1.1063639937e+02  -5.1784241063e+00     0.227059    0.2001561 -62.46  0.001343817    1.904    0.475
        14 -11.2119    213.2267    199.9889   1.0651615571e+02   8.7848678641e-01    0.1753167    0.1616563  30.05 0.0002173842    1.198    0.165
        15 -13.3329    205.7045    192.6046   1.0657366715e+02   3.3341409304e+00    0.6181697    0.5415816 -55.66  0.003758573    1.484    0.326
        16 -13.3746    221.4247    190.9914   1.0334007918e+02   7.5767865167e-01    0.3194712    0.2722053  17.74  0.001282514    1.022    0.022
        17 -12.8265    220.0108    198.2664   1.0495434033e+02  -5.2653858091e-02    0.2627947    0.2076675   3.75 0.0005594721    1.208    0.172
        18 -12.6753    217.8673    194.1730   1.0458979097e+02   9.1686404850e-01    0.2650631    0.2276829  -8.99  0.001261274    1.141    0.123
        19 -11.3649    198.8952    198.8404   1.0901301594e+02   3.6023738332e+00    0.2176559    0.1634051 -19.16 0.0006879533    1.469    0.319
        20  99.0000    163.9400    233.3212   1.2119513067e+02   4.4295587730e+00    0.3065327    0.2392695 -76.06  0.001908718    1.835    0.455
        21 -11.9797    208.5007    184.0987   1.0442988740e+02   4.1527103018e+00    0.2615991    0.1636525 -42.39  0.001138909    1.775    0.436
        22 -14.0553    213.5645    180.9959   1.0286876450e+02   3.7008806858e+00    0.6601666    0.3567726  36.23  0.002045071    1.759    0.432
        23 -13.5527    213.1940    173.2526   1.0139482336e+02   5.0035833061e+00    0.4906042     0.341738  -4.63  0.002473725    1.720    0.419
        24 -13.1244    209.2415    170.6653   1.0161847830e+02   6.1850113979e+00    0.3734141    0.2908465 -16.77 0.0007253208    1.332    0.249
        25 -11.8238    216.3175    169.2690   9.9996111032e+01   5.0499071768e+00    0.2210577    0.1543624  27.16 0.0002813282    1.434    0.302
        26 -13.4368    209.6640    164.3887   1.0023913841e+02   7.1461974882e+00    0.4680081    0.3613706   1.64   0.00128653    1.426    0.299
        27 -13.7326    246.2817    170.1201   9.4861687195e+01  -5.5980666317e-01    0.4121281    0.3189863  51.17  0.001718705    1.585    0.369
        28 -20.2889    124.1354    179.6999   1.2134262261e+02   2.1053849287e+01     9.463399      6.09372  44.37   0.04749146    1.424    0.298
        29 -13.6824     26.6856    158.6790   1.4129676751e+02   3.9610761296e+01    0.3000284    0.2642331  63.75  0.001459998    1.225    0.184
        30 -13.7254    204.4402    155.4511   9.9340808336e+01   9.7258806307e+00    0.5096817    0.4577045  -1.43  0.001593497    1.092    0.084
        31 -11.1597    148.1590    234.5063   1.2434029684e+02   6.8742940703e+00    0.2585177    0.1259376  33.22  0.001246625    2.069    0.517
        32 -12.1207    205.4239    149.0359   9.7741585013e+01   1.0645953047e+01    0.2977686    0.2280262 -24.88  0.001526961    1.339    0.253
        33 -10.9532     68.9920    235.5879   1.3931308900e+02   1.8779058049e+01    0.1857434    0.1287535  28.94  0.001161294    1.942    0.485
        34 -11.3572     48.5447    149.6649   1.3500712063e+02   3.9356444801e+01    0.2031151    0.1284272  60.57 0.0004350399    1.586    0.370
        35  99.0000     69.6678    230.5973   1.3878287731e+02   1.9589089533e+01     0.444084    0.1920554  80.37  0.001877429    3.675    0.728
        36 -12.4633     24.2173    146.8354   1.4072268687e+02   4.2527122760e+01    0.2047578    0.1688095 -78.62 0.0003066474    1.116    0.104
        37 -12.6960    195.4227    147.0156   9.9262443276e+01   1.3118639125e+01    0.2792481    0.2114597  43.94 0.0004980984    1.294    0.227
        38 -11.2324    216.2815    234.4022   1.1176107382e+02  -4.2630510382e+00    0.1432104   0.09600005  40.03 0.0002333615    1.348    0.258
        39 -12.4743     37.2906    233.4648   1.4480324673e+02   2.3122399952e+01    0.1879457    0.1367048  77.46 0.0009028841    1.112    0.101
        40 -11.8810     52.1245    143.9551   1.3333216179e+02   4.0267390098e+01     0.193781     0.162867 -87.93 0.0003207101    1.020    0.019
        41 -13.4093      4.1642    142.8341   1.4520445905e+02   4.5054667903e+01    0.2882281    0.1424501 -66.76  0.001658711    1.667    0.400
        42 -11.5865    195.8827    142.5070   9.8149591571e+01   1.3845198002e+01    0.2605548    0.2026729 -56.66 0.0008278428    1.498    0.333
        43 -12.1968    206.7913    137.9561   9.4967970163e+01   1.2315359172e+01    0.2335625    0.2061011  36.41 0.0003272528    1.127    0.112
        44 -12.3596    202.2094    135.4682   9.5273505021e+01   1.3753252137e+01    0.2648273    0.2506558   7.65 0.0003757049    1.030    0.030
        45  -9.6765     44.4385    229.8084   1.4331276815e+02   2.2950884469e+01     0.286062    0.1719063 -54.77  0.001765983    2.370    0.578
        46 -12.9333    177.3026    134.7110   1.0019664494e+02   1.9415238260e+01    0.2897446    0.2676486 -46.11 0.0004953267    1.112    0.101
        47  99.0000     60.9900    236.3015   1.4081079801e+02   1.9706504577e+01    0.3327473    0.2646475  25.19  0.002301935    1.874    0.466
        48 -12.2520    174.5162    130.7682   9.9859996996e+01   2.0817674304e+01    0.2917769    0.2429975  43.20 0.0005884526    1.184    0.155
        49  99.0000     86.6097    235.7174   1.3609208310e+02   1.6306601443e+01    0.4510325    0.2243591  47.42  0.002548199    1.575    0.365
        50 -13.0101    145.6380    123.4655   1.0473398398e+02   2.8805056105e+01    0.4669345    0.4403842 -81.14  0.001140972    1.090    0.082
        51 -10.3346     54.2836    225.3399   1.4120938169e+02   2.2572142350e+01    0.1204601   0.08807488  67.73 0.0003472962    1.031    0.030
        52 -12.6729     56.9626    228.1342   1.4092774779e+02   2.1711687757e+01    0.3752388    0.2539696  22.72  0.002239208    2.386    0.581
        53 -10.0598     50.5676    226.9198   1.4200722223e+02   2.2740576054e+01    0.3543054    0.1506011 -71.67  0.001942654    2.332    0.571
        54 -11.0667     72.8120    237.0264   1.3873582087e+02   1.8006840417e+01    0.1945817    0.1086942 -51.94  0.001101486    2.588    0.614
        55 -12.8963    137.6813    119.4957   1.0571895344e+02   3.1402743179e+01    0.3847124    0.2908748  -0.03 0.0008058943    1.940    0.484
        56 -11.5582    160.4360    117.1824   9.9645744757e+01   2.6774944383e+01    0.3630447    0.1523803 -43.43  0.001261447    2.399    0.583
        57 -11.6195    158.8149    112.3723   9.8777391668e+01   2.8133092739e+01    0.2581185    0.2021982 -52.15 0.0005173144    1.322    0.243
        58 -11.6120    148.0143    117.5004   1.0266401695e+02   2.9543054582e+01    0.3015234    0.2285348 -20.69   0.00135963    1.639    0.390
        59 -13.0555     91.1814    115.5012   1.1734158299e+02   4.1401402775e+01     0.503747    0.2830415 -46.51  0.001941254    1.769    0.435
        60  99.0000     83.8646    226.6952   1.3576818328e+02   1.8321919406e+01    0.2368304    0.1638288 -38.70  0.001347169    2.523    0.604
        61  99.0000    176.3518    223.8978   1.1747994476e+02   3.7424753514e+00     0.503095    0.3704879  69.12  0.002863807    1.905    0.475
        62 -11.6110     19.9325    116.0510   1.3830879826e+02   4.9999471092e+01    0.1846956    0.1516859 -81.42 0.0005264714    1.041    0.040
        63 -17.0127    175.4798    188.7887   1.1184514845e+02   9.6195687655e+00     1.626179     1.316381  -7.52   0.00907151    1.461    0.316
        64 -11.9676    143.9479    115.0419   1.0302946340e+02   3.0976789772e+01    0.2305991    0.2254588  82.73            0    1.016    0.016
        65 -12.4752     62.8011    221.5192   1.3931329170e+02   2.2195997981e+01    0.3277194    0.1778196 -85.38  0.001873645    1.892    0.472
        66 -12.5841    130.9310    111.4358   1.0539406135e+02   3.4616262436e+01    0.4005111    0.2699705  73.77  0.001168211    2.122    0.529
        67 -11.3511     79.8329    112.1983   1.1991027920e+02   4.4015121685e+01    0.2009578    0.1799419  89.02 0.0002913212    1.136    0.120
        68 -12.4833    147.5294    108.5804   1.0046001463e+02   3.1525245672e+01    0.4087887    0.2842382 -38.95  0.001826189    1.473    0.321
        69 -12.1642    150.4998    107.3974   9.9425100382e+01   3.1085800080e+01     0.234144    0.2250999 -54.62 6.659842e-05    1.044    0.042
        70 -12.8209    116.4091    108.3382   1.0847206013e+02   3.8337762821e+01    0.2890593    0.2775843  64.26 0.0004659132    1.051    0.048
        71 -12.0832    112.4292    105.5963   1.0886132613e+02   3.9746836095e+01    0.3297914    0.2720944  -0.98  0.001524701    1.547    0.354
        72 -11.2496    216.8313    222.5474   1.0975996949e+02  -2.8482374283e+00    0.1897299    0.1013785  36.43 0.0006653801    1.574    0.365
        73 -11.4294    191.3691    233.1321   1.1605541181e+02  -9.9862922971e-02    0.1624003    0.1543748  24.76 0.0009638291    1.239    0.193
        74 -11.0530     78.5242    108.0822   1.1937277647e+02   4.5180197193e+01    0.2078163    0.1302345 -54.83 0.0003838723    1.470    0.320
        75 -12.9691    192.8735    218.7363   1.1354200989e+02   1.6727902334e+00    0.3360097    0.2242231  18.49  0.001865718    1.623    0.384
        76 -12.8545    143.2223     96.0632   9.8082077803e+01   3.5099605130e+01    0.4349371      0.32505 -10.28  0.001903909    1.805    0.446
        77 -12.4878    208.5877    216.3604   1.1022744991e+02  -6.5804814727e-01    0.2059522    0.1734652  12.93 0.0006012324    1.082    0.076
        78 -11.6358    215.0014    213.4858   1.0856786148e+02  -1.3366480512e+00    0.1704307    0.1408562  21.34  0.001101712    1.012    0.012
        79 -11.8543     19.5385     95.0542   1.3537489793e+02   5.4878882146e+01    0.2177283    0.1580386  54.44  0.001073057    1.605    0.377
        80 -11.5423    204.7023    212.2422   1.1025164404e+02   5.8126656702e-01    0.1836927    0.1439346 -11.32 0.0007342529    1.361    0.265
        81 -11.1396    111.0348     89.2653   1.0474709679e+02   4.3583377122e+01    0.2005029    0.1903821  41.08 0.0002979087    1.078    0.073
        82 -12.3568     72.9567     88.1044   1.1619562325e+02   5.0602103133e+01    0.3269373    0.2303948  26.20  0.001076589    1.633    0.388
        83 -11.5018     35.9255     88.2323   1.2868221110e+02   5.5076380111e+01    0.1789355    0.1578319 -83.78 0.0004114781    1.178    0.151
        84 -12.2740    123.4584     87.0377   1.0060494734e+02   4.1419207835e+01    0.2716356    0.2232425  47.45 0.0003545955    1.229    0.186
        85 -10.7268    116.3120     87.2654   1.0265520512e+02   4.2909109776e+01    0.1483485     0.119753   6.03 0.0002076507    1.541    0.351
        86 -11.7293     17.0570     86.7084   1.3479309640e+02   5.6955256520e+01     0.162254    0.1416406 -58.62 0.0003847338    1.102    0.093
        87 -12.5673    211.2375    208.5138   1.0839893125e+02  -6.5559556944e-03    0.2758812    0.1973855 -22.25  0.001625653    1.502    0.334
        88 -11.9606      6.7372     79.1418   1.3704322233e+02   5.9287282920e+01     0.183639     0.160621 -30.14 0.0004484141    1.299    0.230
        89 -11.1446     80.7576     76.7868   1.1041036782e+02   5.1840201431e+01     0.175653    0.1597386 -77.90 0.0002570554    1.256    0.204
        90 -12.3289     97.3584     72.3550   1.0367644847e+02   4.9784628648e+01    0.4271405    0.3096893  -5.85  0.001547992    1.848    0.459
        91 -12.4361      2.9007     58.2513   1.3460885042e+02   6.4017245520e+01    0.2911023    0.1377483 -85.25   0.00134995    3.002    0.667
        92 -10.7278     70.2656     49.3735   1.0491962844e+02   5.8959593529e+01    0.1401947   0.09611737 -14.90 0.0006988232    1.668    0.401
        93 -12.1225    224.5392    207.2938   1.0576557317e+02  -2.0816260288e+00    0.2315031    0.1905211  -7.76 0.0009493807    1.176    0.150
        94 -11.5333     42.9593    248.7139   1.4474048693e+02   1.9772008221e+01    0.2012936    0.1186003 -89.35 0.0006335739    1.572    0.364
        95 -11.3286     41.9520    245.0000   1.4469252683e+02   2.0530371475e+01    0.1981935   0.07195454  35.03 0.0009767351    3.044    0.672
        96 -12.7317    202.4603    204.1763   1.0928000438e+02   2.1524881692e+00    0.4317937    0.3417169  70.67  0.002005845    1.903    0.475
