#   1 NUMBER                 Running object number                                     
#   2 MAG_AUTO               Kron-like elliptical aperture magnitude                    [mag]
#   3 X_IMAGE                Object position along x                                    [pixel]
#   4 Y_IMAGE                Object position along y                                    [pixel]
#   5 X_WORLD                Barycenter position along world x axis                     [deg]
#   6 Y_WORLD                Barycenter position along world y axis                     [deg]
#   7 A_WORLD                Profile RMS along major axis (world units)                 [deg]
#   8 B_WORLD                Profile RMS along minor axis (world units)                 [deg]
#   9 THETA_WORLD            Position angle (CCW/world-x)                               [deg]
#  10 FWHM_WORLD             FWHM assuming a gaussian core                              [deg]
#  11 ELONGATION             A_IMAGE/B_IMAGE                                           
#  12 ELLIPTICITY            1 - B_IMAGE/A_IMAGE                                       
         1 -12.9156     38.1319     49.5861   7.6576766726e+01   6.4994000660e+01     1.019822    0.7909793 -57.72  0.005463981    1.278    0.218
         2 -11.8124     26.0825     48.4658   8.3279889754e+01   6.6604951220e+01      1.17149    0.5698598  62.07  0.003930604    4.217    0.763
         3 -11.3206    101.5634     27.3526   3.9871264181e+01   5.6395365235e+01     0.846652    0.2767513 -39.95   0.00283985    3.132    0.681
         4 -11.6868    129.1879     20.2160   3.0820672200e+01   5.0113452885e+01       1.2179    0.4621418 -17.97  0.004005617    3.582    0.721
         5 -11.2874    128.2267     10.3721   2.7176890387e+01   5.1419751666e+01    0.3820957     0.244428 -38.74 0.0009239318    1.584    0.369
         6 -12.4271      3.9920     17.6833   8.9479169779e+01   7.5509825909e+01    0.7617396    0.4516497  80.22  0.003132711    2.475    0.596
         7 -10.8281     18.5559     16.2185   7.5975099555e+01   7.4713338103e+01    0.6807573    0.3605944 -22.47  0.003029283    2.375    0.579
         8 -10.8966      5.3969     11.4166   8.5653896900e+01   7.6838313769e+01    0.2991344    0.1888362 -44.06  0.001147913    1.363    0.267
         9 -10.4838      9.5464      8.9079   8.0320604661e+01   7.7083940749e+01    0.4094201    0.2492287  35.83  0.002202339    1.859    0.462
        10 -10.9043     10.3476     15.1476   8.2655658236e+01   7.5682053500e+01    0.4461368    0.1928403 -29.12  0.001826464    2.687    0.628
        11  -9.9763     27.5498      9.4972   6.4609048056e+01   7.4905698626e+01    0.2137416    0.1611109  38.02 0.0005438942    1.402    0.287
        12 -10.0536     35.0680     14.7829   6.2431275286e+01   7.2801967595e+01    0.3903505    0.2464235   6.07  0.001359164    2.142    0.533
        13 -11.4641     30.7874     12.8779   6.4311536115e+01   7.3811487404e+01    0.4335941    0.2151934 -47.20 0.0004052862    2.077    0.518
        14 -11.4899    161.1383     21.2292   2.6418953906e+01   4.1733137974e+01    0.4487512    0.2590566  20.82  0.001832993    2.871    0.652
        15 -13.0063    238.1222     17.4505   1.8783043114e+01   2.4958562759e+01    0.3196492    0.2388644 -59.18 0.0006042003    1.191    0.160
        16 -12.1324    234.6924     10.2818   1.7350600492e+01   2.6304582723e+01    0.3274928    0.2594425  -0.61  0.001337015    1.610    0.379
        17 -10.1539     50.4031     14.4043   5.2783547843e+01   7.0110627050e+01    0.5750733    0.3351776 -35.81  0.002761297    1.766    0.434
        18 -11.2770     59.9006     12.6706   4.7006266921e+01   6.8388306375e+01     0.547842    0.4781709  69.25  0.003132557    1.323    0.244
        19 -11.6036     55.5827     12.5596   4.8983729320e+01   6.9330876755e+01    0.3194074    0.2527889 -19.78 0.0008693063    1.309    0.236
        20 -11.2781     70.5074     14.5574   4.3635878539e+01   6.5734655971e+01    0.5787314    0.3050336 -22.80  0.002482514    2.189    0.543
        21 -11.7767     77.9202     10.5024   3.8746177405e+01   6.4477017449e+01    0.6016703    0.2254692  53.36 0.0007237651    2.304    0.566
        22 -11.4099    169.3587     15.4753   2.3665300737e+01   4.0288691689e+01    0.2906362    0.1832296 -23.29  0.001143445    1.657    0.397
        23 -10.9161    155.4371     11.4764   2.3919566749e+01   4.4196190369e+01    0.5216595    0.1907906 -32.63  0.002082191    2.467    0.595
        24 -10.4648    138.5926     11.4389   2.6044838540e+01   4.8575397405e+01     0.356215    0.1989143 -43.97  0.001638718    1.785    0.440
        25  -9.8663     23.0763     11.8459   6.9716643443e+01   7.5074909757e+01    0.1952244    0.1635581 -16.00 0.0004236891    1.087    0.080
        26 -10.6141    177.1381     10.8342   2.1503110543e+01   3.8844273870e+01    0.2487021    0.1868409 -38.29  0.001427595    1.255    0.203
        27 -10.3964    118.1564      9.5567   2.8524561787e+01   5.4175229926e+01    0.3375973    0.2226252 -25.87 0.0009619829    1.616    0.381
        28  -7.0728     43.2942      7.6356   5.2462956569e+01   7.2535902625e+01    0.2851482    0.1343515 -42.66 0.0009535297    2.370    0.578
        29 -10.7901     39.5306      9.9600   5.6365109461e+01   7.2872997996e+01    0.3900171    0.3274793  64.86  0.001643307    1.584    0.369
        30  -9.9219     36.0327      6.4778   5.6300442456e+01   7.4050772755e+01    0.2658766    0.1753961  22.67  0.001212047    1.597    0.374
        31 -11.6481    145.8842      7.5827   2.3714830048e+01   4.7037799185e+01    0.4349006    0.2864034 -23.60  0.002213761    1.614    0.381
        32 -10.9948    241.0433      9.0790   1.6752324708e+01   2.5202452277e+01     0.180178    0.1330441 -51.14 0.0005068753    1.092    0.084
        33 -12.1803    213.2877      5.3198   1.7368154205e+01   3.1120096614e+01      0.66992    0.3390943 -53.36  0.003581625    1.721    0.419
        34 -10.6907    164.4924      5.9424   2.1178850068e+01   4.2424447705e+01    0.3847156    0.2070787 -30.84  0.001564933    1.782    0.439
        35  -9.2575     65.2206      8.6293   4.2297814986e+01   6.7729393305e+01     0.133313    0.1031963 -54.09 0.0001969928    1.586    0.370
        36 -10.2265    100.4561      6.5868   3.0681368729e+01   5.9151520260e+01    0.2229453    0.1385527   0.19 0.0005712161    2.075    0.518
        37 -11.2342     91.8862      6.6983   3.2734876454e+01   6.1373325143e+01    0.3111688    0.2191752  54.90 0.0004299958    1.282    0.220
        38 -10.1604     73.5692      6.2451   3.7814230233e+01   6.6028779145e+01    0.2467916    0.2145691  17.46 0.0005000088    1.176    0.150
        39 -10.1296     75.2021      2.7868   3.5289638838e+01   6.5996135908e+01    0.3520505    0.2434673 -84.01  0.001696024    1.920    0.479
        40 -10.5896    223.0001      5.2309   1.6802215344e+01   2.9101789603e+01    0.1993518    0.1445419 -36.52 0.0005582328    1.196    0.164
        41  -9.8318     68.7609      5.7592   3.9219642791e+01   6.7241454009e+01    0.1779579    0.1584965 -57.33 0.0003719679    1.308    0.236
        42 -10.8403     11.6643      3.0942   7.4694419278e+01   7.8074580159e+01    0.3186486    0.2352674 -42.16  0.001284442    1.258    0.205
        43 -11.7886     27.7312      2.9749   5.9864360738e+01   7.6001922010e+01     0.539565    0.3045355  32.81  0.002734581    1.714    0.416
        44  -9.9129     22.3151      1.3614   6.3181048077e+01   7.7089237598e+01    0.2054073    0.1587788  -1.23 0.0006621906    1.253    0.202
        45 -10.8617     16.5408      3.7763   7.0293267494e+01   7.7413502620e+01     0.413995    0.2305121 -47.86  0.002145743    1.754    0.430
        46 -10.7906     19.9839      4.2305   6.7394919001e+01   7.6903412783e+01    0.2658068    0.2436824 -56.21  0.001716009    1.372    0.271
        47  -9.9504    108.2083      4.9345   2.8346632578e+01   5.7262042602e+01    0.4291961    0.2092787 -82.07  0.001531957    3.132    0.681
        48 -10.6178     59.6880      5.1330   4.2433687190e+01   6.9424446601e+01    0.3252329    0.1664598  52.18 0.0009351781    1.770    0.435
        49 -10.3179    192.2986      4.3259   1.8445902440e+01   3.5866267253e+01    0.1210346    0.0942672  35.96  0.000486996    1.632    0.387
        50 -10.7633    178.5615      3.5010   1.9224292464e+01   3.9181628323e+01    0.2705612    0.1853422 -62.04 0.0001412839    1.346    0.257
        51  -9.3337    171.6607      4.3499   2.0040924280e+01   4.0787152277e+01    0.1503016   0.08149502 -57.68 -0.000112471    1.794    0.442
        52 -10.5735    243.1456      2.3613   1.5176204350e+01   2.5418262582e+01    0.2173856    0.1254847 -37.81 0.0004721083    1.343    0.256
        53  -9.8981    108.1725     10.2100   3.0708314273e+01   5.6755093707e+01    0.2108308     0.184528  39.93   0.00078284    1.169    0.145
        54  -9.9594     90.9596      1.9853   3.0570293604e+01   6.2068749006e+01    0.1997651    0.1863462  52.91            0    1.037    0.036
        55  -9.7661    126.3592      2.7059   2.4437900494e+01   5.2627984161e+01    0.1761454    0.1344939  -1.55 0.0004943399    1.557    0.358
        56  -9.6843    167.6111    183.1768   6.5760863633e+01   1.4477517868e+01    0.1733838    0.1096811 -26.18 0.0009462328    1.667    0.400
        57 -10.6926    247.3304    250.0779   6.1885567680e+01  -2.9704092862e+00    0.1906809    0.1060133   0.85  0.001456845    1.353    0.261
        58 -10.6781    249.9929    246.4673   6.1011298503e+01  -2.8881417779e+00    0.1719956   0.09743686  -9.16  0.001099887    1.364    0.267
        59 -12.4962    226.0191    246.2073   6.4631482790e+01  -5.8445774450e-01    0.5418249    0.2946088  -5.10  0.003784581    1.639    0.390
        60 -12.4323    233.4616    246.2583   6.3473117944e+01  -1.3174545551e+00    0.4875588    0.2477109 -25.28  0.003483641    1.853    0.460
        61 -10.1283    109.9408    249.1685   8.6312322895e+01   1.1911654906e+01    0.1733611    0.1579107  20.93  0.001394257    1.249    0.199
        62 -11.8919     89.2483    249.2988   9.0562875152e+01   1.4205286324e+01    0.3093056    0.1881836  27.03 0.0008500912    1.257    0.204
        63 -10.0337     72.1580    250.2356   9.4156795847e+01   1.5896768296e+01    0.1580803    0.1227323  20.89 0.0007134904    1.227    0.185
        64 -12.0989     18.7581    237.2825   1.0467130650e+02   2.3137531616e+01    0.4737752     0.271421  34.91   0.00320201    1.288    0.224
        65 -11.8941     28.1896    245.4378   1.0298844886e+02   2.0945315216e+01    0.4546643    0.2447783  69.25  0.002977271    1.888    0.470
        66 -12.7291      6.3051    245.3941   1.0740537285e+02   2.2782456914e+01    0.6143534    0.4071099  54.03  0.003572715    1.179    0.152
        67 -11.9739     22.4946    248.6728   1.0424963735e+02   2.0911077555e+01    0.3776811    0.2044919  36.96  0.001887223    1.287    0.223
        68 -10.9851     17.4005    247.1830   1.0523039587e+02   2.1586948827e+01    0.2183084     0.160311  77.72 0.0006409321    1.455    0.313
        69 -11.6677     14.4179    244.7423   1.0576674366e+02   2.2237978648e+01    0.3243662     0.183569  83.98  0.001301327    1.918    0.479
        70  -9.7130    142.7074    183.6676   7.1203628887e+01   1.8098643976e+01    0.1327011   0.09318282  -3.71   0.00045569    1.634    0.388
        71  -9.7153     58.8694    181.8578   9.1950278423e+01   2.9963547543e+01     0.186694    0.1704107  10.27 0.0006082662    1.218    0.179
        72  -9.4325      1.7861    180.1178   1.0693266494e+02   3.5557930739e+01    0.1439652    0.1346651 -60.97 0.0006082068    1.323    0.244
        73  -9.7484    244.4690    178.4785   5.1464834134e+01   4.7050958025e+00    0.2037833   0.08364876 -22.01   0.00103231    2.414    0.586
        74 -10.0646     22.4685    179.7153   1.0152032992e+02   3.4067818090e+01     0.366358    0.1296782  37.69  0.001684609    2.134    0.531
        75  -9.5322    118.3392    176.6679   7.5849288726e+01   2.3038183706e+01    0.1381047   0.09860171  58.52 0.0007051748    1.744    0.427
        76 -10.4366     18.4502    173.1216   1.0226370097e+02   3.5860634448e+01    0.2681313    0.1140117  41.04  0.001187882    1.879    0.468
        77 -10.9656     35.3913    161.2960   9.6714950605e+01   3.7077616922e+01    0.3123644    0.2329262  16.17 0.0001934996    1.435    0.303
        78 -10.9204     33.1709    166.1937   9.7732393214e+01   3.6151959284e+01    0.2549767    0.2202461  41.64 0.0003260185    1.075    0.070
        79 -11.3672     37.0103    165.7643   9.6601773898e+01   3.5883470658e+01    0.5046535    0.2570241  67.65  0.002346341    2.144    0.534
        80  -9.6417    177.0052    168.7206   6.1323406350e+01   1.5338796859e+01    0.1580198    0.1032972  31.63 0.0003579904    1.413    0.292
        81 -10.4013      5.1447    168.3086   1.0568407579e+02   3.7931215401e+01    0.1789157    0.1526282  -5.68  0.001187803    1.451    0.311
        82 -11.9317     51.9296    162.1645   9.1959400379e+01   3.5151255526e+01    0.6323423    0.5063683  75.72   0.00364153    1.260    0.206
        83  -9.1901    210.7828    166.0436   5.4580783987e+01   1.0693575695e+01    0.1535284    0.0876466 -31.91  0.000666854    1.631    0.387
        84  -9.7771    187.3578    165.6782   5.8740523506e+01   1.4217346663e+01    0.1150534    0.1042593  74.63 0.0007044767    1.766    0.434
        85  -9.7237     67.2102    165.3887   8.7914140846e+01   3.2593719740e+01    0.2119343    0.1046856  38.97 0.0009578659    1.748    0.428
        86  -9.2159    112.0000    164.0186   7.5454806431e+01   2.6521898494e+01    0.2084531   0.08064186 -54.31 0.0006675798    2.878    0.653
        87 -10.4788     44.5925    162.7200   9.4151279256e+01   3.5820023436e+01    0.2467438    0.1198075 -68.24  0.001142592    2.114    0.527
        88  -9.5195    221.0358    161.0137   5.1951010084e+01   9.9185452558e+00    0.1438534    0.1150694  -2.10 0.0003518823    1.027    0.026
        89 -11.7818     21.3245    156.8159   1.0053495237e+02   3.9380646935e+01    0.4680546    0.3515531   5.62  0.002738012    1.555    0.357
        90  -9.1281      7.6986    157.3176   1.0454795246e+02   4.0277831303e+01    0.1367366   0.07335198  54.82 0.0003204394    1.620    0.383
        91  -9.2751    216.3121    154.6899   5.1527176898e+01   1.1450523249e+01    0.1063853    0.0965966 -52.01 0.0002780911    1.627    0.385
        92 -10.7895     10.6372    152.9467   1.0348899846e+02   4.1104342172e+01    0.3341628    0.1920538  30.26  0.001026229    1.600    0.375
        93  -9.6051    169.9407    152.0000   5.9588096736e+01   1.9208395830e+01    0.2162405   0.07190388  39.71  0.000796226    2.900    0.655
        94  -9.8577    176.8116    150.0690   5.7799386163e+01   1.8376438413e+01    0.1878085    0.1830377   6.74 0.0006405125    1.249    0.199
        95  -9.1435    105.6897    152.6920   7.5234842953e+01   2.9896091674e+01    0.1425482     0.108768  -8.97 0.0005019865    1.619    0.382
        96  -9.9080    207.2522    146.5796   5.1459920148e+01   1.3965830735e+01    0.1696055    0.1088247  25.77 0.0009443524    1.582    0.368
        97 -10.4014    216.9980    145.0000   4.9533099647e+01   1.2684646736e+01    0.2342566   0.09857662  41.93  0.001060561    2.526    0.604
        98 -10.1220      8.6631    145.0127   1.0369862031e+02   4.3137579224e+01    0.2519239    0.1377227  -2.40  0.001200697    2.431    0.589
        99  -9.4914    187.7120    144.3253   5.4512127398e+01   1.7474887754e+01    0.1780806    0.1115999  30.46 0.0006840571    1.591    0.371
       100  -9.0807    204.5182    141.5469   5.0915590627e+01   1.5133769065e+01    0.1267653    0.1094767  -8.09 0.0001116984    1.042    0.041
       101 -10.0217    240.0712    140.2757   4.5140237167e+01   9.9238242667e+00    0.1570486    0.1306346  -4.00  0.000437452    1.096    0.088
       102  -9.3764     13.9416    140.0000   1.0176146120e+02   4.4001266680e+01    0.1950938   0.07142794  18.20 0.0003495487    2.799    0.643
       103  -9.5157    143.9571    137.0675   6.2315424524e+01   2.6481566360e+01    0.1697987    0.1578778 -15.85 0.0004769482    1.076    0.071
       104 -10.3220      9.3222    136.1404   1.0302533926e+02   4.5263371944e+01    0.1817951    0.1751691  13.74 0.0003072935    1.186    0.157
       105 -10.6743    241.2264    134.2874   4.3815607021e+01   1.0517659908e+01    0.2061002    0.1552557 -23.00 0.0005415349    1.104    0.094
       106  -9.7924     20.8187    134.7868   9.9154140599e+01   4.4785888028e+01    0.1941334    0.1347121  64.28 0.0006743084    1.360    0.265
       107 -10.0597      2.7849    134.4128   1.0505918589e+02   4.6081392395e+01    0.1620104    0.1212491  -5.15 0.0004278824    1.613    0.380
       108 -10.8209     53.6266    132.3572   8.7858037331e+01   4.2152694680e+01    0.3202624    0.2657566  27.84  0.001103401    1.201    0.167
       109 -10.6084     59.1344    131.8077   8.5935260359e+01   4.1607611402e+01    0.3092264    0.2201929  11.76  0.000962943    1.617    0.381
       110  -9.8623     79.7905    132.1888   7.9259870235e+01   3.8629454059e+01    0.1937609    0.1691739  -9.29 0.0004039182    1.304    0.233
       111 -11.7943     36.7169    130.5000   9.3368165605e+01   4.4469774289e+01    0.5027008     0.385976 -42.18  0.001418452    1.469    0.319
       112 -11.1371     73.9247    128.9029   8.0567916700e+01   4.0297135036e+01    0.3403628    0.2971277  40.44  0.001160256    1.089    0.081
       113 -10.2735     64.9899    127.9689   8.3370623176e+01   4.1789712875e+01    0.2239573    0.1713659 -20.89 0.0005864767    1.629    0.386
       114  -9.6562     56.5179    126.6912   8.6045340440e+01   4.3217815968e+01     0.229416    0.1270473  27.73 0.0005138986    1.773    0.436
       115 -10.8873     15.7854    125.6459   1.0016384751e+02   4.7461744798e+01    0.3929731    0.1838978  25.21  0.001804321    2.064    0.516
       116 -11.3119     10.6176    123.1487   1.0179377899e+02   4.8436590093e+01    0.3554353     0.294649  84.25   0.00153935    1.099    0.090
       117 -10.1006    127.0861    129.9652   6.5012311794e+01   3.1019575349e+01    0.2194069    0.2043714  24.86 0.0004585342    1.016    0.016
       118  -9.4152    219.6060    124.1829   4.4878142233e+01   1.5173640083e+01    0.1798234    0.1039476 -21.69 0.0009400334    1.666    0.400
       119 -10.0986    243.5325    122.1135   4.1092994253e+01   1.1722137953e+01     0.181383   0.09583034 -30.11 0.0007123086    1.552    0.356
       120 -10.2481      1.3856    118.6015   1.0478649096e+02   5.0101299352e+01    0.2299251      0.11252 -83.08 0.0002174673    1.855    0.461
       121 -10.6717     72.6010    116.6613   7.8732953493e+01   4.3502208345e+01    0.3960952    0.2561866 -80.73 0.0009382619    1.943    0.485
       122 -10.9143     30.1563    117.7745   9.4249288766e+01   4.8344098238e+01    0.2810293    0.1914784  -3.35 0.0006453542    1.816    0.449
       123 -10.2547     86.2580    116.5275   7.4103161936e+01   4.1357238476e+01     0.279158    0.2053437 -60.92 0.0009702119    1.432    0.302
       124  -9.7057     23.6884    117.6737   9.6624554035e+01   4.8915864153e+01    0.1414206   0.09546874 -41.65 0.0004829646    1.662    0.398
       125  -9.8531    179.2854    116.0048   4.9938832627e+01   2.3593939178e+01    0.1997537     0.171968 -25.15  0.001153065    1.094    0.086
       126 -10.8055     52.3781    115.4956   8.5728837616e+01   4.6574609277e+01    0.3566584    0.2279264  82.55 0.0008734766    1.916    0.478
       127 -12.2272     15.7467    114.3019   9.9255430632e+01   5.0370984444e+01    0.5449658     0.336805 -69.74  0.001498188    1.512    0.339
       128 -11.8795     14.8309    108.3631   9.9074521128e+01   5.1970856172e+01    0.5566527    0.3286935  -9.27  0.001884705    2.153    0.536
       129  -9.7619    213.7882    115.6365   4.3933577704e+01   1.7354906225e+01    0.1540065    0.1228048  56.51 0.0004140088    1.576    0.365
       130 -10.0497    182.9213    114.1639   4.8822478821e+01   2.3200789245e+01    0.2019558    0.1902639 -60.03  0.001060655    1.257    0.205
       131 -10.9232    249.5881    111.9087   3.8277903156e+01   1.2096415036e+01    0.2299688     0.169659 -29.28 0.0005741869    1.128    0.113
       132 -10.5565     94.4084    112.3512   7.0530433134e+01   4.0933538063e+01    0.3098992    0.2862234 -17.82  0.001159739    1.158    0.136
       133 -11.6130     55.0524    108.9989   8.3603128865e+01   4.7901050732e+01    0.4506667    0.3732783  73.49 0.0009460699    1.274    0.215
       134 -11.0032     52.0949    103.4911   8.3709623838e+01   4.9693791611e+01    0.4008047     0.278949 -19.54  0.001821559    1.867    0.464
       135  -9.3102     43.2696    110.3359   8.8304615889e+01   4.8968057622e+01    0.1460098    0.1025622 -39.06 0.0003367994    1.595    0.373
       136  -8.9983     22.2772    110.3114   9.6387013940e+01   5.0936213634e+01    0.1382453   0.09545523 -44.33 0.0003539182    1.560    0.359
       137 -11.3476     24.9987    105.2942   9.4744636013e+01   5.2032238930e+01     0.569301    0.4201624 -24.83  0.003006669    1.586    0.370
       138 -10.5116     82.9944    107.8454   7.3276082061e+01   4.3993679730e+01    0.3193218    0.2298342  21.98  0.001210522    1.526    0.345
       139  -9.5245     35.2349    107.8564   9.1040095439e+01   5.0448663269e+01    0.1965296    0.1594751 -34.71 0.0007357839    1.363    0.266
       140 -10.1036    112.0424    105.8175   6.3515570325e+01   3.9079540391e+01    0.2218954    0.1979634  56.63            0    1.167    0.143
       141  -9.0380    108.3401    106.2594   6.4728479580e+01   3.9711376928e+01    0.1518274    0.1190811   4.73 0.0002397509    1.585    0.369
       142  -9.9193    119.2506    103.7258   6.0902261067e+01   3.8078465204e+01    0.3998538    0.1871665 -40.70  0.001499563    2.269    0.559
       143 -10.2412     38.0334    102.9815   8.9195709418e+01   5.1441084743e+01    0.2240861    0.2033953  79.88 0.0008382673    1.080    0.074
       144 -11.7404     62.1459     98.7592   7.8828858788e+01   4.9535737302e+01     0.401325    0.3254302 -25.36 0.0008857106    1.411    0.291
       145 -10.3401     66.8441     97.8988   7.6829065087e+01   4.9051035623e+01    0.2148628     0.212015  -8.23   0.00120141    1.042    0.041
       146 -10.8448    144.1830     98.8767   5.3159485891e+01   3.3809186942e+01     0.355367    0.3043755 -67.21  0.001167428    1.367    0.268
       147 -10.4534    107.9258     99.6051   6.3136436335e+01   4.1264947193e+01    0.2578822    0.2194806 -57.24  0.000345059    1.245    0.197
       148 -10.8972      2.3593    107.3602   1.0380799991e+02   5.2921281213e+01    0.4877664    0.2469974 -72.28  0.002356313    1.775    0.437
       149 -10.8914      9.7380     98.5319   1.0022089235e+02   5.4837787211e+01    0.3368597    0.1628517 -88.34 0.0009882207    2.014    0.503
       150  -9.4106     75.6627     97.7036   7.3481148273e+01   4.7689156047e+01    0.1541895    0.1182656 -14.68 0.0004548335    1.653    0.395
       151 -10.6791     14.9632     96.6732   9.7862845951e+01   5.5015980420e+01    0.2488599     0.173035 -63.37  0.001325744    1.343    0.255
       152  -9.5418     52.7379     96.6571   8.2100945483e+01   5.1368295749e+01    0.1945648    0.1329043  39.62  0.000290372    1.451    0.311
       153 -10.1592     52.4236     93.5440   8.1573399678e+01   5.2207848713e+01    0.2304776    0.2119765 -75.47 7.378914e-06    1.082    0.076
       154 -10.6535    101.7512     95.5869   6.3979436718e+01   4.3390623782e+01    0.3928534    0.1433947  43.11  0.001301487    2.672    0.626
       155 -12.0792    159.2610     91.0074   4.7697966977e+01   3.1976965468e+01    0.6718212    0.4749124  58.71  0.002084224    1.555    0.357
       156 -11.5527    156.4850     83.4778   4.6216356758e+01   3.3897295940e+01     0.562017     0.510581 -20.54  0.003118348    1.107    0.097
       157  -9.9125    227.1912     92.7844   3.6996554924e+01   1.8174648162e+01     0.187627    0.1497391 -41.75 0.0005646881    1.215    0.177
       158 -10.2389     66.2951     93.0623   7.5899158174e+01   5.0341424953e+01    0.2296249    0.2125806  48.30 0.0003448694    1.079    0.074
       159 -10.2133      1.8707     92.7074   1.0303615718e+02   5.6729161245e+01    0.2387069    0.1552336 -66.91 0.0006775559    1.398    0.285
       160 -10.7667     36.7235     91.5984   8.7814076302e+01   5.4551802783e+01    0.3249558    0.2332343  40.68  0.001441315    1.409    0.290
       161 -10.0558     31.1975     91.5575   9.0203565510e+01   5.5102301854e+01    0.3992848    0.1622954 -64.70  0.001584503    2.205    0.546
       162 -10.2056     74.0486     90.1487   7.2177074923e+01   4.9799457517e+01    0.3227901    0.1690252 -34.86  0.001172618    2.598    0.615
       163  -9.4763     25.4919     90.9720   9.2605758639e+01   5.5753330519e+01    0.2089714    0.1314673 -76.93 0.0005625911    1.533    0.348
       164 -10.0496     10.6923     90.7724   9.9071478864e+01   5.6814855953e+01    0.2088155    0.1749481 -14.90 0.0005408495    1.334    0.250
       165 -10.7160     83.8311     88.9224   6.8224150531e+01   4.8362101922e+01    0.4107849    0.2949315  60.15  0.001619841    1.636    0.389
       166 -10.5119     97.0591     88.9831   6.3668145169e+01   4.5804753169e+01    0.3179828    0.2136304  40.82 0.0008462587    1.459    0.315
       167 -10.3437     78.5846     87.7689   6.9831821286e+01   4.9584337467e+01    0.3584152    0.1839415 -51.14  0.001426849    1.949    0.487
       168 -10.9486     47.7628     88.1349   8.2361276854e+01   5.4193184964e+01    0.2446198     0.233384 -88.66 0.0002717915    1.048    0.046
       169 -11.5872     66.2897     85.9017   7.4096579383e+01   5.2113735729e+01    0.5380148    0.3133052 -44.17   0.00229634    1.796    0.443
       170 -10.1199     42.3577     88.4172   8.4758650574e+01   5.4767640751e+01    0.2698942    0.1369115   2.86 0.0009547838    3.167    0.684
       171 -10.3692    112.4992     86.0041   5.7959504277e+01   4.3238632399e+01    0.5476449     0.342676  79.59  0.001841845    3.423    0.708
       172 -11.9135    166.8607     83.3545   4.4109790589e+01   3.1607523519e+01    0.7145879    0.4065889  55.73  0.002506596    1.864    0.464
       173 -10.1814      9.2874     85.9545   9.9193099070e+01   5.8151354889e+01    0.2840298    0.1642952  50.84 0.0008603865    1.807    0.447
       174 -10.4662      7.2719     81.6562   9.9664336463e+01   5.9374865384e+01    0.3373731    0.2209331 -49.78  0.001783226    1.476    0.322
       175 -10.3206     27.2714     84.3083   9.0744344605e+01   5.7353820252e+01    0.2273272    0.2135502 -45.48 0.0001729784    1.074    0.069
       176 -11.5437     30.1683     81.8470   8.8966528453e+01   5.7739750597e+01    0.3194904    0.2680005 -61.72 0.0004191486    1.126    0.112
       177  -9.5235    117.1557     83.6184   5.5896965793e+01   4.2716958155e+01    0.2181335    0.1412328  36.43 0.0005257336    1.629    0.386
       178  -9.4173     16.0431     83.5155   9.5809405631e+01   5.8402104760e+01    0.1932768    0.1364842  11.73  0.001016233    1.548    0.354
       179 -10.9173     22.1976     87.5795   9.3568313273e+01   5.6904736750e+01    0.3961808    0.2244741 -56.50  0.001242783    1.637    0.389
       180 -10.0331     74.2209     81.9682   6.9875527884e+01   5.1735759230e+01    0.2936933    0.2052813 -36.63 0.0007396381    1.571    0.363
       181 -10.5484     42.3651     81.7006   8.3322900828e+01   5.6501130244e+01    0.2851849    0.2218339 -86.25  0.001095049    1.398    0.285
       182 -11.5414     21.7954     75.2197   9.1784829879e+01   6.0173754509e+01     1.001041    0.2692504 -69.99    0.0033276    3.296    0.697
       183 -11.6260     14.6433     75.5345   9.5364492345e+01   6.0579978397e+01     0.475597    0.3114475 -22.86  0.001231935    1.722    0.419
       184 -11.7596      6.8397     73.2410   9.8931899480e+01   6.1589983766e+01    0.6031827    0.3434631  11.67  0.002407662    1.924    0.480
       185 -13.7839     16.6620     67.2001   9.2997423923e+01   6.2621297745e+01    0.5014858    0.4144614 -41.71 0.0008254618    1.179    0.152
       186 -11.4964      3.4322     48.5652   9.7392367738e+01   6.8062449883e+01    0.5576172    0.4114113  63.81  0.002507719    1.520    0.342
       187 -10.5560      7.0893     41.4024   9.3646254514e+01   6.9702720676e+01    0.4388287    0.1685024 -69.93  0.001838191    2.305    0.566
       188 -11.4310     12.7526     57.5033   9.3383948542e+01   6.5356574030e+01    0.7067376    0.2496043  44.62  0.001434579    3.457    0.711
       189 -11.6043     12.1015     48.7782   9.2002038590e+01   6.7602795474e+01    0.8589897     0.369862 -76.68  0.003565675    2.391    0.582
       190 -12.4737      3.5157     63.1818   9.9436508557e+01   6.4330850652e+01    0.8822401    0.4385238  89.20  0.004005048    2.062    0.515
       191 -11.9487     10.7301     61.6042   9.5250262671e+01   6.4416719995e+01    0.3740724    0.2596647  44.20 0.0001046195    1.572    0.364
       192  -9.8497    183.3710     80.8772   4.0500939680e+01   2.8410676465e+01    0.1957257    0.1256547 -19.67 0.0004461368    1.740    0.425
       193 -10.0049      2.8706     78.7139   1.0143843349e+02   6.0329336504e+01    0.2848129    0.1440941 -65.69  0.001254282    1.720    0.418
       194  -9.2754    111.7739     78.9157   5.6037196887e+01   4.4862887361e+01    0.2034444    0.1275672 -40.92 0.0008663771    1.633    0.388
       195  -9.7202     59.9697     78.9810   7.4863927202e+01   5.4805407271e+01    0.3603656    0.2624893 -16.00  0.001161707    1.754    0.430
       196  -9.3675     61.6010     73.7306   7.2673040842e+01   5.5830311952e+01     0.339793     0.178431 -39.51  0.001335753    2.170    0.539
       197 -11.0836     99.5386     75.9335   5.8924102410e+01   4.8143106862e+01    0.4040673    0.2597905 -61.60  0.001682616    1.955    0.489
       198 -12.2630     44.8988     74.7285   8.0496753537e+01   5.7972082510e+01    0.4556156    0.2646925  43.60 0.0009580591    1.820    0.451
       199 -10.5706     74.2145     74.8045   6.7753583602e+01   5.3422049229e+01    0.4179294    0.3133894 -10.01  0.001910414    1.757    0.431
       200  -9.9372    184.2331     74.1496   3.8589573420e+01   2.9240737038e+01    0.2402492    0.1580056 -29.89 0.0007038796    1.455    0.313
       201 -10.7822     55.2405     74.3375   7.5649742879e+01   5.6658606362e+01    0.3879586    0.2570395  55.74  0.001747174    1.800    0.444
       202  -9.9804    167.8799     73.3764   4.1164972148e+01   3.2992526814e+01    0.2375441    0.1845495 -45.76 0.0003500452    1.269    0.212
       203  -9.7467    102.7885     72.5998   5.6800036139e+01   4.8137425482e+01    0.2135334    0.1447728  55.76 0.0004050112    1.571    0.364
       204  -9.3694     56.6819     69.7452   7.3670423631e+01   5.7562965948e+01    0.1929998    0.1422032 -69.23 0.0003145452    1.505    0.336
       205 -11.6651     48.2201     59.6142   7.4552634618e+01   6.1251288213e+01    0.7669553    0.5530887  82.44  0.003318884    1.972    0.493
       206 -12.1850     50.5578     68.3854   7.6104850843e+01   5.8796437474e+01    0.4779638    0.3135867 -46.21 0.0009035151    1.502    0.334
       207  -9.9138     56.4478     66.5519   7.2801618374e+01   5.8366836583e+01    0.2337062    0.2175974  33.15 0.0005311462    1.085    0.078
       208 -10.6765    122.6530     67.7423   4.9410525723e+01   4.4551991719e+01    0.4163332    0.2455605 -38.41   0.00155004    1.724    0.420
       209 -10.3765    122.7925     64.0156   4.8144094654e+01   4.5199678878e+01    0.2614255     0.214976 -49.22  0.000353492    1.257    0.204
       210 -10.4651     77.9899     69.8887   6.4699450463e+01   5.3843019064e+01     0.222214     0.219562 -84.79 0.0004929241    1.050    0.048
       211  -9.6585    167.8503     69.4956   4.0075887135e+01   3.3607713073e+01    0.1991566    0.1404396  55.52 0.0004237922    1.461    0.316
       212 -10.8212    140.2207     68.3659   4.5299954143e+01   4.0273139245e+01    0.3146475    0.1954005 -37.91  0.001032632    1.602    0.376
       213 -11.3718     42.9524     67.8940   7.9635912419e+01   5.9932726954e+01    0.2969929    0.2489793  36.14  0.001605779    1.226    0.185
       214 -12.0215     44.9107     39.3515   6.8797885630e+01   6.6364271383e+01    0.6149248    0.3969329 -49.90  0.002998205    1.539    0.350
       215 -12.1772     30.2389     62.9077   8.4852670269e+01   6.2610964110e+01    0.7504264    0.5868598 -54.66  0.003337649    1.194    0.163
       216 -11.0165     27.2153     54.9594   8.4459741689e+01   6.4897133489e+01    0.4555555    0.1970414 -54.55 0.0009762562    2.030    0.508
       217 -10.3179     30.3857     32.2475   7.4686697087e+01   6.9923824247e+01    0.4614652    0.2775052  27.34  0.001773427    1.676    0.403
       218 -12.0234     37.0288    242.7515   1.0105761405e+02   2.0589680575e+01    0.4969146    0.2548358  71.77  0.002049401    2.162    0.538
       219 -11.3513     34.9509     42.0318   7.5718230346e+01   6.7154642443e+01    0.6758117    0.3800957 -13.52  0.002449806    2.793    0.642
       220 -12.1855     67.4711    235.9011   9.4193374767e+01   1.8696693997e+01    0.6574758    0.3346612  12.24  0.003333325    2.521    0.603
       221 -11.5881     24.0016     41.8659   8.2521120106e+01   6.8396550520e+01    0.5153367    0.3764037  71.38 0.0003775012    1.815    0.449
       222 -12.9149     27.4264     37.8589   7.8892582486e+01   6.8993322510e+01    0.3000302    0.2907631 -89.41 0.0004245234    1.176    0.149
       223 -12.0430     24.5194     34.5482   7.9595196642e+01   7.0062579481e+01    0.3098578     0.235957 -14.30 0.0004724029    1.352    0.260
       224  -9.8151     81.2405     65.6542   6.2016724689e+01   5.4143368359e+01     0.203881    0.1948863 -74.38 0.0008416963    1.115    0.103
       225 -10.2352    131.3176     63.8278   4.5937498087e+01   4.3190017639e+01    0.3538771    0.1868943 -28.22 0.0009220486    2.209    0.547
       226  -9.8778    155.9682     63.5706   4.0542263911e+01   3.7312040304e+01    0.2310016    0.1865867 -37.39 0.0004353535    1.211    0.174
       227  -9.3536    232.9829     63.7330   2.9761508407e+01   2.0831675739e+01    0.1332611    0.1081282  65.67  0.000459093    1.459    0.315
       228 -12.2828    201.9754     62.4989   3.3005738990e+01   2.7088999417e+01    0.2498322     0.213638 -28.46  0.001522306    1.099    0.090
       229  -9.7541    186.0016     62.7998   3.5275731250e+01   3.0497703950e+01    0.3177786    0.1604276 -10.35  0.001077222    3.857    0.741
       230 -10.3415     76.9687     62.1331   6.2461262763e+01   5.5754187807e+01    0.2200294    0.2117143  32.51 0.0002520105    1.024    0.024
       231 -10.3628    113.6470     60.9924   4.9607162288e+01   4.7924565300e+01    0.2641572     0.220229  66.71 0.0005085993    1.267    0.211
       232 -11.8223     97.2121     59.2985   5.4044853213e+01   5.2050816610e+01    0.5114968    0.3661715  75.12  0.001061566    1.900    0.474
       233 -12.8087    105.1778     52.6809   4.9088107104e+01   5.1445861644e+01    0.5559938    0.3930804  48.51 0.0004639364    1.370    0.270
       234 -11.2724     85.6592     57.8277   5.7552137915e+01   5.4878819624e+01    0.4911727    0.3455658 -42.09  0.002299672    1.452    0.311
       235 -10.9858     88.9956     54.1825   5.4968162571e+01   5.4882388290e+01    0.3593466    0.2107538  57.75 0.0008777411    1.948    0.487
       236  -8.8345    169.2896     59.7174   3.7021103114e+01   3.4752969155e+01     0.141707    0.1049185 -64.89 0.0002482276    1.529    0.346
       237  -9.7982    159.0269     59.7539   3.8819714912e+01   3.7174776432e+01    0.1808659    0.1227936  60.88   0.00030456    1.507    0.336
       238 -10.3284    127.0808     58.9628   4.5357056213e+01   4.5056172526e+01    0.2191901    0.2125484  64.96 0.0003055956    1.015    0.015
       239 -11.0163     58.4999     58.9033   6.9327899676e+01   5.9831363911e+01    0.3858446    0.2489932  28.16   0.00123357    1.624    0.384
       240 -10.1066     69.5608     58.5269   6.4233719636e+01   5.7962084983e+01    0.1477242    0.1438026  -1.29 0.0001667956    1.009    0.009
       241  -9.9396    147.1722     56.6286   4.0118194000e+01   4.0523528548e+01     0.229796    0.1910524 -46.06 0.0004137084    1.196    0.164
       242 -10.7700     81.0000     55.5188   5.8449526624e+01   5.6332071362e+01    0.4807649    0.3119195 -11.26  0.001860789    2.583    0.613
       243 -10.0620    115.5952     56.5303   4.7499381044e+01   4.8264298848e+01    0.3264804    0.1478018  53.74  0.001209731    2.172    0.539
       244 -10.5318     82.8999     35.8733   4.9600407209e+01   5.9608247800e+01    0.5380998    0.3610188 -14.01  0.002378448    1.967    0.491
       245 -11.0490     82.6173     46.6782   5.4342994274e+01   5.7728715130e+01    0.4312082    0.3543668  42.45  0.002213726    1.180    0.153
       246  -9.6179     82.1467     41.8507   5.2498475200e+01   5.8728141142e+01    0.2635286    0.1902461 -12.12  0.001200802    1.781    0.439
       247 -10.3823     78.4471     47.0618   5.6112504318e+01   5.8555588873e+01    0.2334332    0.1993254  25.09 0.0003043124    1.206    0.171
       248 -11.3252     75.2165     55.6836   6.0812129148e+01   5.7478412352e+01    0.4721691    0.3484019 -74.08 0.0002482318    1.872    0.466
       249 -11.7104     77.2905     51.0522   5.8181850666e+01   5.8009655462e+01    0.6465306    0.2715971  46.06  0.002366022    2.356    0.575
       250  -9.5420    230.7339     54.9952   2.7974941417e+01   2.2297818894e+01    0.1651381   0.09166847 -30.52 0.0008887892    1.525    0.344
       251  -9.7078    182.4010     54.7399   3.3582851866e+01   3.2426696469e+01    0.1753695    0.1287825 -19.22 0.0002103937    1.459    0.315
       252 -10.2775    119.8512     52.6396   4.4983739781e+01   4.7900050944e+01    0.2621788    0.2204675  18.28 0.0006801097    1.373    0.272
       253 -10.5188     62.0062     52.7034   6.5434546738e+01   6.0617744363e+01    0.2614478    0.2100151 -47.22 0.0003705298    1.252    0.201
       254  -9.7813     61.9873     48.0277   6.3611578379e+01   6.1626698431e+01    0.2727032    0.1812587 -32.92  0.001024082    1.642    0.391
       255 -11.1995     56.4676     51.5850   6.7643776948e+01   6.1823528865e+01    0.7717698    0.3695436 -42.53  0.003080836    2.150    0.535
       256 -12.2530     57.6231     33.8579   5.9515519758e+01   6.5302053454e+01    0.4123861    0.3437082  -1.53 0.0005446973    1.292    0.226
       257 -11.3474     51.7668     46.9076   6.8193539496e+01   6.3633991142e+01    0.6158387    0.2714381 -55.47  0.002347987    2.479    0.597
       258 -11.1175     54.3092     40.5725   6.4255675181e+01   6.4562263109e+01    0.5336753    0.3464149 -37.38  0.002535222    1.580    0.367
       259 -12.1583    130.5562     49.6683   4.1343866012e+01   4.5729244392e+01    0.5430918    0.4320711  72.88  0.001083973    1.316    0.240
       260  -9.9305     68.5427     47.6435   6.0482014774e+01   6.0464909826e+01    0.3292322    0.2360405 -73.57 0.0006977099    2.052    0.513
       261 -10.2184    104.4081     46.8634   4.7103610412e+01   5.2651018084e+01    0.2982005    0.2108094  46.06 0.0007599399    1.379    0.275
       262 -11.3181     95.8598     42.2377   4.7893341691e+01   5.5492912504e+01    0.5698193    0.3352315 -21.82  0.002311714    2.206    0.547
       263  -9.2937     91.6889     45.3197   5.0532521134e+01   5.5933870918e+01    0.2037548    0.1532054  68.75 0.0003786745    1.542    0.351
       264 -10.7577     91.2645     41.6020   4.9141980305e+01   5.6687202978e+01      0.46053    0.3345833 -82.22  0.002032312    2.036    0.509
       265  -9.7411    143.0743     45.4980   3.7290176575e+01   4.3219610100e+01    0.2117131    0.1417421  61.55 0.0004460046    1.470    0.320
       266 -10.0889    112.9425     44.7653   4.3893322468e+01   5.0908644640e+01    0.2704536    0.2117847   9.45 0.0009744538    1.607    0.378
       267 -10.2847     72.1186     42.2291   5.6662057773e+01   6.0817382698e+01    0.3833292     0.291146 -67.93  0.001095774    1.737    0.424
       268 -10.3093    148.7068     39.4879   3.4248840039e+01   4.2644024809e+01    0.3368465    0.2193146 -55.79 0.0008675804    1.665    0.399
       269  -9.5427     96.0520     52.0118   5.1712447553e+01   5.3704800565e+01    0.1780985    0.1680891  44.53 0.0009500312    1.028    0.027
       270 -10.1166    121.0282     41.2818   4.0534697241e+01   4.9425020130e+01    0.2156547     0.187871  63.24 0.0006172452    1.113    0.101
       271  -9.5376    110.8291     41.6213   4.3247325325e+01   5.1937834177e+01     0.204028     0.140735  70.62            0    1.606    0.377
       272  -9.4981     71.5523     28.5400   5.0561608921e+01   6.3391797764e+01    0.1931102    0.1372539 -45.27 4.338269e-05    1.529    0.346
       273 -10.2046     80.1672     26.1264   4.6038678554e+01   6.1814314686e+01    0.3713054    0.2549179 -56.83  0.001540446    1.848    0.459
       274 -10.3157     63.3390     41.0641   6.0050755747e+01   6.2802839388e+01    0.3678368    0.1994531  56.02  0.001061135    2.440    0.590
       275  -9.8838     66.9773     41.0158   5.8368303401e+01   6.2098509644e+01    0.2651407     0.205841  39.83 0.0005184817    1.256    0.204
       276 -10.2211     69.4854     37.3497   5.5622661358e+01   6.2285118998e+01    0.3135781    0.2281823  11.69  0.000791695    1.750    0.429
       277 -11.5609     74.9798     34.5456   5.2035721697e+01   6.1615430153e+01     0.514797    0.4342028  37.96  0.001789641    1.140    0.123
       278  -9.9580     79.6672     30.2212   4.8190228497e+01   6.1287598432e+01    0.3096093    0.2310387 -35.17 0.0005941709    1.395    0.283
       279 -10.5686    226.0730     33.0666   2.3232947843e+01   2.5694859892e+01    0.2083918    0.1575581 -27.39 0.0002943037    1.240    0.193
       280 -10.9540    224.3645     37.4760   2.4425562781e+01   2.5549914521e+01    0.3742067       0.2363 -65.25  0.001650397    1.692    0.409
       281 -11.0712    221.7001     31.8563   2.3294499975e+01   2.6703258425e+01    0.2385557     0.168147 -37.89  0.000294801    1.197    0.165
       282 -10.2840    185.9793     39.0336   2.8713214448e+01   3.3639518271e+01     0.159412    0.1472614 -65.73            0    1.037    0.036
       283 -10.4175    248.2966     37.0026   2.2467366277e+01   2.1089645283e+01     0.169876    0.1212384 -36.77 0.0004916656    1.114    0.102
       284  -9.7961    114.1812     37.3530   4.0705176935e+01   5.1751426156e+01    0.2066056     0.178427  68.70 0.0002118578    1.143    0.125
       285 -10.1015    110.8960     34.8702   4.0552656426e+01   5.2952397428e+01    0.3609259    0.2026398  54.45  0.001199249    1.671    0.402
       286 -10.5327    101.3947     36.7224   4.3914674654e+01   5.5051298315e+01    0.3171284    0.2715229  38.95  0.001040357    1.166    0.143
       287  -9.7200      1.4567     37.1198   9.6660136523e+01   7.0980330605e+01    0.1946678    0.1147413 -71.66   0.00100864    1.530    0.347
       288 -10.1748    177.4246     34.3256   2.8406524304e+01   3.6221542361e+01    0.2505519    0.1337261 -21.72  0.001114463    2.045    0.511
       289  -9.3686    134.5299     34.9926   3.5305509401e+01   4.6871110608e+01    0.2168577    0.1437974 -31.22 0.0008286093    1.546    0.353
       290 -10.7774      9.4725     34.4926   9.0271801771e+01   7.1269602006e+01    0.2547265    0.2122533 -34.07 0.0008700613    1.104    0.094
       291 -11.5612      8.3535     31.1503   9.0162342382e+01   7.2134122441e+01    0.2789521    0.2445123   2.19 0.0009799233    1.191    0.160
       292 -10.3100    192.7109     34.0052   2.6555287063e+01   3.2696784102e+01    0.2256368    0.1862082  79.18 0.0007314875    1.254    0.202
       293 -10.7337    123.1824     32.7783   3.6822330680e+01   5.0100619596e+01    0.5473456    0.1898809  60.32  0.001886972    2.674    0.626
       294 -10.4508    167.0165     31.5129   2.8896603875e+01   3.9084956658e+01    0.2405789    0.1920578  -4.28 0.0007883345    1.498    0.332
       295 -11.5143     49.9097     30.8605   6.2106397170e+01   6.7289131153e+01    0.3289468     0.235075 -42.98            0    1.412    0.292
       296 -10.3067     49.2450     26.0693   6.0041870919e+01   6.8320838390e+01    0.2693315    0.1917447  43.49 -0.000430966    1.425    0.298
       297 -10.7035     18.1466     31.1930   8.2857515818e+01   7.1436682250e+01    0.4118673    0.2185917  23.23  0.001982159    1.916    0.478
       298  -9.9767      1.3176     31.6838   9.5635821982e+01   7.2312328680e+01    0.1816785   0.09716725 -62.02 0.0005756035    1.579    0.367
       299  -9.1517     88.2485     31.2983   4.5660926900e+01   5.9100038681e+01    0.1425559    0.1117959  16.50 0.0003787444    1.490    0.329
       300 -13.1020     75.6585    238.7668   9.2630669875e+01   1.7341262125e+01    0.5454062    0.5339599 -87.15  0.004149669    1.327    0.246
       301 -11.8274    238.0569     27.6994   2.1105300506e+01   2.3941281237e+01    0.2959984    0.2477269   1.57 0.0003579868    1.483    0.326
       302 -11.6592    197.8779     27.9767   2.4400355609e+01   3.2214020288e+01    0.3026809    0.2489557  48.63 0.0008697044    1.408    0.290
       303  -9.4459    156.8203     28.3600   2.9301515533e+01   4.2007492151e+01    0.1920572    0.1207854  57.80 0.0001564844    1.571    0.363
       304 -11.5729    112.1541     27.4035   3.7196246836e+01   5.3677652428e+01     0.725857    0.2467683  57.27  0.002530193    2.600    0.615
       305 -10.5681    214.7274     25.1030   2.2195451016e+01   2.8865350473e+01    0.2583889    0.2057161  -8.45  0.001127527    1.467    0.318
       306 -10.1243    172.7915     26.2691   2.6572205887e+01   3.8281731977e+01    0.2919547    0.1854353 -72.75  0.001159733    1.736    0.424
       307  -9.4964    143.9873     26.7589   3.0707306338e+01   4.5481005042e+01    0.1835716    0.1161646  67.93 0.0003566654    1.522    0.343
       308  -9.9336    132.7946     18.9890   2.9734341411e+01   4.9303760593e+01     0.216449    0.2009731  79.99 0.0003690083    1.013    0.013
       309 -11.0616     88.7589    240.9734   9.0008028181e+01   1.5539098010e+01    0.2012444    0.1458846 -40.88  0.001380743    1.814    0.449
       310  -9.5960     98.0585    241.8000   8.8115904178e+01   1.4358098960e+01     0.163001   0.06888284  30.26 0.0004903223    1.746    0.427
       311  -9.2079     90.5422     26.5273   4.2727013831e+01   5.9262688423e+01     0.145615    0.1389073  54.28 4.092935e-06    1.028    0.028
       312 -10.0180     71.9058     25.0891   4.8687834835e+01   6.3871806897e+01    0.4970713    0.1793636  38.33  0.001551466    3.611    0.723
       313 -10.6741      1.8469     24.4111   9.3435971019e+01   7.4036091634e+01    0.4150697    0.1546899 -66.11  0.001813434    2.253    0.556
       314  -9.6721    125.0317    245.7242   8.2927970432e+01   1.0665264410e+01    0.1474824   0.07567853  29.44 0.0005196113    1.437    0.304
       315 -10.1364    195.3624    238.4547   6.8712252938e+01   3.4597627979e+00    0.2295452    0.1411575  -0.46  0.001457434    1.467    0.318
       316  -9.7677    134.5243    237.9629   8.0190229977e+01   1.0636296638e+01    0.1524609   0.08468125 -21.34 0.0008100527    2.622    0.619
       317 -11.0433     30.4793    234.4330   1.0209794906e+02   2.2606067329e+01    0.3570895    0.1402873  65.96  0.001831124    2.758    0.637
       318  -9.7981    177.4808    235.0072   7.1481086715e+01   5.9086771839e+00      0.14721    0.1009669 -27.44  0.001029209    1.586    0.370
       319 -10.0276     15.0118     13.5375   7.7645966918e+01   7.5629245022e+01    0.1802906    0.1212147  16.72 0.0004217548    1.487    0.327
       320 -10.3231     10.5595     24.5212   8.6286780591e+01   7.3558267482e+01    0.2523732    0.1825141 -27.19 0.0006945997    1.305    0.233
       321 -10.4226     14.1125     22.8783   8.2758008276e+01   7.3671783665e+01     0.264841    0.1771151 -29.45 0.0004050542    1.436    0.304
       322 -10.3253    162.9993     28.0941   2.8364193897e+01   4.0487052933e+01    0.2111333    0.1971907 -62.99 0.0005487184    1.023    0.022
       323 -11.0831     23.2656     23.2917   7.5721563275e+01   7.2705129514e+01    0.5303677    0.2655106 -34.03  0.001503346    2.172    0.540
       324 -10.3597    160.0101    235.5273   7.4853523588e+01   7.9099205963e+00    0.1733978   0.08724851  27.32 0.0004407798    1.531    0.347
       325 -10.5340     28.5226     19.5637   6.9884603024e+01   7.2843189330e+01    0.3114789     0.178361 -32.09  0.001107387    1.858    0.462
       326 -10.7634     86.9624    232.9675   8.9732919609e+01   1.7026706370e+01    0.2844831   0.09728357  44.17  0.001303428    2.557    0.609
       327  -9.1241     38.5081    232.5047   1.0028649007e+02   2.2200298569e+01    0.1138278    0.0860068  40.88 0.0008105736    1.016    0.015
       328  -9.7646     62.7211     23.6333   5.1898096306e+01   6.6106089300e+01    0.2431069    0.1736004  28.21  0.001204841    1.474    0.322
       329 -11.0987     58.9160     21.1890   5.2369105677e+01   6.7300465417e+01    0.4468912    0.2413326  34.92   0.00193169    1.974    0.493
       330 -11.3551    186.2822     22.6253   2.4049779477e+01   3.5456890473e+01    0.2423111     0.199868 -52.28 0.0002731923    1.094    0.086
       331  -9.5139    165.2200     23.0188   2.6482412600e+01   4.0512975551e+01    0.1751664    0.1098189 -27.50 0.0005277438    1.606    0.377
       332  -9.9914     24.2323    232.1461   1.0334752033e+02   2.3561075985e+01    0.1788452    0.1295163  22.11 0.0005989121    1.361    0.265
       333 -10.6241    192.4570     21.2236   2.3072248368e+01   3.4173442936e+01    0.1867234    0.1038488 -40.52 0.0004609851    1.576    0.366
       334  -9.3955    156.0596     21.4948   2.7157404439e+01   4.2989928183e+01    0.1994721     0.132176  73.07 0.0004084333    1.465    0.317
       335  -8.9919    120.6853     21.3029   3.2848894219e+01   5.2222688692e+01    0.1504775    0.1064338 -67.09  0.000702202    1.617    0.382
       336  -9.7765    114.1295     21.1472   3.4152483636e+01   5.3960620514e+01    0.2149253    0.1858183  30.05  0.000479619    1.248    0.199
       337  -9.9399     93.8434     21.6312   3.9452999134e+01   5.9121795776e+01    0.2136498    0.1356012  71.22 0.0007687225    1.726    0.421
       338  -9.0210     74.2964     21.2884   4.5792570912e+01   6.3906786906e+01    0.1455984    0.1062177  22.99 0.0002784536    1.552    0.356
       339 -10.5955     66.9903     20.6973   4.8433514092e+01   6.5649542400e+01    0.2539185    0.2389652 -85.31 0.0006947631    1.245    0.197
       340  -9.3180     34.4862     20.9351   6.6394720852e+01   7.1732442766e+01    0.3025309    0.1860251 -64.57 0.0008252072    2.437    0.590
       341 -10.0396    183.9880    230.2742   6.9656756357e+01   5.7287572474e+00    0.2023429   0.09755681  -7.12 0.0009063112    3.516    0.716
       342  -9.2928     58.8003    229.3934   9.5661587087e+01   2.0723966633e+01    0.1618113   0.09462784  19.44 0.0009416837    1.658    0.397
       343 -10.8539     41.8997     18.6766   6.0281590828e+01   7.0966706680e+01    0.5223951    0.2977816  37.33  0.002496396    1.709    0.415
       344  -9.6292     39.9107     14.5522   5.9065044564e+01   7.2037284205e+01    0.2306851    0.1396551   2.98 0.0009513187    2.685    0.628
       345 -10.6106      4.0297    226.3579   1.0749409502e+02   2.6247573637e+01    0.2394799    0.1441165  86.08  0.001630035    1.727    0.421
       346  -9.5315    190.5343    226.4859   6.7948378468e+01   5.4220730415e+00     0.114132   0.08311354   9.89 5.390311e-05    1.015    0.015
       347 -10.2063    120.9856    226.4798   8.1736443751e+01   1.3992649350e+01    0.1719353   0.07419211  45.01  0.000633982    2.442    0.590
       348 -10.2766    108.5731     17.4439   3.3803659705e+01   5.5855134050e+01     0.238363     0.227384  31.15 0.0005176521    1.099    0.090
       349 -10.1789     76.0038     15.3010   4.1999802856e+01   6.4339961878e+01    0.3105922    0.1928983  34.22  0.000452572    1.738    0.425
       350 -10.0022    113.6700    223.3427   8.2971718308e+01   1.5398958048e+01    0.1887132    0.1207233  50.02  0.001110374    1.718    0.418
       351 -10.9116     72.9913    244.5162   9.3602340192e+01   1.6704602184e+01    0.2380036    0.1766686  10.69   0.00165376    1.453    0.312
       352 -10.7750    194.8418     16.7683   2.1645231496e+01   3.4088381726e+01    0.2142732    0.1767938 -69.95 0.0003048459    1.121    0.108
       353  -9.6860    143.2169    221.0119   7.6398813606e+01   1.2017488660e+01    0.1795338    0.1096222  41.32    0.0010514    1.632    0.387
       354 -10.9051     84.3340     21.3905   4.2272631915e+01   6.1508223121e+01     0.394268    0.2558483  47.16  0.001231231    1.445    0.308
       355  -9.4170    126.3258    220.6569   7.9924502832e+01   1.4231006791e+01    0.1203036   0.08174644  50.69 0.0007050902    1.738    0.425
       356  -9.7979     42.0195    220.4978   9.8901271652e+01   2.4019368523e+01    0.1815826   0.09195836  29.89  0.000635499    1.566    0.361
       357  -9.6031     83.9652     13.5218   3.8420099288e+01   6.2623364288e+01    0.2095221    0.1343639  61.28 0.0003708278    1.479    0.324
       358  -9.4364    211.9946    219.0542   6.3129492499e+01   3.8078436112e+00    0.1365447   0.09968161   1.50  0.001003495    1.050    0.047
       359  -9.4819    176.0235    219.2196   6.9623314293e+01   8.1076810400e+00    0.1566837   0.07679696  28.97 0.0005048185    1.661    0.398
       360  -9.2406    120.6875    219.6450   8.1026814134e+01   1.5110066135e+01    0.1222828   0.08407112  -3.61 0.0007044523    1.734    0.423
       361 -10.9252     15.7369    221.8646   1.0484884537e+02   2.6135527510e+01     0.278134    0.1104148  34.57  0.001109106    1.782    0.439
       362  -9.9281    192.0000    217.9732   6.6474623046e+01   6.3000082308e+00    0.1658423   0.06018642 -38.70 0.0008100364    2.995    0.666
       363  -9.7695     38.0475    217.4433   9.9646524621e+01   2.4970714121e+01    0.1811867   0.09401019  28.27  0.001024406    1.585    0.369
       364 -10.7060      1.5294    210.7873   1.0771977247e+02   2.9328739038e+01    0.2492536    0.1356155  78.81 0.0009210854    1.757    0.431
       365 -12.4200      4.9079    208.0481   1.0689336523e+02   2.9607229380e+01    0.7701569    0.3197262  56.70  0.004236369    1.927    0.481
       366 -10.8685      9.7777    217.0540   1.0602709289e+02   2.7511655325e+01    0.3642677      0.12382  35.54  0.001916954    1.990    0.497
       367 -10.6374     12.6170    212.2392   1.0525100526e+02   2.8199256335e+01    0.3119654    0.1499943  85.54  0.001308367    2.166    0.538
       368 -10.4939     11.1476    208.0611   1.0546112026e+02   2.9124304338e+01    0.2278708    0.1782609  72.31 0.0008789084    1.224    0.183
       369 -11.0305     29.1422    215.5293   1.0159760104e+02   2.6160026783e+01    0.2468242    0.1740388  39.45  0.001147414    1.106    0.096
       370 -10.6756     24.0370    216.0045   1.0278422923e+02   2.6524052798e+01    0.1755024    0.1395452  45.42 0.0004381851    1.039    0.037
       371 -10.7820     21.6676    220.0499   1.0347287536e+02   2.5971160587e+01    0.1841307    0.1539101  55.93 0.0008472066    1.126    0.112
       372 -11.3025    236.1340    213.9148   5.8449011956e+01   1.6917803861e+00    0.1528985    0.1213005  -2.35 0.0007199953    1.285    0.222
       373  -9.9464     20.1962    211.2794   1.0348136629e+02   2.7757848185e+01    0.2236927   0.09939587  59.26 0.0008666785    1.991    0.498
       374  -9.8115    110.4635    212.4913   8.2473610868e+01   1.7605169742e+01    0.1254467    0.1007978  29.15 0.0001068171    1.018    0.017
       375  -9.7043    184.8526    208.4054   6.6379401484e+01   8.4338330319e+00    0.1719848   0.09018344  20.16 0.0009384535    1.749    0.428
       376 -10.3352    247.4918    205.9970   5.5513493258e+01   1.3165934347e+00    0.1537886   0.08309921 -25.64  0.001035116    1.599    0.375
       377 -10.6888     20.1590    199.5582   1.0302682877e+02   3.0079346758e+01    0.2695496    0.1577261 -59.87  0.001231317    2.061    0.515
       378 -10.6662    175.2980    202.2911   6.7280930092e+01   1.0532664217e+01    0.2098417    0.1675313  18.81 0.0004442573    1.109    0.098
       379  -9.0457     53.2438    202.3374   9.5093692215e+01   2.6352274345e+01      0.10933   0.09081684 -29.19  0.000260222    1.555    0.357
       380  -9.6580    117.6769    201.6785   7.9513181125e+01   1.8523887677e+01    0.1280291   0.09070705  -2.85 0.0007046133    1.677    0.404
       381  -9.4461    238.5034    200.5333   5.6004155989e+01   2.8926024085e+00    0.1103455   0.07857327  -0.97 0.0001040956    1.016    0.015
       382  -9.6520    215.4886    194.5047   5.8723204466e+01   6.3368603031e+00    0.1168484   0.08767419   1.63 -4.49829e-05    1.016    0.015
       383 -11.5582     16.1048    192.9702   1.0375396794e+02   3.1766599341e+01    0.4021299    0.2279194  19.52  0.001779772    1.765    0.433
       384 -10.0982    244.7415    188.4990   5.3111037617e+01   3.5291657950e+00    0.2326568    0.1069212 -31.80  0.001379545    1.955    0.489
       385  -9.0711     38.7002    190.6707   9.7930268665e+01   3.0227776809e+01    0.1156627   0.09241192 -29.36 0.0007030627    1.642    0.391
       386 -10.1733    173.6425     20.3170   2.4682171367e+01   3.8729591497e+01    0.1501934   0.08876232 -61.01 0.0006565703    1.752    0.429
       387  -9.7278     61.8169    184.8176   9.1447606282e+01   2.8992970233e+01    0.1851597    0.1328665  56.74  0.001063674    1.336    0.251
       388 -11.8143     15.9403    181.7034   1.0333092359e+02   3.4171221743e+01    0.4211373    0.2239671  50.88  0.001877921    1.557    0.358
