#   1 NUMBER                 Running object number                                     
#   2 MAG_AUTO               Kron-like elliptical aperture magnitude                    [mag]
#   3 X_IMAGE                Object position along x                                    [pixel]
#   4 Y_IMAGE                Object position along y                                    [pixel]
#   5 X_WORLD                Barycenter position along world x axis                     [deg]
#   6 Y_WORLD                Barycenter position along world y axis                     [deg]
#   7 A_WORLD                Profile RMS along major axis (world units)                 [deg]
#   8 B_WORLD                Profile RMS along minor axis (world units)                 [deg]
#   9 THETA_WORLD            Position angle (CCW/world-x)                               [deg]
#  10 FWHM_WORLD             FWHM assuming a gaussian core                              [deg]
#  11 ELONGATION             A_IMAGE/B_IMAGE                                           
#  12 ELLIPTICITY            1 - B_IMAGE/A_IMAGE                                       
         1 -16.3488    243.5011    175.1312   1.8690899890e+01   4.4368291299e+00     2.848374     1.498098 -44.95   0.01686897    1.976    0.494
         2 -17.2670    242.2084    125.0777   9.8642758790e+00   1.1715636869e+01     7.816788     1.638791 -44.92   0.02574273    4.939    0.798
         3 -17.9289    240.8554     81.6388   1.5090261047e+00   1.8095798246e+01     7.376585     1.617895 -35.64   0.02737448    3.656    0.726
         4 -14.1572    180.6843     51.7781   1.2283971899e+00   3.3703648031e+01    0.6637956    0.4570552 -76.73  0.003649908    1.492    0.330
         5 -14.2676     84.5108     11.5342   3.6876036154e+00   6.2039915752e+01    0.8657522     0.264511 -43.28  0.003043992    3.692    0.729
         6 -13.6995    109.1184      4.7614   3.5607698885e+02   5.6542520459e+01    0.8299554    0.3801704 -54.86  0.003601728    2.429    0.588
         7 -13.8153     78.8182      2.8824   8.7871160989e-01   6.4259255628e+01    0.7208764    0.3928201 -89.38  0.003249789    2.272    0.560
         8 -13.8854    103.5186      7.4985   3.5806605092e+02   5.7700994453e+01    0.5631374    0.3255126 -72.26  0.002671653    1.980    0.495
         9 -14.6582     92.3774      4.5032   3.5879366847e+02   6.0763896436e+01     1.483158    0.7073216 -71.47  0.005775809    3.124    0.680
        10 -13.7087     76.6988      9.5699   4.7236718565e+00   6.4144344653e+01    0.2966907    0.2094261 -51.82 0.0008797902    1.593    0.372
        11 -14.5789     90.2647     11.2229   2.2218501490e+00   6.0652028207e+01     1.072922    0.5093527 -66.55  0.003921838    3.525    0.716
        12 -12.7989     63.1717      2.8471   5.0314653796e+00   6.8016926045e+01    0.2426082    0.1738939 -47.26 0.0008079379    1.602    0.376
        13 -13.3662     68.3943      3.4076   3.8079248142e+00   6.6731426686e+01    0.2464671    0.2234432 -81.99 0.0008371511    1.174    0.149
        14 -13.5848     97.9039      2.6025   3.5697402634e+02   5.9546167208e+01    0.7168996    0.3209632  80.76  0.003070295    2.245    0.555
        15 -12.9462     47.6031    207.2142   6.5184716855e+01   2.4344866579e+01    0.3877425    0.2790615 -40.64  0.001583282    1.747    0.428
        16 -11.6223     31.6519    250.0902   7.1668893174e+01   1.7129179282e+01    0.2191084    0.1231131  38.43  0.001316404    1.331    0.249
        17 -11.0964     16.3235    250.3134   7.5018593718e+01   1.8501875235e+01    0.1021896   0.08560842 -18.77  0.000704071    1.659    0.397
        18 -11.7198      8.4892    249.5558   7.6680400873e+01   1.9327937531e+01    0.2047137    0.1049955 -86.83  0.001198009    2.121    0.528
        19 -13.8531     81.9911    199.4306   5.5458434213e+01   2.1939192471e+01    0.5575538    0.2132855  37.38  0.002264195    2.212    0.548
        20 -15.3208     77.7364    188.6175   5.5264690970e+01   2.4948402557e+01     1.300683     0.490371  45.61  0.004849595    2.651    0.623
        21 -15.2938     58.6157    200.4964   6.1703987225e+01   2.4614214568e+01     1.517789    0.5297133 -44.82  0.005004073    4.495    0.778
        22 -16.7463     67.0266    209.6042   6.0404737455e+01   2.1580481075e+01     2.103382      1.69471 -53.61   0.01257114    1.417    0.294
        23 -15.9774     69.5889    198.8512   5.8634112297e+01   2.3655109023e+01     1.732175    0.9642702 -21.20  0.006689894    3.400    0.706
        24 -11.9497    233.8456    214.4860   2.6429906316e+01   2.1132592394e-01    0.2055182    0.1448664 -23.44 0.0006947514    1.158    0.136
        25 -12.1122    217.9017    214.4582   2.8914782409e+01   1.8482941696e+00    0.2384869    0.1984598 -21.96   0.00114265    1.285    0.222
        26 -12.1794     41.5137    213.6820   6.7232651059e+01   2.3559742013e+01    0.2628112    0.1857536 -36.33  0.001187085    1.877    0.467
        27 -12.1575     25.0160    212.3296   7.1310184839e+01   2.5507038782e+01    0.2730798    0.1590204 -58.60  0.001446245    1.995    0.499
        28 -12.2257     16.9560    212.4483   7.3336283004e+01   2.6221757825e+01    0.2579252     0.195224 -36.59  0.001538472    1.771    0.435
        29 -12.5410    242.1857    210.2355   2.4545837953e+01  -6.6480452157e-02    0.2316431    0.1532797 -31.73 0.0008803542    1.340    0.254
        30 -12.2069    225.8513    208.4369   2.6722130379e+01   1.8220961193e+00     0.227968    0.1781563  11.69 0.0008948824    1.269    0.212
        31 -12.0031     32.1406    207.8690   6.9229588788e+01   2.5816229964e+01     0.260882    0.1793012 -75.18  0.001104622    1.552    0.356
        32 -14.0323     87.9691    205.3584   5.4638642389e+01   1.9871701227e+01    0.4326132    0.2271834  33.80  0.002062535    1.645    0.392
        33 -12.2494      5.4220    205.2863   7.5932019619e+01   2.8813912443e+01    0.2645815    0.1404416 -45.73  0.001274133    2.631    0.620
        34 -12.1449    236.0018    204.1682   2.4510262662e+01   1.3338050094e+00    0.1913019    0.1261215 -26.93 0.0006484895    1.209    0.173
        35 -11.4805     21.1314    203.8057   7.1834698748e+01   2.7798395364e+01    0.1638715    0.1528875 -41.74 0.0008134333    1.330    0.248
        36 -13.2559    243.8032    202.0306   2.3038577721e+01   8.2037948373e-01    0.2746634    0.1929612  10.61  0.001350804    1.379    0.275
        37 -12.8514    238.1514    199.0617   2.3385502148e+01   1.7850104271e+00    0.2369069    0.2062837 -26.39  0.001073168    1.422    0.297
        38 -11.5198    210.8084    201.7540   2.8080873060e+01   4.4119300996e+00    0.2141407    0.1436179 -43.51  0.001252033    1.651    0.394
        39 -12.9381    101.0546    201.6211   5.0903992235e+01   1.8918782524e+01    0.3243382    0.2046169  55.31  0.001588855    1.863    0.463
        40 -11.1861     34.3705    201.8243   6.8241244416e+01   2.6975170201e+01    0.1778446    0.1140947 -63.93 0.0009426398    1.699    0.411
        41 -11.7078    248.1477    208.1259   2.3369286835e+01  -3.7694783175e-01    0.1651453    0.1070156 -13.85 0.0006951403    1.222    0.181
        42 -12.1301    229.5042    201.0196   2.4988544082e+01   2.4359505453e+00    0.1971015    0.1291624   2.08 0.0007117038    1.475    0.322
        43 -11.9966     41.8952    200.3744   6.6137051154e+01   2.6526235809e+01    0.2485322    0.1902811 -65.62  0.001070048    1.431    0.301
        44 -13.2859     49.7513    198.9510   6.3920833710e+01   2.5993068368e+01    0.3390272    0.2733781 -41.58  0.001478714    1.490    0.329
        45 -11.7917      7.5169    226.0288   7.6159624440e+01   2.4104538320e+01    0.1715423    0.1090203  87.71 0.0009488527    1.586    0.370
        46 -11.2483     41.3044    247.0648   6.9375952388e+01   1.6755943377e+01    0.1687323    0.1373829  52.46  0.001173311    1.112    0.101
        47 -12.3672     53.1130    245.1608   6.6609012357e+01   1.5907738992e+01    0.3887148    0.1937216  37.61  0.002133229    1.531    0.347
        48 -11.8826     36.4232    193.8256   6.7100817871e+01   2.8642974062e+01    0.2481642    0.1889694 -45.22 0.0009648268    1.583    0.368
        49 -11.1899    215.0972    191.3758   2.5678777661e+01   5.4232330793e+00     0.203414    0.1277193 -26.89 0.0006995307    1.352    0.260
        50 -12.7265     50.3188    191.1721   6.3054440077e+01   2.7757772906e+01    0.4025614    0.2074295 -41.39  0.001695788    2.649    0.622
        51 -12.4343     43.3670    191.4147   6.4995334893e+01   2.8478887283e+01    0.2681782     0.217946  62.44 0.0009857555    1.138    0.121
        52 -11.1040    217.8059    224.8403   3.0492605769e+01   4.7550715523e-01    0.1349825    0.1156612 -16.38 0.0006998105    1.353    0.261
        53 -12.9005     40.0306    222.5775   6.8204343395e+01   2.1793195475e+01    0.3462952    0.2627517 -55.95  0.002128531    1.582    0.368
        54 -13.4187     57.0964    188.1363   6.0874536776e+01   2.7686518640e+01    0.4715146    0.2155938 -38.76  0.001713411    3.475    0.712
        55 -12.2518     91.7838    188.7870   5.1543878874e+01   2.2988237253e+01    0.1979923    0.1556148  56.87 0.0008421448    1.335    0.251
        56 -15.0283     65.6763    190.2579   5.8738723579e+01   2.6127704835e+01    0.7968457     0.621211  15.95  0.004273759    1.360    0.265
        57 -11.1419    220.4839    188.0076   2.4256668198e+01   5.2771170154e+00    0.1731852   0.09500134 -36.41  0.000653573    1.560    0.359
        58 -11.0950     20.6684    186.6792   7.0955840314e+01   3.1904816275e+01    0.1312531   0.09820067 -37.42 0.0007049139    1.696    0.410
        59 -12.0281     34.9806    185.0063   6.6803007801e+01   3.0926274869e+01     0.304186    0.2018961  11.59  0.001369821    1.738    0.425
        60 -10.9994     31.2895    190.3443   6.8250563429e+01   3.0000828531e+01    0.1312192   0.09904209 -39.26 0.0004749478    1.654    0.395
        61 -11.1033    250.0221    227.7406   2.6031488859e+01  -2.9126280126e+00    0.1398658   0.09890905  -2.08 0.0009550773    1.137    0.121
        62 -11.0261    210.6163    182.2872   2.4869309455e+01   7.3318739865e+00    0.1645387   0.09383292 -30.36 0.0008153921    1.533    0.348
        63 -13.2232     99.7089    181.2858   4.8384336053e+01   2.3541463674e+01     0.366297    0.2099097  45.33  0.001665556    1.741    0.425
        64 -11.7171     28.8598    223.3237   7.0963086467e+01   2.2749006933e+01    0.2143368    0.1510155  69.41  0.001005437    1.354    0.262
        65 -12.3957     56.2337    180.7080   6.0319718120e+01   2.9591568181e+01    0.3288225    0.2542431 -30.06  0.001239532    1.602    0.376
        66 -10.8644     47.4657    181.5163   6.2920809576e+01   3.0427745938e+01     0.138052    0.1280065  53.99 0.0001737645    1.044    0.043
        67 -13.0038     91.9131    179.9005   5.0252804411e+01   2.4995588209e+01    0.3073004    0.1840033  26.32  0.001412827    1.654    0.395
        68 -12.9013     78.9473    180.0581   5.3822198702e+01   2.6792547143e+01    0.2230857    0.2112107  32.10  0.001023177    1.053    0.050
        69 -11.9759    219.2976    177.9331   2.2724767087e+01   6.9034529301e+00    0.2676906    0.1297929 -39.69     0.000958    1.794    0.443
        70 -13.2346     84.8429    178.9512   5.2040775473e+01   2.6230058834e+01    0.3293955    0.1915425  35.65  0.001179854    1.571    0.363
        71 -11.8142     14.9403    223.0620   7.4295817562e+01   2.4091790784e+01    0.2556138    0.1351315 -51.83  0.001304834    2.497    0.600
        72 -11.8557    240.4740    221.9870   2.6569123506e+01  -1.3655236691e+00    0.1882579     0.133154  12.60 0.0008339469    1.337    0.252
        73 -11.9692    228.9370    222.2251   2.8344967412e+01  -2.9402301985e-01    0.2251779    0.1315533  23.08  0.001181434    1.666    0.400
        74 -11.8287    249.8231    219.5162   2.4853613493e+01  -1.9241708171e+00    0.1969203    0.1383453 -13.60 0.0008609471    1.002    0.002
        75 -10.9883     24.3223    172.3353   6.8905666621e+01   3.5153439787e+01    0.1392732   0.09998854 -39.64 0.0007050466    1.709    0.415
        76 -12.5382     78.3740    171.9256   5.2855043009e+01   2.8828293345e+01    0.2826832    0.2140851  21.61 0.0009933198    1.364    0.267
        77 -11.1743     63.8357    170.8631   5.6933068000e+01   3.1072445170e+01    0.2181246     0.195351 -22.21 0.0007906354    1.291    0.225
        78 -12.2652    218.8711    167.8582   2.1015868742e+01   8.4769392707e+00    0.2889038    0.1862203 -35.32  0.001167686    1.302    0.232
        79 -13.6602     50.7005    224.3411   6.5728280186e+01   2.0296388868e+01    0.4194912    0.2854813 -66.64  0.002460657    1.672    0.402
        80 -11.3581     55.0166    167.9845   5.9205244768e+01   3.2924598332e+01    0.2276411    0.1704464 -29.92  0.001082369    1.666    0.400
        81 -10.6840    210.5332    219.4987   3.0889487027e+01   1.9442549371e+00    0.1117355   0.08622797  -8.04 0.0002564664    1.020    0.019
        82 -13.0012     30.4518    216.9376   7.0213550791e+01   2.3968455768e+01    0.4417813     0.295564 -30.97  0.002380572    2.151    0.535
        83 -11.6111    212.8840    162.5988   2.0999410783e+01   1.0087753013e+01    0.2766258    0.1422589 -34.65  0.001377867    1.669    0.401
        84 -11.4688    221.5258    161.4842   1.9460934780e+01   9.1002157529e+00    0.2394469   0.09796457 -38.88   0.00104029    2.037    0.509
        85 -11.4803    216.4832    156.3671   1.9287311759e+01   1.0570878968e+01     0.250212    0.1009744 -40.42  0.001185191    2.099    0.524
        86 -11.9537    222.0350    153.3463   1.7889757927e+01   1.0277015232e+01    0.4716643     0.134527 -42.13  0.001905217    3.017    0.668
        87 -10.8947    215.4834    148.5085   1.7961184450e+01   1.1947397844e+01    0.2512687    0.1020227 -40.41  0.001177889    2.072    0.517
        88 -12.1417    224.0363    146.1167   1.6244863699e+01   1.1111100128e+01    0.3275289    0.1507273 -40.49  0.001605679    1.801    0.445
        89 -11.5784    224.6814    139.8182   1.4956650048e+01   1.1987461773e+01    0.2854538    0.1143956 -42.14  0.001195608    2.094    0.522
        90 -11.2514    218.9481    138.1000   1.5443283252e+01   1.3085218032e+01    0.2802401    0.1333187 -44.07  0.001413496    1.851    0.460
        91 -11.8106    221.6517    128.6264   1.3202214229e+01   1.4163642386e+01    0.3245961    0.1142479 -40.93  0.001232721    2.314    0.568
        92 -11.5873    212.6527    110.8921   1.0826627756e+01   1.8387438483e+01    0.2584402    0.1247592 -47.99 0.0008755472    1.914    0.478
        93 -12.3237     96.1528    108.1462   3.4972005235e+01   4.1681195929e+01    0.4307116    0.2187094 -51.72  0.001672507    1.953    0.488
        94 -13.4567    109.0740    108.3720   3.1166815398e+01   3.9058862075e+01    0.3186488    0.2331186 -59.31  0.001481839    1.408    0.290
        95 -13.8841     91.7794    196.5439   5.2577635075e+01   2.1268730626e+01    0.4081224    0.2347076  36.45  0.001833125    1.546    0.353
        96 -14.3007    115.7361     94.0357   2.5459496750e+01   4.0845812347e+01    0.5789263    0.4041047  39.39  0.002665298    1.547    0.353
        97 -12.6225    231.6508    194.3910   2.3596085577e+01   3.1077761030e+00    0.2121222    0.1502749 -15.50 0.0006615009    1.139    0.122
        98 -12.8117    206.0063     84.9480   6.0589480604e+00   2.3632262636e+01    0.2747931    0.1541927 -38.89 0.0009859392    1.505    0.336
        99 -12.2313    160.2681     82.9896   1.2494883283e+01   3.3212041648e+01    0.2080386    0.1751173 -49.90 0.0007596671    1.092    0.084
       100 -13.2081    168.9451     79.3747   1.0059138294e+01   3.1962264779e+01    0.2897201    0.1731844 -52.68  0.001378243    1.611    0.379
       101 -11.3097    151.5345     80.0337   1.3325438256e+01   3.5657328525e+01    0.2233002    0.1335508 -42.78 0.0009187953    1.569    0.363
       102 -12.2449    158.3252     76.5584   1.1130877279e+01   3.4757682495e+01     0.239739     0.167377 -50.72 0.0008067709    1.332    0.249
       103 -11.3403    211.5676     75.9863   3.3814408459e+00   2.3949947118e+01     0.197433     0.104272 -38.26   0.00102023    1.581    0.367
       104 -13.8663    164.7242     73.6108   9.2473177461e+00   3.3844193348e+01    0.4530291    0.2577691 -41.17  0.002078386    1.610    0.379
       105 -13.8003    172.5872     72.5719   7.7243174102e+00   3.2303728849e+01    0.4086067    0.1976377 -46.77  0.001808704    1.871    0.465
       106 -11.1748    150.8056     72.8415   1.1476872252e+01   3.7084001363e+01    0.2066036    0.1563644 -64.02 0.0007126474    1.328    0.247
       107 -12.1508    157.9857     70.4630   9.5341114764e+00   3.5865981367e+01    0.2293272    0.1790236 -46.51 0.0008660666    1.189    0.159
       108 -12.4696     24.5847    243.6147   7.2941692623e+01   1.9031897638e+01    0.3716973    0.1897398 -73.88  0.002096842    2.225    0.551
       109 -11.3864    146.5476     67.2241   1.0677124517e+01   3.9018438428e+01    0.2712185    0.1286284 -42.67  0.001118498    1.973    0.493
       110 -12.6909    224.6720    193.0035   2.4432623334e+01   4.0778151081e+00    0.2454181    0.1591233 -33.92 0.0008397468    1.333    0.250
       111 -14.8678    167.5020     61.0403   5.4497578055e+00   3.5243437283e+01    0.5529487    0.4545933 -67.33  0.003206488    1.120    0.107
       112 -12.2162    158.8873     62.5841   7.2084804945e+00   3.6945280120e+01     0.284702    0.1861948 -46.81  0.001041463    1.401    0.286
       113 -13.0876      9.3945    241.9622   7.6253025304e+01   2.0712871480e+01    0.3198721    0.2039082  84.45  0.001623158    1.609    0.378
       114 -13.3685    179.8365     46.4855   3.5995843202e+02   3.4626709998e+01    0.3676483    0.2385436 -72.12   0.00196097    1.568    0.362
       115 -12.5826     77.7755     20.5947   9.7641447466e+00   6.2638493127e+01    0.2306097    0.1855046 -84.58  0.001187575    1.396    0.283
       116 -12.6884     79.9884     17.9754   7.8863223491e+00   6.2426924178e+01    0.2158639    0.1829781 -79.33  0.001017202    1.269    0.212
       117 -11.3350     61.3555     20.6717   1.5408142694e+01   6.6407701177e+01    0.1382481    0.1050687 -80.19 0.0007045428    1.778    0.438
       118 -12.9348     73.4121     17.2129   9.4568577943e+00   6.4084983104e+01    0.2629403    0.1941133 -65.84 0.0009518252    1.639    0.390
       119 -11.5510     41.6597    238.6097   6.8811294920e+01   1.8351159273e+01    0.2150722    0.1477326 -89.81  0.001331159    1.634    0.388
       120 -11.0940    232.5353    238.4929   3.0145676740e+01  -2.6283547159e+00    0.1539526   0.08332516  33.34  0.001023427    2.195    0.544
       121 -13.6276     56.1362    234.6870   6.5190635149e+01   1.7608160572e+01     0.386139    0.3633454   7.42  0.002380151    1.233    0.189
       122 -11.6877      2.9546    237.0442   7.7534615711e+01   2.2227243999e+01    0.1658026    0.1359094 -37.99  0.001136373    1.708    0.415
       123 -12.4347     34.8846    233.8933   7.0111433080e+01   1.9969981317e+01    0.4570301    0.2076879 -54.42  0.002234208    2.772    0.639
       124 -12.8734      6.9063    217.8750   7.6023137916e+01   2.5895104929e+01    0.2965016    0.2139472 -46.62  0.001800722    1.836    0.455
       125 -13.6690     19.2667    230.2776   7.3579448730e+01   2.2191748553e+01     0.531723    0.2830027 -66.13  0.002931075    2.153    0.536
       126 -12.2591      9.1780    233.3006   7.6020569344e+01   2.2461049219e+01    0.1881422    0.1536163 -83.65  0.001019427    1.381    0.276
       127 -12.2152     44.7731    231.6711   6.7655549249e+01   1.9417547530e+01     0.286216    0.2196185 -81.23  0.001635835    1.470    0.320
       128 -11.6816    238.6566    231.7298   2.8260523224e+01  -2.3754739528e+00    0.1833955    0.1190616  26.03  0.001153819    1.680    0.405
