#   1 NUMBER                 Running object number                                     
#   2 MAG_AUTO               Kron-like elliptical aperture magnitude                    [mag]
#   3 X_IMAGE                Object position along x                                    [pixel]
#   4 Y_IMAGE                Object position along y                                    [pixel]
#   5 X_WORLD                Barycenter position along world x axis                     [deg]
#   6 Y_WORLD                Barycenter position along world y axis                     [deg]
#   7 A_WORLD                Profile RMS along major axis (world units)                 [deg]
#   8 B_WORLD                Profile RMS along minor axis (world units)                 [deg]
#   9 THETA_WORLD            Position angle (CCW/world-x)                               [deg]
#  10 FWHM_WORLD             FWHM assuming a gaussian core                              [deg]
#  11 ELONGATION             A_IMAGE/B_IMAGE                                           
#  12 ELLIPTICITY            1 - B_IMAGE/A_IMAGE                                       
         1 -10.7852     37.0079      9.1187   9.9411866193e+01   6.7966749787e+01     0.801203    0.4516618 -37.39  0.003467391    1.953    0.488
         2 -10.8019     19.3430      6.9036   1.0604836746e+02   7.0183660392e+01    0.9488907    0.8179934  72.21  0.006336905    3.178    0.685
         3 -11.1272     23.9248     32.4553   1.1426483176e+02   6.6144627082e+01     1.307743    0.4366993 -34.31  0.004056721    2.859    0.650
         4 -10.3961     10.2245     18.8963   1.1519044555e+02   6.9343573907e+01     1.135866    0.4301536 -17.00  0.003864638    6.674    0.850
         5 -10.2382      4.6147     41.7675   1.2528200470e+02   6.6007686947e+01     0.723803    0.2820013 -58.03  0.003005535    2.404    0.584
         6 -10.0687      7.1153     28.3180   1.1999578866e+02   6.8115481677e+01     0.291658    0.2508691 -45.72  0.001084184    1.427    0.299
         7 -10.6336    134.0428     30.8484   7.8772514757e+01   4.7829392881e+01    0.4197474    0.2784788  -1.88  0.002071798    1.996    0.499
         8 -10.6048     35.8483     38.0001   1.1140854235e+02   6.4100593013e+01    0.5891064    0.3080097 -16.06 0.0003996933    2.398    0.583
         9 -10.2994     69.4293     40.5979   9.9970507026e+01   5.9315472404e+01     1.346707    0.3711479 -36.34    0.0049665    3.565    0.720
        10 -10.0159     63.6911      3.1820   8.6984475558e+01   6.4734030134e+01    0.6173959    0.3407259 -35.69  0.003573475    2.195    0.544
        11  -9.9746     60.9156     31.5709   9.9551822449e+01   6.1897651892e+01    0.8802754    0.4443019 -18.40  0.003690357    2.433    0.589
        12 -10.4853     45.5743     28.0238   1.0386600659e+02   6.4479153949e+01    0.7428121    0.3463102 -38.76  0.003016695    2.027    0.507
        13 -10.1999     51.9802     14.0157   9.5711485185e+01   6.5413404643e+01    0.8911083     0.417334  16.13  0.003955386    3.246    0.692
        14  -9.7802     63.1852     21.4481   9.4769720405e+01   6.2871524751e+01    0.4450211    0.3012853 -51.39  0.001852712    2.432    0.589
        15  -9.8249     64.4376     13.3892   9.1045308221e+01   6.3597272242e+01    0.3301708    0.2401665   5.63 0.0008170296    1.224    0.183
        16 -10.1956     79.2876     24.0746   9.0515688621e+01   5.9895584551e+01    0.7509109    0.2633669  36.04   0.00278648    3.070    0.674
        17  -9.3666    101.1173     31.3061   8.6857054983e+01   5.4912343178e+01    0.7069991    0.2948079 -22.76  0.002658635    2.952    0.661
        18  -9.5758    103.2233     20.0351   8.2242266221e+01   5.5781130864e+01    0.6620111    0.2721055 -18.28  0.002385478    3.161    0.684
        19  -9.2869    139.9100     22.5459   7.4951356460e+01   4.7407257942e+01    0.2585401    0.1575261 -46.50 0.0007162098    1.930    0.482
        20  -9.2108    124.9184     12.9413   7.4821615697e+01   5.1818958761e+01    0.3948361    0.3341071  27.65   0.00147301    1.172    0.147
        21  -8.4043    127.2133      8.6465   7.2948508451e+01   5.1695072147e+01    0.2267275    0.1462361  39.77 0.0006491278    1.456    0.313
        22  -8.5039    112.2000     15.6300   7.8497059595e+01   5.4350053318e+01    0.2463963    0.1705079 -34.53 0.0008666419    1.641    0.391
        23  -8.2139    110.0221      7.9756   7.6294847158e+01   5.5525696331e+01    0.1775997    0.1484348 -72.82 0.0004292832    1.599    0.375
        24  -8.8031    111.1889      4.0259   7.4646350351e+01   5.5611226029e+01    0.2406511    0.1470539  23.92  0.001052887    1.782    0.439
        25  -9.3708    114.2538      9.9364   7.6048526289e+01   5.4444635092e+01    0.4567128    0.1965508  38.87 0.0004841055    2.313    0.568
        26  -9.1203    115.1518      4.5692   7.3997780172e+01   5.4713345117e+01    0.2754961    0.2156183 -42.42 0.0006193153    1.557    0.358
        27  -8.1986     72.0193      8.4906   8.6561443115e+01   6.2836771849e+01     0.184131     0.146315 -20.09 -1.177369e-05    1.343    0.256
        28 -10.1241     73.4614     17.9558   8.9947106569e+01   6.1606784627e+01    0.8356841    0.2213721 -28.97  0.003036297    3.913    0.744
        29  -8.4082     77.3422      6.7999   8.4257912989e+01   6.2060767818e+01    0.2806052    0.1708592  -3.67  0.001388146    1.752    0.429
        30  -8.6857     78.6267      3.1177   8.2391618135e+01   6.2155756337e+01     0.202923    0.1949652  -2.43   0.00073717    1.324    0.245
        31  -9.6279    124.7519      5.2780   7.2314942753e+01   5.2538538607e+01    0.5616346    0.2293427  46.62  0.002566909    2.102    0.524
        32  -9.7597    231.8102     14.7533   6.0486908396e+01   2.6236719852e+01    0.3266568    0.2364217 -42.65 0.0008682624    1.429    0.300
        33  -9.1397     96.0908     15.3245   8.2354997709e+01   5.7704076279e+01    0.4926561    0.2145516 -18.00   0.00156217    2.760    0.638
        34  -9.5417      2.3822     14.8044   1.1724161680e+02   7.0500442447e+01    0.4180381    0.2077532 -54.94   0.00241866    2.670    0.625
        35 -10.2700      5.9455      4.8416   1.1143866928e+02   7.1622716366e+01    0.4206468    0.2709275 -14.86  0.001784758    1.181    0.153
        36  -8.8054      2.5180      3.4829   1.1252434192e+02   7.2060098098e+01    0.2058289    0.1201362 -38.46  0.000587796    1.533    0.348
        37  -9.5079     85.1761     13.0466   8.4471885281e+01   6.0031234712e+01    0.3472518     0.243279 -53.74  0.001617507    2.278    0.561
        38  -9.2707    133.3428     12.1711   7.2918434947e+01   4.9978157611e+01    0.4063122    0.1689131 -40.24  0.001672099    2.810    0.644
        39  -9.0738    131.2870      6.3944   7.1449518076e+01   5.0967422342e+01    0.3573689    0.1996864  53.36  0.001889246    1.484    0.326
        40  -8.0618     80.4229     12.6422   8.5691254882e+01   6.0944966885e+01    0.2117212    0.1051566 -32.00  0.001082956    2.158    0.537
        41  -8.0442    141.5242     12.1100   7.1405941345e+01   4.8085401087e+01    0.1762459    0.1302614 -24.45   0.00101788    1.551    0.355
        42  -8.8004    102.1475      8.4260   7.8279119021e+01   5.7132447985e+01    0.3041156    0.1893318 -36.95  0.001204898    1.910    0.476
        43  -8.4739    104.6797      2.1027   7.5388958998e+01   5.7140031265e+01    0.3392699    0.1517968  50.55  0.001338181    1.789    0.441
        44  -7.6344    204.0466      9.2816   6.2020587166e+01   3.3333544624e+01    0.1577075   0.09851056  72.73 0.0005252631    1.376    0.273
        45  -8.6020     97.6786      5.6855   7.8348452590e+01   5.8280336622e+01    0.3118965    0.1612075  32.56  0.001192826    1.906    0.475
        46  -8.6569     95.7291      3.0020   7.7818775208e+01   5.8895767686e+01    0.3144864    0.2168572  18.37 0.0009353527    1.441    0.306
        47  -8.7584     88.9770      2.8283   7.9455152632e+01   6.0237865554e+01    0.2373693    0.1614852 -23.52 0.0008826409    1.609    0.378
        48  -8.7578     85.2107      5.9924   8.1697872648e+01   6.0686493729e+01    0.2899433    0.1540107  24.89  0.001506509    2.003    0.501
        49  -7.2942    143.0000      5.0121   6.8980452092e+01   4.8379952620e+01    0.1787635    0.0744551 -22.82 0.0004789715    2.819    0.645
        50  -7.3021    176.0164      1.9588   6.3417847764e+01   4.0783188683e+01    0.1471419    0.1278817  81.32 0.0009481739    1.047    0.045
        51  -7.5127    150.7525      1.9941   6.6862386417e+01   4.6814004291e+01    0.1463992    0.1112009 -21.83 0.0006253939    1.565    0.361
        52  -8.0730    136.2370      1.3747   6.8988921229e+01   5.0250465143e+01    0.1799299    0.1080704  76.06 0.0005177571    1.696    0.410
        53 -10.1123     65.5564    110.9210   1.2177428137e+02   4.6200173639e+01    0.4625661    0.3790914  75.88  0.001280172    1.459    0.314
        54 -10.7033    199.5548    249.8337   1.1634437060e+02  -6.5891006397e+00    0.5023727    0.2681496  50.97  0.002537629    2.070    0.517
        55 -10.7418    189.5018    245.6777   1.1758884680e+02  -4.3069730597e+00    0.4122945    0.2735857  31.65  0.002380004    1.344    0.256
        56 -10.3095    163.0771    249.6597   1.2318732910e+02  -4.1860723922e-01    0.5196327    0.1760643  35.65  0.001950882    3.190    0.687
        57 -10.3300     62.8968     95.7087   1.1900993970e+02   4.9948542883e+01     0.544749    0.3527411 -83.13   0.00155706    2.549    0.608
        58  -8.7921     63.7354     86.6866   1.1643273379e+02   5.1765845503e+01    0.5715467    0.3278039 -10.18  0.002257935    3.353    0.702
        59  -9.2281    158.8881    111.4948   9.6794784915e+01   2.8279691786e+01    0.4222201    0.2220585 -41.87 0.0008053804    1.905    0.475
        60  -8.8000    149.3196    110.2980   9.8736374131e+01   3.0737224683e+01    0.2820759    0.2354534 -46.54 0.0006033505    1.189    0.159
        61  -9.3124     29.7034    109.8417   1.3210161159e+02   5.0407548138e+01     0.376853    0.1957322 -54.98  0.002001362    1.539    0.350
        62  -8.7574     38.3603     58.3694   1.1712318362e+02   6.0328236694e+01    0.3131779      0.25406 -47.02  0.001593788    1.230    0.187
        63 -10.8601     20.4832    100.5973   1.3316295815e+02   5.3221225214e+01     1.133545    0.5586002 -87.65  0.004541393    3.587    0.721
        64 -10.2912     31.8101     64.7410   1.2134339225e+02   5.9756094098e+01     1.068128    0.4377984 -34.33  0.002944429    2.608    0.617
        65  -9.7753     20.3752     83.1254   1.2976623348e+02   5.6983332698e+01    0.8599734    0.2664509 -63.36  0.003514163    2.980    0.664
        66 -10.4922     25.3947     77.9600   1.2693921281e+02   5.7667064154e+01    0.5536786    0.4001029  82.00  0.001858754    2.108    0.526
        67 -10.2771     34.4633     90.7954   1.2685771527e+02   5.4182944602e+01    0.5871262    0.3099945 -76.71   0.00162833    2.788    0.641
        68 -10.2886     36.9741     80.8738   1.2373170883e+02   5.6043421272e+01    0.6991663     0.354295 -17.02  0.002933751    3.463    0.711
        69  -8.7714     40.0675    106.8711   1.2848655048e+02   5.0101216974e+01    0.2265772    0.1468966 -75.35 0.0005846155    1.632    0.387
        70 -10.1675    139.4516    103.4528   9.9327608966e+01   3.4406553026e+01    0.8197699    0.3690113 -46.22  0.002062655    2.222    0.550
        71  -9.8166    138.7669     91.5930   9.6221340028e+01   3.6978122850e+01    0.7441612    0.3449011 -42.88  0.001873217    2.154    0.536
        72  -9.2610    140.4143     82.3632   9.3175019332e+01   3.8384776851e+01    0.5774018    0.2941518 -40.14  0.001309818    1.982    0.495
        73  -9.0134    139.9242     75.1979   9.1194998408e+01   3.9812711799e+01    0.5785635    0.3030671 -35.91  0.001627574    1.992    0.498
        74  -7.9546     77.8053    105.4904   1.1688539052e+02   4.5684788182e+01    0.2603983    0.1642257 -25.22 0.0009084604    2.156    0.536
        75  -8.6475    165.9159    103.8995   9.3208084126e+01   2.8186316368e+01    0.3103673    0.2165051 -48.02 0.0004468138    1.435    0.303
        76  -9.5283    149.5097    103.3377   9.6840151748e+01   3.2147444750e+01     0.408108    0.2885734 -57.81  0.000949238    1.547    0.354
        77  -8.8904     92.8353    103.7053   1.1202812234e+02   4.3656426459e+01    0.6116514    0.3398436  19.22  0.002278648    3.090    0.676
        78  -9.8920      5.4619    103.7568   1.3810105122e+02   5.3550576111e+01    0.3881119    0.3279392  37.24  0.002377862    1.502    0.334
        79  -7.9379     73.9144    102.4231   1.1729539732e+02   4.6946155085e+01    0.3107324    0.1566127 -46.84  0.001073803    1.798    0.444
        80  -9.3235    158.9728    100.9209   9.3977912043e+01   3.0431664825e+01    0.4908645      0.21592 -43.99 0.0006289959    2.263    0.558
        81  -9.5786     81.4243    100.2630   1.1450151769e+02   4.6286894795e+01    0.4174097    0.2549495 -64.70 0.0008901822    1.946    0.486
        82  -8.1168     82.6011     93.7860   1.1245001362e+02   4.7502428466e+01    0.3315523    0.1999301  15.95  0.001411417    2.481    0.597
        83  -8.5318    244.6039    100.1977   7.7940418416e+01   1.0596251226e+01    0.2047601    0.1280833 -30.72 0.0009571936    1.707    0.414
        84  -9.2189    148.7469     97.4481   9.5421855840e+01   3.3523685789e+01    0.5278961    0.2654961  44.61  0.002025337    2.032    0.508
        85  -9.3835     94.2661     97.3635   1.0993932650e+02   4.4788083916e+01    0.3392657    0.2570099 -61.95 0.0006099064    1.437    0.304
        86  -8.7383     95.6377     91.4190   1.0790610214e+02   4.5803596945e+01    0.4315124    0.2829022  -3.97  0.001779128    2.567    0.610
        87  -7.5211    200.9532     96.9788   8.4325605716e+01   2.1109372021e+01    0.1779972    0.1662442  77.63 0.0009490827    1.066    0.062
        88  -8.0468    170.9483     95.7104   8.9933205111e+01   2.8599004608e+01    0.2113454     0.198755  68.08 0.0003654496    1.050    0.047
        89  -9.0153    164.1974     94.6396   9.1109029962e+01   3.0431752276e+01    0.3508154    0.2714736  58.20  0.001465555    1.297    0.229
        90  -9.6432     15.7667     70.7459   1.2857483244e+02   5.9848568528e+01    0.4449202     0.178121 -53.04   0.00119019    1.843    0.457
        91 -10.4886      4.3309     89.5338   1.3612688484e+02   5.6675364201e+01    0.7419329    0.3759749 -84.08  0.002129976    2.543    0.607
        92  -9.4582      6.1305     78.9220   1.3359614527e+02   5.8790189072e+01    0.7348979     0.265697 -28.41  0.002977809    4.313    0.768
        93  -9.0267    157.4812     91.0663   9.1631487743e+01   3.2729577107e+01    0.5650367    0.2671657 -27.67  0.001842119    3.159    0.683
        94  -7.7821    107.5072     91.5120   1.0450861721e+02   4.3581312993e+01     0.248212    0.1450398  41.32  0.001045217    1.768    0.435
        95  -9.0222    112.6157     89.0897   1.0238618892e+02   4.3070611286e+01    0.5122935    0.3279645  29.22  0.002272079    1.852    0.460
        96  -8.0048    165.5119     90.4881   8.9692016973e+01   3.0914630965e+01    0.2743045    0.1518684 -40.46 0.0008265279    1.815    0.449
        97  -8.5123    163.8152     86.0064   8.8828904643e+01   3.2169276185e+01    0.3983618    0.1880205 -30.75  0.001403342    2.619    0.618
        98  -7.7961    174.5691     88.8287   8.7327002157e+01   2.9029272834e+01    0.2231051     0.139549 -51.70 0.0004833494    1.683    0.406
        99  -8.7640    150.3686     89.2214   9.2755246121e+01   3.4767413322e+01    0.2515149    0.2196307  63.16 0.0007298443    1.160    0.138
       100  -9.8783     81.5034     72.3930   1.0664824933e+02   5.2001155984e+01    0.4144109     0.296749 -65.85 0.0008670976    1.954    0.488
       101  -8.9449     83.4876     64.3589   1.0349788096e+02   5.3153730283e+01    0.4647716    0.2828685  -7.44  0.001988627    2.601    0.616
       102 -10.1888     85.2643     86.6015   1.0966096873e+02   4.8576330459e+01     0.448981    0.3427608 -75.59 0.0009854522    1.789    0.441
       103  -9.5107     87.5352     78.6086   1.0664604424e+02   4.9801706560e+01    0.6018159     0.361686  18.60  0.001829708    2.331    0.571
       104 -10.1611     47.7626     84.4048   1.2102803185e+02   5.4192823343e+01    0.4800998    0.3368836  88.03  0.001773897    2.354    0.575
       105  -9.2494     47.9720     77.8563   1.1926118036e+02   5.5521141122e+01    0.6319937    0.3222452   3.78  0.002482207    3.893    0.743
       106 -10.9622     44.6820    102.5027   1.2619764489e+02   5.0604453008e+01    0.7917563    0.4636686  76.03  0.002984786    3.457    0.711
       107 -10.2523    103.8051     82.7120   1.0302100970e+02   4.6063865952e+01    0.4836467     0.289433 -51.69 0.0008030127    1.796    0.443
       108  -9.6535    105.0150     71.4476   9.9255892885e+01   4.7966921696e+01    0.8240933    0.4314185 -28.27  0.003361774    2.317    0.568
       109  -8.4431    241.1450     84.3858   7.4865273417e+01   1.4047718620e+01    0.1940096    0.1293438  79.19 0.0009435111    1.729    0.422
       110  -8.2723    170.3851     83.7745   8.6820692664e+01   3.0984480643e+01    0.2049646    0.1485245 -29.73 0.0006706876    1.528    0.346
       111  -9.2376    157.9900     82.6364   8.9166103441e+01   3.4198479973e+01    0.6016595     0.293621 -31.48  0.002200278    2.415    0.586
       112  -8.9576    156.8452     76.1396   8.7576761503e+01   3.5648668013e+01     0.420689    0.2333558 -35.63  0.001744947    1.890    0.471
       113  -8.8654    118.9342     80.4463   9.8123229668e+01   4.3473025878e+01    0.3815041    0.2601558 -71.90  0.001033354    2.307    0.567
       114  -8.1682    119.9990     76.0025   9.6501906545e+01   4.4082029429e+01    0.2797495    0.2076439 -11.68 0.0007558666    1.668    0.400
       115  -9.2157     36.7453    112.0734   1.3046234526e+02   4.9251453790e+01    0.3382418    0.1954964  68.15  0.001569503    2.737    0.635
       116  -8.4105    149.9828     80.8364   9.0466290623e+01   3.6438729865e+01    0.2819686    0.2446644 -59.70 0.0005200119    1.212    0.175
       117  -8.3798    148.5991     77.3745   8.9787741058e+01   3.7396064449e+01    0.3644544    0.2028845  57.90 0.0008715266    1.870    0.465
       118  -9.0661     74.1399     80.2244   1.1131536328e+02   5.1620267844e+01    0.3737217    0.2210697 -58.62  0.001146998    1.981    0.495
       119  -7.6931     75.3512     74.3277   1.0919673796e+02   5.2600454969e+01    0.2337959    0.1331513  23.50 0.0009762276    2.161    0.537
       120  -8.1497    240.4950     80.0081   7.3963293301e+01   1.4921027374e+01    0.1845499    0.1257458 -11.17 0.0008096893    2.466    0.594
       121  -7.9436     68.8505     79.5755   1.1282861066e+02   5.2522771143e+01    0.3124202    0.1212289 -38.85  0.001199864    2.676    0.626
       122  -8.6619    166.2566     78.7449   8.6293424743e+01   3.2901487341e+01    0.2491235    0.1894682 -41.80 0.0004572622    1.334    0.250
       123  -8.7919    184.6384     76.2618   8.1978637072e+01   2.8816651902e+01    0.4856399    0.2550142 -26.83  0.001005327    2.475    0.596
       124  -7.5391    173.5741     78.4920   8.4722970707e+01   3.1153540448e+01    0.1499468    0.1449943  89.50 0.0001068746    1.019    0.019
       125  -9.0584    130.0233     56.7111   8.7948868742e+01   4.5181283759e+01    0.5851746    0.2349147 -34.41  0.001248432    2.615    0.618
       126  -8.4216    130.4689     64.0613   9.0134939037e+01   4.3893229792e+01    0.3557471    0.2084964 -37.92  0.001175383    1.748    0.428
       127  -9.5086    127.3512     75.1817   9.4322996393e+01   4.2647205870e+01    0.4762673    0.3123812 -64.96  0.000887425    2.211    0.548
       128  -8.6890    129.2578     69.0225   9.1965285811e+01   4.3320339654e+01    0.4958608    0.2617021  26.83  0.001713727    3.244    0.692
       129  -8.9346    115.0537     72.8481   9.6876942624e+01   4.5694451955e+01    0.3826598    0.2105783 -38.20 0.0008466364    1.823    0.451
       130  -7.7757    116.3487     68.3316   9.5124206959e+01   4.6231188819e+01    0.2146097    0.1407381  31.33  0.000989598    1.685    0.407
       131 -10.2378     62.4748     60.8469   1.0930508366e+02   5.6991355755e+01    0.7642847    0.2669666  32.79  0.003060559    3.187    0.686
       132 -10.6440     55.0774     70.8927   1.1490907948e+02   5.6071327936e+01    0.5974388    0.4140041  61.26  0.001260637    2.406    0.584
       133  -9.5435     54.6055     63.4600   1.1285177292e+02   5.7544609910e+01     0.326865    0.2240953  16.04  0.001290451    1.605    0.377
       134  -7.3734    175.3043     72.6813   8.2788533394e+01   3.1737245578e+01    0.1554943    0.1141435 -74.42 0.0007027759    1.629    0.386
       135  -8.7038    169.4246     71.2488   8.3553638526e+01   3.3430786078e+01    0.3505992     0.138745 -40.15 0.0007985323    2.521    0.603
       136  -8.5746    156.6826     69.3180   8.5652130634e+01   3.6870406398e+01    0.3685694    0.1827229 -26.20  0.001133379    2.676    0.626
       137  -9.7337     94.6866     68.1421   1.0125189996e+02   5.0515147779e+01    0.6236317    0.2398495 -44.25 0.0009631558    2.604    0.616
       138  -9.3776     96.9658     58.8804   9.7576153105e+01   5.1703116274e+01    0.7198605    0.4376393 -19.86  0.003329915    2.002    0.500
       139  -7.6574     23.2659     68.9898   1.2551328492e+02   5.9647624681e+01     0.164307    0.1218523 -46.62 0.0003060351    1.077    0.072
       140  -8.8576    138.0295     66.4320   8.9023617891e+01   4.1774492071e+01    0.3432037    0.2202956 -49.81 0.0007183945    1.731    0.422
       141  -8.4664    138.3584     62.3218   8.7694848255e+01   4.2379708612e+01    0.3101038    0.1803352  31.79  0.001232995    2.194    0.544
       142  -9.4538    118.3506     54.5336   9.0191213375e+01   4.8090178720e+01    0.5171903    0.3519595 -38.71  0.001592393    1.528    0.345
       143  -9.5096    121.3682     45.7829   8.6560826928e+01   4.8737721097e+01    0.6739327    0.2915782 -23.19  0.001129901    3.170    0.685
       144  -9.1359    120.9441     65.7455   9.3090365872e+01   4.5703682782e+01    0.3882827    0.2645555 -49.08 0.0009149282    1.623    0.384
       145  -8.1508    122.2878     61.3354   9.1351451839e+01   4.6152413204e+01     0.262321     0.200538  19.47   0.00070711    1.490    0.329
       146 -10.0290    240.5474     63.3988   7.0214554278e+01   1.7577709943e+01    0.2741524    0.2490338 -73.71 0.0005106068    1.086    0.079
       147  -9.5660    244.9310     59.3019   6.8773646869e+01   1.7231068965e+01    0.3105619     0.214724 -30.07 0.0009873412    1.670    0.401
       148  -9.3619    109.7641     63.9033   9.5531006206e+01   4.8354342402e+01    0.3704181    0.2809996 -56.29  0.000718765    1.592    0.372
       149  -8.9769    110.6007     58.1804   9.3451948680e+01   4.9137163032e+01    0.3366801    0.2536793  15.58 0.0008250676    1.504    0.335
       150  -9.3726    146.8761     69.2277   8.7798018505e+01   3.9233109671e+01    0.4056651    0.2687193 -59.50 0.0009926436    1.876    0.467
       151  -9.8547     16.8087     61.0055   1.2581510721e+02   6.1686294067e+01    0.4816838    0.2937835 -50.67  0.003048876    1.300    0.230
       152  -8.6686    157.5895     62.9374   8.3610318180e+01   3.7705824955e+01    0.2600086    0.2137825 -66.08 0.0007474402    1.343    0.255
       153 -10.1465     85.1001     48.1157   9.7539720363e+01   5.5586546652e+01    0.3449518    0.2848023 -66.32 0.0009696916    1.772    0.436
       154 -10.3504     89.5679     38.2601   9.2666908341e+01   5.6225496843e+01    0.7857454     0.298608  36.30  0.003082244    2.908    0.656
       155 -10.1099     73.5088     56.8450   1.0426837741e+02   5.6079332272e+01     1.079656    0.3883608 -35.58  0.002539782    2.897    0.655
       156  -8.7124     80.1396     46.5240   9.8555585850e+01   5.6684159465e+01    0.4101013    0.2002951 -22.65  0.001373078    2.647    0.622
       157  -8.6367    162.6564     72.3762   8.5258713066e+01   3.4896792210e+01    0.3953087    0.2178293 -40.44  0.001659282    1.841    0.457
       158  -8.6454      9.6895     60.4061   1.2828325193e+02   6.2272502885e+01    0.3482023    0.2267402  84.78  0.001893419    2.958    0.662
       159  -8.5297    152.7666     61.0104   8.4066134495e+01   3.9182503245e+01    0.2267624     0.191822 -68.89 0.0006502659    1.311    0.237
       160  -7.7325    164.5253     60.5226   8.1502347591e+01   3.6395282888e+01    0.1476553    0.1380425  82.83  0.000132988    1.042    0.041
       161  -9.7687    215.6562    249.8151   1.1337117253e+02  -9.1815630337e+00    0.3458815   0.09709665  39.24  0.001361626    3.043    0.671
       162  -9.9360    153.8213    249.5136   1.2492412178e+02   1.1884005361e+00    0.4029798     0.182302  44.65  0.001936505    1.823    0.451
       163 -10.8520     21.9824     53.8035   1.2191037439e+02   6.2651510087e+01    0.6637944    0.4283967 -82.01   0.00286384    3.323    0.699
       164  -9.1982     59.0926    109.4604   1.2336195946e+02   4.7370629281e+01    0.3094801    0.2158126  85.59 0.0005488927    1.997    0.499
       165 -10.4728     12.2203     45.7225   1.2336873922e+02   6.4829330514e+01    0.7920028    0.3763025  -0.66  0.003193382    2.825    0.646
       166  -7.2201    114.2451    244.6418   1.3182310653e+02   8.7115216425e+00    0.1255997   0.08400845  75.01 0.0006936532    1.597    0.374
       167  -7.4442    119.6752    239.3132   1.3014263517e+02   8.7866810177e+00     0.134528   0.08589411  68.40 0.0002611908    1.662    0.398
       168  -9.5563      6.8643     32.5169   1.2150414755e+02   6.7448344457e+01    0.2355141    0.1487887  -2.01 0.0008537595    1.612    0.380
       169  -9.5088    188.0148    233.9568   1.1602458043e+02  -2.2344968498e+00    0.2605501    0.1954645 -53.84 0.0008738373    1.657    0.397
       170  -9.0092     87.5127     57.5763   1.0001348276e+02   5.3638560315e+01     0.485976    0.2177293 -41.06  0.001683307    2.198    0.545
       171  -8.5505    141.8767     48.8685   8.2758017754e+01   4.3624604445e+01    0.2751396    0.2079419 -29.87 0.0008068054    1.419    0.295
       172  -7.8927    142.2495     44.4431   8.1308870121e+01   4.4161598927e+01    0.2707607    0.1704242  47.75  0.000984043    1.485    0.327
       173  -9.0737     53.0980     39.1195   1.0521842045e+02   6.1881784701e+01     0.461046    0.1875127 -31.93  0.002097922    2.471    0.595
       174 -10.0395     50.0038     54.4581   1.1164575298e+02   5.9739009782e+01    0.4116165    0.3039528 -61.79   0.00126748    1.849    0.459
       175  -9.7153     55.4917     43.8328   1.0604010049e+02   6.0827519145e+01    0.7894393    0.4037002  -6.24  0.002910406    4.346    0.770
       176  -9.1268    158.4358     53.9929   8.0829352062e+01   3.8893406723e+01    0.3674253    0.2239332  -7.40  0.001448161    2.793    0.642
       177  -8.9046    162.5895     53.8379   7.9963922782e+01   3.7899648638e+01    0.2939406    0.1443756 -35.12 0.0007560896    2.133    0.531
       178  -9.2023    105.3205     52.0061   9.2876389674e+01   5.1186028816e+01    0.5438136    0.2328589 -33.02  0.001697032    2.442    0.590
       179  -9.2812     44.4315     53.2258   1.1328384520e+02   6.0605970785e+01    0.2976972    0.1736313 -34.95  0.000655025    1.492    0.330
       180  -7.8032    249.1972     53.3758   6.6996692881e+01   1.7181281796e+01    0.1800517    0.1148541  85.57 0.0006318779    1.634    0.388
       181  -8.3641    152.4366     53.2978   8.1848571014e+01   4.0454097908e+01    0.2067862     0.131389 -47.18 0.0009527049    1.710    0.415
       182  -8.0825    241.7395     52.3449   6.7617577698e+01   1.8985361633e+01     0.222365    0.1646482  61.47   0.00100547    1.442    0.307
       183  -9.2097    138.7825     55.9505   8.5639442663e+01   4.3292043572e+01    0.5202003    0.2221832 -39.21  0.001386141    2.412    0.585
       184  -9.4339    156.8441     48.8142   7.9626898271e+01   4.0042157882e+01    0.3312801    0.2516603  39.72  0.001711007    1.375    0.273
       185  -9.6191    130.3794     46.3603   8.4573250461e+01   4.6644658339e+01    0.7480956    0.2993189 -22.31  0.002428391    3.973    0.748
       186 -10.5601    137.4298     38.1823   8.0384565198e+01   4.6130490171e+01    0.3450891    0.2991893 -75.74  0.001979885    1.341    0.254
       187  -8.8474    132.8600     36.2615   8.0766358506e+01   4.7434936677e+01    0.3414677    0.1954297 -38.38  0.000563872    1.889    0.471
       188  -8.6885     24.3158    231.6907   1.4692367773e+02   2.3884083240e+01    0.1911557    0.1458545  88.60 0.0005254771    1.174    0.148
       189 -10.2360     37.4865     41.9589   1.1215412111e+02   6.3285501623e+01    0.6109579     0.369203 -65.83  0.002785846    3.787    0.736
       190  -7.3349     22.2938    218.3238   1.4633677498e+02   2.6796977890e+01    0.1020596   0.07883924 -62.43 0.0003348207    1.618    0.382
       191  -8.9519    149.7206     47.6786   8.0727150130e+01   4.1928256557e+01    0.2710649    0.1835357 -43.87 0.0006647345    1.583    0.368
       192  -8.6762    111.9429     46.8190   8.9327269987e+01   5.0607690705e+01    0.2713964    0.2175574 -27.58 0.0004893295    1.282    0.220
       193  -8.2573    113.0170     42.5014   8.7589210075e+01   5.0994906228e+01    0.3792145    0.1820373  30.81  0.001124967    2.843    0.648
       194  -8.2991    162.3703     46.1627   7.7788422276e+01   3.9066496898e+01    0.1955526     0.127023 -45.88 0.0004569937    1.640    0.390
       195  -6.9603    135.7152    217.3194   1.2391399046e+02   1.0191328071e+01    0.1378818   0.09892336  74.27  0.000259557    1.590    0.371
       196  -7.3516     44.5097    209.4483   1.4148106159e+02   2.6080200803e+01    0.1226739   0.09633681  82.16 0.0001653864    1.030    0.029
       197 -10.1149    170.0089    207.3792   1.1515284859e+02   5.7067536197e+00    0.2260974    0.2201078 -68.52 0.0002220763    1.122    0.109
       198  -9.9568     10.6775    207.1744   1.4761864923e+02   3.0302861209e+01    0.4432111    0.3250655  23.95   0.00303797    2.123    0.529
       199  -9.0517    191.8586    194.0401   1.0817809137e+02   3.9935485029e+00    0.5725521     0.319223 -65.27  0.002064276    3.533    0.717
       200 -10.1055     76.1861     31.7805   9.4446939629e+01   5.9461211006e+01      0.40397    0.3418658  89.52  0.001312188    2.045    0.511
       201  -7.3764    170.9917    192.9882   1.1232659272e+02   8.3064958180e+00    0.1772051    0.1500025  43.69 0.0003290821    1.112    0.100
       202  -9.8413    100.9937    175.9989   1.2500350157e+02   2.5346124557e+01    0.2042722    0.1820919  83.96            0    1.012    0.012
       203  -7.8103    230.3710    168.5608   9.5455807942e+01   1.1772592226e+00    0.2794052    0.1131766 -50.75 0.0009508412    3.337    0.700
       204  -8.9187     84.6963     21.9141   8.8040872209e+01   5.9176150028e+01    0.2334241    0.2072421  -3.58 0.0008583813    1.142    0.124
       205  -9.1605    153.5703     41.1598   7.7999414534e+01   4.1898317408e+01    0.3334412    0.2144661 -60.35  0.001048783    1.973    0.493
       206  -8.9349    147.4162     41.0984   7.9203555881e+01   4.3387883273e+01    0.4046318    0.2370329  28.45  0.001718075    2.369    0.578
       207  -9.0725    110.2365     33.1551   8.5102858858e+01   5.2811783622e+01    0.3339989    0.2204739 -41.20 0.0008794291    1.725    0.420
       208  -9.1715    104.8121     40.7819   8.9188030145e+01   5.2929107106e+01     0.355633    0.2341227 -42.31  0.001108033    1.709    0.415
       209  -8.5967    106.3439     36.3022   8.7215894584e+01   5.3217662507e+01    0.2654989    0.1833263  25.81 0.0007774688    1.503    0.335
       210  -7.9259    159.7936     39.0345   7.6195938424e+01   4.0664798945e+01    0.1786784    0.1132597 -32.51 0.0008606616    1.711    0.416
       211  -8.9461    144.0874     36.4647   7.8457303576e+01   4.4784760063e+01    0.2369656    0.1941809 -44.59 0.0004579112    1.336    0.251
       212  -8.8599    118.8036     34.7031   8.3498977059e+01   5.0783723529e+01    0.3228434    0.1796859 -31.93  0.001001218    1.904    0.475
       213  -8.2945    153.2094     34.7729   7.6161315850e+01   4.2812012432e+01    0.1883735    0.1540242  32.64 0.0006894902    1.320    0.242
       214  -7.7280     45.9354    168.3309   1.3670813499e+02   3.5139250086e+01    0.1668689    0.1487411 -88.33 0.0004471455    1.130    0.115
       215  -9.6983    147.3039     55.3605   8.3556893471e+01   4.1374219973e+01    0.5668498    0.2527539 -22.37  0.001918805    3.507    0.715
       216  -9.1419    116.9417    151.9232   1.1665978649e+02   2.8113149287e+01    0.2181333    0.2060073 -84.53  0.000298745    1.013    0.012
       217  -8.1313    152.2238     30.0147   7.4921629179e+01   4.3630666113e+01    0.1653545    0.1149445 -28.38 0.0003740935    1.605    0.377
       218  -9.1844     91.3907     26.3762   8.7773188189e+01   5.7408681622e+01    0.3497438    0.2112176 -45.50  0.001220075    2.175    0.540
       219  -8.5708     92.3853     20.8039   8.5410038849e+01   5.7854043842e+01    0.3183495    0.1739123  29.12  0.001321135    1.925    0.480
       220  -8.9334    154.6856     26.5872   7.3457817397e+01   4.3436740073e+01    0.4569942    0.1109648  60.57  0.001486816    3.427    0.708
       221  -8.6750    143.9702     25.5377   7.5104551264e+01   4.6120872451e+01    0.1922104    0.1825609 -33.16 0.0005392276    1.174    0.148
       222  -8.9032    128.7119     24.7887   7.7941088481e+01   4.9747920943e+01    0.4296758    0.2765878  -3.25  0.001732418    2.016    0.504
       223  -7.9333    134.0000    148.9980   1.1183218223e+02   2.5421624154e+01     0.346597     0.125559 -54.33  0.001091794    3.011    0.668
       224  -9.5759    118.9449     21.4569   7.8971608004e+01   5.2291519947e+01    0.2635448    0.2232243 -26.03 0.0005985099    1.303    0.233
       225  -8.7294    119.4875     17.4813   7.7497148115e+01   5.2583819523e+01    0.3370516    0.2049276  21.59  0.001667198    1.997    0.499
       226  -7.7020    133.5661    144.7676   1.1100632940e+02   2.6484657661e+01    0.2443686    0.1521277 -51.59 0.0009077033    1.591    0.371
       227  -9.8352     67.0170    144.4594   1.2798750262e+02   3.8118543384e+01    0.4906178    0.3378115  73.82  0.002496718    1.694    0.410
       228  -9.1074    111.4908     21.4180   8.0693248849e+01   5.3907157646e+01    0.3191868    0.1840924 -13.64  0.001592477    2.066    0.516
       229  -8.3352    182.1553    144.4881   9.9706288483e+01   1.5970012961e+01    0.2431241    0.2016017 -33.00 0.0002732381    1.260    0.207
       230 -10.4047    228.4655    137.9858   8.9120362030e+01   7.1639704546e+00    0.2629297    0.2539438  74.24 7.947582e-05    1.119    0.107
       231  -9.0081    114.7606    136.6537   1.1393865156e+02   3.2116113326e+01    0.2920273     0.233932 -69.11 0.0003010099    1.279    0.218
       232  -8.2054    111.6951    133.3817   1.1400087710e+02   3.3465094296e+01    0.3071571    0.2143165 -85.29  0.001195524    1.941    0.485
       233  -9.3334    134.5266    131.7143   1.0776029876e+02   2.9273981931e+01    0.5366494    0.3603966  40.34  0.002380696    1.556    0.357
       234  -9.6594     98.4504    128.7035   1.1647097662e+02   3.6973999762e+01    0.6030032    0.3763742  81.15  0.002213124    2.836    0.647
       235 -10.6042     70.0782    126.2196   1.2373276449e+02   4.2029878819e+01    0.6816988    0.5204622 -39.17  0.001784287    1.392    0.281
       236 -10.1254     58.2285    124.6081   1.2671569960e+02   4.3975801412e+01    0.6245605    0.3696409  83.06   0.00229086    2.753    0.637
       237  -9.7282    117.5055    125.7920   1.1071024413e+02   3.4104106325e+01     0.773078    0.4846546  89.77  0.002490207    3.110    0.678
       238  -8.8688     40.9695     20.6185   1.0270845314e+02   6.6057193082e+01    0.2037268    0.1398869 -24.54 0.0001855104    1.266    0.210
       239 -10.3314    123.6415     90.3494   9.9753170406e+01   4.0543432908e+01     0.951116    0.6082104 -25.72  0.002867435    1.938    0.484
       240 -10.9294    121.3942    108.3801   1.0530493781e+02   3.7229466689e+01     1.634996    0.6466522 -45.25  0.005734979    2.471    0.595
       241  -8.9596    132.5044     17.2135   7.4699703467e+01   4.9681424257e+01    0.2390204    0.1635341  58.15 0.0005993002    1.283    0.220
       242  -9.9684    128.0963    101.0468   1.0157013825e+02   3.7395388529e+01     0.922796    0.4686361 -29.98  0.002292833    2.770    0.639
       243 -10.3228    108.7128    112.9029   1.0990234228e+02   3.8735691055e+01     1.175249    0.4804732 -50.18  0.002243715    2.372    0.578
       244 -10.3282    108.4678     99.6286   1.0648992143e+02   4.1693094522e+01    0.9362833    0.5957772  72.17  0.002955323    2.734    0.634
       245  -9.5127     41.1179    121.6332   1.3094666185e+02   4.6620098035e+01    0.4924853    0.2321185 -77.74  0.001603535    2.735    0.634
       246  -9.6543     27.2360    122.8847   1.3498268379e+02   4.7657611336e+01    0.4522979    0.2552628  75.85   0.00192835    2.514    0.602
       247  -8.7864    158.7904    123.1378   9.9789639323e+01   2.5828250557e+01    0.3385039    0.1849013 -63.68  0.001148643    2.765    0.638
       248 -10.5401    131.3686    119.4776   1.0556154837e+02   3.2698647123e+01    0.8221104    0.5263216  85.13  0.002122524    2.951    0.661
       249 -11.1178    133.6510    109.5311   1.0241467875e+02   3.4391704290e+01    0.9082295    0.7069482 -65.29  0.002997671    1.430    0.301
       250  -9.3459    246.6269    119.3244   8.1911528916e+01   6.8126935664e+00     0.250605    0.2336725 -20.86 0.0002198729    1.145    0.127
       251  -9.7905    140.7637    118.5446   1.0296007268e+02   3.0876467461e+01    0.4754542    0.3380348 -84.47    0.0012208    2.026    0.507
       252  -7.7368    232.6574    119.0818   8.4100442353e+01   9.7773415929e+00    0.2410165    0.1470474 -71.98 0.0006948298    2.687    0.628
       253  -7.1924    179.4858    117.4590   9.3752106583e+01   2.2212071291e+01    0.1567628    0.1507476 -78.69 5.901056e-05    1.021    0.021
       254 -10.0983     91.9088    113.2202   1.1467502193e+02   4.1681980541e+01    0.5926601    0.4238053 -83.39  0.001720289    1.900    0.474
       255 -10.2200     14.0492    111.1335   1.3679755679e+02   5.1360397290e+01    0.5590907    0.2881434  78.72  0.002528585    3.168    0.684
       256  -9.2932     14.0761    105.0218   1.3581684540e+02   5.2713236510e+01    0.2663013    0.1500831 -42.20 0.0008685628    1.719    0.418
       257  -7.9188      1.2925    116.1598   1.4099800161e+02   5.1077638911e+01    0.1712188   0.08396421 -77.23 0.0008428462    1.741    0.426
       258  -8.6881    152.8584    115.2180   9.9171756664e+01   2.8883553231e+01    0.2418702      0.21522 -78.97 0.0006808172    1.195    0.163
       259 -10.1645     77.8744    112.8074   1.1860484117e+02   4.4017751766e+01    0.5170593     0.313008 -75.35  0.001651237    2.316    0.568
       260  -9.7007     65.7257    103.0962   1.1992792143e+02   4.7944237041e+01    0.5661049    0.4563678  -3.36  0.003210988    1.496    0.332
