#   1 NUMBER                 Running object number                                     
#   2 MAG_AUTO               Kron-like elliptical aperture magnitude                    [mag]
#   3 X_IMAGE                Object position along x                                    [pixel]
#   4 Y_IMAGE                Object position along y                                    [pixel]
#   5 X_WORLD                Barycenter position along world x axis                     [deg]
#   6 Y_WORLD                Barycenter position along world y axis                     [deg]
#   7 A_WORLD                Profile RMS along major axis (world units)                 [deg]
#   8 B_WORLD                Profile RMS along minor axis (world units)                 [deg]
#   9 THETA_WORLD            Position angle (CCW/world-x)                               [deg]
#  10 FWHM_WORLD             FWHM assuming a gaussian core                              [deg]
#  11 ELONGATION             A_IMAGE/B_IMAGE                                           
#  12 ELLIPTICITY            1 - B_IMAGE/A_IMAGE                                       
         1 -15.3354    107.0512    104.1195   5.9762616771e+01   4.0918126325e+01     1.305553    0.7570367 -52.32  0.005507679    1.869    0.465
         2 -11.5445     99.7447     38.5006   4.0013491736e+01   5.4955078137e+01     0.239948    0.1425979  65.29  0.001030262    1.811    0.448
         3 -10.1501    196.7254    237.4352   6.4324841061e+01   4.1636198138e+00    0.1937585    0.1075018 -11.61  0.001211082    1.775    0.437
         4  -9.9766     19.3917    234.1845   1.0143570182e+02   2.3792354321e+01    0.1515191    0.0873447  70.09  0.000953595    1.757    0.431
         5 -11.2295    198.0078    219.5058   6.1529974038e+01   6.1953981218e+00    0.2231238    0.1313144 -13.81  0.001392673    1.609    0.379
         6 -10.9088    206.2905    218.7410   5.9963684912e+01   5.3461370847e+00    0.2321037    0.1069832 -16.84  0.001188714    2.558    0.609
         7 -12.0055    173.7270    217.7252   6.5780352447e+01   9.3161983680e+00    0.2001207    0.1560485 -38.96  0.001365958    1.626    0.385
         8 -11.2293    222.0399    212.4951   5.6368304905e+01   4.3356683074e+00    0.2953218    0.1515737 -23.44  0.001833897    1.732    0.423
         9 -10.7995    189.4725    214.4927   6.2321864347e+01   7.8420777609e+00    0.1180248   0.08854013   4.98 6.312947e-05    1.004    0.004
        10 -10.7680    164.3938    211.8080   6.6756098834e+01   1.1322442961e+01    0.1651191    0.1004336 -25.80 0.0009553186    1.709    0.415
        11 -10.3737    181.4998    217.4768   6.4256002218e+01   8.4052863578e+00    0.1189962   0.08937205   6.86 0.0002225835    1.009    0.009
        12 -11.0488    202.1953    203.8056   5.8360849962e+01   7.7027564851e+00    0.1714701    0.1113012  -0.69  0.001089744    1.359    0.264
        13 -11.3576    132.9825    203.4969   7.2246283558e+01   1.6752113622e+01    0.1917555    0.1696397 -12.75   0.00127293    1.187    0.158
        14 -12.0931    166.7793    203.1210   6.4956895572e+01   1.2298468503e+01    0.3379627    0.1216158  24.73  0.001362323    3.014    0.668
        15 -11.7196    188.0132    196.5064   5.9756503501e+01   1.0473141949e+01    0.2389613    0.1472664 -15.98   0.00139621    1.593    0.372
        16 -10.2181    113.3336    197.3115   7.5957638819e+01   2.0486303571e+01    0.1335845   0.09282346  -5.04 0.0007044189    1.679    0.404
        17 -10.4691    181.6623    203.6589   6.2112508881e+01   1.0286139283e+01    0.1291114   0.07760104  -1.56 0.0007050277    1.765    0.433
        18 -11.5040    197.8176    195.1684   5.7734059993e+01   9.3943295351e+00    0.1763205    0.1171996  -0.17   0.00109565    1.357    0.263
        19 -10.6687    165.3280    192.6666   6.3584618190e+01   1.4090194469e+01    0.1143268   0.09865975  54.15   0.00052363    1.719    0.418
        20 -10.4924    212.5181    194.4841   5.5055769854e+01   7.6469420264e+00    0.1174605   0.08814834  -1.58 0.0008101796    1.010    0.010
        21 -11.4599    181.9891    189.5063   5.9735501345e+01   1.2281382098e+01    0.1900312    0.1064805  29.71  0.001042419    1.618    0.382
        22 -11.2158    130.2035    188.4029   7.0638516725e+01   1.9769210646e+01    0.1920161    0.1073662  38.47  0.000948953    1.671    0.402
        23 -11.5056     94.4936    186.0091   7.9133674361e+01   2.5199588277e+01    0.1887284    0.1346346 -57.10  0.001037815    1.605    0.377
        24 -12.9872    112.8213    184.2383   7.4212077103e+01   2.3022212930e+01    0.3380589    0.2861212  25.95  0.002046624    1.045    0.043
        25 -13.7985    122.8310    183.0142   7.1558058560e+01   2.1820331896e+01    0.7607736    0.2952512 -40.32   0.00301642    3.041    0.671
        26 -10.9647    187.2511    182.3841   5.7504697493e+01   1.2605227995e+01    0.2359512    0.1354951 -24.47  0.001285943    1.713    0.416
        27 -11.3491    179.4081    182.7796   5.9082108109e+01   1.3642699549e+01    0.1785077    0.1047531 -25.36 0.0008576154    1.702    0.412
        28  -9.8307    207.6541    182.9813   5.3927448040e+01   9.7734372699e+00    0.1729503   0.09184837 -52.53 0.0007050254    4.449    0.775
        29 -12.5654    152.8761    177.6458   6.3693686388e+01   1.8335992875e+01    0.3346866    0.1497993 -42.93  0.001510342    2.352    0.575
        30 -12.0893    165.2598    176.3757   6.0813577205e+01   1.6699090510e+01    0.2439367    0.1487763 -26.62     0.001283    1.690    0.408
        31 -12.3338    152.8031    167.5423   6.1895329847e+01   2.0096585244e+01     0.287362    0.1812185  10.76  0.001404408    1.830    0.454
        32 -14.7754    118.5552    159.4282   6.8652870911e+01   2.7086974855e+01    0.7108983    0.6323897  13.55  0.004145014    1.033    0.032
        33 -12.6267     95.1319    161.6504   7.5369157689e+01   3.0222586019e+01    0.3566475    0.2595357  -6.09  0.001779972    1.679    0.404
        34 -12.7087    139.9919    151.4519   6.1762682685e+01   2.5125875309e+01    0.4598356    0.1630139 -45.77  0.001694619    2.943    0.660
        35 -12.2807    160.6758    152.4459   5.7253360467e+01   2.1466114978e+01    0.2755679    0.1661378 -35.69  0.001373389    1.649    0.393
        36 -14.6121    108.7933    141.3051   6.7834730754e+01   3.2494440243e+01     1.019161    0.5874885  14.13  0.004026064    2.457    0.593
        37 -12.6432    126.6168    109.7971   5.5720332645e+01   3.5832537726e+01    0.3765834    0.2747944 -52.42  0.001814431    1.503    0.335
        38 -14.5985     85.1547    106.3104   6.7379019229e+01   4.4518330360e+01    0.9355501    0.5985443  23.97  0.004083151    1.725    0.420
        39 -15.9081     98.3024    112.3951   6.4560800043e+01   4.0757623851e+01     2.162642      1.00359 -40.80  0.008071802    2.394    0.582
        40 -12.3582    131.9122    100.6234   5.1944881513e+01   3.6555412888e+01    0.3943301    0.1822354  43.04  0.001525711    2.152    0.535
        41 -13.8343     90.6363     87.4312   6.0374058096e+01   4.7792545586e+01      0.52746    0.4315134  -1.92  0.002589289    1.436    0.304
        42 -11.1503     80.9912    145.4892   7.6829290858e+01   3.5940229055e+01    0.2195954    0.1014583  49.34 0.0008103863    2.546    0.607
        43 -12.4594     76.2607     93.1310   6.7147021692e+01   4.9167692809e+01    0.3465562     0.266257 -74.70  0.001643081    1.593    0.372
        44 -12.5851     63.1746     90.0093   7.1407034073e+01   5.2082647889e+01    0.4697936    0.2973075 -19.92  0.001903943    2.278    0.561
        45 -10.6507     58.3278     81.3239   7.1069091153e+01   5.4938593724e+01    0.1569986    0.1129731 -19.47 0.0005055013    1.694    0.410
        46 -12.5610    152.2027    142.5298   5.7078654675e+01   2.4684826446e+01    0.3390708    0.1896627 -44.99  0.001562955    1.878    0.467
        47 -11.9373     63.6882     97.8854   7.3189196852e+01   5.0076279897e+01    0.2697475    0.2114815  13.50    0.0013305    1.378    0.275
        48 -10.5814    176.6683    137.3275   5.0804083232e+01   2.1315941187e+01    0.1257878    0.1095736 -78.40 0.0007051468    1.713    0.416
        49 -10.0516     11.0037    244.5027   1.0355495230e+02   2.2650374736e+01    0.1710599   0.03690847  41.17 0.0008105576    2.560    0.609
        50 -12.5311     76.4765     75.2826   6.1778871013e+01   5.3208089215e+01    0.3076938    0.2958294  16.17  0.001687532    1.007    0.007
        51 -12.1530     84.4324     72.8986   5.8006225446e+01   5.2165061289e+01    0.3236014    0.2038237  24.56  0.001342696    1.952    0.488
        52 -13.4545     92.8779    141.6612   7.2529674636e+01   3.5017190675e+01    0.4550186    0.3295684 -48.50  0.002277721    1.447    0.309
        53 -12.3213    138.5025    125.8933   5.6616534609e+01   3.0324151212e+01    0.3113239    0.2211118 -56.38  0.001498669    1.701    0.412
        54 -11.7761     81.9955    121.9895   7.2037714617e+01   4.1341402118e+01     0.249492    0.1826522 -16.39  0.001147883    1.725    0.420
        55 -10.7166     48.0296     60.9762   6.9544865355e+01   6.1311700716e+01     0.244717    0.1711965 -19.05  0.001137615    1.717    0.417
        56 -10.7434    107.4908     48.4853   4.1790342548e+01   5.1533737927e+01    0.1480116    0.1412013  43.96 1.655988e-05    1.017    0.017
        57 -10.6269     85.3261     48.6725   4.8742780171e+01   5.6702000675e+01     0.149893    0.1195294 -83.91 -0.0001473103    1.699    0.411
        58 -10.8918    126.4965     43.5064   3.5373831167e+01   4.7596918882e+01    0.1437199    0.1383694  61.54 3.221425e-05    1.019    0.019
        59 -11.2716     72.3437     40.1456   4.9982562811e+01   6.1062572380e+01    0.2899489    0.1372218 -30.14  0.001093188    2.547    0.607
