#   1 NUMBER                 Running object number                                     
#   2 MAG_AUTO               Kron-like elliptical aperture magnitude                    [mag]
#   3 X_IMAGE                Object position along x                                    [pixel]
#   4 Y_IMAGE                Object position along y                                    [pixel]
#   5 X_WORLD                Barycenter position along world x axis                     [deg]
#   6 Y_WORLD                Barycenter position along world y axis                     [deg]
#   7 A_WORLD                Profile RMS along major axis (world units)                 [deg]
#   8 B_WORLD                Profile RMS along minor axis (world units)                 [deg]
#   9 THETA_WORLD            Position angle (CCW/world-x)                               [deg]
#  10 FWHM_WORLD             FWHM assuming a gaussian core                              [deg]
#  11 ELONGATION             A_IMAGE/B_IMAGE                                           
#  12 ELLIPTICITY            1 - B_IMAGE/A_IMAGE                                       
         1 -13.1324    214.5495     47.8279   1.3895921329e+00   2.5949760030e+01    0.6835848    0.6697881 -24.89  0.001517788    1.267    0.211
         2 -10.7147      2.3853     39.7326   6.9056875823e+01   7.1606654072e+01    0.3317611    0.2574468 -60.04 0.0007549284    1.154    0.133
         3 -12.6100    242.7934     28.4487   3.5482622262e+02   2.2741927464e+01    0.7634002    0.4851446 -81.39  0.004871567    1.621    0.383
         4 -12.0100    243.7747     21.9940   3.5339724002e+02   2.3277840641e+01     0.641796    0.3258495  88.41  0.003617245    2.170    0.539
         5 -11.8056      4.2540     24.6291   6.3014812754e+01   7.5028615384e+01    0.6811997    0.3750545  38.94  0.003447718    2.157    0.536
         6  -9.6053    189.4672     14.9651   3.5526378683e+02   3.5444465491e+01    0.1897947    0.1180939 -32.11 0.0006845826    1.563    0.360
         7 -10.0563    227.3908      9.5930   3.5156446161e+02   2.7767343977e+01    0.2368906    0.1709419 -56.87 0.0007385556    1.060    0.057
         8 -11.2910      2.0138      8.5228   5.7919361175e+01   7.8601250612e+01    0.7296636    0.1872278 -57.06  0.002904888    3.166    0.684
         9  -9.3281    108.6940      5.3434   1.2066502155e+00   5.7082506225e+01    0.1482764   0.09523325 -63.17 0.0007042186    1.689    0.408
        10 -10.1463    102.9511    239.2056   6.1288628941e+01   1.1896062409e+01    0.2116914    0.1786827 -50.12 0.0004906922    1.491    0.329
        11  -9.5213    101.1561    249.9683   6.2701193004e+01   1.0341466467e+01    0.1925913    0.1566489 -41.59  0.001335843    1.573    0.364
        12  -8.7091    100.8562    244.1543   6.2225262201e+01   1.1328120637e+01    0.3349289    0.1782932  61.35  0.001630254    2.852    0.649
        13  -9.5310     74.8706    250.1975   6.8367138815e+01   1.3428003439e+01    0.1739553    0.1277434  43.62  0.001094823    1.115    0.103
        14  -8.1776     76.0000    245.5167   6.7770795828e+01   1.4099762330e+01    0.3438604    0.1266691 -59.55  0.001631574    3.261    0.693
        15  -9.6084     54.4641    250.5301   7.2786831873e+01   1.5666642597e+01    0.2087346    0.1238065  30.69 0.0005857453    1.332    0.249
        16  -9.8121     51.4940    250.4992   7.3422606068e+01   1.5993925050e+01     0.186214     0.152641  28.45 0.0007993107    1.219    0.179
        17 -14.1578     70.5307    190.2491   6.4048258313e+01   2.5812901255e+01     2.473364     2.275185 -36.99  0.008486316    1.297    0.229
        18 -15.2331     44.5673    235.4738   7.4099872818e+01   1.9481225541e+01      3.51191     1.587497 -70.75   0.01586541    2.569    0.611
        19 -15.2759     67.9183    149.9458   5.9637067599e+01   3.5923010482e+01     11.78616       5.6242 -76.55   0.04387703    2.620    0.618
        20  -9.3501    194.9426    226.9624   4.0963996036e+01   2.0945842431e+00    0.1719565    0.1355337   2.28 0.0005203253    1.066    0.062
        21  -9.0467    110.1638    223.1570   5.7956757942e+01   1.3759070076e+01    0.1772668     0.129762  46.60 0.0005343341    1.327    0.246
        22 -10.1736    165.5706    215.9208   4.4974719427e+01   7.4175231856e+00    0.2792194    0.1721191 -10.72  0.001102143    1.952    0.488
        23  -9.8745    210.8888    198.7501   3.3719538211e+01   3.9588010754e+00     0.200428    0.1603226 -11.08 0.0005005105    1.089    0.081
        24 -10.4963    192.3018    193.8816   3.6243724678e+01   7.1402687078e+00    0.6126852    0.3312623 -61.05  0.001863521    7.959    0.874
        25 -10.0670     51.4978    187.4445   6.8924913334e+01   2.8852216599e+01    0.2997325    0.1800534  77.12  0.001004271    1.842    0.457
        26 -15.7678      6.6441    141.2349   7.8884653484e+01   4.4757225224e+01     7.993734     2.117931 -86.16   0.02603745    3.758    0.734
        27 -11.5408     63.3055    182.2066   6.5145258826e+01   2.8611137524e+01    0.4737018    0.2906787  55.58  0.001732284    1.585    0.369
        28 -10.1059    116.8154    182.1438   5.0829701845e+01   2.0784680032e+01    0.2209334    0.1829292  52.79  0.001050135    1.261    0.207
        29  -9.6957    174.9358    179.3018   3.7082626782e+01   1.2040326484e+01    0.2101464    0.1777107 -39.25 0.0004869715    1.301    0.231
        30 -11.0473    179.3390    165.8782   3.3703515182e+01   1.3650108571e+01    0.7819923    0.5097623 -34.27  0.004162871    1.486    0.327
        31 -10.6847    171.6562    174.7113   3.6919541390e+01   1.3349444268e+01    0.3314815    0.3053851 -29.75 0.0009943964    1.195    0.163
        32 -10.5250    173.4544    170.9511   3.5853132167e+01   1.3719796292e+01    0.4426754    0.3164919 -71.83    0.0017042    2.590    0.614
        33 -11.0942    233.7971    166.3936   2.4333745738e+01   5.4765252608e+00    0.2363435     0.173168 -48.45  0.001495382    1.792    0.442
        34  -9.8148    110.9981    167.4022   4.9929911668e+01   2.4914092047e+01    0.2860764    0.2179637  76.99 0.0009251714    1.695    0.410
        35 -10.9214    237.7781    160.7558   2.2708769411e+01   5.7265049492e+00    0.2964335    0.1137308 -41.53  0.001390437    2.530    0.605
        36 -11.4340     46.5775    159.1025   6.7536522286e+01   3.6368689504e+01    0.3008213     0.236303  64.23 0.0005403911    1.191    0.160
        37 -10.1837    134.4032    148.6767   4.0329290544e+01   2.4889741005e+01    0.4569752    0.2437322 -55.82  0.001861293    2.166    0.538
        38 -10.4313    133.3692    142.7281   3.9347956588e+01   2.6365223325e+01    0.7112811    0.2499458 -55.97  0.002107546    4.001    0.750
        39  -9.3988    123.8957    150.3815   4.3370881646e+01   2.6454528770e+01    0.2343329    0.2043832 -71.33   0.00061891    1.297    0.229
        40 -11.4368     85.7515    144.7805   5.3202757657e+01   3.4479691815e+01    0.6280565    0.4611171 -15.94   0.00264856    1.898    0.473
        41 -10.8220    108.9657    145.2887   4.6428001274e+01   3.0334810909e+01    0.3095467    0.2954812  23.09 0.0006313212    1.059    0.055
        42 -10.4318     36.8216    142.4384   6.8846164688e+01   4.1816248973e+01    0.3303834     0.233197 -78.88  0.000821741    1.375    0.273
        43  -8.7263     38.2136    137.7565   6.7824559554e+01   4.2914155590e+01     0.323099    0.1441715  46.72  0.001279537    2.153    0.536
        44 -10.3637     28.4934    143.0838   7.1722603541e+01   4.2489834048e+01    0.3613227    0.2810939  32.65 0.0006986917    1.280    0.218
        45  -8.3243    126.3284    135.7076   3.9652865378e+01   2.9266076650e+01     0.153485    0.1199256  74.18 0.0002666112    1.625    0.384
        46 -11.4389    103.9047    131.8107   4.5107495360e+01   3.4476311196e+01    0.7738909    0.5717977  13.82  0.002565726    1.706    0.414
        47  -9.8732     40.2505    132.3525   6.6427557636e+01   4.4140098879e+01    0.7152815    0.1864627  37.71 0.0003452066    3.152    0.683
        48 -10.8351     44.3088    130.1517   6.4674338655e+01   4.4265224877e+01    0.5548971    0.4586282  80.85  0.002208264    1.179    0.152
        49 -11.6289     87.8998    131.9023   5.0068411488e+01   3.7351298827e+01    0.2870122    0.2866222 -77.54  0.000376175    1.065    0.061
        50  -8.9251    118.2530    132.2534   4.1076121960e+01   3.1623963683e+01    0.2018159    0.1759117  75.36  0.000249161    1.281    0.219
        51 -10.0831    135.4547    126.0487   3.5083308603e+01   2.9569349290e+01    0.6211634    0.1858178 -53.57  0.001605666    4.845    0.794
        52 -10.2962    110.3503    126.0552   4.1922723820e+01   3.4615703512e+01    0.3337675    0.2901902  30.37 0.0006880387    1.175    0.149
        53  -8.5121    219.3534    126.2092   1.8626431908e+01   1.3543623617e+01    0.1771828    0.1014979 -42.15 0.0003528806    1.586    0.369
        54 -10.0971     97.3955    121.2820   4.4751390100e+01   3.8270485338e+01    0.2928157    0.2636524   6.69  0.000763346    1.255    0.203
        55 -10.0633    115.8640    121.1477   3.9180324321e+01   3.4665562401e+01    0.2517994    0.2163361  76.95  0.001238059    1.303    0.233
        56 -17.6027      5.1377    218.4142   8.2371560351e+01   2.6683194546e+01     3.448462     1.765386  73.34   0.01964648    1.767    0.434
        57  -9.3689     27.5572    119.2918   6.9449607643e+01   4.8989005605e+01    0.2763492    0.1357042 -82.77  0.001106759    2.075    0.518
        58 -10.4377     36.9068    117.1310   6.5537757192e+01   4.8639351584e+01    0.4412904     0.209176  35.58  0.001810846    2.003    0.501
        59 -10.5023    245.9901    116.9820   1.3148619400e+01   1.0667530429e+01    0.1888921    0.1308657 -55.83  0.001150068    1.738    0.425
        60  -9.5345    106.9578    116.0394   4.0551900104e+01   3.7665797693e+01    0.2288058    0.2212234  74.48 -0.001877172    1.026    0.025
        61 -11.1620     30.2703    108.7526   6.6938048075e+01   5.1609685385e+01    0.5950885    0.2455262  40.50  0.001828291    2.351    0.575
        62 -11.1852     24.2604    104.9889   6.8892187480e+01   5.3189906309e+01     0.401637    0.3434572 -84.09 0.0009899273    1.093    0.085
        63  -9.7607    114.7615    108.4337   3.6311001640e+01   3.7825753841e+01     0.224843    0.1510525  32.22  0.000949014    1.655    0.396
        64  -8.6080     71.4237    232.4933   6.7777309237e+01   1.6987921588e+01    0.1245488   0.09923421  39.19 0.0001411286    1.018    0.017
        65  -8.6862     94.6902    107.9862   4.2396975290e+01   4.2056456724e+01    0.2138333      0.19825 -64.28 0.0002271906    1.089    0.082
        66 -10.4915    119.6949    229.2327   5.6520282887e+01   1.1426398903e+01    0.2821364    0.2386954 -74.64  0.001867158    1.597    0.374
        67  -9.2740     60.0367    100.1250   5.3086212423e+01   5.0209076935e+01    0.2969936    0.1963261  54.28  0.001064193    1.654    0.396
        68 -15.0606     10.2062    206.2253   8.0797045005e+01   2.8820552047e+01    0.7934552     0.459268  10.04  0.002458847    2.186    0.543
        69  -9.3243     33.7951     97.1895   6.3536072818e+01   5.4402609857e+01     0.387246    0.1342786  42.00  0.001328686    2.933    0.659
        70  -9.9595     28.1496     94.1008   6.5498886939e+01   5.5802203091e+01    0.4710531    0.1759825  42.68  0.001461911    2.779    0.640
        71 -11.6064    126.3523    229.8388   5.5131536776e+01   1.0444291998e+01    0.4607712    0.3462096   2.76  0.002875466    1.401    0.286
        72 -10.0180     56.9329     86.9588   5.1088204486e+01   5.4112670435e+01    0.3148732    0.2123065  39.83 0.0006604705    1.483    0.326
        73  -8.8433     71.0708     86.0067   4.4951243474e+01   5.1973473586e+01    0.2487483    0.1851366  72.56 0.0008231316    1.681    0.405
        74  -9.7173     37.5508     84.1983   5.9166190535e+01   5.7468395903e+01     0.557412    0.1795587  46.81  0.001644565    4.103    0.756
        75 -10.5631     16.9470     84.0000   6.9062752327e+01   5.9456434006e+01    0.3718098    0.1872945  15.15  0.001298448    2.172    0.540
        76 -10.9105     16.9639     80.9135   6.8546992090e+01   6.0280288589e+01    0.3142224    0.2829325 -71.99 0.0004455568    1.031    0.030
        77  -9.7294     50.0351     82.6974   5.3003672866e+01   5.6237975590e+01    0.2073035    0.1904222  34.97 0.0004005217    1.109    0.098
        78  -8.3822     92.5026     79.5043   3.4956140359e+01   4.9227114341e+01    0.1572172    0.1522061  73.26 0.0008106221    1.016    0.016
        79  -9.8710    155.4775    227.5096   4.8670025780e+01   6.9752530724e+00    0.1229729    0.0981515  17.55 7.798529e-05    1.019    0.018
        80  -9.0691    184.5358     76.9607   1.2415770670e+01   2.8197807792e+01    0.1894742     0.124466  -8.05 0.0007085961    2.424    0.587
        81  -8.4538     46.3378     80.2978   5.4069174061e+01   5.7374199518e+01    0.1550706    0.1117691 -25.18 0.0004234766    1.657    0.397
        82 -15.4018     43.1485    177.8624   7.0399636594e+01   3.2094339754e+01     4.390422     2.497708 -42.54   0.01998128    2.374    0.579
        83 -12.3398    192.6028     63.2937   7.7168998748e+00   2.8518709027e+01    0.7831305    0.5293104  39.31  0.001393058    1.953    0.488
        84 -13.0045    206.4235     53.8974   3.6916098390e+00   2.6849125437e+01    0.9390209     0.785504 -46.13   0.00337065    1.066    0.062
        85  -9.3051    222.2028    224.7506   3.5917733203e+01  -7.5162812364e-01    0.1499946   0.09675779  -2.31 0.0003910865    1.292    0.226
        86  -9.3933     75.4344     65.2037   3.6423092684e+01   5.6002981903e+01    0.3730547     0.231282  74.60  0.001213145    3.058    0.673
        87 -11.1716     13.3127     60.0296   6.6528605240e+01   6.5984125323e+01     0.321777    0.2515041 -62.86 0.0006533195    1.170    0.145
        88  -8.3138    143.9950     61.0082   1.4977361873e+01   4.0464473863e+01    0.1780775    0.1667216 -81.40            0    1.004    0.004
        89 -10.2543    174.9470    223.0528   4.4154538026e+01   5.1152064055e+00    0.1885857    0.1490362   7.72 0.0006566188    1.027    0.026
        90 -10.9733      1.8503     48.5041   7.1339958596e+01   6.9482856638e+01     0.564909    0.1328961 -76.72  0.001754818    4.351    0.770
        91 -10.1972     25.7000     45.9858   5.4808090139e+01   6.8364154130e+01    0.2495788    0.1971354  16.36 0.0004402079    1.288    0.224
        92 -12.1577    229.8932     40.3798   3.5833448952e+02   2.3798623577e+01    0.4688529    0.2392578 -42.48  0.002558438    1.524    0.344
        93  -8.7480     94.0119    249.0699   6.4150420881e+01   1.1351724771e+01    0.1966676    0.1125985  50.83  0.001129477    1.749    0.428
        94  -8.6127     40.9446     36.0509   4.1097781967e+01   6.8495164916e+01    0.1628774    0.1523483 -10.05 0.0003316527    1.024    0.023
        95 -12.2894    133.7629    229.4195   5.3477064344e+01   9.5334212542e+00    0.6629654    0.3213055  17.51  0.003051587    2.375    0.579
        96  -9.5391     68.1676    246.2958   6.9542979040e+01   1.4873846625e+01    0.2921533    0.1882125  74.47  0.001792596    1.863    0.463
        97  -9.6081    125.0832    244.0721   5.7032314621e+01   8.3191165598e+00    0.2010349    0.1575032 -47.60 0.0008307587    1.615    0.381
        98 -10.3381     17.5069     25.9676   5.2444380741e+01   7.3678291364e+01    0.2413866    0.1834983  18.62 0.0005473892    1.305    0.234
        99  -9.0753    125.1541    238.7956   5.6431510526e+01   9.1413006459e+00    0.1933498    0.1333777 -39.21 0.0007654275    1.750    0.428
       100  -9.7434     60.7491     21.1741   2.2832979419e+01   6.7291356533e+01    0.2866852    0.2175182  58.06 0.0006186559    1.343    0.255
       101  -9.1256    150.6684    242.6695   5.1598772911e+01   5.3355566200e+00    0.1216684   0.07761814   0.63 0.0004784117    1.720    0.419
       102  -9.9914     35.4849     13.4941   3.1788454799e+01   7.3478066796e+01    0.1335422      0.11726  11.83 0.0008103505    1.024    0.024
       103  -8.6996     70.0000    241.4471   6.8788682589e+01   1.5519932879e+01    0.1999954   0.06988021 -69.22 0.0007833085    3.602    0.722
       104  -8.5671    198.2959    240.6823   4.2310873593e+01  -4.5565267702e-02   0.09458545   0.08091358  30.36 0.0005457217    1.609    0.378
