#   1 NUMBER                 Running object number                                     
#   2 MAG_AUTO               Kron-like elliptical aperture magnitude                    [mag]
#   3 X_IMAGE                Object position along x                                    [pixel]
#   4 Y_IMAGE                Object position along y                                    [pixel]
#   5 X_WORLD                Barycenter position along world x axis                     [deg]
#   6 Y_WORLD                Barycenter position along world y axis                     [deg]
#   7 A_WORLD                Profile RMS along major axis (world units)                 [deg]
#   8 B_WORLD                Profile RMS along minor axis (world units)                 [deg]
#   9 THETA_WORLD            Position angle (CCW/world-x)                               [deg]
#  10 FWHM_WORLD             FWHM assuming a gaussian core                              [deg]
#  11 ELONGATION             A_IMAGE/B_IMAGE                                           
#  12 ELLIPTICITY            1 - B_IMAGE/A_IMAGE                                       
         1 -10.9043     35.6240     60.6905   9.0770240954e+01   6.1243252404e+01     1.602662    0.7113326 -24.96  0.005942488    3.658    0.727
         2 -10.8591     21.9162     53.4447   9.4598513040e+01   6.4018932520e+01    0.8209516     0.527077 -88.04  0.002969956    3.543    0.718
         3 -11.0767     23.6512     32.4541   8.6544107350e+01   6.7683722918e+01     1.394938    0.4989125 -35.63  0.003395107    2.740    0.635
         4 -10.3115     45.5214     29.0934   7.4945065378e+01   6.5510941822e+01    0.6325596    0.4706594   2.23  0.003321846    1.246    0.198
         5 -10.2223      4.7904     41.4454   9.9131329134e+01   6.7605575208e+01    0.7314034    0.3038354 -59.09  0.002805357    2.285    0.562
         6 -10.1339     73.5245     17.4893   5.9337911954e+01   6.2231292467e+01      1.07269    0.3339497 -25.03  0.004007442    3.994    0.750
         7  -7.7753     72.1793      8.1942   5.5830098509e+01   6.3444315986e+01    0.1924055    0.1477965   3.58 0.0003154021    1.325    0.245
         8  -9.4909     77.9679      4.0643   5.2351350849e+01   6.2665307802e+01    0.4269091    0.2869355   0.14  0.002174814    1.670    0.401
         9 -10.3338     69.6827     39.6597   6.9591800356e+01   6.0054694896e+01     1.304965    0.3839446 -36.57  0.004733777    3.540    0.718
        10  -9.7805     78.9095     24.1287   6.0318702972e+01   6.0420586748e+01    0.5842264    0.2723518  31.05  0.001657547    2.573    0.611
        11 -10.8052    134.0916     30.9133   4.8893978309e+01   4.7420600671e+01    0.3604871    0.2798044   3.54            0    1.650    0.394
        12  -9.3092    101.1379     31.3167   5.6579938605e+01   5.4930931030e+01    0.7141931    0.2554356 -26.51  0.002562969    3.448    0.710
        13  -9.5612    103.4405     19.1849   5.1595402552e+01   5.5812700636e+01     0.748321    0.3096066 -17.16  0.002456411    3.511    0.715
        14  -9.0321    102.1622      8.0546   4.7823382660e+01   5.7168087667e+01    0.3183027    0.2209964 -75.29 0.0005641328    2.063    0.515
        15  -8.8242     97.6069      6.1852   4.8164081016e+01   5.8335342721e+01    0.2175356    0.1790954  33.57 0.0008007234    1.149    0.129
        16  -8.7273     95.8275      2.7950   4.7290183851e+01   5.9005731677e+01    0.2195499    0.2084095 -58.61 0.0005911875    1.279    0.218
        17 -10.0742     63.1480      3.0507   5.6477032554e+01   6.5641594416e+01    0.4730116    0.3743635   0.19  0.003214122    1.259    0.206
        18  -9.6548     60.8205     31.8088   6.9800077537e+01   6.2728130279e+01    0.7834185    0.4124919 -26.10  0.002818293    2.057    0.514
        19  -9.7050     63.2632     21.1969   6.4453685305e+01   6.3703949173e+01    0.4993235    0.2804813 -44.87  0.002351064    2.397    0.583
        20  -9.8332     64.6586     13.3110   6.0541287760e+01   6.4353637471e+01    0.3283001    0.2705298 -14.33 0.0002252955    1.266    0.210
        21  -9.6837     10.7642     18.3974   8.7605030050e+01   7.1169006320e+01    0.6422049    0.2750489 -11.74  0.002520687    4.375    0.771
        22  -9.1228    133.3694     11.8665   4.3055038949e+01   4.9628304633e+01    0.4620422    0.1711153 -45.05  0.001856884    3.256    0.693
        23  -9.5677    131.7211      5.3212   4.1279625242e+01   5.0606315636e+01    0.5518643    0.2286376  48.87  0.002120399    2.228    0.551
        24  -7.8996    136.5215      1.4623   3.9353654520e+01   4.9797964694e+01    0.1845581    0.1072267  79.07 0.0005290676    1.622    0.384
        25 -10.1662     18.2404      5.0605   7.7174897152e+01   7.2306526486e+01    0.5854179    0.3281663 -41.51  0.002745557    2.079    0.519
        26 -10.8147     37.3542      9.5033   6.9761410017e+01   6.9284462262e+01    0.8332273      0.36668 -38.58  0.002813323    2.586    0.613
        27  -9.4204     25.0276     11.1632   7.6585134307e+01   7.0720999444e+01    0.4092793    0.2437015  13.37  0.002491728    1.611    0.379
        28  -9.3095     29.9878     10.7745   7.3891626165e+01   7.0145470447e+01    0.3585871    0.2990405 -63.89  0.002307449    2.380    0.580
        29  -8.8385    112.3773     15.5046   4.8251504468e+01   5.4173092434e+01    0.2942666    0.1988221 -37.48  0.001503657    1.684    0.406
        30  -9.0318    114.3441      9.7420   4.5848097911e+01   5.4265698220e+01    0.3327846    0.1862294  40.85  0.000619619    1.765    0.433
        31  -9.1332     96.1896     14.9930   5.1831362464e+01   5.7831216321e+01    0.4787484    0.2266449 -16.67  0.002172308    2.712    0.631
        32  -8.0411    120.9770      6.4237   4.3465164590e+01   5.3025898498e+01    0.2307257    0.1645203  80.52 0.0006629488    1.415    0.293
        33  -8.4872    121.0185     15.1352   4.6355195705e+01   5.2216865353e+01    0.2749046    0.1790179   8.08  0.001410222    2.123    0.529
        34  -9.0390    125.0777     13.0321   4.4889586026e+01   5.1471682419e+01    0.2899887    0.2339614  48.54 0.0009795434    1.153    0.133
        35  -8.7997    126.8930      8.8836   4.3218701453e+01   5.1429129101e+01    0.2183032    0.1938034 -35.96 0.0006054727    1.300    0.231
        36  -8.6376    125.7198      4.8198   4.2109898869e+01   5.2057089694e+01    0.3499667    0.2100437  40.33    0.0014895    1.729    0.421
        37  -9.3653      2.3232     14.1640   9.0648057586e+01   7.2506662548e+01    0.3932515    0.2096969 -58.77  0.001992052    2.767    0.639
        38 -10.4259      5.5018      4.6977   8.4376405649e+01   7.3646617764e+01     0.532778    0.3459521   3.92  0.001829205    1.322    0.244
        39  -9.6204     85.4396     12.9662   5.3894794495e+01   6.0313504734e+01    0.3925508    0.2551765 -54.22  0.001765671    2.306    0.566
        40  -8.1492     85.2241      6.4638   5.1345315027e+01   6.0963815298e+01    0.3117972    0.1477603  31.62  0.001445281    2.375    0.579
        41  -8.3682    141.8118     12.1965   4.1788427153e+01   4.7590514492e+01     0.191457    0.1606988 -79.44 0.0005695917    1.214    0.176
        42  -8.2599    155.9902     10.0232   3.9112949890e+01   4.4414122044e+01    0.1526687    0.1374594  87.84 0.0009416149    1.076    0.071
        43 -10.1918     51.3801     15.0541   6.6323203791e+01   6.6466200771e+01      1.15563    0.6027634  12.71   0.00512379    2.837    0.648
        44  -7.4854    146.7021      8.3726   3.9929031673e+01   4.6783763639e+01    0.1337674   0.08685749 -67.08 0.0007028409    1.742    0.426
        45  -8.4848    137.5346      8.4759   4.1332486661e+01   4.8954277319e+01    0.1287879    0.1100141  76.06 0.0002163069    1.047    0.045
        46  -9.3346    110.4326      6.2268   4.5410364948e+01   5.5466584221e+01    0.4386623    0.2228241 -18.46   0.00218395    2.392    0.582
        47  -8.8594    105.4442      2.0412   4.4933435758e+01   5.6936620959e+01    0.4890789    0.1646704  58.53    0.0021228    2.277    0.561
        48  -7.7212    153.4894      5.4764   3.8174563101e+01   4.5431918646e+01    0.1283668    0.1069331  84.38 1.425125e-05    1.051    0.049
        49  -7.9634    143.3919      5.1073   3.9447477178e+01   4.7863923886e+01    0.1710666    0.1062675 -45.22 0.0006352572    1.772    0.436
        50  -9.0190    115.4301      4.3803   4.3799424785e+01   5.4479261967e+01    0.2412573    0.2009913 -85.92 0.0007140888    1.318    0.241
        51  -8.0802    166.7663      3.1242   3.5927003744e+01   4.2500601524e+01    0.1828005    0.1485217 -73.35 0.0005275988    1.167    0.143
        52  -7.9954     80.6715     12.5369   5.5083163244e+01   6.1334224160e+01    0.2353064    0.1368219 -41.54 0.0009760813    2.166    0.538
        53  -7.6134    151.4625      1.5255   3.7328703342e+01   4.6258952669e+01     0.126881    0.1050513  84.67 0.0008082601    1.058    0.055
        54  -8.5002     88.8120      2.5174   4.8849443164e+01   6.0540058024e+01    0.2017248    0.1651265  -7.37 0.0006623861    1.363    0.266
        55  -8.7187     99.8596    119.5543   8.4084963909e+01   3.8625283309e+01    0.6361369    0.3808632   2.79  0.001952185    4.223    0.763
        56  -9.5964    205.3496    249.4823   8.4217658878e+01  -6.3136431049e+00    0.2862215    0.2557711  65.12  0.001941493    1.832    0.454
        57  -9.7551    197.2742    249.3756   8.5732699725e+01  -5.1877392736e+00    0.3096949     0.252372 -13.36 0.0005971087    1.209    0.173
        58 -10.3354    189.9966    248.8206   8.7050288523e+01  -4.0827797460e+00    0.5231974    0.2584017  25.18  0.002628889    1.951    0.487
        59  -9.7610    174.4220    249.8802   9.0263433114e+01  -1.9947332564e+00    0.3142483    0.1403363  36.13  0.001531872    1.899    0.473
        60  -7.7629     82.9494    250.3819   1.0903225476e+02   1.1436671639e+01    0.2174979   0.09982552  37.69  0.001078951    1.833    0.454
        61  -9.8460    140.7881    118.2995   7.2557948933e+01   3.0595079599e+01    0.4809454    0.3414363 -80.30  0.001286502    2.045    0.511
        62  -8.4922      1.6378    116.7509   1.1499660660e+02   5.1186052648e+01    0.3653795    0.1446756 -84.25  0.001514373    2.750    0.636
        63  -8.5368    152.1986    116.2043   6.9261667165e+01   2.8547373661e+01    0.3940272    0.2695895   9.50  0.001171104    2.492    0.599
        64 -10.3286     91.9591    112.9132   8.4843035702e+01   4.1622228048e+01    0.6906768    0.5172504 -82.66  0.001618022    1.751    0.429
        65  -9.0539     92.9956    103.3674   8.2075727678e+01   4.3634566267e+01    0.7313287     0.349243  24.62  0.002407571    3.369    0.703
        66 -10.3347     78.2110    112.2853   8.9015675914e+01   4.4101022895e+01    0.7898536    0.4268667 -64.42  0.001774035    2.168    0.539
        67  -9.6637     81.6953     99.0714   8.4549963723e+01   4.6597377791e+01    0.7859574    0.3402432 -51.18  0.002233078    2.247    0.555
        68  -9.4490     59.6227    109.5481   9.4496246324e+01   4.7503005514e+01    0.5528013    0.3582002 -73.40  0.001690037    1.811    0.448
        69 -10.3112     65.9256    110.6754   9.2647653157e+01   4.6355298685e+01    0.8625824    0.5674312 -85.11  0.000980049    2.213    0.548
        70 -10.7366     63.1031     95.6477   8.9961285728e+01   5.0283396903e+01     1.081267    0.6096247 -72.72  0.002778328    2.757    0.637
        71  -7.5452    167.3943    113.8653   6.5247253330e+01   2.5659340015e+01    0.2097078    0.1433773 -31.88 0.0004316616    1.602    0.376
        72  -9.8833     14.4061    111.2615   1.1012542531e+02   5.1694977233e+01    0.5055163    0.2902627  80.85  0.002151645    2.231    0.552
        73  -8.5840     14.3205    105.3149   1.0923059501e+02   5.3126650966e+01     0.198025    0.1454751 -27.73 0.0006646109    1.479    0.324
        74  -8.3021    158.9040    111.6386   6.6564965205e+01   2.8006677190e+01    0.2818951    0.2125862 -52.32 0.0003554485    1.340    0.253
        75  -8.6801    140.4474    112.4025   7.1144166849e+01   3.1942129998e+01     0.390447    0.1857609  33.32  0.001299113    2.911    0.656
        76  -9.1982     35.3155    111.3027   1.0309759493e+02   4.9915616734e+01    0.2713847    0.2297246 -46.57  0.001384566    1.105    0.095
        77 -10.9431     21.9476    101.8630   1.0598872053e+02   5.3380084972e+01     1.415089    0.7494605  78.87   0.00347133    3.364    0.703
        78  -7.7374    150.1255    110.0910   6.8198374273e+01   3.0288166744e+01    0.2192528      0.17582 -63.47 0.0004828201    1.355    0.262
        79 -10.8640     44.8273    102.1239   9.7945316012e+01   5.1113136857e+01     0.959671    0.5513294  70.63  0.002935583    3.380    0.704
        80  -9.2811     39.9575    106.7674   1.0062497303e+02   5.0537097499e+01    0.2676607    0.1847906 -69.89 0.0007869567    1.431    0.301
        81  -9.4852    149.5056    103.0749   6.6520796633e+01   3.1869483832e+01    0.4313685    0.2731532 -58.83  0.001169743    1.851    0.460
        82  -9.4413      6.3550    103.3309   1.1165403270e+02   5.4110075856e+01    0.3717741    0.2387748  75.47  0.001189272    1.884    0.469
        83  -8.4985    248.6154    103.8238   4.9176445488e+01   1.0707129943e+01    0.1893574    0.1000453 -47.90 0.0005622358    1.648    0.393
        84  -8.2419    166.0237    103.7915   6.3009428303e+01   2.7977007232e+01    0.2625112    0.2058853 -47.15 0.0004582047    1.252    0.201
        85  -8.2525     73.8568    102.8657   8.8124818270e+01   4.7006953982e+01    0.2641632    0.1893773 -57.44 0.0007094751    1.389    0.280
        86  -8.2634    159.0202    101.1596   6.3851957481e+01   3.0090111049e+01    0.2593834    0.2085525 -50.43 0.0004843391    1.237    0.192
        87  -9.1058    187.7925     97.2558   5.7066306156e+01   2.4291547150e+01    0.4019919      0.25735 -28.89   0.00173926    1.808    0.447
        88 -10.1627     85.4693     86.6006   7.9840547047e+01   4.8673519913e+01    0.5236736    0.3963297  73.80 0.0009993686    1.902    0.474
        89  -9.6899     87.6661     78.6422   7.6746424486e+01   4.9916112892e+01    0.6891083    0.3978299  19.39  0.002541969    2.597    0.615
        90  -9.4727     94.2303     97.0929   7.9997044084e+01   4.4806376193e+01    0.3611708    0.2985392  80.04  0.000680943    1.533    0.348
        91 -10.7462     92.0516     92.7361   7.9469608218e+01   4.6161297878e+01    0.6308928    0.3823453  16.76 0.0001859538    2.518    0.603
        92  -8.5979    150.4833     96.2327   6.4477296073e+01   3.3014689410e+01    0.3331947    0.2403837  14.98  0.001381484    2.060    0.515
        93  -9.3027    240.8466     95.2940   4.8409458191e+01   1.3539270597e+01     0.344509    0.2127515 -10.64  0.001399029    3.504    0.715
        94  -8.5912    164.4079     94.2893   6.0898650304e+01   3.0182768661e+01    0.3258957    0.2051771 -52.71 0.0007954462    1.667    0.400
        95  -9.5766    138.5979     92.5855   6.6312756240e+01   3.6446065913e+01    0.3742203    0.3043436 -63.85  0.000744573    1.350    0.259
        96  -8.4278    140.0654     71.1681   5.9863410478e+01   4.0087517399e+01    0.3510611    0.1906246  57.68  0.001094716    1.856    0.461
        97  -9.3288    138.0071     66.3171   5.8908178644e+01   4.1396186723e+01    0.3163811    0.2404616 -55.78 0.0006153319    1.437    0.304
        98  -9.5500    138.8905     55.4327   5.5452931650e+01   4.2931607658e+01    0.6767566    0.2429764 -34.31  0.001791335    3.006    0.667
        99  -8.9111    141.9168     47.9648   5.2565592497e+01   4.3313568189e+01    0.5292853     0.236847 -30.47  0.001535375    2.552    0.608
       100  -9.5433    140.4574     82.0657   6.2912618434e+01   3.8039527619e+01    0.6022937    0.2762455 -39.65  0.001629996    2.233    0.552
       101  -8.5489    139.9606     75.5137   6.1150844186e+01   3.9348402690e+01    0.3346185    0.1996762 -50.74 0.0007659066    1.829    0.453
       102 -10.4990     25.6227     78.0198   9.9641431105e+01   5.8561339296e+01    0.6811548    0.4468196  79.99  0.001985522    2.560    0.609
       103 -10.0123     34.4447     90.2730   9.9078679455e+01   5.4983698637e+01    0.5737936    0.3187364 -80.08  0.001941897    2.686    0.628
       104 -10.0801     36.9279     80.8224   9.5860552734e+01   5.6863401591e+01    0.6946247    0.3570269 -14.17  0.002738968    3.268    0.694
       105  -9.4352      6.1920     78.4948   1.0750273296e+02   5.9837376688e+01     0.685742    0.2748753 -23.50  0.002842451    3.423    0.708
       106  -8.6891    157.8940     91.5233   6.1559356300e+01   3.2215304360e+01    0.2858699    0.2004458 -58.76 0.0007693283    1.572    0.364
       107  -9.6771    110.5803     89.9385   7.3048071555e+01   4.3101025708e+01    0.8072633    0.3614157  35.40  0.002852301    2.661    0.624
       108  -9.1648     64.3012     86.3355   8.7054083199e+01   5.2194643822e+01    0.7794626    0.5053043 -23.64  0.003642594    1.871    0.465
       109  -8.9143    150.2950     88.7711   6.2501208865e+01   3.4500241744e+01    0.3252338    0.2049477 -35.18 0.0009962051    1.692    0.409
       110  -7.5273     78.5086     89.4925   8.2990399139e+01   4.9261140323e+01    0.1431921    0.1377011 -25.18 1.638797e-05    1.026    0.025
       111  -7.2564    174.3236     88.2864   5.7342089365e+01   2.9000255313e+01    0.1442994    0.1175334  19.23 0.0003364622    1.602    0.376
       112  -8.4493     19.5055     87.5249   1.0413381946e+02   5.6917775954e+01    0.2459442    0.1645926  78.12 0.0007712475    2.114    0.527
       113  -9.1812     20.6893     84.0453   1.0295143656e+02   5.7618793943e+01    0.2618865    0.1827471  -1.19 0.0009190926    1.630    0.386
       114  -8.4453    163.6201     87.0705   5.9160701001e+01   3.1713167072e+01    0.2465319    0.2043031  77.96 0.0004582708    1.281    0.219
       115 -10.3600     48.3779     82.6727   9.1932988017e+01   5.5153763070e+01    0.9854181    0.4913133 -49.49  0.002196008    1.792    0.442
       116 -10.1306     62.5982     60.7889   7.9873327220e+01   5.7658561658e+01      0.65185    0.3148036  32.04  0.002390018    2.137    0.532
       117 -10.5316     55.3108     70.8986   8.5910577261e+01   5.6748675238e+01    0.6244626    0.3806315  53.56  0.001385269    2.418    0.586
       118  -9.1888     54.7936     62.7282   8.3539127744e+01   5.8446010394e+01    0.4865669    0.3441628 -27.33  0.002322841    1.387    0.279
       119 -10.0825      4.3492     89.2276   1.1014568350e+02   5.7510737302e+01    0.6337241    0.3435976  83.69  0.002336225    2.627    0.619
       120  -9.4388    109.6985     63.7980   6.5325247574e+01   4.8243776563e+01     0.523004    0.3746421  32.89  0.001877306    1.462    0.316
       121  -8.8027    110.5754     58.2999   6.3300035424e+01   4.8975718412e+01     0.384415      0.25717  22.14  0.001431179    1.932    0.482
       122 -10.3577    103.9342     82.4117   7.2792332834e+01   4.5993685117e+01    0.5926847    0.3248304 -53.23 0.0009274728    2.107    0.525
       123  -9.4277    104.7167     72.5586   6.9541901016e+01   4.7732769451e+01    0.6969882    0.4090102 -22.37  0.002638959    2.393    0.582
       124  -8.7853    157.9417     82.9501   5.9239972449e+01   3.3794753464e+01    0.5441815    0.2239315 -35.11  0.001380492    2.701    0.630
       125  -8.4737    157.0030     76.2211   5.7594995662e+01   3.5213278006e+01    0.4374239    0.2109764 -35.23  0.001259662    2.226    0.551
       126  -7.4308    170.5156     83.5196   5.6841411075e+01   3.0742918766e+01    0.1478053    0.1391607 -80.69  5.61846e-05    1.017    0.017
       127  -9.3309    115.0827     72.1089   6.6446584110e+01   4.5602222411e+01    0.5125495    0.3064092 -34.27  0.001549953    1.796    0.443
       128  -8.9167    119.1333     80.6260   6.7917866815e+01   4.3126021461e+01    0.3562328    0.2585802 -60.69 0.0009786335    1.641    0.391
       129  -8.6456    120.0007     75.6588   6.6195000372e+01   4.3869810986e+01    0.2781804    0.2386013  45.78 0.0003723235    1.133    0.118
       130  -8.9721    149.7269     80.3506   6.0302700915e+01   3.6194201351e+01    0.3687316    0.2420776 -52.36  0.001410342    1.625    0.384
       131  -9.0923     74.2257     80.2348   8.1780489824e+01   5.1946647117e+01    0.4150309    0.2439149 -60.44  0.001113251    2.157    0.536
       132  -8.0604     74.3285     75.3261   8.0257278486e+01   5.2936874267e+01    0.3767894     0.214686   5.85   0.00130904    3.660    0.727
       133  -8.2381     68.7629     79.1691   8.3396966355e+01   5.3049604410e+01    0.2861462    0.1607195 -45.28  0.001309903    1.700    0.412
       134  -8.2710    184.0874     78.3094   5.3003999769e+01   2.8484924865e+01    0.2558078    0.2039493 -18.71 0.0006701924    1.559    0.359
       135  -7.6207    174.4487     78.9117   5.4888714230e+01   3.0629532949e+01    0.2076401    0.1132649 -59.90 0.0008042032    2.354    0.575
       136  -8.2438    166.3526     79.0077   5.6461767320e+01   3.2516925926e+01    0.2239471    0.1836537 -23.29 0.0008549778    1.414    0.293
       137  -8.5360    240.5075     78.4763   4.4912741158e+01   1.6280456064e+01    0.1306527    0.1092092 -58.30     0.000155    1.008    0.008
       138  -8.1526     18.3987     76.7678   1.0225362977e+02   5.9420803967e+01    0.1854067   0.09372346 -50.87 0.0009409354    1.603    0.376
       139  -9.2838    130.1759     56.5484   5.7761416209e+01   4.4810929735e+01    0.5984712    0.2335363 -34.73  0.001621894    2.758    0.637
       140  -9.3414    127.3829     75.0626   6.4086832028e+01   4.2324525993e+01    0.3939334     0.264959 -58.29  0.000772732    1.786    0.440
       141  -9.5235    129.2235     68.9020   6.1774691620e+01   4.2997234542e+01    0.5901185    0.3119084  28.95  0.002051585    3.208    0.688
       142  -8.5836    130.5517     64.2253   6.0031478686e+01   4.3484959133e+01    0.3486513    0.2151467 -40.56  0.001602088    1.684    0.406
       143  -9.9458     81.6558     72.3145   7.6782815128e+01   5.2264461826e+01    0.5443023    0.3483434 -60.50  0.001195163    2.088    0.521
       144  -8.8555     83.7289     64.2705   7.3475142575e+01   5.3405400708e+01    0.4610471    0.3660089   9.51   0.00247933    1.363    0.267
       145  -8.2461    162.9318     73.2314   5.5577756188e+01   3.4321965706e+01    0.3200985     0.186347 -54.26 0.0008372139    1.911    0.477
       146  -8.7065    220.0093    250.0000   8.1584913188e+01  -8.3276231027e+00    0.1906227   0.05717259  34.28 0.0008073811    2.977    0.664
       147  -9.6171     15.9959     70.4499   1.0177400242e+02   6.0976150956e+01    0.4312273    0.2009723 -56.86  0.001483059    1.777    0.437
       148  -9.7546     16.9567     60.2601   9.8779980950e+01   6.3052662727e+01    0.6724989    0.5345193 -19.48  0.004439441    1.170    0.145
       149  -7.9993    236.4677    244.9871   7.7853400496e+01  -9.7371752160e+00    0.1606571    0.1003746 -30.98 0.0004701912    1.552    0.356
       150  -8.9025    162.0103    244.4948   9.1985482187e+01   7.1429292027e-01    0.1841685    0.1003559  15.65 0.0008104075    2.540    0.606
       151 -10.0645     13.1085     45.1715   9.6185714284e+01   6.6331302471e+01    0.6787543    0.3125831 -12.23  0.002679907    2.981    0.665
       152  -7.5851      6.0413    242.7727   1.2346073083e+02   2.2125164824e+01    0.1373578   0.07684173  40.41 0.0005515398    1.620    0.383
       153  -8.0217      7.3263    236.6756   1.2292775942e+02   2.3210715391e+01     0.124585   0.06004989  62.56 0.0007049018    1.692    0.409
       154  -9.5963      6.9018     32.3230   9.5089364445e+01   6.9144399494e+01    0.2766263    0.1946856 -14.53 0.0009275973    1.244    0.196
       155  -9.9620      7.4211     28.0505   9.3282429116e+01   6.9854178774e+01    0.2727239    0.2421522  37.19  0.001021018    1.606    0.377
       156  -9.9751     37.6044     41.8651   8.3523495262e+01   6.4524135823e+01    0.3897357    0.3302907  39.84  0.001587078    1.491    0.329
       157 -10.0693     35.9120     37.9324   8.2807556987e+01   6.5398368626e+01    0.3133351    0.2110849 -13.27 0.0003802275    1.471    0.320
       158  -8.4725    169.4684     70.9982   5.3726369194e+01   3.3144770359e+01    0.2996899    0.1415971 -37.39 0.0008475255    2.155    0.536
       159  -8.5684    170.4617     65.5749   5.2096040965e+01   3.3792623327e+01    0.3605797    0.2576616 -24.95  0.001053966    1.678    0.404
       160  -9.3565    146.9488     68.6686   5.7601183335e+01   3.8891228026e+01    0.5223729    0.2945063 -44.05 0.0009050623    1.822    0.451
       161  -8.1074    156.5889     69.7687   5.5891244781e+01   3.6414664238e+01    0.2593029    0.1447097 -33.68 0.0006359795    1.946    0.486
       162  -9.7367     94.8607     68.4618   7.1237108277e+01   5.0496945866e+01    0.4452642    0.2724009 -51.39 0.0008442607    1.876    0.467
       163  -8.4501     95.4828     60.9961   6.8595401811e+01   5.1705649777e+01    0.3310542    0.2194858 -13.69  0.001264829    2.011    0.503
       164  -8.9166     99.3085     56.4004   6.5892387404e+01   5.1695857661e+01    0.4915255    0.3157293  31.92  0.002344035    1.663    0.399
       165  -7.7099     23.2970     69.0439   9.8364599905e+01   6.0706249892e+01    0.1774849    0.1392787 -51.92 0.0004482968    1.162    0.139
       166  -8.8582    121.2732     65.9706   6.2888541399e+01   4.5312090634e+01    0.3190039     0.246485 -62.55 0.0006891137    1.545    0.353
       167  -7.8958    122.0190     61.0524   6.1159306190e+01   4.5969126377e+01    0.2633444     0.189772   4.73 0.0007273682    1.964    0.491
       168  -8.4447    157.4997     63.0142   5.3822168878e+01   3.7300700448e+01    0.2287063    0.1874778 -78.58 0.0006921176    1.307    0.235
       169  -8.2309     53.6227     38.8752   7.5483048698e+01   6.2821232980e+01    0.2263286    0.1914333 -64.11 0.0006568525    1.770    0.435
       170 -10.1464     49.9946     54.0578   8.2564387192e+01   6.0749066205e+01    0.6777568     0.295446 -48.88  0.002762503    2.353    0.575
       171  -9.5372     56.3157     43.2012   7.6055649793e+01   6.1714423147e+01    0.7649261    0.4150925   7.05  0.003025423    3.342    0.701
       172  -9.9461     73.1267     59.1763   7.5434686396e+01   5.6228306189e+01    0.5429693    0.2646776 -49.29 0.0008270581    2.341    0.573
       173  -9.2787     74.8401     50.7738   7.1875893098e+01   5.7379694842e+01    0.5884951    0.3315838  16.70  0.002422321    2.723    0.633
       174  -7.7327    164.6196     60.1850   5.1694707611e+01   3.6038354390e+01    0.1919597    0.1392475 -24.45 0.0007187651    1.647    0.393
       175  -7.6546    152.5081     60.0053   5.3956719892e+01   3.8972418606e+01     0.212219    0.1414844 -38.78  0.001020044    1.556    0.357
       176  -8.4226    146.3351     58.8844   5.4892745539e+01   4.0625109495e+01    0.2701712    0.2316715 -69.05 0.0007307101    1.236    0.191
       177  -8.2078    147.6650     53.5222   5.3051157507e+01   4.1125435396e+01    0.3493723    0.2007086 -28.57  0.001558427    2.021    0.505
       178 -10.3177     90.5011     38.0406   6.2063084571e+01   5.6299657909e+01     1.163672    0.4162301  38.77  0.004200008    3.120    0.680
       179  -8.6806     87.7820     58.5259   7.0203490136e+01   5.3656247273e+01    0.3362367    0.2405587 -52.26  0.001302735    1.655    0.396
       180 -10.3702     85.6286     48.4157   6.7369700793e+01   5.5740966005e+01    0.6575795     0.471445 -74.90  0.001450479    2.557    0.609
       181  -9.1390    188.0712    233.6992   8.5089653461e+01  -1.4708259175e+00    0.2591988    0.1930993 -43.99  0.001238689    1.554    0.356
       182  -9.2547    196.2600    232.5553   8.3291968460e+01  -2.5072241660e+00    0.2814123    0.2491385  78.22 0.0007547896    1.800    0.444
       183  -9.3916    184.4921    226.7793   8.4690334206e+01   2.0447921214e-01    0.3463863    0.2492614  45.17  0.001010567    1.515    0.340
       184  -8.7969    185.6918    222.1398   8.3682111325e+01   7.9736627290e-01    0.2259103    0.1912471   3.99 0.0003646202    1.087    0.080
       185  -9.9257     76.2829     32.0528   6.4323493674e+01   5.9924232144e+01    0.4907218    0.3660593  71.40  0.001001602    2.009    0.502
       186 -10.3358    216.3149    226.5083   7.8456878465e+01  -4.4739662205e+00      0.21692    0.1876697  -6.24 0.0002309011    1.116    0.104
       187  -9.0338     84.9197     21.6584   5.7492356430e+01   5.9502039679e+01    0.2562442    0.2359848 -21.58 0.0005692623    1.225    0.184
       188  -7.7496    233.3217     57.6565   4.1329505909e+01   2.0850524904e+01    0.1393647   0.08201888 -65.33 0.0007050172    1.728    0.421
       189  -9.6054    118.1320     54.6218   6.0099980690e+01   4.7881126243e+01    0.5619287     0.350665 -37.67  0.001310257    1.690    0.408
       190  -9.0025    121.0641     46.8220   5.6839835342e+01   4.8382497276e+01    0.3668833    0.2345532 -44.73 0.0005410055    1.721    0.419
       191  -7.6338    157.5161     55.5572   5.1723159743e+01   3.8452303374e+01    0.1430103    0.1305801  85.05 7.018429e-05    1.038    0.037
       192  -8.6538    162.8290     52.9864   5.0035231207e+01   3.7555609281e+01    0.4322077    0.1940775 -33.93   0.00176256    2.378    0.580
       193  -7.8763    152.6420     53.7697   5.2142739488e+01   3.9892747510e+01    0.1887401    0.1275525 -46.73 0.0002903882    1.538    0.350
       194  -8.7893    105.3237     52.9288   6.2979163357e+01   5.0978792870e+01    0.3319203    0.2362162 -54.82  0.001282151    1.728    0.421
       195  -8.0438    106.3116     48.3729   6.1161522048e+01   5.1464042671e+01    0.2478927    0.1800367  28.73 0.0009687341    1.471    0.320
       196  -7.3679    172.4610     50.4502   4.7712893397e+01   3.5609696827e+01    0.1400122    0.1253157 -87.82  0.000107119    1.028    0.027
       197  -7.8775    167.6544     50.3420   4.8476716395e+01   3.6778564852e+01    0.1515568    0.1006206 -72.60 -0.0003276041    1.789    0.441
       198  -8.9137    111.9941     46.8372   5.9120746118e+01   5.0436988300e+01     0.428776    0.2716225 -55.27  0.001993632    2.066    0.516
       199  -8.7615    113.1963     42.1928   5.7248342690e+01   5.0828145427e+01    0.3682482    0.2217623  13.45  0.001496257    2.853    0.649
       200  -8.6568    157.7273     48.9298   4.9813561418e+01   3.9372256839e+01    0.2610643     0.177561 -55.52 0.0007521024    1.582    0.368
       201  -8.9526    130.2295     47.8155   5.5022637587e+01   4.6108157246e+01    0.2729149    0.2304831 -60.26 0.0005661041    1.309    0.236
       202  -8.8922    131.1745     42.8350   5.3246470369e+01   4.6584113937e+01    0.4362814    0.2524363  -2.24  0.001536932    3.459    0.711
       203  -9.3454    149.6665     46.5606   5.0624140791e+01   4.1650779622e+01    0.6700594    0.1709941 -35.64  0.002166286    3.858    0.741
       204  -8.8316    147.3233     41.6904   4.9636189991e+01   4.2882302966e+01    0.2378276    0.2218709 -33.78  0.001008637    1.188    0.158
       205  -7.6250    162.0282     45.2534   4.8029639517e+01   3.8849675495e+01    0.2054475    0.1323504 -54.40  0.001001931    1.660    0.397
       206  -9.3632    153.6350     40.9697   4.8275060108e+01   4.1455974069e+01    0.3881886    0.2153105 -45.17   0.00117334    1.896    0.473
       207  -8.8009    153.8086     35.0306   4.6536721379e+01   4.2180666924e+01    0.2941422    0.2021899 -55.20   0.00100298    1.570    0.363
       208  -9.0968    110.1518     32.9567   5.4846983342e+01   5.2731057699e+01    0.3525362    0.2388404 -44.69 0.0009458701    1.696    0.410
       209  -8.9806    104.9954     40.8561   5.8930107617e+01   5.2835345311e+01    0.3370356    0.2266564 -54.50 0.0009515954    1.927    0.481
       210  -8.3279    106.4865     36.4528   5.6996383528e+01   5.3100906666e+01    0.3346655    0.1867363  39.11  0.001132872    1.800    0.444
       211  -8.9821    139.3528     40.3010   5.0759782154e+01   4.4980899361e+01    0.3471072    0.2350619 -76.03  0.001014787    1.941    0.485
       212  -8.4104    123.1183     40.1454   5.4180246001e+01   4.8834876820e+01    0.3207622    0.2119557  12.23  0.001469746    2.252    0.556
       213  -7.9937    160.4373     38.5750   4.6434002318e+01   4.0127558843e+01    0.2239026    0.1388692 -15.39 0.0008549332    2.311    0.567
       214  -8.7012    144.1608     36.3562   4.8640264597e+01   4.4339283543e+01    0.2477663    0.1973585 -63.37 0.0004971184    1.363    0.266
       215  -9.2189    132.7566     35.3895   5.0567474547e+01   4.7187586988e+01     0.306084    0.1904047 -43.38 0.0005723666    1.755    0.430
       216  -9.1624     11.0234    223.3600   1.2150396390e+02   2.5589527139e+01    0.2220951    0.1805671 -39.65  0.001513466    1.851    0.460
       217  -7.1397    106.6951    220.6857   1.0058012467e+02   1.3824828431e+01     0.128261    0.1056709  -9.39 0.0002603423    1.620    0.383
       218  -8.2704    186.4071    217.5804   8.2768919314e+01   1.4628615734e+00    0.2058429      0.18959 -15.62  0.001309346    1.140    0.123
       219  -7.4765    213.5134    214.9743   7.6998167541e+01  -2.2764654614e+00    0.1757152    0.1174661 -36.20 0.0003652078    1.482    0.325
       220 -10.2706    153.2307    211.4722   8.8770722585e+01   8.0430078475e+00    0.2326853    0.2262031  24.43 0.0002413161    1.085    0.079
       221  -8.4653    105.1978    207.5347   9.9127928403e+01   1.6858478775e+01    0.2270946    0.2070329 -39.48 0.0003712711    1.264    0.209
       222  -8.6078    118.9276     34.6614   5.3332982774e+01   5.0517934600e+01    0.2357561    0.1911529 -40.32 0.0005528812    1.359    0.264
       223  -9.8049     11.2743    207.2812   1.2047747353e+02   2.9035679047e+01    0.5921427    0.2887575  18.30   0.00289035    3.057    0.673
       224  -9.0153    192.3821    194.6053   7.7446336771e+01   4.5662883224e+00    0.7329998    0.3760554 -63.35  0.002207347    5.677    0.824
       225  -8.7562    175.9350    197.0598   8.1326072457e+01   6.9278690619e+00    0.2002132    0.1853393   8.16   0.00118377    1.010    0.010
       226  -9.2802     37.5697    195.6426   1.1370701733e+02   2.8968343622e+01    0.2208473    0.2022935 -76.60  0.001454968    1.206    0.171
       227  -8.6661    228.4673     31.4046   3.6263595584e+01   2.5416786404e+01    0.2073398    0.1824099 -81.41   0.00057998    1.150    0.130
       228  -9.4712    154.8334     26.9091   4.4043686625e+01   4.2911116859e+01    0.4477305    0.1944013  63.95  0.001951723    2.023    0.506
       229  -8.4999     92.0864     20.9259   5.5166767845e+01   5.8091399464e+01    0.2829978    0.1660783  37.65 0.0009404221    1.611    0.379
       230  -8.7933      1.5454     28.4650   9.6616367025e+01   7.0179430860e+01    0.2118355    0.1110367 -48.35 0.0006049894    1.588    0.370
       231  -8.6926    144.2973     25.9691   4.5504884821e+01   4.5555091885e+01    0.3227975    0.1738505 -28.58  0.001076731    2.109    0.526
       232  -8.5033    128.5480     25.8983   4.8394654594e+01   4.9317911946e+01    0.2615713    0.1943158 -70.81 0.0009857549    1.626    0.385
       233  -7.8910    109.9885     26.2600   5.2551182913e+01   5.3570477243e+01      0.27213    0.2039579  25.60  0.001524742    1.447    0.309
       234  -8.1578    111.9932     22.4967   5.0771422735e+01   5.3536567634e+01    0.3399752     0.187599 -51.65  0.001347095    2.458    0.593
       235  -7.9308    240.4811     26.1234   3.4150391029e+01   2.3590979232e+01    0.1724576    0.1341227 -81.33 0.0007332296    1.108    0.097
       236  -9.2109     91.4906     26.1715   5.7330625473e+01   5.7618626278e+01    0.3794296    0.2241916 -48.47  0.001613103    2.265    0.558
       237  -8.5888    138.9525     22.0511   4.5246288693e+01   4.7269791905e+01    0.3808634    0.1807627  73.38  0.001631068    2.248    0.555
       238  -9.6296    118.6474     21.3177   4.8911347893e+01   5.2135753805e+01    0.2866676    0.2315466  77.89 0.0006333091    1.281    0.220
       239  -7.4708    161.4165    194.2044   8.3964469771e+01   1.0037532824e+01    0.1868183    0.1381252 -61.52 0.0007673452    1.641    0.391
       240  -8.4746    130.1598     21.2539   4.6594018540e+01   4.9446553499e+01    0.2428624    0.1942825   9.51  0.001411307    1.536    0.349
       241  -9.0573    132.8329     17.0877   4.4784580408e+01   4.9245707091e+01    0.2865405    0.2299704  77.33  0.000980612    1.176    0.150
       242  -7.1606    103.2935    184.0706   9.6028546256e+01   2.2478841481e+01    0.1891472    0.1800967 -80.54 0.0003260122    1.066    0.062
       243  -8.8623     39.7199    180.0491   1.1160988103e+02   3.2427988553e+01    0.1959474    0.1849066  44.78 0.0002845936    1.220    0.181
       244 -10.4770    100.9952    175.9932   9.5272958196e+01   2.4769969874e+01    0.2068812    0.1954402  70.31  0.001158641    1.007    0.006
       245  -6.9805    196.6949    174.6777   7.2708887613e+01   7.5283813941e+00    0.1445072    0.1057325  -5.25 0.0002653706    1.638    0.390
       246  -8.9381     40.8325     20.2116   7.3173543439e+01   6.7432549291e+01    0.2582201    0.1767836 -36.53  0.001034333    1.582    0.368
       247  -7.9693    230.4426    167.6853   6.5017743027e+01   2.9893379031e+00    0.3469156    0.1089749 -47.21  0.001172519    3.668    0.727
       248  -8.5972    133.7074    145.6068   8.0815824959e+01   2.5924778071e+01    0.6476732    0.1820975 -55.85  0.001522648    5.591    0.821
       249  -7.9939    226.9999    147.5020   6.1504873000e+01   7.1134711343e+00    0.1924089    0.1358589  44.74 0.0009190867    1.583    0.368
       250  -8.3419    155.5012     17.9722   4.1408314945e+01   4.3734385197e+01    0.1849966   0.08984897 -54.36 0.0006616974    2.448    0.591
       251  -7.8565    139.6887     17.5258   4.3739614991e+01   4.7569606898e+01    0.2097972    0.1215407 -28.04 0.0007703889    1.970    0.492
       252  -9.4442     66.9157    144.1406   9.9116335710e+01   3.7942502540e+01    0.5810544    0.3466493  64.57  0.002455871    2.214    0.548
       253  -9.7375    182.2687    144.0153   6.9173565805e+01   1.6333877778e+01    0.2528661    0.2406599 -34.18 0.0002450897    1.012    0.012
       254  -7.5704    187.7076    140.9384   6.7367159310e+01   1.5850123965e+01    0.2018391    0.1838653 -37.88 0.0003941643    1.049    0.047
       255  -7.8050    189.7992     15.7681   3.6570563582e+01   3.5850463784e+01    0.1779428    0.1243535 -72.52 0.0004248897    1.329    0.247
       256  -8.6949    241.4897    137.9788   5.7209265779e+01   6.2473953643e+00    0.1909919    0.1062842 -20.48 0.0008096405    2.567    0.610
       257 -10.8383     70.4079    126.1400   9.4589795085e+01   4.1934822478e+01     1.017703    0.6014129 -47.98  0.001811156    1.635    0.388
       258 -10.1476     58.4022    124.4818   9.8041335230e+01   4.4015562611e+01    0.9997435    0.5395815  77.53  0.001972628    4.209    0.762
       259  -7.9087     95.7849    135.9393   8.9030589174e+01   3.5418418035e+01    0.2961945    0.1901286  64.24 0.0009224021    2.079    0.519
       260  -8.7368    112.3140    133.8518   8.3871125851e+01   3.2885905002e+01    0.4265292    0.2856452  74.58  0.001379785    2.261    0.558
       261  -8.9461     83.3250    131.4710   9.1751530639e+01   3.8619256478e+01     0.714448    0.4304838  85.38  0.002547821    3.125    0.680
       262 -10.4620    117.5249    124.1314   8.0136838305e+01   3.4147043387e+01    0.9727263     0.667801 -45.48  0.001671039    1.452    0.311
       263 -10.2923    109.2134    115.3234   8.0303087635e+01   3.7826460352e+01    0.9293654    0.5220011 -70.53  0.003077815    3.103    0.678
       264  -9.9224    134.0299    131.4831   7.7496678261e+01   2.9092883646e+01     0.619174     0.583627  40.73  0.002510166    1.071    0.066
       265 -10.7285    131.7246    119.4855   7.5171022198e+01   3.2275586275e+01    0.9969124    0.6029559  73.12  0.002713961    3.102    0.678
       266 -11.1985    121.0207    109.7538   7.5545213385e+01   3.6687101584e+01     1.311231    0.6263815 -53.69  0.003053902    2.322    0.569
       267  -9.3943    110.3507    106.5589   7.7708946047e+01   3.9582733583e+01    0.7250644     0.414345  31.29  0.002814946    2.052    0.513
       268 -10.4842    108.2367     99.3079   7.6367229655e+01   4.1600610492e+01    0.8787311    0.5512367  65.60  0.002435009    2.348    0.574
       269 -11.1103    133.7283    108.8808   7.1933962068e+01   3.4164341093e+01     1.267795    0.6719207 -33.64  0.004646756    2.289    0.563
       270 -10.6231    123.4121     91.1424   6.9814361135e+01   4.0119295478e+01     1.230422    0.6609677 -31.62  0.003068617    2.291    0.564
       271  -9.7502     98.7469    128.6705   8.6555879681e+01   3.6654790564e+01    0.7193413     0.424206  68.90  0.002459359    3.005    0.667
       272 -10.8560    126.8500    103.8090   7.2391093744e+01   3.6739573415e+01     1.263423    0.7085469 -24.09  0.003825357    3.002    0.667
       273  -9.9453     41.8651    122.5218   1.0297690284e+02   4.6482494130e+01    0.6700987    0.3416373 -84.44  0.002531455    2.852    0.649
       274  -7.7704    240.2876    126.6516   5.5056037922e+01   8.3920362826e+00    0.1345367   0.09463435 -62.19 0.0007023247    1.659    0.397
       275  -9.9774     27.2782    122.7186   1.0769152076e+02   4.7873544980e+01     0.586029    0.3202486  69.16  0.002312575    2.606    0.616
       276  -9.8229    139.4959    104.5987   6.9343835293e+01   3.3801428443e+01    0.5345261    0.3837687 -60.02 0.0009484304    1.560    0.359
       277  -7.5943    158.1750    122.1000   6.9332571827e+01   2.5990603092e+01    0.2144455    0.1839537 -84.87  0.001060491    1.335    0.251
