#   1 NUMBER                 Running object number                                     
#   2 MAG_AUTO               Kron-like elliptical aperture magnitude                    [mag]
#   3 X_IMAGE                Object position along x                                    [pixel]
#   4 Y_IMAGE                Object position along y                                    [pixel]
#   5 X_WORLD                Barycenter position along world x axis                     [deg]
#   6 Y_WORLD                Barycenter position along world y axis                     [deg]
#   7 A_WORLD                Profile RMS along major axis (world units)                 [deg]
#   8 B_WORLD                Profile RMS along minor axis (world units)                 [deg]
#   9 THETA_WORLD            Position angle (CCW/world-x)                               [deg]
#  10 FWHM_WORLD             FWHM assuming a gaussian core                              [deg]
#  11 ELONGATION             A_IMAGE/B_IMAGE                                           
#  12 ELLIPTICITY            1 - B_IMAGE/A_IMAGE                                       
         1 -15.0161      8.2580    152.6452   1.4168137240e+02   4.1543803601e+01     8.720619     3.085091  63.90   0.02492408    2.760    0.638
         2 -13.4622    194.7287     29.1587   6.8319701332e+01   3.2778022391e+01     1.546877     1.444734   1.54  0.007102435    1.043    0.041
         3 -13.6243    209.3766      9.8834   6.0478138998e+01   3.0988164950e+01     1.497417      1.01838  34.29  0.007387369    1.614    0.380
         4 -11.6189      2.1062     10.1973   1.2312877344e+02   7.2551667002e+01    0.7678091   0.06706712 -56.46  0.002769386    3.919    0.745
         5 -10.1608    107.0355    248.0510   1.3060750543e+02   1.4856169161e+01    0.1664357   0.09156692  60.52  0.001142804    1.760    0.432
         6 -12.0247    246.9889    248.1202   1.0868119597e+02  -4.1889057398e+00    0.5152287    0.2496332  35.13  0.003516137    1.476    0.322
         7 -10.4690    111.8792    250.4756   1.3003428291e+02   1.3932152171e+01    0.2814837   0.07837965  38.09  0.001170611    2.995    0.666
         8 -10.6749     97.8482    248.7344   1.3211020849e+02   1.5915093283e+01     0.193854    0.1766681 -84.58  0.001077707    1.423    0.297
         9 -11.0527    101.0216    245.9824   1.3140169809e+02   1.5882240154e+01    0.2423919    0.1633981 -55.89 0.0004355707    2.010    0.502
        10 -10.5194     29.7402    249.9095   1.4250408897e+02   2.3237237868e+01     0.264218    0.1620668  59.33  0.001776207    1.091    0.083
        11 -10.2138     34.3021    248.8743   1.4180003714e+02   2.2940383434e+01    0.3023337    0.1197221  58.44  0.002136152    1.840    0.457
        12 -10.8581     35.5451    243.7514   1.4140415611e+02   2.3540928576e+01    0.2773587     0.201333  35.78  0.001877748    1.637    0.389
        13  -9.9274     17.1688    250.2763   1.4431559116e+02   2.4355860673e+01    0.1227681   0.09290095  45.25 0.0009957431    1.453    0.312
        14 -10.3226      2.5122    249.1298   1.4633361483e+02   2.5795685596e+01    0.2477229    0.1339552  68.08  0.002109497    1.280    0.219
        15 -10.8142    198.3868    246.2162   1.1585071493e+02   2.6004723409e+00    0.1485717    0.1380006 -14.95  0.001264347    1.502    0.334
        16  -9.6954    181.0000    244.9946   1.1845772894e+02   5.1717520571e+00     0.132696   0.06089332 -40.47 0.0008044214    2.956    0.662
        17 -10.2283     22.2754    244.6806   1.4339524336e+02   2.4675675281e+01    0.2201534   0.08487184  54.65 0.0007560417    1.738    0.425
        18 -11.1503    134.0463    243.5386   1.2587872071e+02   1.1880434726e+01      0.26927    0.1385781  25.75  0.001488233    2.746    0.636
        19  -9.9754    162.7728    249.5841   1.2186893462e+02   7.2310050221e+00    0.1532502   0.07199519  46.57 0.0009501228    1.694    0.410
        20  -9.8881      1.5135    240.5947   1.4625627036e+02   2.7089079990e+01    0.1636738   0.06748907 -86.85   0.00121919    2.195    0.544
        21  -9.9413     12.8198    240.3866   1.4462589513e+02   2.6147640642e+01    0.1444256   0.09223862  41.42 0.0009843337    1.520    0.342
        22 -10.0224    183.1706    238.8203   1.1737785714e+02   5.5145616527e+00    0.1489875    0.1005287  25.07 0.0004785926    1.318    0.241
        23 -10.6626    229.8012    230.2851   1.0880611647e+02  -3.5247803845e-01    0.3271195    0.2266383 -57.68  0.001805773    4.267    0.766
        24 -12.6260     55.7371    225.4280   1.3731203530e+02   2.4158707847e+01     1.752506      1.09897 -58.00   0.01255315    2.135    0.532
        25 -11.6603    139.7610    250.0791   1.2557958569e+02   1.0320367834e+01    0.4253499    0.1267176  39.41  0.002160666    2.534    0.605
        26 -12.6860     35.8779    232.5295   1.4085777080e+02   2.5146832278e+01    0.2347866    0.1891281  70.93 0.0007433887    1.219    0.180
        27 -10.1686    172.9777    222.6635   1.1705767618e+02   8.8497135118e+00    0.3023235    0.1049112  45.69  0.001447172    2.440    0.590
        28 -12.9803      9.0236    207.2851   1.4407321566e+02   3.1590279585e+01    0.6243729    0.5240495  37.13  0.004165286    1.580    0.367
        29  -8.7474    152.4931    212.9428   1.1938174517e+02   1.3197398122e+01    0.1319478    0.1150167 -46.68 0.0003314003    1.448    0.310
        30 -11.5434     62.2413    198.3830   1.3432953357e+02   2.7816001512e+01    0.2325297     0.206297 -40.15 0.0005715183    1.688    0.408
        31 -11.3759     17.9324    198.6251   1.4222441677e+02   3.2271541781e+01    0.3334191    0.1168175  51.32  0.001482872    2.112    0.527
        32  -9.6863    192.3498    194.0218   1.0955470043e+02   9.3478908386e+00    0.2737463    0.1867344 -68.79   0.00134346    3.474    0.712
        33 -10.2209     78.7278    217.4414   1.3288536949e+02   2.2743953373e+01    0.2072441   0.07394124  43.48  0.001137172    2.129    0.530
        34 -11.7018      6.8983    188.8270   1.4370608212e+02   3.4903067205e+01    0.2836405    0.1727739 -87.80  0.002201481    1.374    0.272
        35 -11.8442     68.1617    190.3243   1.3255741567e+02   2.8524705197e+01    0.2170712    0.1984451  85.53 0.0004964899    1.237    0.191
        36  -8.9399     92.3500    214.8121   1.3028559339e+02   2.1446347168e+01    0.1540847    0.1108133  72.32 0.0005019579    1.344    0.256
        37 -10.6662     78.1394    177.5742   1.2937421787e+02   2.9595189140e+01    0.1963804    0.1714415  67.91 0.0003866233    1.069    0.064
        38 -13.1317     65.0006    175.6378   1.3183439745e+02   3.1571892399e+01    0.3895715    0.2426563 -46.57  0.001377405    2.217    0.549
        39  -9.0293     99.2372    175.9996   1.2490016505e+02   2.7035225575e+01    0.1967546    0.1206408  76.27  0.001051404    2.099    0.524
        40 -11.7684     85.6895    168.2158   1.2676388679e+02   3.0356239188e+01    0.5433871    0.4733534  51.58  0.003830097    1.131    0.116
        41 -14.2057     41.6349    224.6508   1.3956154271e+02   2.5766112743e+01      1.56419     1.077922  34.94  0.005382235    1.641    0.391
        42  -9.9452     98.1176    152.3726   1.2193964276e+02   3.1669256134e+01    0.2513378    0.2297823 -53.62 0.0008825514    1.221    0.181
        43  -8.9970    101.0155    148.0038   1.2061886564e+02   3.2100329839e+01    0.1810331    0.1535859 -13.73 0.0003183357    1.593    0.372
        44 -11.9447     86.7320    151.5011   1.2437872723e+02   3.3474854320e+01    0.2463831    0.2191657 -51.03 0.0006561539    1.290    0.225
        45 -12.4282     67.2523    143.8613   1.2782813708e+02   3.7584866664e+01    0.6637708    0.4176802  69.22  0.003486011    1.696    0.410
        46  -8.5161    191.9878    143.9581   1.0035670946e+02   1.6456249385e+01    0.1599222    0.1424873   4.91 0.0003814121    1.060    0.057
        47  -9.6844    109.6926    137.2271   1.1680202805e+02   3.2898105675e+01    0.3159602     0.208744 -19.98  0.001428761    2.674    0.626
        48  -9.7043      5.6286    240.9598   1.4567944655e+02   2.6689247696e+01     0.131468    0.1004958  46.99 0.0002882584    1.439    0.305
        49 -10.4826     96.9110    134.4907   1.1937189745e+02   3.5468659120e+01    0.2244256    0.1926554 -48.25  0.000598489    1.248    0.198
        50 -11.1145     56.8393    132.9442   1.2890691789e+02   4.1118053645e+01    0.4207595    0.2363577  75.30  0.002143734    2.149    0.535
        51  -8.6318     80.5430    132.4893   1.2302915709e+02   3.8252961936e+01    0.1283076    0.1118371  82.84 0.0001605636    1.074    0.069
        52  -8.7297     91.1583    131.3788   1.2024088671e+02   3.6979581396e+01    0.1687339    0.1130125  51.62 0.0003657193    1.500    0.333
        53  -8.4645    115.6781    129.6820   1.1396739702e+02   3.3426413119e+01    0.1338834    0.1075715  -8.66 0.0005188723    1.666    0.400
        54 -10.6247    145.8276    229.6764   1.2250626399e+02   1.1977461778e+01    0.2350632   0.07972546  36.18  0.001104023    2.676    0.626
        55  -9.0982    106.7316    123.9160   1.1502126568e+02   3.6112116422e+01    0.1743812    0.1625417 -75.60 0.0003315616    1.052    0.050
        56 -10.2736     34.9584    133.4536   1.3424971548e+02   4.3259951648e+01    0.2367866    0.1669365  68.62  0.000501167    1.309    0.236
        57  -8.1057    182.2956    117.6664   9.6313461775e+01   2.2626985717e+01    0.1394133     0.117515 -73.19 0.0003493347    1.643    0.391
        58 -10.1315    167.7258    112.8620   9.8187202814e+01   2.6549393327e+01    0.3121508    0.2651914 -72.77 0.0008195785    1.539    0.350
        59  -8.9600    203.4526    111.5074   9.0672454042e+01   1.9069015138e+01    0.1481006    0.1296903   7.64 8.954162e-05    1.042    0.040
        60  -9.0583      9.2898    229.3474   1.4479540092e+02   2.8088484552e+01   0.07405946   0.06376982 -74.29 0.0007025977    1.661    0.398
        61  -8.8703    184.5138     77.4583   8.5080059176e+01   2.8699042952e+01    0.1554403    0.1410405   7.86 0.0001113442    1.052    0.049
        62  -9.1733    157.4811     76.4932   9.0462610237e+01   3.5268318529e+01    0.1550766    0.1443011   2.39 0.0008101518    1.031    0.030
        63 -10.2077     34.3134     63.1812   1.2370769237e+02   5.9007657882e+01    0.2964134    0.1950806  53.51  0.001268841    1.936    0.483
        64  -9.9473     27.4393     60.4284   1.2560648795e+02   6.0194449218e+01    0.1985401   0.09994791  39.62  0.001006655    2.406    0.584
        65 -10.6577     16.8277     56.1569   1.2867527468e+02   6.1901660550e+01    0.2368138    0.1642137  35.72  0.001063326    1.786    0.440
        66 -10.0281     46.6714    248.8064   1.3997134563e+02   2.1709156079e+01    0.2047827   0.09405758  57.56 0.0008813476    1.594    0.372
        67 -11.7680    124.5920    249.7292   1.2795985156e+02   1.2380357060e+01    0.4960319    0.1289065  41.15  0.002437243    2.759    0.637
