#   1 NUMBER                 Running object number                                     
#   2 MAG_AUTO               Kron-like elliptical aperture magnitude                    [mag]
#   3 X_IMAGE                Object position along x                                    [pixel]
#   4 Y_IMAGE                Object position along y                                    [pixel]
#   5 X_WORLD                Barycenter position along world x axis                     [deg]
#   6 Y_WORLD                Barycenter position along world y axis                     [deg]
#   7 A_WORLD                Profile RMS along major axis (world units)                 [deg]
#   8 B_WORLD                Profile RMS along minor axis (world units)                 [deg]
#   9 THETA_WORLD            Position angle (CCW/world-x)                               [deg]
#  10 FWHM_WORLD             FWHM assuming a gaussian core                              [deg]
#  11 ELONGATION             A_IMAGE/B_IMAGE                                           
#  12 ELLIPTICITY            1 - B_IMAGE/A_IMAGE                                       
         1  -8.5655     97.1587     14.8777   3.3757579568e+01   5.9118547292e+01    0.2600692    0.1587279 -37.02 0.0006509778    1.720    0.419
         2  -7.7065    119.7830     11.0112   2.7388310647e+01   5.3514407015e+01    0.1764345    0.1176568 -25.10 0.0005475931    1.620    0.383
         3  -8.5014     55.8215     10.0177   4.5339117042e+01   6.9844510061e+01    0.1996734    0.1871571 -81.00 0.0005147035    1.280    0.219
         4  -7.9212     47.6038      9.8176   4.9436168713e+01   7.1621850416e+01    0.1863411    0.1250454 -44.82 0.0008966314    1.718    0.418
         5  -7.9022    101.3518      7.7483   2.9447335968e+01   5.8775385775e+01    0.1455124    0.1030153 -74.50 0.0002991567    1.595    0.373
         6  -8.4851     33.7411      5.1947   5.4910429586e+01   7.4979368885e+01     0.294814    0.1679979 -51.29  0.001355041    2.399    0.583
         7  -8.5253     79.1037      3.5968   3.2774565193e+01   6.5000816725e+01     0.272767    0.1757977 -43.45  0.001075591    1.736    0.424
         8  -8.6226     90.8618      8.6020   3.2278583103e+01   6.1455709733e+01     0.281624    0.1695049 -46.10 0.0009947555    1.853    0.460
         9  -8.3633     88.0096      2.5208   2.9861430129e+01   6.2799891693e+01    0.2325892    0.1274369  66.41  0.001048391    1.639    0.390
        10  -8.0937     62.8718      1.4533   3.6807322677e+01   6.9244343753e+01    0.2033633     0.127655  62.73 0.0009955935    1.522    0.343
        11  -9.6309    223.6659    242.3541   6.3231264586e+01  -4.2215554583e-01    0.1963988    0.1706878 -14.56  0.001294817    1.747    0.428
        12  -8.7761    248.9883    248.8181   6.0229575208e+01  -3.4353091991e+00    0.2785877    0.1261849 -13.81  0.001856847    2.032    0.508
        13  -9.8104    248.6972    242.0237   5.9355165427e+01  -2.7857079467e+00      0.34277      0.16789 -30.42  0.001786539    2.038    0.509
        14  -9.0655    247.6491    234.2234   5.8428214554e+01  -1.9500665476e+00    0.1658763     0.122997 -21.19 0.0009981564    1.581    0.368
        15  -9.5521    246.3504    228.9741   5.7875220651e+01  -1.3143580811e+00    0.3510814    0.1755296 -30.72  0.001661518    1.951    0.487
        16  -9.3944    242.9331    246.7439   6.0846847832e+01  -2.6970441126e+00    0.3900123    0.1499799 -19.34  0.002272229    2.706    0.630
        17  -9.3160    211.3644    246.9911   6.5846340459e+01   3.4388624914e-01    0.2959122    0.1997465 -50.51  0.001549888    3.379    0.704
        18  -8.3530     94.3218    249.5930   8.8441683781e+01   1.3145655989e+01    0.2402491    0.1051101  50.90   0.00116729    2.642    0.621
        19  -7.5289     72.4710    250.5383   9.3083715989e+01   1.5392343716e+01    0.1151439    0.0826831  35.34 0.0001010389    1.020    0.020
        20  -9.1951    146.9961    245.6639   7.7345968753e+01   7.6172961172e+00    0.2312299    0.1483324  47.56  0.001383515    2.012    0.503
        21  -8.4523    146.3794    239.7347   7.6790431391e+01   8.4863449086e+00     0.258002    0.1942894  69.60  0.001513407    2.582    0.613
        22  -9.2254    119.9273    244.7440   8.2691106004e+01   1.0919075604e+01    0.2922268    0.1805135  61.58  0.001437785    2.691    0.628
        23  -8.7581      9.9820    244.5305   1.0587077935e+02   2.2334455654e+01    0.2945907   0.09559115  75.58  0.001458087    3.392    0.705
        24  -8.4919     67.4850    244.5078   9.3744585954e+01   1.6886525262e+01    0.1822975     0.114241 -74.09   0.00106126    2.089    0.521
        25  -9.0511     77.8878    242.9330   9.1405005896e+01   1.6014565258e+01    0.2707689    0.1216749  58.08  0.001324102    2.923    0.658
        26  -8.3373    201.9333    242.9736   6.6905603386e+01   1.7585471753e+00     0.135716    0.1184471  22.22 0.0005501904    1.659    0.397
        27  -8.6433    169.0749    243.0449   7.2803759304e+01   5.3957737464e+00     0.187424    0.1474395  31.16 0.0007658208    1.408    0.290
        28  -7.7642     34.3201    243.7063   1.0077479044e+02   2.0341974057e+01    0.1195334   0.05627117  47.95 0.0004627765    1.610    0.379
        29  -8.9602    194.3907    240.3090   6.7861404721e+01   2.8738371708e+00    0.2541936    0.1907007 -49.17  0.001376245    2.365    0.577
        30  -9.2353    183.2201    240.1434   6.9831564514e+01   4.1380153796e+00    0.3380432    0.2180211  50.19  0.001962353    2.989    0.665
        31  -9.2317    160.1613    240.1623   7.4144403019e+01   6.7965356822e+00    0.2397981    0.2045741  67.52  0.001199491    2.117    0.528
        32  -8.3235    153.4988    241.8960   7.5641925820e+01   7.3532217245e+00    0.1363609    0.1101749 -33.85 0.0009081627    1.550    0.355
        33  -8.1304     88.0064    242.0196   8.9162944564e+01   1.5029673717e+01    0.1773247    0.1087404  50.74 0.0007306465    1.621    0.383
        34  -7.7851     49.5245    242.0610   9.7455026582e+01   1.9149464661e+01    0.1595589   0.06922114  63.29 0.0008088927    2.683    0.627
        35  -8.7805    111.1279    240.6473   8.4121182185e+01   1.2561370027e+01    0.1787901    0.1587465 -14.64 0.0005434335    1.344    0.256
        36  -9.3050    242.4931    236.3726   5.9495187435e+01  -1.6684351380e+00    0.2370534    0.1092291  -0.25  0.001386788    2.410    0.585
        37  -7.9682    214.2890    240.6660   6.4524489476e+01   7.0794079243e-01   0.08763041   0.07424742  19.25 0.0002149397    1.629    0.386
        38  -9.3401    135.9719    238.8420   7.8782080416e+01   9.8574225223e+00    0.2306529    0.1359673  49.78  0.001266376    2.219    0.549
        39  -9.0579    231.0525    236.9179   6.1321846540e+01  -6.0724373207e-01    0.1858722    0.1789437 -27.60  0.001215943    2.341    0.573
        40  -9.4268    216.6893    235.3676   6.3407119073e+01   1.0228056913e+00    0.2327553    0.2015707 -52.13  0.001735163    2.564    0.610
        41  -9.3373    213.6986    231.5498   6.3370401043e+01   1.7562894073e+00     0.228334    0.1913103  37.54  0.001040373    1.979    0.495
        42  -8.1995    209.1073    238.1827   6.5051046605e+01   1.5193680523e+00    0.1319375    0.1069451  12.02 0.0005486272    1.368    0.269
        43  -8.2882    129.1585    238.1416   8.0101078692e+01   1.0778345395e+01    0.1590971    0.1139436  39.77 0.0005616862    1.358    0.264
        44  -8.5731     25.6433    236.8228   1.0236347357e+02   2.2322615858e+01     0.244963   0.08180523  61.50  0.001162329    2.980    0.664
        45  -7.7547     13.3782    237.6937   1.0500259571e+02   2.3231478503e+01    0.1257049   0.04949294  47.97 0.0007027138    1.780    0.438
        46  -9.1653    203.2143    234.4665   6.5546146559e+01   2.5698807352e+00    0.2349464    0.1763872 -45.40  0.001037946    2.235    0.553
        47  -9.6998    175.6912    233.0926   7.0300729188e+01   5.8735816026e+00    0.3565855    0.2207168 -53.37  0.002135849    2.794    0.642
        48  -8.3317    170.4569    235.5352   7.1602172460e+01   6.1801134632e+00    0.1459565    0.1109574 -51.46 0.0006706542    2.065    0.516
        49  -8.0610     58.5060    237.0000   9.5215017064e+01   1.9088944282e+01     0.263455   0.05149056  27.17 0.0009333476    3.924    0.745
        50  -9.1239    109.4088    234.3849   8.3871888213e+01   1.3730584100e+01    0.4949832    0.1675274  42.47  0.001944541    2.699    0.629
        51  -8.4515    100.0969    234.7113   8.5915949581e+01   1.4793132753e+01    0.2615745    0.1174137  50.61  0.001241799    2.638    0.621
        52  -8.8724     78.7879    234.2970   9.0553671913e+01   1.7335739041e+01    0.2340961    0.1424424  73.81  0.001132215    2.275    0.560
        53  -8.2328    122.8593    233.7554   8.0940084048e+01   1.2193593220e+01    0.1985041      0.13925  62.16 0.0009506489    2.113    0.527
        54  -9.1773     68.5863    232.2208   9.2664258841e+01   1.8828028337e+01    0.4218602    0.1695899  55.54  0.001935664    2.938    0.660
        55  -9.0189    140.2823    230.0489   7.6881748603e+01   1.0594303354e+01    0.2830226    0.1146105  40.47 0.0009884642    2.327    0.570
        56  -8.5692    132.5230    232.2651   7.8748179337e+01   1.1229611299e+01    0.1701149    0.1216294 -57.97 0.0007065352    1.977    0.494
        57  -8.2036    194.2363    232.2568   6.6810339566e+01   3.8284193486e+00    0.1353163    0.1088341  19.75 0.0004741829    1.334    0.250
        58  -9.3241    186.4115    230.4947   6.7975109229e+01   4.9409415416e+00    0.2489312    0.2230327 -75.01  0.001503475    2.343    0.573
        59  -8.4452     92.8779    231.8884   8.7237227302e+01   1.6107528901e+01    0.3116248    0.1240992  48.22  0.001187352    2.658    0.624
        60  -9.1235    235.9739    230.2568   5.9623705156e+01  -4.2162960154e-01    0.2358008    0.1179998 -27.16  0.001105914    1.832    0.454
        61  -8.8083      1.8036    230.6745   1.0730123344e+02   2.5407416197e+01    0.2247972   0.08069635  56.41  0.001225684    2.106    0.525
        62  -8.6930    151.4860    228.9803   7.4470046314e+01   9.3562221030e+00    0.2222777    0.1689076  51.52   0.00138509    1.838    0.456
        63  -9.5004    148.6648    224.4826   7.4472259297e+01   1.0352844520e+01    0.3034449    0.2330974  67.47     0.001822    2.333    0.571
        64  -8.3764    229.5776    228.2913   6.0338245102e+01   4.3253740204e-01    0.1676443   0.08706612 -32.83  0.001080411    2.001    0.500
        65  -8.7130    162.2805    227.6812   7.2159834975e+01   8.2018239820e+00     0.252408    0.1676889  46.87  0.001466567    2.012    0.503
        66  -8.7789    127.8488    226.9787   7.9123938668e+01   1.2609116517e+01    0.2824884    0.1832743  51.38  0.001306512    1.908    0.476
        67  -8.1311    223.3903    226.2833   6.1035473134e+01   1.2957278800e+00    0.1825516   0.08381391 -27.48 0.0009970244    2.055    0.513
        68  -7.9098    177.9407    227.0180   6.9067020442e+01   6.3817935789e+00    0.1399324    0.1030764  13.82 0.0003721985    1.019    0.019
        69  -8.8019    205.9947    225.4334   6.3806508093e+01   3.2988524184e+00    0.2038507    0.1409334 -36.47 0.0008862736    1.823    0.452
        70  -8.4161    200.1450    226.1832   6.4926140016e+01   3.8755456519e+00    0.1377954     0.112746  16.41 0.0004773523    1.330    0.248
        71  -7.9296     49.2320    226.3005   9.6644528539e+01   2.1940119108e+01    0.1602254   0.08564057  79.94 0.0007862409    2.317    0.568
        72  -8.6577    180.6781    224.1770   6.8164142660e+01   6.4180135255e+00    0.2292502     0.147573  40.87 0.0008792787    1.855    0.461
        73  -8.8819     93.8600    223.9501   8.6279384401e+01   1.7325533951e+01    0.3283531    0.1768706  52.59  0.001737398    2.060    0.515
        74  -9.1031    216.5348    222.9157   6.1667469125e+01   2.4113144856e+00    0.2698159    0.1600477 -29.18  0.001648812    1.678    0.404
        75  -8.8279    104.6998    223.5028   8.3796693879e+01   1.6068924908e+01    0.2867116     0.187968  61.24  0.001604201    2.014    0.503
        76  -7.8169     38.4617    224.4893   9.8999946231e+01   2.3348770005e+01    0.1212714   0.08775499  44.55 9.616907e-05    1.066    0.062
        77  -9.1034      9.9939    231.1703   1.0556070100e+02   2.4668817638e+01    0.1397258     0.118899 -55.08  0.001065506    1.627    0.385
        78  -8.6760    173.1975    222.7434   6.9380547794e+01   7.5213076466e+00     0.194085    0.1779173  54.96 0.0008970493    1.770    0.435
        79  -8.1347    163.0490    222.5306   7.1325032837e+01   8.8152520482e+00    0.1692232    0.1520906  44.18  0.001224721    1.561    0.359
        80  -8.5687    159.0256    220.3237   7.1827792319e+01   9.6350509905e+00    0.2083371    0.1338529  37.00 0.0007079162    1.497    0.332
        81  -7.9335    140.5832    222.7451   7.5924017309e+01   1.1638003763e+01    0.1312965    0.1201974 -68.71 0.0005910736    1.599    0.375
        82  -7.7074    113.8148    223.6110   8.1784832894e+01   1.4910210016e+01    0.1737835   0.08758283  37.31 0.0004441276    1.604    0.377
        83  -7.3571     59.6317    223.3133   9.4069723337e+01   2.1388076494e+01    0.1334362   0.06615388  49.53 0.0007036936    1.772    0.436
        84  -9.0621    238.9594    221.4635   5.7893756902e+01   1.8307839936e-01    0.1654366     0.127261 -22.44 0.0007569461    1.545    0.353
        85  -9.3910    225.5238    221.5437   6.0003382694e+01   1.5848406295e+00    0.1973667    0.1709166  14.88  0.001317807    1.602    0.376
        86  -9.3119    192.3441    221.1915   6.5600640731e+01   5.3952282057e+00    0.2122939    0.2064283  29.18  0.001025085    1.752    0.429
        87  -8.8616     82.5496    220.2382   8.8522373485e+01   1.9335717788e+01    0.2664089    0.1607568  61.98  0.001110778    1.999    0.500
        88  -8.1442     73.2043    220.5435   9.0716068406e+01   2.0375382092e+01     0.217155    0.1218383  68.49  0.001129773    2.352    0.575
        89  -8.0402     27.4514    220.3082   1.0132571503e+02   2.5169271876e+01     0.193376    0.1056936 -74.43  0.001140738    2.113    0.527
        90  -8.3643    202.7802    220.0410   6.3583905907e+01   4.3063240002e+00    0.1558237    0.1290523   7.02 0.0005424796    1.266    0.210
        91  -9.0635    120.4826    219.0430   7.9795695744e+01   1.4805786441e+01    0.3807639    0.1917622  51.29  0.001800367    2.647    0.622
        92  -9.3254    133.1435    216.1053   7.6670062931e+01   1.3630068429e+01    0.4575479    0.2764704  62.37  0.002122556    3.361    0.702
        93  -9.0496     51.8388    217.1065   9.5471450847e+01   2.3375940681e+01     0.254148    0.1535184  77.29   0.00108509    1.922    0.480
        94  -8.0614    179.4724    217.4977   6.7448861683e+01   7.4428985168e+00    0.1170373      0.09074  12.90 0.0002031792    1.051    0.049
        95  -8.7916    169.4583    216.0013   6.9162496932e+01   8.9122310573e+00     0.225671    0.2006963  69.69 0.0009665331    1.957    0.489
        96  -8.5170    143.0798    216.4474   7.4591268304e+01   1.2272017848e+01    0.2283294    0.1650058  53.89  0.001090385    1.898    0.473
        97  -8.3113    210.1040    218.7542   6.2135600281e+01   3.6138628574e+00    0.1683171    0.1290689 -22.22 0.0005919207    1.404    0.288
        98  -8.3246     62.1255    217.0543   9.3039019427e+01   2.2272178806e+01    0.2561289    0.1042937  46.64  0.001228201    2.093    0.522
        99  -8.6026    232.2320    214.7005   5.7922616846e+01   1.6130480046e+00    0.1705367    0.1434257 -14.90 0.0008857918    1.517    0.341
       100  -8.2208    154.5901    215.2350   7.2034459034e+01   1.0946830649e+01    0.1704138    0.1367643  54.57  0.001090564    1.792    0.442
       101  -8.0918     41.4854    215.0008   9.7791547306e+01   2.4842405271e+01    0.1740852   0.07501768  64.78 0.0008103149    2.620    0.618
       102  -8.2946    185.6390    214.3275   6.5832292274e+01   7.0942767363e+00    0.1520382    0.1314939  42.45 0.0008107173    1.696    0.411
       103  -8.8670     93.2422    213.9080   8.5425808340e+01   1.9164727552e+01    0.3237952    0.1361421  47.77  0.001431118    2.454    0.592
       104  -9.1442     72.2848    211.1797   9.0142872216e+01   2.2219597777e+01    0.3951576    0.1675929  57.01  0.001582919    3.022    0.669
       105  -8.0606    224.8944    212.5584   5.8760821603e+01   2.6573308403e+00    0.1623025    0.1099588 -25.33 0.0004810716    1.443    0.307
       106  -9.3696    213.7944    211.9126   6.0487052504e+01   3.9978923430e+00    0.2733466    0.1985734  39.35  0.001490398    1.893    0.472
       107  -7.6810    197.6574    213.6756   6.3546910217e+01   5.6998103049e+00    0.1217007   0.07122172   1.52 0.0007050839    1.733    0.423
       108  -8.6057    161.4990    211.9842   7.0174562264e+01   1.0518802334e+01    0.2081473    0.1676109  41.41 0.0009402545    1.491    0.329
       109  -7.9964    106.4822    212.5285   8.2201387520e+01   1.7721027403e+01    0.1279184    0.1016403  32.97 0.0001971506    1.055    0.052
       110  -9.4988      5.7416    207.7309   1.0594015091e+02   2.9446158376e+01    0.3119686   0.09710945  69.19  0.001367461    3.142    0.682
       111  -9.0099    204.1856    210.4477   6.1908507251e+01   5.3144426491e+00    0.2120998    0.1618045 -33.70 0.0008185518    1.605    0.377
       112  -9.3541    175.3490    209.7173   6.7105018201e+01   9.0309376892e+00    0.2923256    0.2135279  53.37  0.001449001    2.237    0.553
       113  -8.6923    147.9178    210.1719   7.2723834676e+01   1.2598192109e+01    0.2318484    0.1873306  67.99  0.001224297    2.005    0.501
       114  -8.9804    116.1978    210.1008   7.9688246314e+01   1.6867063299e+01    0.2809443    0.1926495  63.17  0.001021336    2.067    0.516
       115  -8.3247    192.2369    210.2127   6.4003978269e+01   6.8110473517e+00     0.140569    0.1274147   8.13 0.0005035339    1.405    0.288
       116  -8.3054     85.6521    209.5012   8.6776530428e+01   2.0918990344e+01    0.2728103     0.144179  60.38  0.001130701    2.512    0.602
       117  -8.7509     32.3180    209.4247   9.9682671666e+01   2.6825725070e+01    0.2941197    0.1045526 -76.80  0.001350743    3.128    0.680
       118  -9.1418    236.4249    207.6196   5.6190015390e+01   1.9381431895e+00    0.2908882    0.1606891 -36.15  0.001488161    2.022    0.505
       119  -8.2726     46.3583    209.2372   9.6274864017e+01   2.5470660293e+01    0.1618646    0.1034713  77.43 0.0004796131    1.716    0.417
       120  -9.5488    245.8910    193.5737   5.2543628444e+01   2.4569204966e+00     0.291253    0.2361324 -49.15  0.001853864    2.420    0.587
       121  -9.3892    250.1731    201.9074   5.3250896389e+01   1.0837797431e+00    0.3320855    0.1321406 -27.67  0.001540681    2.152    0.535
       122  -8.2554    139.0399    207.7702   7.4294527707e+01   1.4178366602e+01    0.1867974    0.1670063 -83.91  0.000705405    1.650    0.394
       123  -9.2111    248.8586    217.9476   5.5895831537e+01  -4.5542948650e-01    0.2068558    0.1536831  46.60  0.001404761    3.034    0.670
       124  -7.9241    156.4639    207.5410   7.0567235895e+01   1.1851651537e+01    0.1231121      0.09981  20.36 0.0002735947    1.077    0.071
       125  -9.0041     99.4108    205.9889   8.3116452970e+01   1.9815201913e+01     0.325446    0.1955231  63.52  0.001229864    2.370    0.578
       126  -8.9450     11.8587    206.8220   1.0447279286e+02   2.9143863584e+01    0.1758323    0.1031065  49.85 0.0008827993    1.321    0.243
       127  -8.4803     56.7289    205.4604   9.3468895980e+01   2.5108487845e+01    0.3244215    0.1404849  53.12  0.001505712    2.276    0.561
       128  -9.2888    194.8763    203.3819   6.2473862769e+01   7.3765706708e+00    0.2970723    0.2632222 -19.12   0.00125898    1.406    0.289
       129  -9.2887    192.4213    197.0814   6.1923756079e+01   8.5436350410e+00    0.2800307    0.2221143 -46.63  0.001306393    1.811    0.448
       130  -8.2169    109.0076    204.9696   8.0728526196e+01   1.8730056776e+01    0.1995041    0.1350883  53.54 0.0009114126    1.669    0.401
       131  -7.9324     25.2931    205.2970   1.0118598986e+02   2.8301400502e+01    0.1050997   0.09004504 -23.98            0    1.562    0.360
       132  -9.0478    183.6448    203.6182   6.4593011054e+01   8.7974075984e+00    0.2338412    0.1941672  38.64 0.0009712828    1.542    0.352
       133  -9.6576    163.9629    202.8262   6.8335687116e+01   1.1546947967e+01    0.3938425    0.2324231  48.53  0.001181534    2.328    0.570
       134  -8.3837    131.2039    203.6871   7.5467047066e+01   1.5927218960e+01    0.2484731    0.1820023  59.96  0.001181646    1.900    0.474
       135  -8.4292     17.4036    203.1961   1.0301719555e+02   2.9416591840e+01    0.1692583   0.09233654  71.87 0.0009521458    1.761    0.432
       136  -9.1210    243.1153    200.6750   5.4090677307e+01   1.9749759752e+00      0.24438    0.1262341 -30.94 0.0008202209    1.776    0.437
       137  -8.3223    210.9328    201.6095   5.9369496307e+01   5.5961291433e+00    0.1929091     0.141092 -42.62 0.0007139713    1.927    0.481
       138  -8.8410    140.4821    200.8056   7.3005870162e+01   1.5118513808e+01    0.2990026     0.201647  55.84  0.001174757    2.111    0.526
       139  -7.7648     41.3214    202.6654   9.7098275877e+01   2.7303526423e+01    0.1368332   0.07051454  52.60 0.0007050053    1.705    0.414
       140  -8.1059    222.0230    201.0640   5.7435730914e+01   4.3282331804e+00    0.1436301    0.1338505 -20.61 0.0006289467    1.699    0.411
       141  -8.3245     80.1629    201.0771   8.7268097044e+01   2.3213226800e+01    0.2683934    0.1213449  48.30  0.001222257    2.155    0.536
       142  -7.6944     72.7199    201.6847   8.9177750141e+01   2.4007734270e+01    0.1183396    0.0947631 -13.56   0.00023888    1.573    0.364
       143  -9.4121    149.7174    198.5752   7.0674125750e+01   1.4185626337e+01    0.3714415    0.2783864  70.01  0.001452899    2.435    0.589
       144  -8.9547    124.2046    199.0721   7.6430115740e+01   1.7697090761e+01    0.2807554     0.212002  71.39  0.001128405    1.985    0.496
       145  -9.3996    112.9304    198.1850   7.8951562545e+01   1.9427430660e+01    0.4248532    0.2455535  60.25  0.001667057    2.675    0.626
       146  -9.1069    237.1129    198.2860   5.4613852950e+01   2.9087033539e+00    0.2220584    0.1279418 -31.12 0.0009043941    1.658    0.397
       147  -8.4089    176.9708    198.9265   6.5145018441e+01   1.0352192701e+01    0.1663796    0.1445227  48.16 0.0005112544    1.640    0.390
       148  -9.3130     88.6402    198.1890   8.4858107796e+01   2.2697279837e+01    0.3323697    0.2207004  73.27  0.001201648    2.025    0.506
       149  -8.3314    202.4957    197.8051   6.0224375307e+01   7.1384698651e+00    0.1700375     0.146984  58.52 0.0007922185    2.128    0.530
       150  -8.9818     61.3693    196.6709   9.1588898176e+01   2.6360817149e+01    0.4346119    0.2000894  61.14  0.001793869    2.683    0.627
       151  -7.8531     29.3387    197.6672   9.9815118582e+01   2.9497839218e+01    0.1391081   0.06738835  52.10 0.0007051781    1.745    0.427
       152  -8.6300     12.5986    196.4813   1.0395515440e+02   3.1197727691e+01    0.2911491    0.1056044  72.50  0.001288572    2.864    0.651
       153  -8.6693    215.7799    195.0150   5.7489657908e+01   5.8239592593e+00    0.2569962    0.1469169 -43.16   0.00131648    2.304    0.566
       154  -8.0354    132.9870    195.8967   7.3975287550e+01   1.7009896356e+01    0.1914828    0.1439144  54.12 0.0006098484    1.645    0.392
       155  -8.6834    224.6876    193.8659   5.5842450938e+01   4.8771819761e+00    0.2682559    0.1280741 -40.78  0.001360868    2.497    0.599
       156  -8.8566    185.1524    194.6587   6.2891070034e+01   9.8544248416e+00    0.1935773    0.1816413 -44.50 0.0006776439    1.587    0.370
       157  -8.8645    160.8582    194.0065   6.7619312614e+01   1.3335897593e+01     0.248481    0.1964649  60.03 0.0009749133    1.953    0.488
       158  -8.0844    231.1684    194.1473   5.4861936050e+01   4.0724971093e+00    0.1375169    0.1158886 -10.90 0.0004933422    1.346    0.257
       159  -8.7858     77.1657    193.9172   8.7287266940e+01   2.5016808273e+01    0.2564078    0.1732561  45.12 0.0006470891    1.302    0.232
       160  -9.0494     43.9305    193.1424   9.5804600289e+01   2.9013412136e+01    0.4289671      0.18225  56.33  0.001928778    2.363    0.577
       161  -8.2677    199.0205    191.4750   5.9809899712e+01   8.4350064476e+00    0.1914753     0.157048 -37.77 0.0006080681    1.569    0.362
       162  -8.4114    172.4603    191.4516   6.4843781083e+01   1.2084374032e+01     0.184596    0.1196585 -51.32 0.0007606008    2.141    0.533
       163  -9.3316    246.3569    207.0694   5.4612093109e+01   9.3440051543e-01    0.2249318    0.1386583 -15.73 0.0005477147    1.280    0.219
       164  -7.5289    205.2709    191.6538   5.8732542303e+01   7.5902118068e+00   0.09733678   0.09334785 -27.47 0.0003815528    1.619    0.382
       165  -8.0417    179.1664    191.2112   6.3481098518e+01   1.1178032914e+01    0.1491763    0.1413926   3.47 0.0005456006    1.356    0.262
       166  -8.9783    139.4213    190.2337   7.1680862871e+01   1.7060371232e+01    0.3013201    0.2277761  67.01  0.001381097    2.058    0.514
       167 -10.4021     92.4482    188.7694   8.2801243272e+01   2.4055713652e+01    0.9464246    0.2059171  41.17  0.003019561    3.845    0.740
       168  -8.9428    216.5337    187.7661   5.6163418253e+01   6.6458835265e+00    0.2175193    0.1677333 -31.61 0.0007900919    1.473    0.321
       169  -7.9356    210.0000    188.9622   5.7466430517e+01   7.3302907234e+00    0.1774209   0.05932842 -36.35  0.000730501    2.902    0.655
       170  -8.4168    148.6439    189.1226   6.9459579988e+01   1.5896668993e+01    0.1752659    0.1651415 -89.88 0.0009911485    1.492    0.330
       171  -8.8592    129.3041    188.5372   7.3745927721e+01   1.8845445750e+01    0.2669826    0.1933286  57.55 0.0008633626    1.788    0.441
       172  -9.6034    120.6609    185.8418   7.5397320451e+01   2.0613786539e+01    0.4495926    0.2771915 -73.94  0.002081234    2.746    0.636
       173  -8.8240     34.2021    187.8547   9.8000216908e+01   3.1124494903e+01    0.3759617    0.1544313  65.20  0.001604712    2.740    0.635
       174  -8.2337    237.3004    188.1277   5.2928204719e+01   4.0600648628e+00    0.1552906    0.1090883 -18.55 0.0006598369    1.196    0.164
       175  -8.8043    191.5285    187.3058   6.0481684537e+01   1.0026980325e+01    0.2154756    0.1964652 -88.56  0.001147277    1.997    0.499
       176  -9.3647    156.0155    187.2105   6.7558945345e+01   1.5129735238e+01    0.2905466    0.2245857 -55.64 0.0009635417    1.751    0.429
       177  -9.1461     54.8350    186.7316   9.2433383822e+01   2.9200505593e+01    0.4532165     0.188207  58.52  0.001789381    2.876    0.652
       178  -8.0754    230.4905    187.0432   5.3793744482e+01   5.0015190614e+00    0.1618399   0.09265916 -28.11 0.0006309614    1.547    0.354
       179  -8.7419    164.9696    186.5445   6.5565798538e+01   1.3922848193e+01    0.2480628    0.2063711  72.00  0.001117825    2.037    0.509
       180  -9.1482    109.8116    185.9202   7.8060315888e+01   2.2181738933e+01    0.4280005    0.2502693  58.39  0.001377363    2.370    0.578
       181  -9.2120    249.3781    185.2310   5.0671879889e+01   3.0016075409e+00    0.2420871    0.1449043 -30.13 0.0009742326    1.530    0.346
       182  -8.7941    202.9235    184.4691   5.7937401543e+01   8.8663274907e+00    0.1976547    0.1607436 -40.71 0.0008379958    1.617    0.382
       183  -8.7226    182.9341    184.6252   6.1654228901e+01   1.1621124021e+01    0.2157312    0.1722957 -36.59 0.0008745478    1.441    0.306
       184  -9.2808     66.8866    184.4401   8.8997788061e+01   2.8273688747e+01    0.4149957    0.2009816  48.05  0.001229624    1.920    0.479
       185  -8.4517     12.3348    185.0182   1.0360848269e+02   3.3664966727e+01    0.2089797   0.05631499  67.85 0.0007047862    4.314    0.768
       186  -8.5182    224.0695    183.3406   5.4183852889e+01   6.2509669168e+00    0.1756211    0.1457272 -32.77  0.000522056    1.543    0.352
       187  -8.7047    210.0921    183.9521   5.6603198868e+01   7.9778975182e+00    0.1928672    0.1430917 -21.03 0.0005337203    1.230    0.187
       188  -8.9267    174.1840    183.2499   6.3139389357e+01   1.3092330820e+01    0.2527684    0.2127485 -54.33 0.0008362277    1.686    0.407
       189  -8.3937    197.2718    183.0357   5.8702935161e+01   9.8368624445e+00    0.1684081    0.1357878 -13.94 0.0004359763    1.143    0.125
       190  -9.0909     44.5654    182.2944   9.4833088193e+01   3.1293539444e+01    0.3760832    0.1767141  53.04  0.001077687    2.001    0.500
       191  -8.2740      1.7325    183.5375   1.0631307507e+02   3.4776521921e+01    0.1729358   0.08531715  37.76 0.0009373795    1.600    0.375
       192  -9.2485    147.5415    180.5439   6.8321009704e+01   1.7527320454e+01    0.3102829     0.253912 -89.71  0.001126473    2.002    0.501
       193  -7.7984     19.6717    182.3661   1.0155841424e+02   3.3647673656e+01    0.1439308   0.06816251  53.96 0.0007036478    1.809    0.447
       194  -8.6361    235.2680    181.0745   5.2049968187e+01   5.1412729987e+00    0.1612071    0.1168949 -15.99 0.0006850204    1.132    0.117
       195  -7.8099     90.3571    181.3052   8.2406789256e+01   2.5868434898e+01    0.1365926    0.1012561  -7.84  0.000704034    1.721    0.419
       196  -7.7030     83.3154    181.6885   8.4311710819e+01   2.6748590664e+01    0.1413495   0.09091465  55.29 0.0006962901    1.637    0.389
       197  -9.4658     25.5795    178.5644   9.9763991380e+01   3.3980796225e+01    0.6684519    0.2053507  66.92  0.002222359    4.454    0.775
       198  -8.7332    137.7788    179.0900   7.0302314723e+01   1.9281110733e+01    0.2979849    0.2118742  57.31  0.001122945    1.882    0.469
       199  -9.3563    191.5243    178.2386   5.8925629709e+01   1.1332594275e+01    0.2499007    0.2317911  59.17 0.0006202654    1.666    0.400
       200  -9.1818     36.0831    176.6536   9.6744366639e+01   3.3423245584e+01    0.5587013    0.1929355  64.98  0.001907818    4.063    0.754
       201  -9.5250    248.5124    176.3265   4.9296161499e+01   4.1177475606e+00    0.4143157     0.197707 -35.49  0.001470372    1.984    0.496
       202  -8.6707    250.5722    172.6756   4.8380588567e+01   4.2977587251e+00    0.1972725   0.08598596 -33.25 0.0006871117    1.987    0.497
       203  -8.6828    205.1336    177.3811   5.6321119800e+01   9.5371990066e+00    0.2345198    0.1414974 -36.60 0.0007945786    1.688    0.408
       204  -8.1165    169.4051    178.2882   6.3257454940e+01   1.4582042222e+01     0.157425    0.1217822 -47.77 0.0003968499    1.611    0.379
       205  -8.3260    129.1179    177.1606   7.2031597606e+01   2.0971405738e+01    0.2303459    0.1774551  81.37 0.0008693907    2.028    0.507
       206  -8.8600    231.1174    176.7549   5.1942338329e+01   6.1833203247e+00    0.1891454      0.13004 -30.50 0.0006876931    1.420    0.296
       207  -8.5899    217.4710    176.8301   5.4131149963e+01   7.9395861092e+00    0.2002634    0.1485504 -41.82 0.0008340965    1.733    0.423
       208  -7.7671     97.3595    177.3140   8.0039040563e+01   2.5708017382e+01     0.139956     0.102455  -7.56 0.0004034456    1.750    0.429
       209  -8.7037     89.2147    176.7190   8.2113920708e+01   2.6990260522e+01    0.2976218    0.1873838  56.12  0.001050013    1.760    0.432
       210  -9.3604     58.7347    175.4854   9.0320776531e+01   3.1221947302e+01    0.6053546    0.2231016  56.56  0.002084574    3.670    0.728
       211  -9.2249     55.8150    170.4324   9.0636781322e+01   3.2711210346e+01    0.4790531    0.2281748  65.95   0.00192923    2.768    0.639
       212  -9.0755     12.9934    176.5296   1.0309653859e+02   3.5493452813e+01    0.2485102    0.1375596  64.82 0.0008431474    1.626    0.385
       213  -8.1835    211.5298    176.4730   5.5060921113e+01   8.7847001304e+00    0.1194572   0.09592338  -2.11 0.0002543389    1.029    0.028
       214  -9.0730    183.0739    175.6701   6.0075802880e+01   1.2947658320e+01    0.2474645    0.1977501 -43.41 0.0008367366    1.535    0.349
       215  -9.2364    158.7525    174.7682   6.4883118298e+01   1.6791284699e+01    0.3346191    0.2643753  73.10  0.001025834    2.167    0.539
       216  -9.3607    104.1209    174.5616   7.7881186762e+01   2.5286305062e+01    0.5087108     0.251204  54.87  0.001904789    2.819    0.645
       217 -10.7132     75.8272    170.1400   8.4931872745e+01   3.0258805745e+01     1.155955    0.4904121 -82.75  0.003620134    4.996    0.800
       218  -9.6992     81.1596    155.4842   8.1404931948e+01   3.2845412325e+01     0.590806    0.5177379 -30.60  0.002764032    1.304    0.233
       219  -8.2412    224.4666    174.0112   5.2503653523e+01   7.3832632201e+00    0.1693633   0.09779971 -30.61 0.0005684996    1.561    0.359
       220  -9.2443    175.8404    172.3190   6.0901400493e+01   1.4557209834e+01    0.2597259    0.2454059 -69.52 0.0007814151    1.543    0.352
       221  -8.3226    143.1408    172.6775   6.7993416376e+01   1.9607048625e+01     0.208027    0.1881209 -63.47 0.0006907831    1.418    0.295
       222  -8.4287    134.8259    171.6751   6.9765271494e+01   2.1109268931e+01    0.2285711     0.180552  81.70 0.0009502207    1.961    0.490
       223  -9.1195     45.1341    170.9265   9.3738483934e+01   3.3798327110e+01    0.3612697    0.1867585  68.68  0.001371329    2.221    0.550
       224  -9.5518    121.3814    170.2114   7.2798481533e+01   2.3517856710e+01    0.3344128    0.2652529  81.11 0.0008849516    1.781    0.439
       225  -8.6435    237.1961    169.3435   4.9723541035e+01   6.3307654075e+00    0.1852493    0.1347222 -19.54  0.000591393    1.148    0.129
       226  -8.7599    230.2711    168.8326   5.0678085557e+01   7.2850529788e+00    0.3503425    0.1416671 -40.56  0.001707521    2.691    0.628
       227  -8.3087    205.6968    169.7717   5.4863920166e+01   1.0517325257e+01    0.2089171    0.1353981 -50.62 0.0007170505    2.322    0.569
       228  -8.4292    198.6795    170.1172   5.6166590366e+01   1.1478526493e+01     0.178034    0.1492659 -41.57   0.00094488    1.513    0.339
       229  -7.6846     68.5110    170.5355   8.7038297652e+01   3.1129040912e+01    0.1418158    0.1172661  48.90 0.0008077541    1.095    0.087
       230  -8.4066    244.3297    169.0502   4.8632346562e+01   5.4761519908e+00    0.1595125    0.1128338 -19.63 0.0005645974    1.147    0.128
       231  -9.1336    167.0893    168.4328   6.1987219014e+01   1.6548398780e+01    0.2991361    0.2151358  57.80  0.001090887    2.069    0.517
       232  -8.4365    149.8126    169.1819   6.5866644533e+01   1.9172718117e+01    0.1939787     0.178132  48.71 0.0007492376    1.299    0.230
       233  -8.2013     88.9488    168.9361   8.1129873045e+01   2.8701056864e+01    0.2269081    0.1497531  56.93 0.0008959594    1.669    0.401
       234  -8.3461     36.1605    169.6148   9.6204667910e+01   3.5028770156e+01     0.184543    0.1210222  10.66 0.0009523273    1.757    0.431
       235  -8.5858    218.8494    168.1183   5.2354003195e+01   8.9054842425e+00    0.1682373    0.1449239 -19.69 0.0005124466    1.271    0.214
       236  -8.0538    211.4917    168.0077   5.3551714027e+01   9.9418679365e+00    0.1525397    0.1005186 -52.52 0.0008097764    2.494    0.599
       237  -9.1101    191.8991    166.5006   5.6742330291e+01   1.3015709026e+01    0.2484201    0.1659219 -36.47  0.000533904    1.518    0.341
       238  -8.9137    185.0988    166.6006   5.8044264586e+01   1.4034823431e+01    0.2003428    0.1651698 -36.25 0.0005189758    1.353    0.261
       239  -8.7430    111.4729    166.9307   7.4792696663e+01   2.5736400280e+01    0.2709682    0.2009061  55.90  0.001003246    1.517    0.341
       240  -9.2494     20.8682    166.5263   1.0040282915e+02   3.7150327500e+01    0.3593133    0.1278735  46.26  0.001210642    2.301    0.565
       241  -8.2691     13.3079    167.6421   1.0262186827e+02   3.7498944039e+01    0.1435273   0.07193344  55.14 0.0007041544    1.730    0.422
       242  -9.7016    137.0940    164.4311   6.7967035132e+01   2.2111023720e+01    0.6372452    0.2720627  50.59  0.002048551    3.449    0.710
       243  -9.9011     94.9660    162.1920   7.8480473114e+01   2.9289091904e+01    0.8708747    0.5198752  75.21  0.003164381    2.932    0.659
       244  -8.3271    233.9413    164.9235   4.9420275104e+01   7.2996305588e+00    0.1556127    0.1333426 -40.95 0.0006570271    1.635    0.388
       245  -8.6554    159.5957    164.1431   6.2792878724e+01   1.8478737304e+01    0.2334348    0.2025583  56.06  0.001002514    1.474    0.322
       246  -9.5678     33.7014    163.3451   9.6441190017e+01   3.6739983303e+01    0.6105974    0.1629096  45.76  0.002188022    3.126    0.680
       247  -8.5191    212.9284    163.4306   5.2470738932e+01   1.0368925033e+01    0.1997528    0.1530584 -37.25 0.0004306115    1.463    0.317
       248  -8.5984    246.1194    162.8751   4.7286349603e+01   5.9952344760e+00    0.2289527      0.12916 -36.89 0.0009894121    1.758    0.431
       249  -9.5762    241.8843    154.0608   4.6285181117e+01   7.6174642696e+00    0.3383917    0.2703594  82.26  0.001455382    3.048    0.672
       250  -9.0525    243.2635    149.7394   4.5292662319e+01   7.9728180435e+00    0.2504201    0.1285715 -33.82  0.001454063    1.680    0.405
       251  -9.8199    233.3557    148.3904   4.6449283057e+01   9.4964030039e+00    0.3667301    0.1584197 -28.41  0.001214953    2.052    0.513
       252  -8.3013    245.2935    158.6359   4.6641017735e+01   6.6125296770e+00     0.150712    0.1386631   5.88  0.001173744    1.414    0.293
       253  -9.7416    250.1759    157.4995   4.5763022640e+01   6.1325674009e+00    0.2743201    0.1390889 -31.55  0.000797288    1.646    0.392
       254  -8.7016    246.6404    155.2355   4.5837122626e+01   6.8542267269e+00    0.1998708    0.1153663 -20.67 0.0006195257    1.455    0.313
       255  -8.5930    204.9964    162.5550   5.3656886675e+01   1.1641885045e+01    0.2102946    0.1563145 -40.29 0.0005630117    1.532    0.347
       256  -8.4213     57.4054    163.3904   8.9432911617e+01   3.4152516248e+01    0.2762564    0.1290905   9.57  0.000959952    3.558    0.719
       257  -9.3492      3.3806    162.2435   1.0523722409e+02   3.9466418117e+01    0.4487745    0.1436411  49.47   0.00172711    2.480    0.597
       258  -8.8172    151.7891    160.8840   6.3910299475e+01   2.0339993398e+01    0.2756061    0.2205008 -70.66  0.001152096    1.837    0.456
       259  -9.1097    177.5924    160.5414   5.8374772368e+01   1.6171945768e+01    0.2279919    0.2173632 -17.43 0.0008182282    1.249    0.199
       260  -8.7237     60.7473    159.9448   8.8050366123e+01   3.4552785407e+01    0.3377346    0.1833854  60.57  0.001410356    2.108    0.526
       261  -8.7583    227.4619    158.9528   4.9313659103e+01   8.9346666005e+00    0.2478635    0.1770229 -47.59  0.001065966    1.947    0.486
       262  -8.8467    236.8261    158.5784   4.7841054232e+01   7.7197052464e+00    0.1859484    0.1146477 -30.84 0.0005951577    1.424    0.298
       263  -8.2307    128.0471    158.7287   6.9152015802e+01   2.4718265064e+01    0.2333214    0.1875605 -75.11 0.0007196612    1.669    0.401
       264  -9.6404    105.8632    157.8488   7.4789312879e+01   2.8538321765e+01    0.4475411    0.2818066  62.59  0.001235916    2.194    0.544
       265  -8.6393    196.6338    157.7920   5.4235626814e+01   1.3600536758e+01    0.2097407    0.1853045 -58.27  0.000818555    1.645    0.392
       266  -8.4111    188.1526    157.6339   5.5770573837e+01   1.4950534604e+01    0.2124336    0.1627027 -38.80 0.0006261708    1.404    0.288
       267  -9.2571    167.6614    157.1100   5.9743923465e+01   1.8363095921e+01    0.3038373    0.2494538  85.39  0.001295482    2.062    0.515
       268  -8.6031    217.9398    156.1603   5.0289096789e+01   1.0650006761e+01    0.2767311    0.1470219 -42.17  0.001111219    2.068    0.516
       269  -9.0671    157.7425    155.5777   6.1575245372e+01   2.0293942175e+01    0.3086013    0.1820977 -45.40  0.001500596    1.828    0.453
       270  -9.2233    119.6378    154.8747   7.0599883565e+01   2.6909428266e+01    0.3889933    0.2818892  86.43  0.001387557    2.196    0.545
       271  -9.5094     49.9116    155.2788   9.0803204146e+01   3.6962631941e+01    0.4824172     0.202221  48.68  0.001946955    2.306    0.566
       272  -7.8125    204.5549    155.0688   5.2313391465e+01   1.2788686469e+01    0.1781281    0.1101546 -34.11 0.0005520951    1.522    0.343
       273  -8.5449    144.5991    154.4598   6.4343044005e+01   2.2741497546e+01    0.2511679    0.2123484  84.62 0.0009017882    1.697    0.411
       274  -9.0729     68.0970    153.5297   8.5028501533e+01   3.5123839972e+01    0.4542891    0.2238075  57.99  0.001374207    2.525    0.604
       275  -9.6973    132.7641    152.5340   6.6825931265e+01   2.5151374653e+01    0.4202308    0.3175283  71.52  0.001226284    1.937    0.484
       276  -9.0039    133.5777    148.1922   6.5783050209e+01   2.5874872527e+01    0.2890865    0.2360598 -23.60 0.0009175824    1.306    0.235
       277  -8.0386    242.4358    159.5274   4.7205129443e+01   6.8695100332e+00    0.1641293   0.08694384 -22.02 4.342485e-05    1.645    0.392
       278  -8.2936    182.6788    151.4149   5.5600941005e+01   1.6820597129e+01    0.2467416    0.1486739 -49.54 0.0008296561    2.075    0.518
       279  -9.7886     29.4383    150.6390   9.6739545987e+01   4.0212269307e+01    0.4923351    0.1769598  54.91  0.001842695    2.898    0.655
       280  -9.1760     20.0377    152.0769   9.9778869298e+01   4.0673459879e+01    0.2340825    0.1230481  56.49   0.00112608    1.755    0.430
       281  -9.1839      4.2313    151.4301   1.0459469724e+02   4.1977646342e+01    0.6624264    0.2380383  38.20  0.002957643    2.233    0.552
       282  -9.5379    248.9192    149.1790   4.4417068617e+01   7.2976883709e+00    0.2802317    0.1313525 -30.24 0.0008326847    1.742    0.426
       283  -8.9658    189.5123    150.0349   5.4027888712e+01   1.5919819846e+01    0.2698678    0.2103537 -58.27 0.0009005919    1.854    0.461
       284  -8.7213     98.3486    150.6509   7.5655017517e+01   3.1323109212e+01    0.3014254    0.2173521  67.54  0.000781381    1.734    0.423
       285  -8.2215    213.0935    149.8708   4.9870127627e+01   1.2240824773e+01    0.1707734    0.1557146 -27.48 0.0005404014    1.304    0.233
       286  -8.0553    162.3994    150.2634   5.9515262712e+01   2.0441568198e+01    0.1815018    0.1287701 -50.54 0.0005797666    1.660    0.398
       287  -8.4435    198.8120    148.5649   5.2045691270e+01   1.4647038123e+01    0.2245591    0.1534532 -46.62 0.0006691267    1.744    0.427
       288  -9.9679     89.3693    146.1841   7.7502450913e+01   3.3763812123e+01    0.6833782     0.392623  80.66  0.002424254    3.443    0.710
       289  -9.8852     40.0763    147.4447   9.3070655837e+01   3.9958668642e+01    0.6352054    0.3304805  68.10  0.002432095    2.200    0.545
       290 -10.4972    148.8502    144.7532   6.1424976563e+01   2.3830660501e+01    0.5429271    0.4037029 -84.10  0.001729369    2.377    0.579
       291 -10.3723     55.1288    144.4161   8.7882039455e+01   3.9001952859e+01    0.9074293    0.4366152  68.37  0.003307681    3.065    0.674
       292  -9.5155     57.1912    135.0897   8.5934945897e+01   4.1073390439e+01     0.389879    0.2196909   9.64  0.001473053    2.415    0.586
       293  -8.2304    223.0972    146.5364   4.7632381514e+01   1.1213843654e+01    0.1863473    0.1362397 -22.99 0.0005276962    1.163    0.140
       294 -10.2278    106.5510    144.3525   7.2201790884e+01   3.1375582147e+01    0.6751269    0.3941331  66.24  0.002229079    2.989    0.665
       295  -7.9841    105.3159    138.3560   7.1404976557e+01   3.2925125848e+01    0.2122125    0.1468954  16.91 0.0006252769    1.690    0.408
       296  -8.8280     77.8942    146.9050   8.1079240003e+01   3.5330163033e+01    0.2463903    0.2000686 -81.37 0.0007209476    1.355    0.262
       297  -9.6044     13.4663    146.0550   1.0147331206e+02   4.2659025234e+01    0.3688032    0.1839414  53.60  0.001419657    1.812    0.448
       298  -7.9907    206.8928    146.3017   5.0199555475e+01   1.3706573272e+01    0.1706893    0.1454297   3.08 0.0005937484    1.068    0.063
       299  -8.3174    175.5052    146.0974   5.5945250406e+01   1.8902895333e+01    0.1979952    0.1874584  62.53 0.0007902927    1.364    0.267
       300  -9.7301    139.0895    144.8639   6.3763445614e+01   2.5556742228e+01    0.3530701     0.263643 -73.71  0.001161932    1.989    0.497
       301 -10.1464    241.3622    144.2826   4.4531933337e+01   8.9147758708e+00    0.3899868    0.2103398   5.88  0.001553578    2.833    0.647
       302  -8.8029    241.5224    136.4502   4.3011098940e+01   9.8875208362e+00     0.251533   0.09251335 -22.38 0.0009866473    3.527    0.716
       303  -9.1003    247.0325    143.7862   4.3666730268e+01   8.2087827268e+00    0.2002788    0.1307633 -25.95 0.0005713993    1.235    0.190
       304  -8.8908    165.7523    143.6825   5.7459799455e+01   2.1016595901e+01    0.2431629    0.2159341 -36.88 0.0006552449    1.206    0.171
       305  -9.7070    124.8188    142.2941   6.6841837688e+01   2.8632510654e+01    0.4509965    0.3244043 -80.23  0.001355923    2.144    0.534
       306  -7.7082    194.3107    143.6756   5.1867258567e+01   1.6124615236e+01    0.1185496    0.1045375 -68.60 0.0005883384    1.656    0.396
       307 -10.2527     72.9252    128.7365   7.9638396794e+01   4.0482770800e+01    0.4954436    0.3574133 -76.39  0.001512708    1.538    0.350
       308 -10.6953     69.6422    140.9014   8.2725971273e+01   3.7959484470e+01    0.5645179    0.4448185  73.58  0.002080697    1.372    0.271
       309  -9.5364     69.9832    133.9987   8.1514341351e+01   3.9609720897e+01    0.4509687    0.2636196   1.35   0.00167571    2.945    0.660
       310  -9.2919      2.6531    141.5659   1.0469402590e+02   4.4480872875e+01    0.4064164    0.1548174  61.11  0.001364246    2.446    0.591
       311  -8.5202    181.9917    141.1755   5.3652930861e+01   1.8603566736e+01    0.2521878    0.1785188 -45.71 0.0008080621    1.565    0.361
       312  -8.1006    250.5911    140.7329   4.2623842264e+01   8.1094403022e+00    0.1553824   0.08681437 -35.65 0.0006512195    1.589    0.371
       313  -8.2623    134.0000    139.9905   6.4020344147e+01   2.7447656180e+01    0.2311281    0.0828067 -47.29 0.0008010834    2.933    0.659
       314  -8.7465    172.3392    137.9642   5.4891703594e+01   2.0840080479e+01    0.3069755    0.2203079 -63.88 0.0008893466    2.135    0.532
       315  -9.0933    139.1463    137.7079   6.2266550354e+01   2.6960172919e+01     0.394409    0.2190971 -18.25  0.001364903    3.484    0.713
       316 -10.0123     23.4639    137.6376   9.7629013480e+01   4.3986948259e+01    0.6115654    0.2146044  53.72  0.002057364    2.929    0.659
       317  -7.5853    218.5140    138.4547   4.6747898625e+01   1.3021379491e+01    0.1226809    0.1039224 -15.11 0.0005517167    1.054    0.051
       318  -8.4468    207.7829    137.7620   4.8329556317e+01   1.4816603940e+01    0.2255398    0.1511879 -52.30 0.0009358184    2.028    0.507
       319  -8.5215    197.6066    137.3750   4.9984457860e+01   1.6549203641e+01    0.2310981    0.1773455 -52.59 0.0009378137    1.667    0.400
       320 -10.4373     83.3226    133.1775   7.7063091487e+01   3.7793177611e+01    0.6034158    0.4031652 -67.76  0.001425407    1.661    0.398
       321  -8.8845    248.3772    134.9770   4.1820057672e+01   9.1186655914e+00    0.2303202    0.1426342 -34.84 0.0008272793    1.428    0.300
       322  -8.9170    250.7568    129.7076   4.0504675681e+01   9.4433415458e+00    0.4204568   0.08684178 -31.43  0.001500561    4.182    0.761
       323  -8.4993    162.5026    136.1276   5.6558158457e+01   2.2945780640e+01    0.2125972    0.1943808  68.99 0.0007666122    1.371    0.270
       324  -9.5666    151.7639    135.5934   5.8826313604e+01   2.5028680184e+01    0.5122131     0.166636  36.44  0.001671773    3.371    0.703
       325  -9.0379     39.1471    135.7431   9.2131964849e+01   4.2999529466e+01    0.3331008    0.1843858  51.56 0.0008268869    1.765    0.433
       326  -8.4186    187.5635    135.0926   5.1318471600e+01   1.8625949206e+01    0.2017018    0.1213897 -35.42 0.0005198347    1.576    0.365
       327  -7.9286    231.4115    134.1598   4.3967738277e+01   1.1651328153e+01     0.163667   0.09594868 -38.54 0.0004226461    1.615    0.381
       328  -8.7675    179.4717    133.6935   5.2557339889e+01   2.0286707400e+01    0.2671841    0.2077981 -66.85 0.0009428824    1.911    0.477
       329  -8.9932    112.8021    133.0991   6.8214183006e+01   3.2770694587e+01    0.3270422    0.2459671  70.52 0.0007756784    1.737    0.424
       330  -8.0117    237.4176    133.2166   4.2940462791e+01   1.0891835595e+01    0.1680616   0.09249036 -38.75 0.0008619393    1.705    0.413
       331  -9.8932    132.2298    130.9982   6.2548165406e+01   2.9609218150e+01    0.4756992    0.3428432 -81.59 0.0009336917    2.250    0.556
       332 -10.1322    131.3695    118.8544   5.9995091602e+01   3.2280490247e+01    0.5857105    0.3877001  79.62  0.002042576    2.970    0.663
       333  -9.2147    142.8330    131.3228   5.9989045204e+01   2.7530787013e+01    0.3199548    0.2580181 -67.52 0.0006662832    1.585    0.369
       334 -10.0390     97.8378    129.2665   7.1794686209e+01   3.6302842106e+01    0.6858904    0.2500899 -52.79  0.002378541    2.819    0.645
       335  -9.6443    152.9083    128.9142   5.7094433445e+01   2.6072555603e+01    0.4384834    0.2668689 -53.51  0.001137639    1.976    0.494
       336 -10.0965     12.8455    128.6406   1.0059764599e+02   4.7088716131e+01    0.6260512    0.2781428  69.85   0.00222006    2.355    0.575
       337  -8.4345    246.9844    129.9624   4.1033156968e+01   9.9382384620e+00    0.1786251    0.1356564 -22.74 0.0005500796    1.058    0.055
       338  -8.0653    204.4424    130.2403   4.7320770812e+01   1.6484211262e+01    0.1734554    0.1113164 -41.50 0.0004576134    1.569    0.363
       339  -8.3088    192.8375    130.1037   4.9291345633e+01   1.8499376430e+01    0.1917858    0.1713863 -38.49 0.0004261298    1.223    0.182
       340  -9.1888    168.3686    129.3611   5.3838423559e+01   2.3063920420e+01    0.2652526    0.2274613 -83.64 0.0004770299    1.637    0.389
       341  -8.3505      1.7860    130.2002   1.0449929152e+02   4.7366585331e+01     0.245433   0.08029197  52.92 0.0009489137    2.782    0.641
       342  -7.7109    220.5267    129.5817   4.4638397545e+01   1.3949183158e+01    0.1229605     0.103865 -14.69 0.0001237125    1.017    0.017
       343  -8.1410    211.5604    128.8111   4.5863965919e+01   1.5509197441e+01    0.1800757    0.1055809 -42.96 0.0009370816    1.759    0.431
       344  -7.7683    186.4977    129.4917   5.0312292689e+01   1.9720215145e+01    0.1341429    0.1207108  -9.26 1.215465e-05    1.012    0.012
       345 -10.7298     45.1963    123.6651   8.8485448509e+01   4.5450498101e+01     1.185139    0.5092054  65.47   0.00377711    3.821    0.738
       346 -10.4271     60.1026    124.9318   8.3366476572e+01   4.3266712920e+01    0.7719302    0.4089571  67.08  0.002642049    2.747    0.636
       347  -9.9312    118.0249    124.9843   6.4996875284e+01   3.3580954019e+01    0.5717177    0.4013923  78.33  0.001414835    2.264    0.558
       348 -10.3228     28.6385    122.1960   9.4354887353e+01   4.7520090918e+01    0.8796832    0.3388578  60.39  0.003023411    3.329    0.700
       349  -8.8917    179.1675    124.4851   5.0591084522e+01   2.1886157716e+01    0.2554318    0.2062227 -51.97  0.000553706    1.431    0.301
       350  -7.7299    243.9787    124.0227   4.0253745720e+01   1.1119459771e+01     0.146967    0.1067394 -24.54 0.0005859243    1.106    0.096
       351  -8.2372    188.4990    123.5934   4.8648562741e+01   2.0313158031e+01    0.2340693    0.1155934 -46.08  0.000772825    2.222    0.550
       352  -8.7793     83.8994    123.2000   7.4956986982e+01   4.0116411047e+01    0.3344058    0.2222874 -18.50  0.001371664    2.289    0.563
       353  -9.2240    158.7143    121.4303   5.4089251687e+01   2.6341839643e+01    0.3436085    0.2692873 -82.78  0.001137233    1.932    0.482
       354  -8.6719    171.9933    121.4110   5.1303653252e+01   2.3767246081e+01    0.2449496    0.1879235 -51.36 0.0005348884    1.472    0.321
       355  -7.7412    203.2367    121.6554   4.5678899984e+01   1.7983491478e+01    0.1239281   0.09410336 -51.16 0.0002151023    1.558    0.358
       356  -9.5894     70.9789    119.3679   7.8566720934e+01   4.3116431731e+01    0.4661829    0.3092217  85.53  0.001256407    2.002    0.500
       357  -9.9675    141.6222    118.2647   5.7281958804e+01   3.0345967917e+01    0.4551695    0.3144442 -68.50  0.001257486    2.128    0.530
       358  -8.6020     14.8126    119.7789   9.9236691669e+01   4.9245594342e+01    0.2387159    0.1086113 -39.81 0.0009485277    2.797    0.642
       359  -9.5533      2.8910    117.0786   1.0346536985e+02   5.0659963377e+01    0.5416946    0.1961074  61.79  0.002091912    2.824    0.646
       360  -7.9677    231.5115    117.4602   4.0565529386e+01   1.3870002948e+01    0.1211957    0.1008873 -27.44  0.000807545    1.093    0.085
       361  -9.8973    109.4115    114.0785   6.4939723179e+01   3.7651116428e+01    0.5474295    0.3690069 -74.57  0.001647688    2.138    0.532
       362  -9.1570    109.7813    107.0999   6.3111840484e+01   3.9141212961e+01     0.419312     0.268651  11.26  0.001574318    2.613    0.617
       363  -7.8146    185.6210    115.8024   4.7409888851e+01   2.2110879798e+01    0.1862606    0.1189112 -43.66  0.000404769    1.578    0.366
       364  -8.7339     58.8177    115.3905   8.2177878276e+01   4.5887152733e+01    0.2905066    0.1745704 -37.47 0.0008447203    2.058    0.514
       365 -10.6279     65.3103    111.5688   7.9063599395e+01   4.5942387149e+01    0.7515814    0.3900856 -48.85 0.0008690627    2.015    0.504
       366  -9.4822    249.7947    114.4257   3.7625876628e+01   1.1478386906e+01    0.2759895    0.1684573 -52.51  0.001573115    2.216    0.549
       367  -8.3767    192.9616    115.0104   4.5929301114e+01   2.0861200331e+01    0.2375987    0.1687757 -40.22 0.0007944491    1.361    0.265
       368  -7.6202    153.2843    115.5974   5.3912515094e+01   2.8508234330e+01    0.1473337      0.11537 -75.15 0.0006990155    1.785    0.440
       369 -10.1541     92.7933    112.3282   6.9689829336e+01   4.1189907848e+01    0.5658414    0.3578641 -71.34  0.001236717    2.063    0.515
       370  -9.8381     78.9660    112.2302   7.4320598419e+01   4.3625827921e+01    0.5881888    0.3770693  77.58  0.001843264    2.375    0.579
       371  -8.7578     78.7534    104.8312   7.2723482546e+01   4.5488872114e+01     0.402563    0.2578997  -6.61  0.001256916    2.796    0.642
       372  -8.1322    167.1257    114.2709   5.0619917442e+01   2.5969334911e+01    0.1968107    0.1842358  27.52 0.0009716676    1.080    0.074
       373  -8.0860    228.4485    125.1894   4.2581311784e+01   1.3308576456e+01    0.1725503    0.0975069 -40.43 0.0009385234    1.698    0.411
       374  -9.9354    121.9327    112.2596   6.0917883724e+01   3.5564323798e+01    0.3586406    0.2916571 -80.34 0.0005451799    1.560    0.359
       375  -8.5318    174.7657    111.8318   4.8515990726e+01   2.4875314564e+01    0.2545985    0.1808086 -53.12 0.0007088929    1.624    0.384
       376  -9.0060    159.3460    111.5371   5.1593241876e+01   2.8029218360e+01    0.2571602    0.2137307 -43.73 0.0005678257    1.222    0.182
       377  -9.7666     14.3981    110.9622   9.8654223371e+01   5.1584143546e+01    0.4532999    0.1952202  58.30  0.001495284    2.482    0.597
       378  -9.9022    133.2786    108.7991   5.7036343543e+01   3.3955439620e+01    0.4977688    0.3056505 -43.77  0.001254109    1.656    0.396
       379 -10.6086    248.7876    103.9816   3.5637928390e+01   1.2931505406e+01    0.5344793     0.272109 -20.54  0.002838749    1.962    0.490
       380 -10.6242     45.7624    102.1686   8.4824066362e+01   5.1015614988e+01    0.9074649    0.4102254  61.06  0.002969912    3.497    0.714
       381 -10.7240     22.8524    102.1618   9.4309168693e+01   5.3302583125e+01    0.9505001    0.4252497  67.51  0.002795804    2.867    0.651
       382  -8.9400     22.6266     89.7325   9.2743114896e+01   5.6632946668e+01    0.3101594     0.242621 -14.96  0.001223651    1.451    0.311
       383  -9.5912    150.5868    102.9119   5.1359061735e+01   3.1452198828e+01    0.5173419    0.2955117 -58.04  0.001184077    2.419    0.587
       384  -8.2710    150.7677     95.7035   4.9426615063e+01   3.2754406134e+01    0.3709746    0.2213773  -0.10  0.001153327    4.272    0.766
       385  -9.7573    139.8942    103.9277   5.4132262728e+01   3.3536391386e+01    0.4921078    0.2886888 -47.83  0.001656526    1.780    0.438
       386 -10.8293    108.8311     98.5420   6.1161890901e+01   4.1236249576e+01    0.9907362    0.5265068  63.80  0.001400187    3.396    0.706
       387  -8.8358    107.6585     92.6168   5.9884890386e+01   4.2785303032e+01    0.6009116    0.3056493  28.90  0.002059089    2.790    0.642
       388  -8.6315    166.7547    103.9497   4.8174982626e+01   2.7860980980e+01    0.2562052    0.1883338 -53.64 0.0007072481    1.522    0.343
       389  -9.9358    128.6158    101.9365   5.6472422816e+01   3.6342400146e+01     0.382907    0.3110827 -78.20  0.001126215    1.550    0.355
       390  -8.7824      6.9980    102.9494   1.0095190847e+02   5.4136191292e+01    0.2990059    0.1663547  56.96  0.001109357    1.789    0.441
       391  -7.8245    175.6333    101.9003   4.5938880212e+01   2.6381603398e+01    0.2012868    0.1209127 -46.16 0.0007014292    1.709    0.415
       392  -8.7030    159.8006    100.7460   4.8794049198e+01   2.9888571452e+01    0.2805375    0.1892777 -49.36 0.0004170071    1.572    0.364
       393  -9.0934     82.1736     99.8956   7.0309282908e+01   4.6098878850e+01    0.3558037    0.2566123  89.95 0.0009125938    1.875    0.467
       394 -10.1479     64.0398     95.7453   7.6113999215e+01   5.0166554879e+01    0.6135813    0.3775285  75.14  0.001619185    2.521    0.603
       395  -9.1703     95.0954     96.7941   6.5052196741e+01   4.4406732707e+01    0.2954088    0.2574842  87.57 0.0005625308    1.302    0.232
       396  -8.7861     43.0123    109.1885   8.7129597203e+01   4.9488100880e+01     0.380801    0.1280536  14.41  0.001019936    5.161    0.806
       397  -8.3105    164.9541     93.9916   4.5990327901e+01   2.9975358427e+01    0.2227115    0.1716876 -67.79 0.0004861027    1.624    0.384
       398  -9.2562    139.3075     92.2074   5.1129575103e+01   3.5944498737e+01    0.4224238    0.2948633 -82.87  0.001215002    2.317    0.568
       399  -7.7009    188.5190     93.4766   4.1578510390e+01   2.5116537883e+01    0.1367635    0.1249715 -40.60 0.0008088445    1.074    0.069
       400  -8.3275    176.3300     92.9715   4.3566369771e+01   2.7720433113e+01    0.2372519     0.194134 -76.68 0.0006161167    1.529    0.346
       401 -10.5893    124.6365     90.7531   5.4465130630e+01   3.9496638141e+01    0.7531419    0.4675937 -31.59   0.00317656    1.850    0.459
       402  -9.3533     46.6521     92.1649   8.2497665479e+01   5.3532193882e+01    0.5716191    0.2487352  19.97  0.002066157    2.722    0.633
       403  -9.6793     35.0431     89.8863   8.7151127270e+01   5.5461264099e+01     0.526426     0.283744  75.70   0.00167226    2.597    0.615
       404  -9.4404      5.1146     91.8341   1.0086005091e+02   5.7163262137e+01    0.3196259    0.1853901  49.12 0.0007500488    1.742    0.426
       405  -8.1122    157.9890     91.2719   4.6685389777e+01   3.1969440141e+01    0.1998029    0.1926191 -42.45 0.0005435346    1.035    0.033
       406  -7.8059    151.3477     89.1725   4.7528393245e+01   3.3819689903e+01    0.2132643    0.1306445 -47.58 0.0006524189    1.689    0.408
       407 -10.0505     86.5211     85.9161   6.4981467708e+01   4.8615682435e+01     0.637763    0.4288862 -65.30  0.001750189    1.761    0.432
       408  -9.0231     65.0232     87.6342   7.3710500083e+01   5.2054651905e+01    0.4855725    0.2599984   9.18  0.001519498    3.811    0.738
       409  -7.8053    164.2066     86.9808   4.4277980101e+01   3.1341586173e+01    0.1962759    0.1116784 -36.81 0.0004982732    1.696    0.410
       410  -7.9889    139.6222     87.6737   4.9782574766e+01   3.6738198872e+01    0.1604181    0.1185633  13.02  0.000262306    1.838    0.456
       411  -9.6712     48.5562     84.1204   7.9870698078e+01   5.5377176454e+01    0.6077998    0.3377512  64.03  0.001973187    2.661    0.624
       412 -10.0386    104.8859     83.0195   5.7938275811e+01   4.5462660246e+01      0.46781    0.3366783 -76.27 0.0009276015    1.933    0.483
       413  -8.3158    157.8895     83.8471   4.4680366230e+01   3.3290721923e+01    0.2131884    0.1962267   4.43 0.0003712036    1.166    0.142
       414  -9.0973    141.1691     82.4738   4.7925539727e+01   3.7356566045e+01    0.4100249    0.2341444 -46.51  0.001220204    1.799    0.444
       415  -7.6803    170.6611     83.3152   4.2073948669e+01   3.0528270829e+01    0.1471233    0.1094538 -70.08 0.0007047733    1.700    0.412
       416  -8.0525    189.1530    107.8598   4.4935485244e+01   2.2716604227e+01    0.2016736    0.1729413 -50.15  0.000612337    1.263    0.208
       417  -8.2000     64.1943     82.2660   7.2615915109e+01   5.3524405376e+01    0.2110062    0.1760735  82.54 0.0007104113    1.378    0.274
       418  -8.2729     35.6460     82.6699   8.5471687373e+01   5.7302125730e+01    0.1576248     0.102049 -32.72            0    1.779    0.438
       419  -9.5534     24.6914     80.2338   9.0251498896e+01   5.8989194016e+01    0.5269501    0.2898891  75.72  0.001408776    2.321    0.569
       420  -9.2764     10.0343     80.9002   9.7488374367e+01   5.9814689990e+01    0.4162287    0.1896317  41.19  0.001683655    2.255    0.557
       421  -8.6062    119.5018     79.8603   5.2652244169e+01   4.2852096342e+01    0.3787113    0.2552215 -54.90  0.001285159    1.647    0.393
       422  -8.9406     74.5622     79.9319   6.7727654261e+01   5.2291214835e+01    0.3951886    0.2662821 -77.38   0.00118627    2.052    0.513
       423  -8.3965    150.1266     80.0915   4.5239162951e+01   3.5718926567e+01    0.2381389    0.1765847 -69.60  0.000990972    1.694    0.410
       424  -8.2274    166.8933     79.3408   4.1688988653e+01   3.2018764381e+01    0.1880136    0.1844434  33.82 0.0005038498    1.061    0.058
       425  -8.3058    184.3324     78.1898   3.8380991077e+01   2.8356361079e+01    0.2033778    0.1133657 -41.63 0.0009338776    1.673    0.402
       426  -8.4001     50.1822     77.4422   7.7464602341e+01   5.6864346712e+01    0.3325373    0.1530292  18.00  0.001148674    2.966    0.663
       427  -8.0831    157.1656     76.2157   4.2677493005e+01   3.4758836641e+01    0.2034761    0.1673558 -66.35 0.0004686022    1.345    0.256
       428  -8.6125    140.6469     75.3053   4.5926753318e+01   3.8782807495e+01    0.2632035    0.1720261 -48.68 0.0005951376    1.587    0.370
       429  -9.2287    128.1717     75.1608   4.8892817947e+01   4.1751702651e+01    0.3539819    0.2414741 -57.13 0.0005993154    1.680    0.405
       430 -10.0498     63.0761     73.1978   7.0466946211e+01   5.5927628913e+01    0.5649364    0.3319377 -65.75  0.001351476    2.007    0.502
       431  -8.9200     64.3462     63.3279   6.6706231866e+01   5.8037143555e+01    0.6196922    0.3517502 -21.92  0.002097022    3.349    0.701
       432  -9.7415     82.4522     72.3749   6.2309888163e+01   5.2522197206e+01    0.4566972    0.3297611 -73.85  0.001066201    1.820    0.450
       433  -8.1226    163.5154     73.0294   4.0553354751e+01   3.3817114718e+01    0.2237964    0.1365936 -37.48  0.001021035    1.569    0.363
       434  -8.2311    151.4150     73.2073   4.2966623734e+01   3.6609926140e+01    0.2121841     0.132383 -47.16  0.000763171    1.630    0.387
       435  -8.7237    115.8643     72.6583   5.1405780513e+01   4.5118760397e+01    0.2929839    0.2205289 -52.22 0.0006387758    1.400    0.286
       436  -8.1819     42.8237     72.8262   7.9743746890e+01   5.9018423775e+01    0.2030817    0.1699724  68.83 0.0007963658    1.328    0.247
       437  -7.7435    175.4715     72.4393   3.8290666921e+01   3.1187077105e+01    0.1385123    0.1326814 -37.39 0.0001929881    1.026    0.026
       438  -9.5910    105.8689     70.8957   5.3784158882e+01   4.7777650667e+01    0.5284208    0.2261959 -41.80   0.00182578    2.403    0.584
       439  -9.3513     95.1922     70.9495   5.7263036655e+01   5.0153970929e+01    0.4536273    0.2641555 -60.19  0.001315666    2.221    0.550
       440  -9.5435     51.4884     69.5016   7.4636054641e+01   5.8664661867e+01    0.4922769    0.2885391 -78.45  0.001422147    2.463    0.594
       441  -9.1725     16.8083     69.6299   9.2414833339e+01   6.2382655947e+01    0.3931163    0.1924541  89.76  0.001425505    2.420    0.587
       442  -9.0830     29.4446     70.0567   8.5828074085e+01   6.1230124216e+01    0.3691198    0.1769552  -6.74  0.001264709    3.547    0.718
       443  -8.8834    147.3375     68.1566   4.2300741631e+01   3.8433229778e+01    0.3323855    0.2283952 -57.61 0.0006012873    1.639    0.390
       444  -8.3246    138.7303     65.9235   4.3468957015e+01   4.0890589248e+01    0.2767242    0.1926463 -54.34 0.0007586565    1.556    0.357
       445  -8.6881    121.7763     65.8600   4.7564627506e+01   4.5010043693e+01    0.2805107    0.2016948 -59.75 0.0005595824    1.601    0.375
       446  -9.2023     37.2756     63.8716   8.0154663492e+01   6.1967848514e+01    0.3281164    0.2220146  84.92   0.00114758    1.966    0.491
       447  -9.0310    110.2939     63.4952   4.9945326812e+01   4.8201405498e+01    0.3112323    0.2485132 -69.72 0.0005684503    1.470    0.320
       448  -8.1510    158.4158     61.5402   3.8142223653e+01   3.6843290386e+01     0.145165    0.1350944 -60.85 0.0001295679    1.046    0.044
       449  -9.1086     97.6493     60.3473   5.2747974317e+01   5.1770509832e+01    0.3288944    0.2483121  67.63 0.0008379292    1.507    0.336
       450  -9.6497     73.3548     59.2554   6.1363124612e+01   5.7244046212e+01    0.4359128    0.2858611 -59.86  0.001164558    1.783    0.439
       451  -8.2045    146.8643     58.5797   3.9429735376e+01   4.0117614370e+01    0.2500586    0.1683353 -40.65 0.0006518783    1.457    0.314
       452  -8.0164     89.1622     59.2393   5.5251270719e+01   5.3911088352e+01    0.2124462    0.1818295 -88.20 0.0005419723    1.380    0.275
       453  -8.3836    130.9329     57.3084   4.2438664072e+01   4.4270647691e+01    0.2735004    0.1983113 -60.81 0.0005747181    1.563    0.360
       454  -9.6837     23.4225     56.1322   8.5835715724e+01   6.5358233021e+01    0.5147774    0.2794428  71.56  0.002017536    2.905    0.656
       455  -9.3306      7.4821     56.8268   9.5503378339e+01   6.6246955721e+01    0.3518121    0.2060685  72.84   0.00132055    1.993    0.498
       456  -7.9800    139.9863     55.9611   3.9994830480e+01   4.2238171475e+01    0.2360914    0.1708278 -66.10 0.0005286981    1.608    0.378
       457  -9.1265    119.1585     55.1757   4.4586435314e+01   4.7558851381e+01    0.4586314    0.2383024 -50.05  0.001568715    2.179    0.541
       458  -8.7303     44.2161     55.5072   7.3866747934e+01   6.3117733767e+01    0.2695352    0.2201684  83.97 0.0007887164    1.513    0.339
       459  -9.2130     62.7680     53.4762   6.3831930915e+01   6.0538930840e+01    0.6359215    0.2135723 -52.58  0.002023356    3.311    0.698
       460  -9.0443     54.0144     53.3689   6.8014896018e+01   6.2103552434e+01    0.4429556     0.219559 -63.51   0.00139408    2.728    0.633
       461  -8.3583    105.8529     52.7948   4.7399801703e+01   5.1247780601e+01    0.2838456    0.1902908 -64.41 0.0006529082    1.958    0.489
       462  -9.4331     92.5019     50.3362   5.0683172945e+01   5.4882530819e+01    0.4388593     0.256405 -51.90  0.001290303    1.963    0.491
       463  -8.6535     75.1895     51.3716   5.7573207189e+01   5.8528567673e+01    0.3709041    0.2165468  23.56  0.001391556    2.541    0.606
       464  -8.1658    144.6669     48.8281   3.6718334580e+01   4.2170459207e+01    0.2124351    0.1252244 -42.66 0.0004461583    1.670    0.401
       465  -7.9049    129.9874     48.9493   3.9787905389e+01   4.5867488329e+01    0.2371038    0.1742147 -68.16 0.0006683564    1.586    0.370
       466  -8.2150    120.8113     47.1242   4.1273571129e+01   4.8486373913e+01    0.2306315    0.1979017 -67.19 0.0005649673    1.235    0.190
       467  -8.0770    112.1841     46.4594   4.3227617002e+01   5.0773038373e+01    0.2387607     0.176057 -45.25 0.0005915231    1.403    0.287
       468  -9.2062     82.2116     46.1985   5.2688314345e+01   5.8017357106e+01    0.3512552    0.2521313 -61.88  0.000788677    1.729    0.422
       469  -8.5997     45.1147     44.6074   6.9325581984e+01   6.5506387679e+01    0.2397467    0.1947744 -64.50 0.0007155624    1.370    0.270
       470  -8.9843     16.7771     44.5841   8.6944372178e+01   6.8789155100e+01    0.2506463    0.2105863  85.73 0.0006060301    1.336    0.252
       471  -8.1311    132.9682     43.2792   3.7157905460e+01   4.5973029287e+01    0.2072017    0.1914415  78.36 0.0004757837    1.043    0.041
       472  -9.3472     69.5831     41.1815   5.5641591313e+01   6.1721147231e+01    0.4327428    0.2885188 -64.54   0.00123017    2.116    0.527
       473  -8.6604     58.2912     42.4035   6.1427675153e+01   6.3725569501e+01    0.3413533    0.2400866 -76.33  0.001157377    2.230    0.552
       474  -9.4036      5.3447     41.8255   9.4104766697e+01   7.0149547859e+01    0.4130718    0.2147046  78.63  0.001805538    2.496    0.599
       475  -9.3123    105.9043     40.9087   4.2777531976e+01   5.3255037266e+01    0.4250965    0.1926851 -43.46  0.001237901    2.323    0.570
       476  -8.6352     36.9312     40.5122   7.2471285177e+01   6.7618021375e+01    0.2544489    0.2013514 -76.54 0.0008308858    1.553    0.356
       477  -7.4987    140.3064     40.7144   3.4820275778e+01   4.4459319208e+01    0.1505996    0.1081607 -69.12 0.0002510812    1.566    0.361
       478  -9.1422     95.7202     37.8970   4.4529927825e+01   5.6279342785e+01    0.2747071    0.1968419 -54.09 0.0006691453    1.579    0.367
       479  -8.6045    152.2607     36.9434   3.1492561676e+01   4.1917679463e+01    0.1965953     0.179366 -38.31 0.0003607997    1.122    0.109
       480  -8.3990     80.5340     36.5215   4.9109272118e+01   6.0146433355e+01    0.2517246    0.1356816 -48.51 0.0006610868    2.122    0.529
       481  -9.2101     26.2011     35.2989   7.7380452758e+01   7.0136521327e+01    0.2997513     0.229253 -86.18 0.0008145776    1.694    0.410
       482  -8.1978    125.9885     35.3422   3.5738416384e+01   4.8922763634e+01    0.2081073    0.1822049  69.37 0.0003971457    1.089    0.082
       483  -8.6645    111.9707     34.4575   3.8591876655e+01   5.2692379878e+01    0.2781526    0.1950218 -52.95 0.0006197039    1.557    0.358
       484  -8.2545     88.5450     34.0183   4.5143891326e+01   5.8661212358e+01    0.2196622    0.1483517 -34.51 0.0005776066    1.558    0.358
       485  -8.3552    119.2298     33.1696   3.6375345941e+01   5.0989520858e+01    0.2110673    0.1667371 -63.49 0.0007507205    1.363    0.266
       486  -8.7464     60.8132     32.2733   5.5471596239e+01   6.5208202113e+01    0.2394276    0.1970385 -54.34 0.0006259292    1.375    0.273
       487  -8.8038     48.5181     32.9499   6.2213611711e+01   6.7416480080e+01    0.2539562    0.2200892  72.88 0.0008316867    1.462    0.316
       488  -8.8998     72.0732     30.8790   4.9770555041e+01   6.3037992518e+01    0.2438135    0.2139098 -39.82 0.0005116434    1.202    0.168
       489  -8.6870     13.0161     30.1456   8.5202095986e+01   7.2551902377e+01    0.2982776    0.1843557 -81.11  0.001166109    1.958    0.489
       490  -8.5490    101.7853     29.1053   3.8989969883e+01   5.6086291600e+01    0.2304952    0.1931237 -71.43 0.0006010781    1.319    0.242
       491  -7.6236     42.3047     29.6832   6.4237417536e+01   6.9127013455e+01    0.1346307    0.1130387  76.76 0.0004913305    1.625    0.385
       492  -8.9152     81.6274     27.1934   4.4331267282e+01   6.1400883442e+01    0.3243342    0.2322903 -62.88  0.001144621    1.800    0.444
       493  -8.6479      3.8271     27.5367   9.1822321641e+01   7.3706960093e+01    0.2458671    0.1608544  79.63 0.0009363831    1.903    0.474
       494  -8.8559     91.8958     26.3032   4.0558167835e+01   5.8999836780e+01    0.3177916    0.1917071 -48.07  0.000834937    1.872    0.466
       495  -8.0425     34.9103     22.9718   6.5503189163e+01   7.1635331158e+01    0.2075675    0.1698262  69.72 0.0008933511    1.718    0.418
       496  -8.6607    103.6620     22.5176   3.5626010907e+01   5.6487321045e+01    0.3185233    0.1391651  63.87  0.001210785    2.175    0.540
       497  -9.0950     63.6517     20.8410   4.8155071363e+01   6.6541082833e+01    0.3176487    0.2416812 -56.48 0.0008101683    1.621    0.383
       498  -8.8345     48.4403     21.5194   5.6208349485e+01   6.9575233180e+01    0.2609803    0.2294417 -71.57  0.000748136    1.464    0.317
       499  -8.3969    120.8080     20.8862   3.1197271574e+01   5.2156504515e+01     0.207264    0.1609663 -65.14 0.0005982659    1.356    0.263
       500  -8.2081     19.6688     21.3463   7.6164647108e+01   7.3951299749e+01    0.1962103    0.1550516  62.19 0.0009578328    1.710    0.415
       501  -9.0052     74.1913     19.3549   4.3046819236e+01   6.4331259553e+01    0.2987208    0.2181037 -49.21 0.0008189346    1.567    0.362
       502  -8.2151     87.7612     17.3455   3.7501268913e+01   6.1247656633e+01    0.2548748    0.1660082 -41.42 0.0005911076    1.652    0.395
       503  -8.1647     38.7708     18.0018   6.0046183711e+01   7.1949740012e+01    0.1886003    0.1697908 -19.74 0.0004793711    1.090    0.082
       504  -7.9637    112.8081     16.6018   3.1015110820e+01   5.4782272568e+01    0.1982247    0.1323745  82.14 0.0002315828    1.550    0.355
       505  -7.9807     30.1877     15.9440   6.4838330949e+01   7.3706241337e+01    0.1990762    0.1595585 -85.02 0.0008416537    1.970    0.492
       506  -9.3987    233.2103    246.2052   6.2250593448e+01  -1.7358556215e+00    0.3890246    0.1622766 -23.16  0.002041886    2.297    0.565
       507  -8.3507    188.3821     14.1361   2.0361123821e+01   3.5670983569e+01    0.1956663    0.1682157  73.46 0.0004115937    1.232    0.188
       508  -7.7627     17.4627     13.9750   7.4181375919e+01   7.5741605028e+01    0.1583503    0.1167127  87.02 0.0004516883    2.228    0.551
       509  -7.8337    191.4976    249.5327   6.9550933000e+01   2.1482823658e+00     0.106542   0.07618236  14.47 0.0001901732    1.090    0.083
       510  -7.8947     83.4792     10.5414   3.5281474147e+01   6.3149974795e+01    0.1423487    0.1321053  69.80 0.0008080468    1.064    0.060
       511  -9.0470    175.6074    247.3794   7.2125413140e+01   4.1310493951e+00    0.2358054    0.1928761  61.13  0.001354408    2.507    0.601
       512  -8.3149    113.3969    248.2415   8.4371921759e+01   1.1172847987e+01    0.1944267    0.1155768 -75.03  0.001121184    3.037    0.671
       513  -8.6681    218.5818    247.1843   6.4691540447e+01  -4.0495471524e-01    0.2307837    0.1082532 -35.55   0.00150008    2.418    0.586
       514  -8.7808    156.1330    247.8944   7.5830734039e+01   6.2719255829e+00    0.1611414    0.1231295  31.64 0.0006412373    1.330    0.248
       515  -8.8690    132.1357    247.5631   8.0498252581e+01   9.0937734081e+00    0.2000512    0.1479467  50.36 0.0005420527    1.699    0.412
       516  -9.1213    103.8759    246.6732   8.6200752206e+01   1.2499812706e+01    0.2980099    0.1891564 -84.43  0.001793815    2.731    0.634
       517  -9.2575    224.6656    245.6674   6.3516126280e+01  -8.5522598271e-01     0.214802     0.131699  -4.90 0.0009690307    1.296    0.229
