#   1 NUMBER                 Running object number                                     
#   2 MAG_AUTO               Kron-like elliptical aperture magnitude                    [mag]
#   3 X_IMAGE                Object position along x                                    [pixel]
#   4 Y_IMAGE                Object position along y                                    [pixel]
#   5 X_WORLD                Barycenter position along world x axis                     [deg]
#   6 Y_WORLD                Barycenter position along world y axis                     [deg]
#   7 A_WORLD                Profile RMS along major axis (world units)                 [deg]
#   8 B_WORLD                Profile RMS along minor axis (world units)                 [deg]
#   9 THETA_WORLD            Position angle (CCW/world-x)                               [deg]
#  10 FWHM_WORLD             FWHM assuming a gaussian core                              [deg]
#  11 ELONGATION             A_IMAGE/B_IMAGE                                           
#  12 ELLIPTICITY            1 - B_IMAGE/A_IMAGE                                       
         1  -9.4337     38.9384      8.2745   1.0034875334e+02   7.0067982562e+01    0.4987563    0.3020965  -0.96  0.002853687    1.813    0.448
         2 -10.4542     39.1400     29.9300   1.1036962588e+02   6.6729115911e+01    0.5653152    0.3312492 -52.21  0.002925503    1.916    0.478
         3  -9.6670     66.9943     31.5390   9.9510531111e+01   6.2562148648e+01     0.912473    0.5039209 -41.85  0.004579304    1.837    0.456
         4 -12.2361     81.9843      7.7750   8.3525802577e+01   6.2902880390e+01     2.297906     1.171724  -0.19   0.01001174    2.715    0.632
         5 -10.8798    120.8299      3.9347   7.2200022323e+01   5.4621227117e+01    0.6835632    0.4987971  74.90  0.002757708    1.434    0.303
         6 -11.8053    109.3835      4.1909   7.4718424805e+01   5.7304077320e+01     1.818983    0.8147954  50.39  0.008287913    1.885    0.470
         7 -11.7017    131.5928      3.2508   6.9919169013e+01   5.2046465907e+01      1.72068    0.6027083  69.84  0.006302118    2.905    0.656
         8 -13.8523    168.1717     10.9775   6.6853983614e+01   4.1979709070e+01     3.443656     1.898399  66.91   0.01608755    1.617    0.382
         9  -9.4928     10.8150     25.7617   1.2231231618e+02   7.0065706888e+01    0.5339491    0.1043512 -49.55  0.002199595    3.179    0.685
        10 -10.5421     71.2969      5.3241   8.5790411818e+01   6.5220701680e+01    0.6249802    0.3616431  39.19   0.00248766    1.561    0.359
        11  -9.6936    104.9077     25.6107   8.4688139835e+01   5.6036169166e+01    0.5243953    0.4139164  -6.53  0.002921102    1.304    0.233
        12 -10.4775    116.9682     16.3064   7.7912600153e+01   5.4355830308e+01    0.6604263    0.3403149 -21.00  0.002981206    2.105    0.525
        13 -10.1181    111.8751     15.5821   7.8818857470e+01   5.5624200616e+01    0.5360574     0.238499  40.22  0.001859117    2.268    0.559
        14  -9.7245     93.9209     17.8006   8.4491630457e+01   5.9356014048e+01    0.4457025    0.3923646 -42.74  0.002256509    1.346    0.257
        15 -10.3505    249.1871     15.4908   5.9681718497e+01   2.1342120794e+01    0.4386268    0.2636109 -24.14  0.002218323    1.895    0.472
        16 -11.9678    128.3554     15.6061   7.5166644127e+01   5.1684620833e+01     1.325357    0.9335914 -36.63  0.006963959    1.540    0.350
        17  -9.1846     64.5306     16.4552   9.3639835853e+01   6.5129348464e+01    0.2578131    0.2203052 -46.12  0.001082393    1.539    0.350
        18  -8.4579     19.7534     14.8541   1.1320172288e+02   7.1239159053e+01    0.4482321    0.2060087 -27.43  0.002339133    2.193    0.544
        19 -11.8852    155.9174     20.3178   7.1735616627e+01   4.4195004720e+01     1.169261      0.62261  58.68   0.00403257    1.676    0.403
        20  -9.3092     70.0453     13.8603   9.0375976636e+01   6.4492230446e+01    0.2677523    0.2591363 -62.18  0.001808028    1.437    0.304
        21  -8.5573     54.9811      7.4722   9.2928893890e+01   6.7818459765e+01    0.3405729    0.2198594  48.98  0.001588023    1.835    0.455
        22  -9.0655     60.3033      9.5385   9.1877072210e+01   6.6700864260e+01    0.3491957     0.169859 -19.43  0.001697777    2.167    0.539
        23  -9.9354     60.8287      2.1301   8.7883724693e+01   6.7435518540e+01    0.5704699    0.2822094  38.90  0.003005883    1.845    0.458
        24 -10.4830    244.8982      8.2951   5.8374743695e+01   2.3120404883e+01    0.3134774    0.2736439  37.98   0.00201258    1.537    0.349
        25 -10.2302    249.8740      5.2561   5.7338139356e+01   2.2326819645e+01    0.5990291     0.256014 -40.31  0.002931787    1.956    0.489
        26  -9.9476    229.3558      6.3730   5.9124622220e+01   2.6953691770e+01     0.308551    0.2105916  72.94  0.001746555    1.398    0.285
        27 -11.9470     43.7464     21.4014   1.0457292240e+02   6.7549455374e+01     1.068021    0.9647618  71.30  0.007149269    1.837    0.456
        28  -8.4410     48.7706      6.8164   9.5172757983e+01   6.8863147439e+01    0.2079925    0.1394473  23.27 0.0008156208    1.393    0.282
        29 -10.0966    214.6070      5.3920   6.0129088436e+01   3.0640106731e+01    0.3257047    0.2713521  58.96  0.001168046    1.306    0.234
        30 -10.1389    203.6519      4.9334   6.1020817213e+01   3.3423859758e+01    0.3016848    0.2515068 -55.99  0.001807872    1.156    0.135
        31  -8.4842     26.2492      3.1176   1.0388537906e+02   7.2320960682e+01    0.1951232    0.1396872 -39.32  0.001148204    1.566    0.361
        32  -8.8030     52.0930      2.1461   9.1302440416e+01   6.8889878686e+01     0.238374     0.175461   9.21  0.001551107    1.175    0.149
        33  -8.5675     40.2774      1.6963   9.6191933088e+01   7.0716644653e+01    0.2316631    0.1361123  27.81  0.001391429    1.623    0.384
        34  -8.6973     16.8503      1.7378   1.0824360756e+02   7.3502704118e+01    0.1858932    0.1405157  26.54  0.001070791    1.578    0.366
        35  -7.8598    204.0013     76.4919   8.0549572436e+01   2.3763436533e+01    0.2176365    0.1482884  59.73 0.0004493596    1.497    0.332
        36 -10.0611     74.0149     69.1483   1.1082119503e+02   5.4553878032e+01    0.3963485    0.3461416  70.24  0.001644324    1.432    0.302
        37  -8.8344     83.0891     69.6399   1.0790738688e+02   5.2965405060e+01    0.3628613    0.1722067  32.18  0.001450106    2.536    0.606
        38  -8.1167     77.1934     65.6125   1.0859169113e+02   5.4766912506e+01    0.2469429    0.1698621 -16.74 0.0009004326    1.818    0.450
        39  -8.0599     34.7525     68.3664   1.2489011337e+02   5.9629229023e+01    0.1547575    0.1170591   0.43 0.0009376801    1.577    0.366
        40  -9.3990     16.2751     63.3780   1.3076482962e+02   6.2184814654e+01    0.2890749    0.1812667 -79.41  0.001467191    1.778    0.438
        41  -9.3857     48.3132     62.1316   1.1798490741e+02   5.9529535298e+01    0.3997975    0.2796973  17.32  0.002276328    1.661    0.398
        42  -8.1806     76.0419     60.3002   1.0721331154e+02   5.6008836245e+01    0.1927313    0.1805723   1.75 0.0007165281    1.083    0.077
        43  -8.0485     15.9782     58.4585   1.2972467058e+02   6.3253533525e+01    0.1523323    0.1162345   6.84 0.0008838469    1.566    0.361
        44  -8.1895    198.2951     54.9042   7.5502744127e+01   2.8596305715e+01    0.2016521    0.1972052 -35.05 0.0007817701    1.100    0.091
        45  -7.8796      9.7647     55.6143   1.3156258288e+02   6.4239074029e+01    0.1387044    0.1062801  31.96 0.0009474737    1.647    0.393
        46  -8.4687    101.1495     53.2753   9.6491510686e+01   5.2667452621e+01     0.236468    0.1761825  26.69  0.001105152    1.442    0.307
        47  -8.0309     34.6937     52.4009   1.2039979622e+02   6.2983906424e+01    0.2044042     0.115275  30.82  0.001075901    2.038    0.509
        48 -10.1172     82.3731     47.2935   1.0032445541e+02   5.7324408630e+01    0.4598689    0.4171616 -29.50  0.001713866    1.102    0.093
        49  -9.5484     81.0308     40.9176   9.8308668025e+01   5.8642955964e+01     0.425875    0.3484322  22.73  0.002472715    1.208    0.172
        50  -9.4381     81.0413     35.9576   9.6303644504e+01   5.9433600832e+01    0.3263338    0.2193611   5.74  0.001619305    1.836    0.455
        51  -8.7330    111.0544     45.5494   9.0752272928e+01   5.1838434987e+01    0.2847418    0.2043267 -11.79  0.001154619    1.599    0.375
        52 -10.3183      3.4503     40.1152   1.3038757902e+02   6.7752129149e+01    0.4216609    0.3461849 -78.51  0.002588548    1.422    0.297
        53  -9.8185     97.8369     43.3278   9.3786854444e+01   5.5007256060e+01    0.4358705    0.2372507  17.44  0.001521764    3.555    0.719
        54 -10.1511     51.0305     35.8375   1.0765013238e+02   6.4229474156e+01    0.5546563    0.3945877 -53.30  0.002762969    1.667    0.400
        55 -10.5945    185.4953    246.5063   1.1959809620e+02  -9.2417820530e-01    0.4945091    0.1797729  47.53  0.002215439    2.605    0.616
        56 -10.4116    173.3125    242.9170   1.2130279174e+02   1.5124958039e+00     0.296284    0.2059268  66.44  0.001743159    1.995    0.499
        57 -10.6596    162.0726    242.2257   1.2326007701e+02   3.4372914588e+00    0.4545976    0.2857147  73.37  0.002284581    2.865    0.651
        58 -10.3298    205.7345    225.6152   1.1286614329e+02  -1.4519897792e+00    0.2364701    0.1764149  40.70  0.001499804    1.236    0.191
        59  -9.0154    123.9962    206.0039   1.2581873788e+02   1.5861056262e+01    0.1870988    0.1572521  56.91  0.001154506    1.011    0.011
        60  -8.6029    238.6610    203.6726   1.0327689618e+02  -3.9377506344e+00    0.1323064   0.08315566   9.74 0.0004148015    1.731    0.422
        61 -12.7264    240.7688    133.4648   8.8563888567e+01   6.0111473473e+00     1.556267     1.111337  47.06   0.00536593    1.499    0.333
        62  -9.0238     40.7273    141.4684   1.3630585304e+02   4.2134489675e+01    0.2365112    0.1619824  64.00  0.001372389    1.451    0.311
        63  -8.6315     27.3548     35.4035   1.1787177509e+02   6.6975203102e+01    0.2284017    0.1590281 -36.98  0.001463687    1.158    0.136
        64  -9.2880     10.9108     34.2210   1.2516725365e+02   6.8478196737e+01    0.4690621    0.3407515 -22.45  0.002830399    1.302    0.232
        65 -10.7568     11.5400    128.1076   1.4230689242e+02   4.7861968502e+01    0.4693165    0.1525218 -58.28  0.002148394    2.547    0.607
        66 -10.2316     16.8600    125.7628   1.4065244942e+02   4.7997627289e+01    0.3088171    0.1765873  79.92  0.001704722    1.766    0.434
        67 -10.2905    225.2500     29.2914   6.5161767933e+01   2.5313063490e+01    0.4370655    0.3574257  44.13  0.001470214    1.469    0.319
        68  -9.7267     86.8239     30.7536   9.2214938139e+01   5.9116028610e+01    0.4469363    0.2601645  29.13  0.001712382    1.904    0.475
        69  -9.1960     97.4323     28.2347   8.7883666987e+01   5.7310208963e+01    0.5553972    0.3061247   3.03  0.002124467    3.143    0.682
        70  -8.9076    125.2110     29.0478   8.0919507663e+01   5.0902796752e+01    0.3199683    0.2488317 -45.13  0.001488696    1.424    0.298
        71  -8.1941     29.4581     27.3795   1.1378687445e+02   6.8215131830e+01     0.336875    0.2414029 -87.03   0.00165105    3.643    0.726
        72  -8.2979     22.6550    125.5960   1.3907840774e+02   4.7566566897e+01    0.1946097    0.1253702  16.64 0.0009376329    2.133    0.531
        73  -8.4210     20.5537     22.7571   1.1622896200e+02   6.9847563038e+01    0.3235574    0.1324111  32.60  0.001664162    2.848    0.649
        74  -8.5653     59.4822    124.5260   1.2870324680e+02   4.3953673546e+01     0.135702    0.1182853 -77.09 9.240968e-05    1.001    0.001
        75 -11.6367     10.1418    140.0760   1.4381392447e+02   4.5243795980e+01    0.5545454    0.4746093  81.01  0.004091589    1.156    0.135
        76 -10.3001     13.2894    119.8601   1.4094303561e+02   4.9627064538e+01    0.2959009    0.1952388  49.87  0.001855868    1.650    0.394
        77 -10.2767      9.9223    117.1805   1.4156144809e+02   5.0479989721e+01     0.321665    0.2047343 -29.19  0.001894036    2.201    0.546
        78 -10.1120     17.3845    104.7713   1.3784401596e+02   5.2810417045e+01       0.4286    0.3138469  69.80  0.002734772    1.465    0.317
        79  -9.6105     30.0210    102.1432   1.3357432681e+02   5.2407398507e+01    0.3935527    0.1971152 -45.43  0.001959951    2.024    0.506
        80  -8.3793     68.6709    103.6592   1.2183190324e+02   4.7667034404e+01       0.1441    0.1017496 -30.21 0.0007051522    1.741    0.425
        81  -8.0409     13.3607     16.2129   1.1719334068e+02   7.1555592012e+01     0.215014    0.0812242 -46.25 0.0007939174    2.065    0.516
        82  -7.1256      8.2828     17.6688   1.2052386413e+02   7.1676746596e+01   0.09481633   0.08429039 -71.37  0.000700661    1.611    0.379
        83  -9.5953     46.9985    100.0579   1.2785100607e+02   5.1220783599e+01    0.3950235    0.1675071 -50.26   0.00174125    2.098    0.523
        84  -8.2351     64.3074     98.6880   1.2206336616e+02   4.9425317828e+01    0.1366793    0.1032052  81.65 0.0007024774    1.621    0.383
        85  -9.6297    108.5957     38.9915   8.8962886998e+01   5.3384569337e+01    0.3879756    0.2233047  27.82  0.001639381    2.191    0.543
        86  -7.5448     82.6785     90.3150   1.1414381826e+02   4.8600894499e+01    0.1430697    0.1117864  85.55 0.0007040687    1.659    0.397
        87  -9.1334      2.3128     89.1175   1.4032539449e+02   5.7316613271e+01    0.2953422    0.1681546 -80.47  0.001328288    1.506    0.336
        88  -9.7936     52.0652     80.4593   1.2171277074e+02   5.5131288690e+01    0.3279364    0.2601702 -36.16  0.001758395    1.233    0.189
        89 -11.4926     42.8195     82.6837   1.2547546580e+02   5.5662880077e+01    0.9790642    0.6955076 -38.49  0.004450507    1.390    0.281
        90  -9.1755     34.6956     79.1105   1.2750624646e+02   5.7266131063e+01    0.3011928    0.1776612 -68.86  0.001289388    1.624    0.384
        91  -8.4077    100.5539     82.7993   1.0646140626e+02   4.7059335044e+01    0.2067796    0.1379058 -56.55 0.0004699827    1.606    0.377
        92 -10.4007     24.1629     65.6217   1.2824087261e+02   6.1131492922e+01    0.8503425    0.3105536 -50.76  0.003984166    2.086    0.521
        93 -10.7223      3.2755     76.1859   1.3806162429e+02   6.0144704804e+01    0.6547303    0.3878569  56.88  0.003845397    2.201    0.546
        94 -10.2923     10.6100     70.6975   1.3445097273e+02   6.0950853166e+01    0.6716442    0.2610984 -52.11  0.003409452    1.938    0.484
        95  -9.9993     13.4959     77.2306   1.3464897991e+02   5.9332649530e+01    0.4327081    0.3111642  -6.92  0.002219182    1.761    0.432
        96 -10.1058     16.1141     73.2886   1.3294819394e+02   6.0036170543e+01    0.4314629    0.2855017  36.81  0.002673285    1.850    0.460
        97  -9.2549    227.8141     78.5778   7.7394636679e+01   1.7683170785e+01    0.4048933    0.2745618  -9.35   0.00160505    2.012    0.503
        98  -7.8106    221.3491     80.3131   7.8797437881e+01   1.8928400719e+01    0.1494856    0.1139659  20.59 0.0004180873    1.721    0.419
