#   1 NUMBER                 Running object number                                     
#   2 MAG_AUTO               Kron-like elliptical aperture magnitude                    [mag]
#   3 X_IMAGE                Object position along x                                    [pixel]
#   4 Y_IMAGE                Object position along y                                    [pixel]
#   5 X_WORLD                Barycenter position along world x axis                     [deg]
#   6 Y_WORLD                Barycenter position along world y axis                     [deg]
#   7 A_WORLD                Profile RMS along major axis (world units)                 [deg]
#   8 B_WORLD                Profile RMS along minor axis (world units)                 [deg]
#   9 THETA_WORLD            Position angle (CCW/world-x)                               [deg]
#  10 FWHM_WORLD             FWHM assuming a gaussian core                              [deg]
#  11 ELONGATION             A_IMAGE/B_IMAGE                                           
#  12 ELLIPTICITY            1 - B_IMAGE/A_IMAGE                                       
         1 -12.9839     42.3874     45.9185   9.5223206368e+01   6.2990791284e+01    0.9708292    0.7199095  48.28   0.00127633    1.885    0.470
         2 -12.1398    125.0316     27.8251   6.0517261904e+01   5.0675048766e+01     0.753877    0.5030524  41.95  0.002057735    1.421    0.296
         3 -12.6395    119.7865     37.9434   6.5617960014e+01   5.0570867241e+01    0.8122925    0.6283856  87.06  0.002887596    1.777    0.437
         4 -12.0652     60.5769     45.2719   8.7667498000e+01   6.0780316232e+01    0.9569268    0.4695143 -46.99  0.004414784    1.994    0.499
         5 -10.4501      4.1819     44.8615   1.1134142926e+02   6.6269705267e+01     1.168474    0.1738774 -46.97  0.004506801    3.554    0.719
         6  99.0000      6.4063     33.9036   1.0722135943e+02   6.8336132289e+01      1.14104    0.3069106 -53.19  0.005260513    2.445    0.591
         7 -10.5093     22.0736      4.8628   8.7101336868e+01   7.2083683453e+01    0.2625209    0.1627882 -41.87  0.001654848    1.694    0.410
         8 -11.7207     26.4680     28.0983   9.5583304949e+01   6.7923110909e+01    0.4693882    0.4129871 -11.55  0.002799449    1.206    0.171
         9 -11.6357     13.9670     23.8486   1.0001231514e+02   6.9725701295e+01     0.420538    0.2513374 -21.07 0.0003825645    1.575    0.365
        10 -11.6943     19.8801     22.4524   9.6487866147e+01   6.9501458869e+01    0.5722572    0.2321646 -44.77  0.001855219    1.937    0.484
        11 -12.9464     19.1763     12.6186   9.2503272323e+01   7.1196841726e+01    0.9281517    0.5372561  -1.42  0.004206356    1.880    0.468
        12 -11.2067     79.1024     33.1128   7.5918575600e+01   5.9794101147e+01    0.9026184    0.4749397  26.51  0.003946357    2.314    0.568
        13 -10.2795     87.6835      7.6804   6.1892159259e+01   6.1318809211e+01    0.5806706    0.3201587  54.66  0.002532675    1.781    0.439
        14 -11.3129     91.0007     20.8106   6.6754752071e+01   5.9175140773e+01    0.7140252    0.4821498  -6.82  0.003751994    1.556    0.357
        15 -11.4497     85.9555     14.1194   6.5337364478e+01   6.0990700655e+01    0.5868965    0.3418272 -14.53  0.001995216    1.791    0.442
        16 -11.0590    178.4499     21.4281   4.8536260480e+01   3.7775101268e+01    0.6442162    0.3820122  28.20  0.002747253    2.369    0.578
        17 -11.4844    183.1064     25.1359   4.8990443640e+01   3.6131616927e+01    0.6265453    0.3946164  50.18  0.002869367    1.597    0.374
        18 -10.9589    139.1741     32.9571   5.9231814160e+01   4.6543391428e+01    0.5561852    0.5171089 -15.48  0.001999737    1.120    0.107
        19 -12.1161    105.9910     20.2285   6.2255032233e+01   5.6020062898e+01     0.418108    0.3353911 -31.73            0    1.343    0.256
        20 -11.0323    198.8288     28.7414   4.7912026835e+01   3.1625350016e+01    0.6434061    0.4262499 -13.40  0.002503202    1.894    0.472
        21 -11.4641    137.9836     22.0524   5.5578916451e+01   4.8166377864e+01     1.117281    0.3221883  51.43  0.003800681    2.906    0.656
        22 -10.2066    146.8153     16.2348   5.1858698381e+01   4.6555538042e+01    0.5201507    0.3826286  60.58  0.002737836    1.236    0.191
        23 -12.0418    132.9395     14.7387   5.3918207172e+01   5.0212432519e+01     1.373003    0.5504543  66.07  0.005239666    2.519    0.603
        24 -11.2369    164.9982     17.8470   4.9403538698e+01   4.1681834450e+01    0.4885704    0.2901909  36.82   0.00180867    1.944    0.486
        25 -12.6931    163.2061     28.2177   5.3029672695e+01   4.0965669324e+01     0.800445    0.3900027  46.48 0.0007541102    2.077    0.519
        26 -10.8897    155.4125     23.3203   5.2760264144e+01   4.3568554360e+01    0.9213357    0.6555674  35.55  0.004592263    1.506    0.336
        27 -10.9450    214.6027     23.1993   4.4541629260e+01   2.8306689299e+01    0.4954252    0.3828714   4.81  0.002638899    1.764    0.433
        28 -10.4078     47.1188     19.2163   8.2192321319e+01   6.6985391576e+01    0.3332897    0.2661954 -22.52  0.001426499    1.144    0.126
        29 -10.9840     32.5337     12.4525   8.5649671306e+01   6.9833757772e+01    0.2264143    0.1953232  34.84 0.0005791376    1.624    0.384
        30 -11.5905     35.5343     18.7631   8.7237099792e+01   6.8527819754e+01     0.604821    0.2546613 -29.36  0.002505323    2.364    0.577
        31 -12.2463     49.4157     12.8750   7.8126794570e+01   6.7552031037e+01    0.5751468    0.3216941  38.95  0.003194169    1.871    0.466
        32 -10.3441     42.4641     14.4977   8.1993002424e+01   6.8299083013e+01    0.2417354    0.1844231  17.28 0.0006278399    1.258    0.205
        33 -11.8534     68.1178     17.9830   7.3152713584e+01   6.3881698605e+01    0.4880168    0.4284359   9.36  0.001901182    1.108    0.098
        34 -10.0109    120.3275     18.8870   5.8182613602e+01   5.2850278605e+01    0.4645643      0.19952 -28.57   0.00191717    2.378    0.579
        35 -12.2753    238.2378     15.9510   4.0455797486e+01   2.3465140152e+01    0.8850318    0.4346476  72.90  0.003159131    1.984    0.496
        36 -12.1568    246.0951      6.2269   3.7600324774e+01   2.2753844248e+01    0.7165263    0.5779393 -77.20  0.003327072    1.076    0.071
        37 -11.8283    233.9837      7.0498   3.8714269196e+01   2.5444807315e+01    0.8445261    0.3794459  89.80  0.003682547    2.461    0.594
        38 -11.0682    223.6583      1.9066   3.8319623875e+01   2.8427188783e+01    0.5612833    0.2427809  81.71  0.002474088    2.281    0.562
        39 -11.4532    192.6177      7.3343   4.2663636289e+01   3.5599660035e+01    0.6443161     0.407882  12.29  0.002944127    2.401    0.583
        40  -9.5651    191.5287     16.7432   4.5441169865e+01   3.4898878355e+01    0.3227023     0.255028   5.26  0.001542978    1.615    0.381
        41 -10.9548    218.6802      3.2760   3.9069777349e+01   2.9490494694e+01    0.3223984    0.3000531 -74.14   0.00109874    1.124    0.110
        42 -10.1841    225.9216     15.3534   4.1409748249e+01   2.6444843621e+01    0.3986391    0.2065043 -38.73  0.001684339    1.771    0.435
        43 -12.3023    104.5502     12.7070   5.9499810551e+01   5.7166214729e+01    0.5192025    0.4483395 -28.34  0.001827755    1.279    0.218
        44 -11.5061    211.9467      9.8335   4.1342532351e+01   3.0466396451e+01    0.4327012    0.3115672   9.44 0.0006609737    2.016    0.504
        45 -10.0697     64.6353     10.6517   7.0929277043e+01   6.5395578757e+01    0.5531554    0.2201768  36.75  0.002450736    2.473    0.596
        46  -9.9691    169.0243      9.7119   4.6253760132e+01   4.1464934492e+01    0.3739983    0.1698531  47.79  0.001548157    2.214    0.548
        47  -9.1886    163.2883      9.6907   4.7050347643e+01   4.2956573604e+01    0.1959271    0.1816403 -23.43 0.0005403941    1.195    0.163
        48  -9.5235    162.9701      6.0278   4.5927012842e+01   4.3382870158e+01    0.3136232    0.2143587  33.16  0.001148307    1.658    0.397
        49 -10.1149     62.7772      6.8893   6.9750085973e+01   6.6148976566e+01    0.3062519      0.19846   6.50  0.001259608    1.528    0.346
        50 -11.3905     40.6373      5.9698   7.8478018278e+01   6.9697000973e+01    0.4383038    0.2164479 -15.20  0.001160188    2.299    0.565
        51  -9.3834      1.1362      7.3922   1.0007448432e+02   7.3419800910e+01    0.1883592   0.05221415 -48.96 0.0006067831    2.630    0.620
        52 -10.3771    183.5968      4.8237   4.2961716903e+01   3.8158894400e+01    0.3982369    0.2565696 -40.22  0.001578354    1.589    0.371
        53  -9.5189    153.3222      7.1842   4.7707500073e+01   4.5767858807e+01    0.3129797    0.1549544  53.67  0.001395847    1.779    0.438
        54  -9.1817     78.4857      7.4871   6.4608977509e+01   6.3189694563e+01    0.2188211    0.1678268  37.58 0.0006904303    1.193    0.162
        55 -10.5859     76.7225      3.6261   6.3318249369e+01   6.3919267588e+01    0.3804609    0.2661738  10.81  0.001553455    1.346    0.257
        56 -10.0444     72.6741      2.6909   6.4170820227e+01   6.4788717944e+01    0.5592253    0.2290404  27.26  0.002197629    3.206    0.688
        57 -10.6444    176.0558      5.2877   4.3992472566e+01   4.0062302674e+01    0.4842207    0.2635607  84.67  0.001761293    1.918    0.479
        58  -9.4641    122.5147      1.1956   5.0835559028e+01   5.4005206988e+01    0.5249906   0.09542405  63.08  0.001560275    4.276    0.766
        59 -10.9232    112.6083      2.8763   5.3525876049e+01   5.6229211093e+01    0.6548414    0.3357963  72.93  0.001975684    2.338    0.572
        60 -10.6609    105.4815      1.8483   5.4691786546e+01   5.7963913148e+01    0.4104204     0.261255  83.27 0.0007850417    2.216    0.549
        61  -9.4084     50.5930      6.4533   7.4356398898e+01   6.8190164185e+01     0.195245    0.1126332  43.57 0.0006039722    1.886    0.470
        62 -10.6158    142.2623      3.3638   4.8142508075e+01   4.8928129655e+01    0.4137235    0.2589518  53.19   0.00154539    1.403    0.287
        63 -11.6552    133.5864      2.7417   4.9383806860e+01   5.1158931880e+01     0.427439    0.2712428  57.82    0.0011986    1.364    0.267
        64  -9.9761    206.7557      2.7004   3.9987184939e+01   3.2483618093e+01    0.4612191    0.2135023 -89.45  0.001937048    2.395    0.583
        65  -9.1737    157.4727      2.5205   4.5563804519e+01   4.5112923629e+01    0.2471086    0.1922114  60.77  0.001386442    1.144    0.126
        66  -8.9131    161.0883      1.0000   4.4580949134e+01   4.4311458121e+01    0.3722431   0.07033138  69.81   0.00102484    4.697    0.787
        67 -11.1004      2.9399      1.7962   9.6365759860e+01   7.4198830187e+01    0.3534055    0.1652378   7.61  0.002043087    2.442    0.591
        68 -10.0662     13.1360      1.8437   9.0425978249e+01   7.3381771255e+01    0.2312102    0.1371815   9.80  0.001244438    1.686    0.407
        69  -8.9036    151.8011      1.3277   4.5979619226e+01   4.6669731823e+01     0.202078    0.1043691  59.63 0.0006904186    1.647    0.393
        70  -9.9212     82.1147      1.3167   6.0558097056e+01   6.3060669247e+01      0.17677    0.1063372  51.42 0.0003791864    1.553    0.356
        71  -9.7972    214.8209    151.0119   7.7142410327e+01   7.7818657178e+00    0.2496395    0.2235772  55.81 0.0009535838    1.294    0.227
        72  -9.6787    234.5848    150.2027   7.3357475028e+01   4.0040671492e+00    0.2065032     0.123783 -21.67 0.0009536501    1.743    0.426
        73  -9.7443    239.8315    146.7097   7.1675490321e+01   3.5578702269e+00    0.2349507    0.1754342 -17.30 0.0006262131    1.273    0.215
        74 -10.6771    249.5987    142.6478   6.9147278134e+01   2.3563897824e+00    0.6013429    0.2383199 -32.85  0.002438029    2.305    0.566
        75 -11.0649     32.7306    144.4631   1.1911724088e+02   4.1586092838e+01    0.3124149    0.2971685 -12.14  0.001402094    1.427    0.299
        76  -9.8713    133.3946    140.2043   9.2521859730e+01   2.7190871984e+01    0.2977012    0.2822091 -24.45  0.001017028    1.144    0.126
        77 -11.9378     24.1846    136.7985   1.2037888763e+02   4.4169738595e+01    0.6498029    0.3797846  61.85  0.002389016    1.797    0.444
        78 -12.7917     29.8876    133.0491   1.1846165156e+02   4.4533875886e+01    0.4690752    0.3029142 -86.70 0.0004270044    1.393    0.282
        79 -10.0406     81.8162    135.3921   1.0493041694e+02   3.7618175589e+01    0.2804344    0.1954301  28.74  0.001196421    1.707    0.414
        80 -10.4944     39.7418    137.5758   1.1647827963e+02   4.2494904734e+01    0.2517501    0.2400706 -49.25    0.0017169    1.288    0.224
        81  -9.1052    192.4568    136.4847   7.8202353037e+01   1.5160274871e+01    0.1504568    0.1456416  -3.61 0.0001652709    1.020    0.020
        82 -10.2806     47.3886    135.7858   1.1422324283e+02   4.2091384778e+01    0.4356238    0.1744463 -62.78  0.001383797    2.084    0.520
        83  -9.1192    216.6284    135.1959   7.3171459308e+01   1.0154746549e+01    0.2077431    0.1331022 -24.30 0.0006000038    1.640    0.390
        84 -10.3046     92.7792    129.2966   1.0075297238e+02   3.7315425756e+01    0.3585107    0.2966431 -89.98  0.001435506    1.275    0.216
        85  -9.2513    107.6919    145.9696   1.0018864850e+02   3.0809933142e+01    0.2049019    0.1801949 -71.32 0.0003692659    1.105    0.095
        86 -10.5812     74.1716    132.5103   1.0646751460e+02   3.9444612668e+01    0.2979454    0.2080846 -32.21  0.001457034    1.904    0.475
        87 -10.1311     61.9810    131.7311   1.0965781647e+02   4.1298931095e+01    0.3817948    0.2700197 -27.94  0.001938531    1.999    0.500
        88 -10.2242     82.0078    125.5282   1.0295523342e+02   3.9947961589e+01    0.3639372    0.2673111 -19.34  0.001648821    1.978    0.495
        89  -9.1217    223.9646    126.9477   6.9886786970e+01   1.0027890576e+01    0.2236652    0.1726612 -61.44 0.0005214486    1.636    0.389
        90  -9.7503     22.9488    126.9471   1.1953413686e+02   4.6580267871e+01     0.183211    0.1454872 -83.23            0    1.042    0.041
        91  -9.9647      2.3413    125.9310   1.2479856609e+02   4.8326612951e+01    0.2711492    0.1612072  88.84  0.001272181    1.430    0.301
        92 -10.9632     55.7320    123.6400   1.1000445929e+02   4.4026309061e+01    0.4940587    0.3783727  -7.19  0.001690611    1.880    0.468
        93 -10.3703     18.7180    124.4996   1.2036598535e+02   4.7496937469e+01    0.2926695    0.1564433 -69.29  0.001064711    1.471    0.320
        94 -11.8037    104.4050    122.0930   9.5985158396e+01   3.6980995247e+01    0.4284095    0.4162777 -53.18 0.0009476008    1.062    0.058
        95  -9.3234    103.9027    130.7044   9.8041139572e+01   3.5052701411e+01    0.2054536    0.1830345  51.16 0.0003803261    1.146    0.127
        96 -10.8838     51.1883     96.0641   1.0599130058e+02   5.1132825835e+01     1.336435    0.4251152 -62.53  0.004759811    3.034    0.670
        97 -10.6049     42.1389     93.9676   1.0848229941e+02   5.2603556582e+01    0.4718494    0.3326724  86.76  0.002441747    1.734    0.423
        98 -11.8465      9.7647     97.3178   1.1937600879e+02   5.4443236594e+01     1.008593    0.4936855 -84.64  0.005085112    2.068    0.516
        99 -12.0216      7.2983     88.8910   1.1891017864e+02   5.6517918974e+01    0.5565713    0.5230246 -15.62  0.002557558    1.338    0.253
       100 -11.2882     17.3172    100.9418   1.1759783097e+02   5.3104530769e+01    0.4811428    0.2932737  27.60  0.002135743    2.006    0.501
       101 -12.4133     42.3225     85.3318   1.0653245073e+02   5.4584268014e+01     1.714278    0.5436993  23.27  0.006177128    4.373    0.771
       102 -11.5639     35.2174     92.9285   1.1053343827e+02   5.3518137656e+01     1.379979    0.6501366 -71.68  0.006250317    2.153    0.536
       103 -12.1049     28.5128    113.0288   1.1608824866e+02   4.9387237047e+01    0.9858488    0.4959308  81.59  0.004263023    2.856    0.650
       104 -12.1241     22.1569     95.1377   1.1516042755e+02   5.4099019195e+01    0.6571631    0.4772162  -5.97  0.004039265    1.829    0.453
       105 -12.3304     18.2642     90.1684   1.1556562253e+02   5.5531107861e+01    0.5286798    0.2554853 -50.28 0.0004117551    1.743    0.426
       106 -11.3493     22.5315    114.0624   1.1796054030e+02   4.9641697819e+01    0.4032088    0.2703572  -3.32  0.001863346    2.226    0.551
       107 -12.7066     25.3725    107.6332   1.1619019286e+02   5.0924012348e+01    0.9235072    0.5959136 -24.71  0.004711666    2.127    0.530
       108 -12.1138     18.7282    106.1635   1.1794486819e+02   5.1785403268e+01    0.2656014    0.2181924 -50.97 0.0002624538    1.234    0.190
       109 -10.8858      4.6201    120.3088   1.2364786191e+02   4.9468468849e+01    0.8386981       0.1169 -54.84  0.002788044    5.004    0.800
       110 -11.5880      2.4023    112.2805   1.2338963295e+02   5.1444776893e+01    0.3726748     0.259582  78.10  0.001183864    1.392    0.282
       111 -11.7383      3.7036    105.7687   1.2227922784e+02   5.2861891752e+01    0.4382868    0.3328045 -83.59  0.001728361    1.113    0.102
       112  -9.1880    221.1835    120.4025   6.8803770517e+01   1.1755279195e+01    0.1968153    0.1449653  65.02 0.0006284978    1.663    0.399
       113  -9.3329    148.0777    119.9659   8.4071907285e+01   2.8499794305e+01    0.2541182    0.1974799  -1.47 0.0006902545    1.725    0.420
       114 -10.2403    113.3775    116.0118   9.2070080091e+01   3.6695980819e+01    0.3395305    0.2213942  41.44 0.0001756741    1.587    0.370
       115 -10.5689    107.5910    112.0043   9.2676062832e+01   3.8731846964e+01     0.570486    0.3651075 -72.91  0.002008746    2.165    0.538
       116 -10.9231    102.1530    109.2278   9.3519771998e+01   4.0389180679e+01    0.6197118    0.5052034  -8.22    0.0030728    1.560    0.359
       117 -11.2064     45.6378    120.3589   1.1231540166e+02   4.5972894635e+01    0.5661065     0.290132 -85.66  0.002035239    2.517    0.603
       118  -9.5960     67.7652    114.1791   1.0472443476e+02   4.4745870603e+01    0.3413389    0.2409105  77.42  0.001695516    1.772    0.436
       119  -9.7213     66.7881    110.6157   1.0427042033e+02   4.5730903691e+01     0.322541    0.1956472  38.86  0.001575647    1.804    0.446
       120  -9.6157     36.5376    114.2571   1.1394439075e+02   4.8361690940e+01    0.2939928    0.1579948  77.30  0.001285078    2.694    0.629
       121  -9.3958    126.9289    113.7967   8.7862624782e+01   3.4450216807e+01    0.2384125    0.2155001   2.80  0.001142837    1.254    0.202
       122  -9.7535     48.9940    112.1931   1.0991325686e+02   4.7557453937e+01    0.2301639    0.2142747  57.42  0.001019317    1.206    0.171
       123 -11.2155    170.9744    110.1348   7.6153439522e+01   2.5252197352e+01    0.5836795    0.4393485  31.34  0.001764363    1.475    0.322
       124 -11.3445     79.7507    108.2637   9.9857407098e+01   4.4409249105e+01    0.6548831    0.4315102  38.21  0.002130094    1.646    0.393
       125 -10.3949     91.1521    103.7668   9.5355508567e+01   4.3607907810e+01    0.4513181    0.3159052  18.12  0.001928442    1.888    0.470
       126 -10.6240     86.1862    103.6364   9.6811104840e+01   4.4470735345e+01    0.5231019    0.3249982 -24.88  0.001663696    2.408    0.585
       127 -10.0012    120.2250    109.5551   8.8557155364e+01   3.6792555352e+01    0.3020948     0.209696 -48.09  0.001370943    1.405    0.288
       128  -9.4445     58.4937    108.5015   1.0633584728e+02   4.7316056039e+01    0.2420409    0.1244792 -71.98 0.0008164487    2.176    0.540
       129 -10.4023    157.4762    106.4297   7.8239575333e+01   2.9193029886e+01    0.4104884    0.2934357 -16.41  0.001477077    1.808    0.447
       130 -10.8914    143.5362    105.8963   8.1478900924e+01   3.2533155992e+01    0.3667945    0.3557951 -59.28  0.001520539    1.037    0.036
       131 -11.8665    145.4230    100.3151   7.9460085990e+01   3.3272876660e+01    0.5996738    0.5048362  42.47  0.001813299    1.204    0.169
       132  -9.7149     57.4009    102.7774   1.0547364175e+02   4.8811813992e+01    0.3123351    0.1960416 -69.51  0.001441808    1.576    0.365
       133  -9.6462     82.4690    102.3083   9.7608075398e+01   4.5381447691e+01    0.3178003    0.1694307 -35.48  0.001264152    2.339    0.572
       134  -9.4891    120.8108    101.1975   8.6147963618e+01   3.8529352531e+01    0.2192761    0.1876378  -7.85  0.000826225    1.361    0.265
       135  -9.9399     57.2656     97.9658   1.0446080705e+02   4.9963133474e+01     0.458735    0.2115133  24.85  0.001921605    2.819    0.645
       136  -9.9147     81.3136     97.9810   9.6875735249e+01   4.6569637305e+01    0.2246467    0.1961272  13.16 0.0005566234    1.311    0.237
       137  -9.6903     77.1713     97.0691   9.7935120830e+01   4.7425319695e+01    0.3188763    0.2537722  26.65   0.00111132    1.423    0.297
       138 -11.0807     89.7313     89.6303   9.2014260387e+01   4.7071340637e+01    0.7064758    0.3212093 -40.43   0.00270622    2.263    0.558
       139 -10.6279     64.7198     99.3706   1.0241397971e+02   4.8673633267e+01     0.475128    0.3004056   8.58  0.001979624    2.435    0.589
       140 -10.7070     68.2422     95.2775   1.0031635371e+02   4.9147061165e+01    0.4489039    0.3462794  37.04  0.002159922    1.442    0.307
       141 -10.8466     82.5806     93.2203   9.5237050336e+01   4.7459208672e+01    0.5006502    0.3393089  45.22  0.001547241    1.627    0.385
       142 -10.6145     76.7440     93.0079   9.7026331666e+01   4.8425944416e+01    0.4823591     0.339371 -22.83  0.001871483    1.784    0.440
       143  -9.9596    211.0368     97.4324   6.4815956275e+01   1.8065804353e+01    0.4787627     0.318959  27.51  0.001785551    1.960    0.490
       144  -9.0742     45.7384    105.7907   1.0970018231e+02   4.9440289396e+01    0.1700672     0.139289  89.90 0.0004697186    1.259    0.206
       145 -10.1412    117.4459     93.1859   8.4816907134e+01   4.0977660587e+01    0.4519638    0.3105263  27.55  0.001215682    1.742    0.426
       146 -10.1993    120.5286     89.4912   8.2872933591e+01   4.1114461489e+01    0.3846662    0.2703425  39.56  0.001372324    1.479    0.324
       147 -10.8952    120.8653     85.3212   8.1527530987e+01   4.1914263985e+01    0.4855433    0.3638916  67.84    0.0022197    1.670    0.401
       148 -10.3322    122.5612     93.7893   8.3570550744e+01   3.9765874199e+01    0.3535939    0.2813661 -65.35   0.00102903    1.437    0.304
       149 -10.2837    126.0021     93.3445   8.2502566157e+01   3.9116567783e+01     0.498765     0.362755 -61.11  0.001846642    1.588    0.370
       150  -9.4733    160.7149     93.8289   7.3962389751e+01   3.0952800469e+01      0.45068    0.2586546  71.13  0.001550697    2.788    0.641
       151 -10.6870    152.8607     91.8063   7.5213315255e+01   3.3248801544e+01    0.5882046    0.4199327  59.16  0.002394437    1.503    0.334
       152  -9.3241    137.7512     93.4760   7.9440139419e+01   3.6459892029e+01    0.3805269    0.2400999  17.63  0.001262123    2.672    0.626
       153 -12.1900    101.9300     90.1537   8.8438423939e+01   4.4737118255e+01    0.7493235    0.6155841  17.28 0.0007129907    1.395    0.283
       154 -10.1532    104.7336     76.2885   8.3386416907e+01   4.7131295311e+01    0.4571233    0.3886291 -35.72  0.002401066    1.126    0.112
       155 -10.7967    113.9408     83.7185   8.2996385106e+01   4.3717582581e+01    0.5859751    0.3299827 -38.73  0.002023558    1.762    0.432
       156 -10.8834    109.4276     80.6326   8.3356362196e+01   4.5289991367e+01    0.4253119    0.3669008 -13.28  0.001104257    1.235    0.191
       157  -9.8829     66.6402     88.6781   9.9170899213e+01   5.0889897989e+01    0.3233145    0.2244165 -16.74  0.001234458    1.919    0.479
       158  -9.5433    199.9567     87.9581   6.4276548042e+01   2.2382042332e+01    0.2333807    0.2258495 -49.23 0.0005460607    1.012    0.012
       159 -10.5072    183.7174     85.9274   6.6792341340e+01   2.6759805054e+01    0.7070994    0.2986751 -45.20  0.002437784    2.458    0.593
       160  -9.7023     60.2084     83.1916   9.9889877287e+01   5.2998555246e+01    0.3449909    0.2695851 -25.94  0.001931832    1.366    0.268
       161 -10.6060     46.9143     74.2378   1.0217339612e+02   5.6597696703e+01     0.329568    0.1785134 -47.56            0    1.553    0.356
       162 -10.3748     67.3963     81.7931   9.7072921716e+01   5.2337991521e+01    0.4374039    0.3513072 -11.88  0.002348823    1.426    0.299
       163 -13.1466     52.5285     73.6514   9.9992239351e+01   5.6080478622e+01    0.5348991    0.2966422 -57.63  0.001051955    1.677    0.404
       164 -10.7981     58.1224     77.8554   9.9172416423e+01   5.4461055593e+01    0.3226862    0.2630926 -58.72 0.0005429831    1.183    0.154
       165 -10.9904     79.1651     83.1185   9.3533677060e+01   5.0274155566e+01    0.8070264    0.5635314 -67.11   0.00357851    1.710    0.415
       166 -11.2967     72.7207     79.0873   9.4507700005e+01   5.2159187566e+01    0.7180931    0.3879527 -34.59  0.003102117    2.047    0.512
       167 -10.4946    165.6486     83.4047   6.9826336452e+01   3.1733340564e+01    0.4390309    0.3694962 -57.62  0.001367055    1.264    0.209
       168 -11.1945    142.9911     84.0630   7.5314738431e+01   3.7136362098e+01    0.4194888    0.3588348  44.47 0.0007441288    1.176    0.149
       169 -10.2157    127.5915     82.7816   7.8909211940e+01   4.0951995868e+01    0.4407054    0.2990519 -48.26  0.001960804    1.509    0.337
       170 -10.8123    127.3409     77.3577   7.7282817949e+01   4.2087398592e+01     1.065016    0.5911014 -67.80  0.003075024    4.517    0.779
       171 -10.6351    119.9916     68.9906   7.6581434879e+01   4.5347248050e+01    0.3483894     0.294589  82.14  0.000801908    1.485    0.326
       172 -10.4598    232.8978     77.7666   5.6294191483e+01   1.6229660063e+01    0.4125292    0.2502505 -39.87  0.001501174    1.493    0.330
       173  -9.6494      8.5336     76.6211   1.1647278898e+02   5.9218591624e+01    0.2550465    0.0967025 -47.31 0.0008029699    2.178    0.541
       174  -9.2204     19.9784     71.4976   1.1135326758e+02   5.9638018847e+01    0.2473762    0.1330771 -29.43  0.001109377    2.143    0.533
       175 -11.6932     14.0521     74.7743   1.1417813409e+02   5.9303698706e+01    0.4814702     0.312827 -66.00  0.001767713    1.251    0.201
       176 -10.2404     14.3923     67.3455   1.1252535749e+02   6.0927121427e+01    0.3195279    0.2572739  -2.53  0.001979218    1.488    0.328
       177  -9.0592    170.5238     78.0017   6.7186354317e+01   3.1498089557e+01    0.2353498    0.1545578 -34.82 0.0005456841    1.525    0.344
       178 -10.1586     93.7459     76.4629   8.6832284907e+01   4.9203056752e+01    0.5852821    0.3349881  31.16  0.002012019    2.030    0.507
       179 -10.1546     99.0308     61.6383   8.0254818204e+01   5.1143120875e+01    0.4923701    0.3090214 -11.53  0.001706786    2.339    0.572
       180 -12.5392     74.8657     50.3795   8.4267849591e+01   5.7632218554e+01     1.312314    0.8067725 -52.65  0.006256258    1.932    0.482
       181 -11.6323     85.6713     73.6484   8.8544106899e+01   5.1231219168e+01    0.6506621    0.5407556  33.47  0.002693479    1.279    0.218
       182 -11.2959     79.9937     67.3288   8.8404016406e+01   5.3498168202e+01    0.7184686    0.5715837  11.88  0.003550385    1.394    0.282
       183 -10.8720     91.6610     57.8277   8.1257258188e+01   5.3280330653e+01    0.3686949    0.3220111  22.35  0.001242272    1.151    0.131
       184 -10.8695     87.6311     56.9741   8.2276120375e+01   5.4188145375e+01    0.6586488    0.2327054 -35.88  0.002273342    2.980    0.664
       185 -11.8599      1.9390     71.3634   1.1787043813e+02   6.0726470832e+01    0.6061264     0.154672 -67.26  0.002524123    2.824    0.646
       186 -12.4197      6.3895     62.3381   1.1449781588e+02   6.2477932446e+01    0.6805028    0.3986712 -34.52  0.003170083    1.665    0.400
       187  -9.5839    139.0314     77.4678   7.4273636936e+01   3.9354348085e+01    0.2359109     0.153783  49.84 0.0003365618    1.540    0.351
       188  -9.7952    192.4489     65.7418   5.9416423638e+01   2.8002433411e+01    0.2977242    0.2537333 -73.86 0.0008974903    1.247    0.198
       189 -12.1320    186.6014     70.4123   6.1802691951e+01   2.8727668451e+01    0.9889184    0.6628435 -38.43  0.003190108    1.460    0.315
       190  -9.3728    241.8203     75.2067   5.4431948403e+01   1.4610913881e+01    0.1846646    0.1625535   0.70    0.0003247    1.324    0.244
       191  -9.5522    113.5536     74.9587   8.0358644280e+01   4.5585005764e+01      0.36986    0.1976367  36.47  0.001464338    2.088    0.521
       192  -9.8984     65.9573     74.3157   9.5427315913e+01   5.4184734862e+01    0.3055873    0.2346859  -1.43  0.001245506    1.547    0.353
       193  -9.9175    184.1672     61.3648   5.9604545699e+01   3.0824409183e+01    0.2908455    0.2600852  -5.18  0.000765609    1.247    0.198
       194 -11.7515     40.7464     70.5050   1.0343290342e+02   5.8074378266e+01    0.4879992    0.2685467 -53.05  0.002527206    1.497    0.332
       195 -11.3280     32.3303     72.0140   1.0692603957e+02   5.8541456388e+01    0.5261508    0.2708673  25.65  0.002697214    2.293    0.564
       196  -9.5668     24.5441     73.0984   1.1003587217e+02   5.8944885047e+01    0.3564305    0.1064419 -63.75  0.001387646    2.894    0.654
       197  -9.5041    151.7855     73.4680   6.9936781699e+01   3.7007457367e+01    0.3816451    0.1277084  45.08  0.001146926    3.171    0.685
       198  -9.8417    162.2626     70.6829   6.6731975433e+01   3.4881889553e+01    0.3270012    0.2497415 -72.77  0.001134283    1.633    0.388
       199  -9.9061    172.4817     68.4814   6.3940402719e+01   3.2660169155e+01    0.4191887    0.3154449  25.73   0.00158155    1.607    0.378
       200  -9.7000    172.3276     65.3076   6.3012015747e+01   3.3231623761e+01    0.5092876    0.3709379  61.31  0.002369632    1.385    0.278
       201 -11.3516    123.8165     67.8246   7.5143157851e+01   4.4707942239e+01     0.409264    0.3596186 -57.60  0.001054008    1.255    0.203
       202 -11.4976    219.9844     66.3652   5.5221129133e+01   2.1046818479e+01    0.6967164    0.4060062  57.72  0.002351754    1.769    0.435
       203 -10.7596     21.3312     65.6147   1.0950606522e+02   6.0834969124e+01    0.2920649    0.2290338  85.95 0.0007890371    1.607    0.378
       204  -9.9061     25.9670     65.3760   1.0767532308e+02   6.0533500694e+01      0.21124    0.1450837 -57.27 0.0006611995    1.202    0.168
       205 -11.1394     91.3365     62.5608   8.3023989719e+01   5.2444899700e+01    0.5848007    0.3869365  53.40  0.002333493    1.827    0.453
       206 -10.8475     59.4231     64.4749   9.4762898099e+01   5.7173765348e+01    0.5435666    0.2826225 -39.46  0.001964465    1.774    0.436
       207 -10.0662     57.3178     61.2920   9.4528467824e+01   5.8111273430e+01    0.2442722    0.1903696 -30.15 0.0005629638    1.168    0.144
       208  -9.2408     53.1107     65.9246   9.7542126528e+01   5.7677906344e+01    0.2715662    0.1726111  44.09  0.001406343    1.946    0.486
       209  -9.7826    105.8647     64.1718   7.9039164127e+01   4.9284882379e+01    0.2805395    0.2215895 -19.18  0.001299034    1.318    0.241
       210 -11.3500    234.1572     61.1726   5.1953908723e+01   1.8467567766e+01    0.6296192    0.4576865  81.58   0.00326014    1.525    0.344
       211  -9.8703    199.0773     63.4235   5.7643783846e+01   2.6686839218e+01    0.5146469    0.3113688 -86.33  0.001980655    2.517    0.603
       212 -10.6302     21.5473     36.4607   1.0100555204e+02   6.6811016139e+01    0.5531207    0.3050948  48.63  0.002722939    3.356    0.702
       213  -9.4404     55.1301     51.0847   9.1918252915e+01   6.0437508003e+01    0.1929924    0.1637089 -18.60 0.0005795668    1.072    0.067
       214  -9.8102     52.0032     48.0196   9.2058066037e+01   6.1433136760e+01    0.2533415    0.1933946 -34.77 0.0008301929    1.118    0.105
       215 -11.6028     21.3679     46.6243   1.0438459242e+02   6.4828406623e+01    0.5701281     0.358038 -27.57  0.002295813    1.531    0.347
       216 -10.1402    142.9611    249.3223   1.0821063191e+02   4.7367658643e+00    0.1776982    0.1266345  43.63 0.0006558942    1.091    0.083
       217 -11.4130     40.5041     56.7040   9.9561373193e+01   6.1039861145e+01    0.5537724    0.4023179 -85.17  0.002151379    2.192    0.544
       218 -11.4340     33.0144     58.7623   1.0315124366e+02   6.1346330802e+01    0.4029633    0.2418668 -21.99 0.0003224539    1.931    0.482
       219 -11.4424     26.9055     56.1405   1.0485419562e+02   6.2430150128e+01     1.013317    0.5500812 -41.37  0.005507038    1.546    0.353
       220 -11.2050     19.6322     55.0653   1.0751678727e+02   6.3216692120e+01    0.3672592    0.2917151  20.27  0.001184609    1.522    0.343
       221 -11.1051     50.9542     61.2368   9.6911740847e+01   5.8924143681e+01    0.3200966    0.2870312  48.14  0.001041853    1.395    0.283
       222 -11.5389     46.0976     58.3599   9.7878404256e+01   6.0088103011e+01    0.4968677    0.2886512 -44.57  0.001184242    1.444    0.307
       223 -10.5712    159.2154     61.9856   6.4672883595e+01   3.7138773249e+01    0.7194031    0.4870977   2.88  0.002928922    2.188    0.543
       224  -9.3766    161.8493     47.8642   5.9626729030e+01   3.8677925791e+01    0.3292439    0.2441086  86.33 0.0004388028    1.601    0.375
       225  -9.5989    162.7226     43.9214   5.8190257221e+01   3.9023004708e+01    0.3517883    0.2719994  54.55  0.001471413    1.240    0.194
       226 -11.4656    155.9507     41.9580   5.8862186113e+01   4.1053229335e+01    0.4941461    0.3986318 -40.27  0.001211296    1.283    0.220
       227 -11.3972    153.0881     36.1496   5.7490413043e+01   4.2584937493e+01    0.3210924    0.2830874 -51.39 0.0004212972    1.206    0.171
       228 -11.0977    157.3526     55.1355   6.2879319475e+01   3.8724230463e+01     0.583098    0.5452526 -41.34    0.0031258    1.091    0.083
       229 -10.8473    155.4988     49.9353   6.1576836559e+01   4.0003818074e+01    0.4316464    0.2996538  -3.46  0.000834631    1.894    0.472
       230  -9.3546    175.2444    246.4087   1.0196753463e+02  -6.5817949184e-03    0.1769374   0.09138861  46.64 0.0009529772    1.682    0.406
       231 -10.9174    109.7462     42.3454   6.9992951580e+01   5.2199942145e+01    0.6581237    0.3503459 -21.60  0.002690858    2.195    0.545
       232  -9.5055    198.9843    244.5208   9.7416811685e+01  -3.5309455542e+00    0.1901773   0.09458451  39.59  0.001035149    1.606    0.377
       233 -12.3983    117.9424     43.7241   6.8257704370e+01   5.0144594794e+01    0.7683521    0.5402275  65.40  0.003000255    1.685    0.406
       234  -9.3438    147.5203     60.6468   6.6827478929e+01   4.0311654749e+01    0.3803703    0.1511606  59.66  0.001243496    2.834    0.647
       235  -9.0976    132.1808     45.5883   6.5315121755e+01   4.6496841929e+01    0.2210158    0.1834925  40.92 0.0008114811    1.163    0.140
       236 -11.1437    139.6395     44.1501   6.3063381966e+01   4.4877657194e+01      0.99922    0.4860149  36.65  0.002782868    2.527    0.604
       237 -10.5942    136.3120     56.4653   6.8086738430e+01   4.3769326993e+01    0.7570019    0.5172973  15.37  0.002920076    1.982    0.495
       238 -10.7101    134.4667     50.2734   6.6406897154e+01   4.5218803506e+01    0.4905112     0.353577  84.27  0.002188235    1.926    0.481
       239 -11.5446    146.1477     47.2872   6.2688365987e+01   4.2781410290e+01    0.9060742    0.4221531 -20.66  0.003180778    2.852    0.649
       240 -10.3866    146.2989     43.3156   6.1306513709e+01   4.3327430131e+01    0.3314368    0.2281393  34.65  0.000388604    1.575    0.365
       241 -10.6435    105.0992     57.8202   7.7051752638e+01   5.0613844218e+01    0.4260983     0.313251  38.20  0.002126402    1.372    0.271
       242  -8.7054    219.6701     57.2832   5.2879006793e+01   2.2494673060e+01    0.1507528    0.1041622 -67.05 0.0003913532    1.609    0.378
       243 -10.1019    188.0225     55.7160   5.7275126409e+01   3.0708157507e+01    0.2617645     0.254189  29.55 0.0004930637    1.102    0.092
       244 -10.0743     67.0032     54.8444   8.8745522775e+01   5.8034600338e+01    0.3322538    0.1872403 -52.05  0.001020696    1.898    0.473
       245 -10.0196    234.1309     44.8215   4.7870276990e+01   2.0797896962e+01    0.3089768    0.1774964 -59.29  0.001422806    1.840    0.457
       246  -9.9035    248.7942     52.8151   4.8168086599e+01   1.6337247717e+01    0.2610588     0.202237 -59.70 0.0009423148    1.203    0.169
       247 -10.3333    244.9621     51.2703   4.8223802970e+01   1.7410832300e+01    0.3250416    0.2311985 -79.20  0.001594537    1.531    0.347
       248  -9.6519    237.4182     54.2755   4.9830757922e+01   1.8711170976e+01    0.2926699      0.21226 -69.12  0.000790881    1.445    0.308
       249 -10.8472    240.3609     50.3207   4.8513574384e+01   1.8590614753e+01    0.3908824    0.3239199 -38.56 0.0009860918    1.146    0.127
       250  -9.4923     68.5143     33.0177   7.9704374507e+01   6.1645087482e+01    0.6684446    0.4218804  55.75   0.00326474    2.367    0.578
       251  -9.9254     59.6510     24.0260   7.9191756119e+01   6.4438410086e+01     0.387226    0.1667239 -36.16 0.0004669127    2.163    0.538
       252  -9.5845     60.4898     20.0282   7.7020150832e+01   6.4879297919e+01    0.2773684    0.2235482 -67.13  0.001434914    2.267    0.559
       253 -11.6389     60.4832     36.2064   8.4123709814e+01   6.2386138637e+01    0.3772966    0.2409834 -36.69 0.0005788722    1.425    0.298
       254 -10.9504    127.8181    242.5225   1.1020226105e+02   8.1681307970e+00    0.3177381    0.1806823 -66.79  0.001780611    2.344    0.573
       255 -10.0496     63.4676     40.4747   8.4686675649e+01   6.1207213070e+01     0.226781    0.1943319  30.49 0.0005381296    1.292    0.226
       256 -10.9790     56.8347     31.0398   8.3414890326e+01   6.3778088158e+01    0.3731152    0.2683239   5.27  0.002166611    1.416    0.294
       257 -11.5615     48.8473     30.3375   8.6428991671e+01   6.5006490066e+01    0.6448189    0.2792505  29.19  0.002255904    2.579    0.612
       258  -9.9471    211.6481     53.0975   5.2881667967e+01   2.5087363518e+01    0.4058263    0.2053189  66.31  0.001682126    2.051    0.512
       259 -11.3221    201.8762     47.2118   5.2665250097e+01   2.8398313517e+01      0.84946    0.4956994 -47.18  0.003787478    1.702    0.412
       260  -9.7819    176.2813     43.3790   5.5577032967e+01   3.5565037641e+01    0.3629895    0.2570464  67.94  0.001733158    1.397    0.284
       261 -11.5698    114.3295     39.1763   6.7522400036e+01   5.1649151186e+01    0.5891766    0.2182359 -34.96  0.001100303    2.665    0.625
       262 -10.4795     90.9280     47.4903   7.7684562535e+01   5.5262701032e+01    0.2837496    0.2214063 -32.55 0.0005955053    1.232    0.188
       263  -9.0101    163.5198    243.5113   1.0372623785e+02   2.2845493851e+00    0.1225097   0.09647167  41.43 9.198143e-05    1.037    0.035
       264  -9.5748     68.0050    240.4845   1.2084982800e+02   1.7279321486e+01    0.1698474   0.09092852  44.00 0.0007244329    1.573    0.364
       265 -10.7161    147.3354    238.3265   1.0606321775e+02   5.6878578653e+00     0.222504    0.1682605  10.27  0.001318918    1.796    0.443
       266  -9.6168    167.5159    237.5179   1.0217853726e+02   2.4934274558e+00    0.1244576   0.09951428  37.70  0.000810206    1.003    0.003
       267 -10.4989    197.5019    231.9848   9.5803287868e+01  -1.6678989816e+00    0.2130074    0.1480751  21.96  0.001294964    1.325    0.245
       268  -9.6932     15.1293    233.6920   1.2940631827e+02   2.4712530704e+01    0.1870569    0.1208147 -86.32 0.0009346677    1.363    0.266
       269  -9.7453    247.5398    231.7071   8.6917891501e+01  -9.3604019642e+00    0.1391635    0.1039372 -28.41 0.0008662065    1.573    0.364
       270  -9.8906     17.6417     42.0578   1.0461222213e+02   6.6018314989e+01    0.3263737    0.1841246 -20.04  0.001836773    1.954    0.488
       271  -9.1091    209.2607     47.3702   5.1662295628e+01   2.6506454963e+01    0.2006501     0.135106  79.56  0.000879143    1.591    0.372
       272 -10.9714    174.2014     48.1545   5.7408613591e+01   3.5424915656e+01    0.6521634    0.4292229  67.84  0.002961614    1.548    0.354
       273  -9.3223    101.5033     44.5006   7.3223779015e+01   5.3632679821e+01    0.2302826    0.1934316  85.96  0.001200483    1.673    0.402
       274 -10.3699     97.8150     41.6012   7.3228988741e+01   5.4857158125e+01    0.3729304    0.2974434  79.70 0.0008275913    1.854    0.461
       275 -10.6263     92.9759     41.3612   7.4651365517e+01   5.5872123750e+01    0.4430867    0.3151815  46.52  0.001855992    1.461    0.315
       276 -11.0269    189.1076     40.3443   5.2599782203e+01   3.2639105825e+01    0.6180639    0.2234442 -27.90  0.002132241    2.955    0.662
       277 -10.5919     80.6232     39.9990   7.8217154075e+01   5.8433686233e+01    0.5501454    0.3575722  36.57  0.002836627    1.551    0.355
       278  -9.4774     23.5254    231.8651   1.2792988940e+02   2.4166237152e+01    0.1610385    0.1087969  60.20  0.001015153    1.150    0.130
       279  -9.7236     81.1751     19.4048   6.9246871183e+01   6.1306519741e+01    0.3452876    0.2013368  41.95 0.0009935468    1.617    0.382
       280  -9.5939    108.3656    230.1892   1.1247647044e+02   1.3273678312e+01    0.1579104    0.1084938 -82.96 0.0006744904    1.688    0.408
       281  -8.8116    189.9815    229.7458   9.6849953190e+01  -1.2244095083e-01    0.1652663   0.08939834  38.85 0.0008727452    1.518    0.341
       282  -9.8863    234.2181    223.0344   8.7737838435e+01  -6.3668589131e+00    0.1929219    0.1349315  11.61 0.0006460437    1.263    0.208
       283  -9.7689    231.4769     39.0458   4.6730210216e+01   2.2202213546e+01    0.2653231    0.1711683 -50.15  0.001123118    1.430    0.301
       284 -11.8029    176.6516     35.4159   5.3072750712e+01   3.6544128452e+01    0.8574696    0.5999701  64.68  0.003257973    1.362    0.266
       285  -9.3350      9.8555    217.8177   1.2951704366e+02   2.8168577526e+01    0.1548239   0.08808605  70.11 0.0006622866    1.308    0.235
       286 -10.3420    177.0755     29.8658   5.1306146755e+01   3.7136976326e+01    0.4925002    0.2383064  52.48  0.001350165    1.973    0.493
       287 -10.3328    165.4767    212.5993   9.8901025718e+01   6.7059848049e+00    0.2695679    0.1729422  52.35  0.001143232    1.555    0.357
       288  -9.7153    206.9581     37.0274   4.9150778843e+01   2.8497476698e+01    0.2205605    0.2025674 -75.15 0.0006518854    1.007    0.007
       289  -9.5945    153.0747    207.8315   1.0065058540e+02   9.7241277979e+00    0.2097368    0.1671711  58.44  0.001109893    1.267    0.211
       290  -9.7351    133.0057     36.6656   6.1928539353e+01   4.7580146725e+01    0.3784887    0.2630793 -79.62  0.001659491    2.168    0.539
       291  -9.4506     94.4467     36.0157   7.2057955052e+01   5.6400703183e+01    0.2478058    0.1964078  66.02  0.001054872    1.648    0.393
       292  -9.7053    148.4898     32.0473   5.7000634202e+01   4.4299087984e+01    0.2545389    0.1493482 -19.33 0.0004151904    1.946    0.486
       293  -9.6414     60.9927    206.9752   1.1932894510e+02   2.4518693024e+01    0.1845512    0.1428869  70.74 0.0004373244    1.024    0.023
       294 -12.1680    106.1866     32.5733   6.7200142734e+01   5.4408432470e+01    0.7343102    0.4006363  15.17  0.002706102    3.087    0.676
       295 -12.4663    114.1758     25.1074   6.2106749986e+01   5.3574828014e+01    0.7578186    0.3198146  53.87  0.001043582    2.179    0.541
       296 -11.1381    240.2255     32.6074   4.4234126603e+01   2.0987173952e+01    0.4396771    0.2991282  71.96  0.002394954    1.490    0.329
       297  -9.6353    238.6425    204.6559   8.3697306593e+01  -4.7274142642e+00    0.2531101    0.1468099 -36.16  0.001380343    1.873    0.466
       298 -10.3657    144.4397     25.4410   5.5506326305e+01   4.6142474429e+01    0.5713958    0.3111884  69.97  0.002426128    1.967    0.492
       299 -10.3188     16.8675    204.0398   1.2752840893e+02   3.0162904486e+01    0.2480097   0.09501448 -71.63   0.00134187    2.266    0.559
       300 -10.4401      4.5108    204.5578   1.2978503803e+02   3.1228329642e+01    0.2171024    0.1126104 -74.03  0.001334647    1.712    0.416
       301 -10.7474    245.5998    200.7429   8.1760371474e+01  -5.3235881525e+00    0.2171417    0.1716869   9.46 0.0007218167    1.032    0.031
       302  -8.5816    207.2965    201.3182   8.8810221903e+01   1.0354062812e+00     0.134558   0.09297158   8.69 0.0003957278    1.611    0.379
       303 -10.3842    234.3513    196.8872   8.3003747347e+01  -2.9784387198e+00    0.4229669    0.2623663  20.60  0.001575621    1.596    0.374
       304  -9.0463    216.6172     32.2251   4.6676456245e+01   2.6697785535e+01    0.1799546    0.1343392 -18.05  0.000411503    1.569    0.362
       305  -8.6006     83.7234    196.0024   1.1352419952e+02   2.3602571370e+01    0.1496266    0.1058654 -73.26 0.0004494959    1.405    0.288
       306 -10.5043    189.2611     28.1055   4.9005743551e+01   3.4173824691e+01    0.4588858     0.309823  -0.72  0.001942381    2.059    0.514
       307  -9.1169     35.8513     31.5682   9.2638641509e+01   6.6361818346e+01    0.1529228    0.1118715  37.53 0.0008539023    1.743    0.426
       308  -9.5333    221.7901     29.6117   4.5414326296e+01   2.5753473868e+01    0.2239035    0.1830217 -22.30   0.00060805    1.379    0.275
       309 -10.4422     98.4871     27.8468   6.7496183898e+01   5.6712130605e+01    0.4640203    0.2622718 -43.66  0.001061601    2.107    0.525
       310 -10.3246    230.7328     27.2149   4.3870865692e+01   2.3891567712e+01    0.3875324    0.2005669 -38.69  0.001232087    1.748    0.428
       311  -9.2958     41.1687     28.1811   8.8849676058e+01   6.6336719862e+01    0.3345884    0.1217956 -32.05  0.001339779    2.996    0.666
       312  -9.1066     66.2474     28.1436   7.8461210611e+01   6.2769949914e+01    0.3418565    0.1508079  27.12  0.001352656    3.052    0.672
       313  -9.9438    250.4753     26.7234   4.1896893929e+01   1.9396424852e+01    0.2457516    0.1394763 -34.02 0.0005704049    1.640    0.390
       314 -12.1576      4.7672    184.3549   1.2863581180e+02   3.5293902455e+01    0.5776762    0.3811546  71.20  0.002954812    1.189    0.159
       315  -9.7432    161.5206     23.4759   5.1773781374e+01   4.1963927911e+01    0.2369718     0.216441 -48.30 -2.506036e-06    1.153    0.133
       316  -8.9740     55.4989     24.5224   8.1094688360e+01   6.4995435472e+01    0.1266888    0.1076261 -10.64 -0.0001268773    1.073    0.068
       317  -9.8184    239.8904    184.6369   7.9649043105e+01  -2.1911940673e+00     0.294455    0.1894389   6.09  0.000980848    1.728    0.421
       318  -9.8502    250.1437    179.2368   7.6802609912e+01  -3.1523523791e+00    0.3342869    0.1685313 -25.48   0.00161581    1.936    0.483
       319 -10.6434     38.8230     21.8857   8.7141885255e+01   6.7646414482e+01    0.2715934    0.1877032 -22.05 0.0007663504    1.217    0.178
       320  -9.5749    213.6802    180.6571   8.3646893316e+01   3.0771101396e+00    0.1451586   0.09899444   6.54 0.0007049741    1.722    0.419
       321  -9.6362     28.1215    176.2672   1.2333262397e+02   3.4843909114e+01    0.2255831    0.1722723 -78.41  0.001486442    1.196    0.164
       322 -10.0764     51.9978    173.4707   1.1785675210e+02   3.2800690399e+01    0.3679422    0.1737614 -84.02  0.001686069    2.290    0.563
       323  -9.3310    223.2073     22.3724   4.3424232023e+01   2.6289078476e+01    0.2292956    0.1804895 -63.42 0.0007008474    1.162    0.139
       324  -8.8858    220.9762     19.0447   4.2808245316e+01   2.7222453107e+01    0.1846162    0.1555402 -64.44            0    1.069    0.064
       325  -8.8901    224.6701    175.6691   8.0579280094e+01   1.8317489985e+00      0.14477   0.09731729   7.03   0.00070518    1.717    0.418
       326  -9.5773     74.1569     19.5350   7.1696682834e+01   6.2605532060e+01    0.2580296    0.1840618  29.10  0.000797887    1.307    0.235
       327 -11.9708    120.4276     57.5636   7.2568917544e+01   4.7320456158e+01     1.814076      1.27469 -79.62  0.007535826    2.437    0.590
       328  -9.0448    230.4588    175.4952   7.9487526684e+01   8.0571523578e-01    0.1360289    0.1175752   3.62 7.850706e-05    1.005    0.005
       329  -9.8300    169.6938    191.5852   9.4517878482e+01   9.5447897225e+00    0.3498145    0.1903163  34.12  0.001051727    1.823    0.451
       330 -10.0573    247.5876    173.8548   7.6144848501e+01  -1.9589918088e+00    0.4357932    0.1625971  31.05  0.001573912    3.591    0.722
       331  -9.9006     39.2278    173.4115   1.2068050759e+02   3.4297068731e+01    0.2525877    0.1908463  54.93  0.001407693    1.276    0.216
       332 -10.4529     35.5467    170.2759   1.2118735000e+02   3.5394441569e+01    0.3222483    0.1687336  88.76  0.001680623    1.839    0.456
       333 -10.3027     14.0451     46.0211   1.0737258267e+02   6.5467292447e+01    0.4110634    0.1377336 -37.74  0.001799838    2.828    0.646
       334  -9.5793    211.5497     18.8600   4.3734397639e+01   2.9572627257e+01    0.2114704    0.1741734  68.48 0.0003862934    1.197    0.165
       335 -12.2055     22.5058    149.7401   1.2216465043e+02   4.1326864470e+01    0.6393563    0.3471756 -48.23  0.002116154    2.209    0.547
       336  -9.0563    194.5302     19.0176   4.5719274800e+01   3.3873942599e+01    0.1941467    0.1747477 -66.07 0.0004706662    1.075    0.070
       337 -10.9799     10.8757    127.0200   1.2271556576e+02   4.7500772648e+01    0.6903108    0.3140918 -73.51  0.002730995    1.704    0.413
       338 -10.7249     15.1756    147.7536   1.2370409219e+02   4.2411252396e+01    0.3479016    0.2421116  54.82  0.001799401    1.447    0.309
       339 -11.8261      9.4985    166.8945   1.2653727986e+02   3.8615264218e+01    0.5248354    0.3429772 -85.23  0.002372962    1.185    0.156
       340  -8.8167    115.3235     17.3325   5.8739806690e+01   5.4203697850e+01    0.1507863   0.09442993  27.99 0.0007050423    1.705    0.413
       341 -10.5942    186.3235     15.1295   4.5620415222e+01   3.6418417374e+01    0.2531407    0.2127212  79.81 0.0003177137    1.091    0.084
       342  -8.8613    174.2032     15.8325   4.7429238166e+01   3.9495476187e+01    0.1913721    0.1494539  49.00 0.0005783339    1.283    0.220
       343 -11.2038     14.0261    158.9828   1.2494518268e+02   3.9978185732e+01    0.4151027    0.2241455 -78.28  0.001576258    1.473    0.321
       344  -9.6040    205.2530     17.4058   4.4031756915e+01   3.1319205581e+01    0.1937335    0.1230075  86.56 0.0006298554    1.575    0.365
       345 -11.0014     14.1287    141.5206   1.2336627232e+02   4.3918526253e+01    0.3621794    0.2742668  75.93  0.001585785    1.195    0.163
       346  -8.8491     94.4728     12.4683   6.2094644534e+01   5.9400463260e+01    0.1345317    0.1165648  23.08 0.0001382302    1.005    0.005
       347 -10.9045     11.0006    137.5498   1.2374610366e+02   4.5069826937e+01    0.5029584    0.3025461 -55.37  0.002907141    1.649    0.394
       348  -8.9972    197.8514    167.8717   8.4122100429e+01   8.2686634812e+00    0.1842549    0.1741151 -71.07 0.0008239821    1.300    0.231
       349  -9.8548    188.8109    164.2551   8.5201840178e+01   1.0740587375e+01    0.2836783    0.1979443 -23.84 0.0008472161    1.612    0.380
       350  -8.5361    156.4809    166.4892   9.2622639471e+01   1.6895986764e+01    0.1466391    0.1382297  49.03 4.870582e-05    1.026    0.025
       351 -10.0339     18.6438    165.1167   1.2443599536e+02   3.8209088474e+01    0.2362809    0.2239762   1.98  0.001778851    1.554    0.356
       352  -9.5610     40.1084    162.4229   1.1935973827e+02   3.6672977379e+01     0.439574    0.1468116 -78.04   0.00166656    3.283    0.695
       353 -10.4615     27.7832    161.9562   1.2212747260e+02   3.8054711434e+01    0.3635028    0.1998006 -79.22  0.002046314    1.520    0.342
       354  -9.8458    204.9856    163.0019   8.1672761036e+01   7.6931665646e+00    0.2204827     0.198731  13.42 0.0005803459    1.027    0.026
       355 -10.1773    246.5243    158.7357   7.3161278613e+01   4.5650442703e-01    0.3596791     0.123095 -32.15  0.001355304    2.800    0.643
       356  -9.6169     79.3011    160.4200   1.0977713008e+02   3.2098975333e+01    0.2463725    0.1550182 -88.60  0.001182113    1.811    0.448
       357  -9.6389    215.3123    158.2245   7.8643249186e+01   6.4522586038e+00    0.2826354    0.2049437  -6.43 0.0008965933    1.552    0.356
       358  -9.1674    223.9899    156.9556   7.6745462048e+01   4.9569527654e+00     0.173801    0.1554132  -2.82 0.0006496332    1.009    0.009
       359 -10.0787      8.9030    156.2628   1.2586288499e+02   4.1005847750e+01    0.2736064    0.1269963 -71.34  0.001520442    1.711    0.415
       360 -10.6478    104.5990    154.1813   1.0251442837e+02   2.9463350810e+01    0.3824582     0.327978 -71.00  0.002101411    1.135    0.119
       361 -10.8171     31.5104    153.1982   1.2038550723e+02   3.9682555020e+01    0.4205137    0.2666223  89.81  0.002452791    1.388    0.280
       362  -9.3982     74.8691    153.4971   1.0981382643e+02   3.4357665785e+01     0.282681    0.2131813  79.32 0.0008895538    1.325    0.246
       363  -9.7943     70.8072    151.3267   1.1049806415e+02   3.5443459804e+01     0.269848    0.1793032  45.04  0.001020109    1.525    0.344
       364 -11.8483      3.7396    147.3528   1.2632149950e+02   4.3386574389e+01     0.667073    0.3817295 -78.01  0.003575257    1.342    0.255
       365 -11.2981      3.9621    142.3244   1.2586134482e+02   4.4499360942e+01    0.3631155    0.2746437  18.60  0.002526045    1.836    0.455
       366 -12.8622      3.8488    137.0903   1.2544199474e+02   4.5689643145e+01    0.2941651    0.2011793 -74.70 0.0005111327    1.159    0.137
       367  -9.5509     42.1233    148.6235   1.1729008894e+02   3.9641009357e+01    0.2945193    0.1407589  24.23 0.0009682229    2.875    0.652
       368  -9.7733     47.7183    151.6625   1.1629161866e+02   3.8303939831e+01     0.292013    0.2347163  -1.52  0.001657316    1.889    0.471
       369 -10.4223     47.5084    148.0046   1.1587379505e+02   3.9185181114e+01    0.3589947    0.2535536 -52.88  0.001202012    1.496    0.332
       370 -10.2742     46.4765    144.5160   1.1567383382e+02   4.0123761347e+01    0.2971577     0.247785 -43.94  0.001184032    1.442    0.307
       371 -11.1320     63.1901    150.4069   1.1227531910e+02   3.6692562553e+01    0.4193144     0.357428   3.93  0.001883033    1.646    0.392
