#   1 NUMBER                 Running object number                                     
#   2 MAG_AUTO               Kron-like elliptical aperture magnitude                    [mag]
#   3 X_IMAGE                Object position along x                                    [pixel]
#   4 Y_IMAGE                Object position along y                                    [pixel]
#   5 X_WORLD                Barycenter position along world x axis                     [deg]
#   6 Y_WORLD                Barycenter position along world y axis                     [deg]
#   7 A_WORLD                Profile RMS along major axis (world units)                 [deg]
#   8 B_WORLD                Profile RMS along minor axis (world units)                 [deg]
#   9 THETA_WORLD            Position angle (CCW/world-x)                               [deg]
#  10 FWHM_WORLD             FWHM assuming a gaussian core                              [deg]
#  11 ELONGATION             A_IMAGE/B_IMAGE                                           
#  12 ELLIPTICITY            1 - B_IMAGE/A_IMAGE                                       
         1 -13.3152    169.9591     60.3787   7.8398924485e+01   3.4485803654e+01      2.99941     1.791858 -69.88    0.0120301    2.602    0.616
         2 -12.3641     80.8357     48.4534   9.6864654747e+01   5.5596321810e+01     1.397338    0.7688581  15.28  0.005981696    2.697    0.629
         3 -10.9499    207.5757     19.6278   6.2605750004e+01   3.0728329401e+01    0.9866629    0.3789797 -64.40  0.003163314    4.945    0.798
         4 -12.2007    171.3874     23.1987   6.8168724684e+01   3.8965527688e+01    0.7623608    0.5283813  79.33  0.004174855    1.385    0.278
         5 -10.4287    128.6305     15.7656   7.3395018636e+01   4.9801603305e+01    0.2810035    0.2607995 -26.54 0.0005317327    1.254    0.203
         6 -11.5701    129.8857     10.9851   7.1661509396e+01   4.9955910539e+01    0.2924237    0.2362293 -19.30 0.0006727828    1.440    0.306
         7  -8.9221    141.9333     13.0175   7.0085838840e+01   4.6999928136e+01    0.2103591    0.1846316 -34.18 0.0004670471    1.330    0.248
         8 -11.3071    159.3838     10.5927   6.6587663851e+01   4.3114057711e+01     0.509486    0.4279146  62.54  0.003250394    1.043    0.042
         9 -11.1708    160.9503      3.4363   6.4438964989e+01   4.3382310781e+01    0.9624014    0.3483509  71.06  0.003969085    2.543    0.607
        10 -10.5105    173.3197      2.6758   6.2617510869e+01   4.0525009754e+01    0.5627445     0.211051  62.56  0.002545996    2.084    0.520
        11  -9.7457    186.2471      9.9641   6.2827665299e+01   3.6779864511e+01    0.3924565     0.163011  89.46  0.001359384    3.976    0.749
        12  -9.2080    143.5037      2.4921   6.6758887899e+01   4.7546434914e+01    0.2519918    0.1970927  16.70   0.00157298    1.524    0.344
        13  -9.3897    184.5565      1.9519   6.1101895889e+01   3.7938990643e+01    0.4156592    0.1595056  81.43  0.001633371    3.003    0.667
        14  -9.7426    167.7465    224.6841   1.1629164416e+02   3.1439348124e+00    0.3211028    0.1926936   1.92  0.001150624    3.996    0.750
        15 -11.7163    157.0679    248.7157   1.2213183180e+02   9.1318484539e-01     1.050021     0.487546  43.20  0.005031553    1.796    0.443
        16 -11.4311    162.4143    241.7205   1.2005216367e+02   1.1520217777e+00    0.7529593    0.2816548  33.51  0.002863762    2.932    0.659
        17 -11.0208    249.6748    189.5000   9.3743485111e+01  -5.3874085411e+00    0.9444354    0.3019622 -41.06   0.00361284    3.042    0.671
        18 -10.1407    101.0010    175.9812   1.2294912418e+02   2.5385349965e+01    0.2007168    0.1866821  80.61  0.001151995    1.003    0.003
        19  -8.8059    185.2407    165.7432   1.0133197374e+02   1.1034287669e+01    0.2379449    0.1203812 -32.19 0.0006876236    2.410    0.585
        20  -8.9006    194.0000    163.9727   9.9100818935e+01   9.5640108008e+00    0.2498861   0.08406618 -42.42 0.0008088872    2.987    0.665
        21  -9.9722    193.7994    170.2857   1.0049516537e+02   8.3694370410e+00    0.2614887    0.2208537 -36.76  0.001378719    1.193    0.162
        22  -8.6728    199.0000    162.9896   9.7855724750e+01   8.7221389880e+00    0.2419525   0.08321354 -41.92  0.000693564    2.902    0.655
        23  -8.1365    235.9122    145.8472   8.7126606878e+01   4.4784011019e+00    0.2131702    0.1794089  -6.03 0.0006448945    1.286    0.222
        24  -9.2364     67.6960    144.3172   1.2580308432e+02   3.7973279816e+01    0.5005335    0.2484851  60.32  0.001886198    3.206    0.688
        25  -7.8212    234.2133    132.5406   8.4517766854e+01   7.1928472352e+00     0.178951    0.1342683  34.05 0.0003175551    1.513    0.339
        26  -7.9063    249.3581    128.2450   8.1128339674e+01   4.9630784803e+00    0.1973774    0.1138388 -45.84 0.0004411406    1.611    0.379
        27  -7.8991    250.3003    116.6979   7.8516139505e+01   6.7581865446e+00     0.135912   0.09969919 -67.06 0.0002783938    1.586    0.369
        28  -8.7696    203.3192    111.6695   8.5216032883e+01   1.7691332813e+01    0.2686206    0.2544325  -3.53 0.0006318925    1.157    0.136
        29  -9.8850    245.0877    107.5826   7.7325234195e+01   9.3508888702e+00    0.2851371    0.1785621 -24.22  0.001295524    1.968    0.492
        30  -9.8452    244.0161     99.0276   7.5622825149e+01   1.1014544313e+01    0.2885908    0.1588361 -59.14  0.001263324    2.147    0.534
        31  -9.3487    238.9988     96.7541   7.5851674831e+01   1.2446021983e+01    0.1867225    0.1737317  88.17  0.001123282    1.101    0.092
        32  -8.5659    132.1754     90.8297   9.5360746675e+01   3.8157461322e+01    0.2073353    0.1770459  -1.09 0.0004878165    1.322    0.244
        33 -12.8178    154.2585     79.4467   8.6885538358e+01   3.5172603199e+01     3.342605    0.6054754  49.70  0.008400404    4.921    0.797
        34 -11.1351    133.0661     80.4425   9.2178613219e+01   3.9886292949e+01    0.6774226    0.3321715 -37.73  0.002716499    2.118    0.528
        35 -11.3836    138.7541     40.3544   7.8894465775e+01   4.4746167361e+01    0.8768669    0.5559207  64.52  0.002694242    1.590    0.371
        36  -9.8657    184.5864     77.7391   8.0260494724e+01   2.8164032352e+01    0.3110165    0.2660669  52.93 0.0006988872    1.158    0.136
        37  -9.1202    190.1147    246.2704   1.1529809755e+02  -4.2924537043e+00    0.3568972    0.2185309  66.37  0.001507697    3.540    0.718
        38 -11.5198    102.2916     68.8578   9.6998921821e+01   4.8376288667e+01     0.741437    0.3846292 -29.65  0.001945893    2.172    0.540
        39 -11.1431     98.0066     64.9869   9.7038643877e+01   4.9857498958e+01    0.4572346    0.2728699 -36.19  0.002205673    1.688    0.407
        40 -11.1124     93.2738     66.4387   9.8908784721e+01   5.0492863828e+01    0.4233103    0.2599067  44.37  0.002076371    1.655    0.396
        41 -11.3010    135.2114     67.6283   8.7899299984e+01   4.1599834812e+01    0.5980716    0.3785465  21.62  0.002271713    2.230    0.551
        42 -10.6231    135.7576     61.1064   8.5826411621e+01   4.2512688629e+01     0.425289      0.32276 -43.79  0.001565519    1.431    0.301
        43 -11.1204    123.2029     67.4650   9.0844791115e+01   4.4300132210e+01    0.5621433    0.3755079  51.33 0.0007058329    1.473    0.321
        44 -12.7312     63.8054     61.3090   1.0678746094e+02   5.6188368591e+01     1.299387     0.904066  45.59  0.006902108    1.768    0.434
        45  -9.9962     57.2624     52.0084   1.0604509637e+02   5.8673260434e+01    0.3097079     0.219196 -22.73   0.00111839    1.289    0.224
        46  -8.8059     38.0345     63.3511   1.1655632391e+02   5.8983778648e+01    0.1687761    0.1424571 -15.22 0.0005628068    1.082    0.076
        47 -10.6348    110.3382     69.0272   9.4769824239e+01   4.6747558372e+01    0.4929349    0.2683535 -27.45  0.002101024    2.140    0.533
        48  -7.5410    198.1204    245.1739   1.1357532460e+02  -5.4549505521e+00    0.1563174    0.1322606  42.69            0    1.251    0.200
        49 -10.7191    128.0703     47.8494   8.3590837768e+01   4.6200458544e+01    0.3963332    0.2914777  25.89  0.000975582    1.466    0.318
        50  -9.4623    122.9736     83.0164   9.5523919705e+01   4.1623295518e+01    0.2268602    0.2114056  16.55 0.0004110652    1.055    0.052
        51 -10.3152     14.5825     43.2924   1.1958130051e+02   6.4616984159e+01    0.4473624    0.1992979 -29.06  0.002378633    2.151    0.535
        52 -11.0968    181.1486     42.8897   7.1809581141e+01   3.4224926316e+01    0.5197119    0.3453344  15.29  0.002345118    2.523    0.604
        53 -11.4130    180.5887     33.8693   6.9565868382e+01   3.5505382035e+01    0.5471578    0.3298793 -57.44  0.002662644    1.901    0.474
        54 -11.6268     95.3427     51.9291   9.3590667106e+01   5.2446639749e+01    0.5046675    0.4262823 -12.79   0.00129232    1.157    0.136
        55  -7.8782    206.9725     82.6647   7.7576008990e+01   2.1992849918e+01    0.1968689    0.1785906  78.34 0.0004068869    1.072    0.067
        56 -12.5188    112.3329    245.9668   1.3054973243e+02   8.8867782865e+00     0.997897    0.7632095  55.36   0.00359765    1.091    0.083
        57 -11.0915    216.3200     29.6673   6.3866899863e+01   2.7511825435e+01    0.6885352     0.340131 -72.43  0.002905774    2.725    0.633
        58  -9.8136     92.1151     36.9304   8.9416911040e+01   5.5161629082e+01    0.3741122    0.2046385  50.44  0.001045578    1.840    0.457
        59  -9.9263    189.9796     37.2310   6.9033625228e+01   3.2812957015e+01    0.2894207    0.2019995 -36.42   0.00115479    1.555    0.357
        60 -10.1825    108.7653     36.2420   8.4608855469e+01   5.1918275215e+01    0.6593148    0.1639245  47.56  0.002247491    3.361    0.702
        61  -9.3530     19.3117     35.9983   1.1528437770e+02   6.5442664205e+01    0.2126544    0.1265533 -13.89  0.001051551    1.613    0.380
        62 -10.4438     97.6450     38.5772   8.8404800708e+01   5.3877952895e+01    0.4879465    0.2057386  41.51  0.002111915    2.179    0.541
        63  -8.5219    139.8630     28.9392   7.5219541394e+01   4.5853806611e+01    0.2016478    0.1738312  53.01 0.0004403771    1.015    0.015
        64 -11.2645    113.8194    238.4838   1.2933753806e+02   1.0026912147e+01    0.4449001    0.3762843 -79.31   0.00185276    1.276    0.216
        65  -8.9657     80.3153     22.0186   8.7520273332e+01   5.9137798960e+01    0.2041762    0.1621401  41.43 0.0004818303    1.244    0.196
        66  -9.2257    157.2331     21.3874   6.9895699190e+01   4.2560315392e+01    0.1958762    0.1154997  74.48 0.0009545575    1.702    0.412
        67  -8.5101    180.6683    242.8904   1.1661296939e+02  -2.1782733322e+00    0.2044194    0.1496687  30.04 0.0002971495    1.202    0.168
        68 -11.1984    115.8883    220.5587   1.2652560727e+02   1.3162997942e+01    0.6064321    0.4576299  45.81  0.003450791    1.195    0.163
        69  -9.9876     74.8139     17.3662   8.7439660435e+01   6.0618527177e+01    0.2041641    0.1779661   7.59 0.0003009772    1.139    0.122
        70  -8.2533     84.8721     21.3342   8.5912772384e+01   5.8376658386e+01    0.1795724    0.1576463 -11.54 0.0004001796    1.228    0.186
        71  -8.6924     35.1693     16.9256   1.0151214901e+02   6.6549855492e+01    0.2247184     0.119676   8.31  0.001228211    2.145    0.534
        72  -9.2063    189.7997     15.3852   6.3701819179e+01   3.5383698796e+01     0.246969    0.2000291 -89.37 0.0007001291    1.107    0.097
        73 -11.5626     79.1891    249.5854   1.3723889209e+02   1.3331972339e+01     1.850891    0.2598079  40.25  0.005627412    5.540    0.819
        74  -9.6394     11.1528    206.7144   1.4619898218e+02   3.0308776645e+01    0.2485644    0.2005175  53.20  0.001427127    1.343    0.256
        75 -10.7251    188.8094    232.8361   1.1337806337e+02  -1.9728694216e+00    0.4146401    0.3511541  20.32  0.001450479    1.077    0.071
        76  -9.8346     87.4500    229.5559   1.3352899097e+02   1.5964439723e+01    0.2677234    0.1708751  84.93  0.001437397    1.756    0.431
        77  -8.7058    159.3260    228.3164   1.1861364446e+02   4.0120784644e+00    0.1346853    0.1022561   8.62   0.00070445    1.672    0.402
        78  -7.5444      9.6804    216.2786   1.4715055849e+02   2.8485810174e+01    0.1156918   0.06319796  68.37 0.0003023934    1.579    0.367
