#   1 NUMBER                 Running object number                                     
#   2 MAG_AUTO               Kron-like elliptical aperture magnitude                    [mag]
#   3 X_IMAGE                Object position along x                                    [pixel]
#   4 Y_IMAGE                Object position along y                                    [pixel]
#   5 X_WORLD                Barycenter position along world x axis                     [deg]
#   6 Y_WORLD                Barycenter position along world y axis                     [deg]
#   7 A_WORLD                Profile RMS along major axis (world units)                 [deg]
#   8 B_WORLD                Profile RMS along minor axis (world units)                 [deg]
#   9 THETA_WORLD            Position angle (CCW/world-x)                               [deg]
#  10 FWHM_WORLD             FWHM assuming a gaussian core                              [deg]
#  11 ELONGATION             A_IMAGE/B_IMAGE                                           
#  12 ELLIPTICITY            1 - B_IMAGE/A_IMAGE                                       
         1 -17.0333    196.8548     94.8143   2.6373968487e+02  -5.8616595192e+01     1.127029    0.4340529  41.73   0.03223051    2.665    0.625
         2 -18.6205    243.2153    132.0683   2.6743788421e+02  -5.9601493598e+01    0.9329587    0.4825935  31.53    0.0316115    1.858    0.462
         3 -16.2215    245.4603     88.3230   2.6464469040e+02  -6.0312400675e+01    0.3320008    0.1835874  12.23   0.01109007    2.045    0.511
         4  -9.9789    144.6610      4.6607   2.5674630817e+02  -5.7903805767e+01   0.02038751   0.01258549  53.95 0.0007050504    1.763    0.433
         5 -13.0549    247.0933    242.0680   2.7423900180e+02  -5.7870035912e+01    0.2102211     0.128913  38.26  0.007265189    1.614    0.380
         6 -12.3136    234.8812    228.4390   2.7303892564e+02  -5.7741001065e+01    0.1839895    0.1292437  48.21  0.005237516    1.501    0.334
         7 -14.2260    204.7325    237.2725   2.7255146990e+02  -5.6651253972e+01     0.374932    0.1960915 -50.82  0.001273664    1.867    0.464
         8 -10.9303    170.6312    235.2094   2.7136812165e+02  -5.5622030495e+01   0.05152059   0.02967122 -50.60  0.001166264    1.702    0.412
         9  -9.7202    144.5608    232.0158   2.7041562018e+02  -5.4853993984e+01   0.03481127    0.0239605 -41.97 0.0007664241    1.509    0.337
        10 -10.9561    177.7771    230.8682   2.7134466582e+02  -5.5919837432e+01   0.05075955   0.03097725 -61.89 0.0009021263    1.640    0.390
        11 -13.2590    235.5697    241.9141   2.7383484411e+02  -5.7520267554e+01    0.2118324    0.1413061  70.66  0.007290584    2.069    0.517
        12 -10.6616    166.1232    249.3728   2.7200983805e+02  -5.5239383749e+01   0.04865795   0.01920438 -50.27  0.001430727    2.450    0.592
        13 -10.4804    173.7528    223.9444   2.7083400868e+02  -5.5909717086e+01   0.06895782   0.04033404 -20.69   0.00214583    2.608    0.617
        14 -10.8697    148.7424    223.4021   2.7006218712e+02  -5.5127633994e+01   0.04517673   0.02893225 -40.33  0.001648743    1.671    0.401
        15 -10.4108    244.9828    221.5114   2.7297720020e+02  -5.8176249788e+01   0.05362055    0.0352996  80.90  0.001565402    2.202    0.546
        16  -9.0414    247.3990    209.4822   2.7235015863e+02  -5.8463381911e+01   0.02629677   0.01763482 -58.20 0.0001177472    1.473    0.321
        17 -10.1642    245.8291    212.9163   2.7250057809e+02  -5.8354395588e+01   0.03743061   0.03136031  51.48 0.0005017532    1.242    0.195
        18 -11.1676    249.0001    215.8270   2.7277971723e+02  -5.8401300432e+01   0.05864908   0.04259067  47.71  0.001380931    1.437    0.304
        19  -9.7222    251.0000    212.0504   2.7262434339e+02  -5.8529951885e+01    0.0308821     0.016707  24.92  0.001025449    1.969    0.492
        20 -10.3412    161.4442    220.4655   2.7027081199e+02  -5.5578385506e+01    0.0429717   0.02920556 -45.79  0.001636574    1.488    0.328
        21 -11.1564    162.8154    212.3154   2.6985305013e+02  -5.5755193416e+01   0.06213331   0.03973085 -25.54  0.001184463    1.993    0.498
        22 -10.0010    168.0231    219.0296   2.7038556497e+02  -5.5810347496e+01   0.02805171   0.02676296 -20.20 0.0005178782    1.066    0.062
        23 -10.5784    170.4474    215.9043   2.7028168188e+02  -5.5938638752e+01   0.05473955    0.0367616 -24.56  0.001979016    1.849    0.459
        24 -10.1186    226.2220    216.6988   2.7207101811e+02  -5.7678571835e+01   0.04965112   0.03082504 -29.46  0.001030578    2.058    0.514
        25  -9.6586    222.1965    215.7911   2.7188691178e+02  -5.7568692889e+01   0.02967101   0.02324942 -49.78 0.0003380155    1.267    0.211
        26 -10.2098    180.8918    217.5795   2.7069120592e+02  -5.6241189177e+01   0.03432677   0.02713446  12.67 0.0007341477    1.359    0.264
        27 -11.1939    186.0781    214.8555   2.7069436699e+02  -5.6450341598e+01   0.08722937   0.04461547 -43.19  0.002589946    2.115    0.527
        28 -10.3605    179.2082    210.9790   2.7026469164e+02  -5.6297333130e+01   0.04462057   0.04008159 -53.53  0.001164118    1.103    0.093
        29  -9.3739    231.0231    215.9515   2.7218519605e+02  -5.7841130453e+01   0.02904527   0.02100684 -25.61  0.000426145    1.644    0.392
        30  -8.9598    240.1278    214.8465   2.7242284855e+02  -5.8143544838e+01   0.02350634   0.02073755  75.43 0.0003042023    1.233    0.189
        31  -9.6953    154.8457    214.7338   2.6975627918e+02  -5.5462502437e+01   0.03497011   0.02307278 -13.78 0.0009988224    2.018    0.504
        32  -9.4051    147.0279    212.0256   2.6937913028e+02  -5.5257119734e+01   0.03080647   0.02126329 -27.60  0.001135641    1.705    0.413
        33 -10.5685    240.7950    210.0519   2.7216257035e+02  -5.8248080892e+01   0.06075322   0.02800519  25.98  0.001164891    2.301    0.565
        34 -10.4373    229.7463    210.0088   2.7179513117e+02  -5.7904280628e+01   0.04510672   0.03525387 -76.12 0.0003502746    1.388    0.280
        35 -11.0623    231.8570    201.2438   2.7134646573e+02  -5.8120627958e+01   0.03986907   0.03157161 -69.19  0.001481713    1.307    0.235
        36 -11.7498    231.0353    205.5634   2.7157542442e+02  -5.8021025671e+01   0.05913941   0.03294088 -66.88  0.001623543    1.930    0.482
        37 -10.4579    228.1390    202.1798   2.7128124089e+02  -5.7988044493e+01   0.03261812   0.03076903   1.92 0.0002383976    1.089    0.082
        38 -12.0978    215.6615    208.8403   2.7127153029e+02  -5.7483114832e+01    0.0358732   0.03284517 -30.77 0.0003742427    1.122    0.109
        39  -9.1117    207.8078    208.0824   2.7097843925e+02  -5.7248993216e+01   0.02843964   0.02411448 -18.39 0.0008150769    1.290    0.225
        40  -9.2436    157.1024    247.8717   2.7165384548e+02  -5.4983170053e+01   0.02895385   0.02426154 -28.40 0.0007521375    1.275    0.216
        41 -10.5085    158.4173    181.0046   2.6793620138e+02  -5.6110393916e+01   0.05684905   0.03039251 -31.57  0.001751652    2.490    0.598
        42 -12.2956    152.1965    174.2505   2.6737172107e+02  -5.6012415774e+01    0.1068701   0.04248154  27.17 0.0002067556    2.437    0.590
        43 -11.8925    146.1124    164.7446   2.6665350595e+02  -5.5957142632e+01   0.06065338   0.03773259  14.50 0.0007322426    1.758    0.431
        44 -12.1147    158.2030    170.8788   2.6734136255e+02  -5.6258166956e+01      0.10595   0.05040567  14.90  0.003172798    2.561    0.610
        45 -12.3252    140.2974    169.1664   2.6675390733e+02  -5.5702224220e+01   0.07777771    0.0504883   2.80  0.002779912    1.858    0.462
        46  -9.2863    101.1063    176.0848   2.6612558489e+02  -5.4323219841e+01    0.0256621   0.02362112  62.71  0.001127879    1.132    0.117
        47 -11.7774    159.9117    163.8383   2.6697588633e+02  -5.6419669447e+01   0.07922851   0.04445076  11.45  0.002617854    2.120    0.528
        48 -15.1907    217.9809    137.8993   2.6705229318e+02  -5.8695867854e+01    0.1352148   0.09777027  32.79  0.005360607    1.362    0.266
        49 -11.5346    146.7287    174.1887   2.6721823448e+02  -5.5836062499e+01   0.05350867   0.03581579  41.94 0.0007320509    1.515    0.340
        50 -10.7052    124.0558    161.6952   2.6589565466e+02  -5.5281533396e+01   0.03082944    0.0253335  -1.37 0.0005602338    1.309    0.236
        51 -11.6812    153.8901    157.1482   2.6641805605e+02  -5.6322875939e+01   0.05667688   0.03067589 -35.96  0.001189547    2.206    0.547
        52 -16.7075    215.8856    124.1348   2.6612572189e+02  -5.8831912909e+01    0.2696144    0.2355569 -47.86   0.01172096    1.141    0.123
        53 -10.6254    160.0019    240.4747   2.7133695643e+02  -5.5199407268e+01   0.04163411   0.03394787 -36.40 0.0006260129    1.278    0.217
        54 -10.6852    161.2247    201.2470   2.6917898380e+02  -5.5882896532e+01   0.04113797   0.02507583  24.94  0.001376288    1.664    0.399
        55 -14.9676    224.4685     87.0231   2.6397397974e+02  -5.9637209626e+01    0.5596755     0.156541 -71.85  0.005859384    4.528    0.779
        56 -15.3288    238.4568    106.9990   2.6567548309e+02  -5.9818455810e+01    0.1515992   0.06067772 -73.52  0.004119155    3.074    0.675
        57 -10.9154    137.9690    152.7658   2.6573859332e+02  -5.5865904221e+01   0.03356687   0.02368079  -0.06   0.00125904    1.635    0.388
        58 -10.7551    132.8873    147.1131   2.6527645892e+02  -5.5779759965e+01   0.03808369   0.02469136  16.73 0.0009676857    1.614    0.381
        59 -10.9591    150.4787    200.3681   2.6882112087e+02  -5.5552928159e+01   0.03655547   0.03070869 -13.35  0.001064548    1.300    0.231
        60 -11.4145    131.7532    140.0825   2.6483504926e+02  -5.5841257660e+01   0.04337496   0.02993803   1.71  0.001477658    1.657    0.396
        61 -10.3127    116.9310    130.2279   2.6388921745e+02  -5.5486395723e+01   0.03258188   0.02640441  23.09 0.0009057579    1.231    0.188
        62 -11.5582    106.6281    126.6892   2.6343531120e+02  -5.5191732013e+01   0.07129113   0.03939316 -33.49  0.002326749    2.163    0.538
        63  -8.9453     87.6643    129.3150   2.6314430517e+02  -5.4526528217e+01   0.01987269   0.01302529 -33.34 0.0007047131    1.692    0.409
        64  -9.7807    121.9290    127.5214   2.6385159161e+02  -5.5688662438e+01   0.02857371   0.02470695  21.96 0.0007094794    1.156    0.135
        65 -11.4234    136.8455    125.9484   2.6412578561e+02  -5.6204467916e+01   0.04462813   0.02669998  22.30  0.001405287    1.672    0.402
        66 -10.3643    139.0300    200.0085   2.6847888368e+02  -5.5191237602e+01   0.03702069   0.02582099  23.05 0.0009064363    1.458    0.314
        67 -10.5030    116.6263    122.7277   2.6344107999e+02  -5.5576716178e+01   0.04883039   0.03253505   4.94  0.001797183    1.680    0.405
        68 -10.3717    248.3882    203.6613   2.7203681208e+02  -5.8595698249e+01   0.04207668   0.03072023 -88.46  0.001393859    1.676    0.403
        69 -10.1614    209.0364    196.6606   2.7034875733e+02  -5.7478626417e+01    0.0496804    0.0284139  48.15  0.001224715    1.921    0.479
        70 -11.0815    128.7773    116.2278   2.6334766306e+02  -5.6067159520e+01   0.05964433   0.01894695  30.69  0.001631512    2.778    0.640
        71 -11.2256    137.0602    104.8151   2.6286077617e+02  -5.6493134212e+01   0.05340085   0.02955597 -16.34  0.001648371    2.515    0.602
        72 -10.6772    183.2041    239.0854   2.7197077040e+02  -5.5949418117e+01   0.05129034   0.02660744 -62.62  0.001090502    1.964    0.491
        73 -10.1295    137.7039    100.4396   2.6261070800e+02  -5.6571325845e+01   0.03514846   0.01663259 -62.77 0.0006903382    2.005    0.501
        74 -11.0117    134.9946     95.9608   2.6227426068e+02  -5.6538042676e+01   0.04863526   0.02804547  43.44   0.00125451    1.783    0.439
        75 -10.7447    137.5062     92.5016   2.6212233932e+02  -5.6666119479e+01   0.03115615   0.03052055  18.40 0.0008389806    1.021    0.021
        76 -11.9782    147.8206     94.4428   2.6248590434e+02  -5.6986858496e+01   0.06526382   0.04275263  57.98  0.002376212    1.739    0.425
        77 -11.3664    147.8157    194.6955   2.6842401934e+02  -5.5556526295e+01   0.05131155   0.03237486  28.36  0.001252785    1.568    0.362
        78 -11.9550    142.9167     88.6198   2.6201136667e+02  -5.6896603360e+01   0.07800627   0.03270931  40.39  0.002341671    2.383    0.580
        79 -10.8094    129.8161    189.4581   2.6763095731e+02  -5.5057051425e+01    0.0448327   0.02505683  19.84  0.001524493    1.899    0.473
        80 -10.0055    136.8287     86.8436   2.6176032687e+02  -5.6714486049e+01   0.02593297   0.02094048 -21.40 0.0006826835    1.325    0.245
        81 -11.5134    142.6870     80.6547   2.6151484477e+02  -5.6988283979e+01   0.06413936   0.03041745  41.97  0.002032008    2.150    0.535
        82 -11.8104    131.2617     82.0980   2.6134202712e+02  -5.6585985312e+01   0.06239445   0.03781915 -58.60  0.001488963    1.587    0.370
        83 -11.1146    137.7831     79.4729   2.6132925571e+02  -5.6837776222e+01   0.03537038   0.03374008  31.48 0.0007729459    1.050    0.047
        84 -10.9745    150.8969     78.3151   2.6156021962e+02  -5.7293389857e+01   0.04474299   0.02766882  17.29  0.001295099    1.648    0.393
        85 -11.2127    134.8251     75.0305   2.6098834802e+02  -5.6792193014e+01    0.0584815   0.02902222  59.84   0.00172169    2.701    0.630
        86 -10.8361    157.7569     74.3564   2.6147291094e+02  -5.7573086188e+01   0.04567409   0.02786005  45.55  0.001274274    1.708    0.414
        87 -10.7437    151.1695     72.4979   2.6120327994e+02  -5.7374049691e+01   0.04009811   0.02052253  38.76  0.001324788    1.928    0.481
        88 -12.1335    127.3296     67.9425   2.6038542935e+02  -5.6623649697e+01   0.07741647   0.03595728  10.06  0.002331761    2.470    0.595
        89 -10.7625    156.5469     68.2422   2.6106006430e+02  -5.7607092370e+01   0.04952136   0.01802207  18.96  0.001365578    2.796    0.642
        90 -11.6456    158.7273     60.1052   2.6059545186e+02  -5.7778425058e+01   0.05159591   0.03171808  39.80  0.001148546    1.626    0.385
        91 -11.1261    139.4395     66.6655   2.6057355047e+02  -5.7048347519e+01   0.04243287   0.02295497  12.12  0.001260284    1.986    0.496
        92 -11.8627    145.3521     67.2898   2.6074497656e+02  -5.7240713491e+01   0.04680578   0.03540637   6.17  0.001131923    1.388    0.279
        93 -10.9417    150.3680     64.4530   2.6068046038e+02  -5.7444091387e+01    0.0364919   0.02327375  14.65  0.001226134    1.614    0.380
        94 -10.9189    121.3229     63.2894   2.5996942120e+02  -5.6474647076e+01   0.03296746   0.02744777  52.83 0.0007383657    1.244    0.196
        95 -10.9503    137.0312     62.1529   2.6023944394e+02  -5.7020135473e+01   0.03243596     0.026604  21.90 0.0005917553    1.214    0.176
        96 -12.5600    169.9704     56.9633   2.6065242057e+02  -5.8195816489e+01    0.1322493   0.04540378  11.11  0.003215374    3.809    0.737
        97 -12.5885    154.7603     56.1823   2.6025714243e+02  -5.7690514143e+01   0.09134755   0.04190091  57.30  0.001665953    2.938    0.660
        98 -10.6386    177.1360     51.3619   2.6045650403e+02  -5.8504482510e+01   0.07196706   0.01607097  29.63  0.001750398    3.512    0.715
        99 -11.9181    139.5055     55.4602   2.5987548395e+02  -5.7181842353e+01   0.04293834   0.03241377 -79.28  0.001714366    1.369    0.270
       100 -12.5563    118.4212     53.2514   2.5929049921e+02  -5.6490805974e+01   0.08759963     0.041316  17.01  0.002777975    2.152    0.535
       101 -11.4291    177.7635     43.4194   2.5995478741e+02  -5.8618487192e+01   0.04756142   0.03999861 -71.95 6.012315e-05    1.192    0.161
       102 -10.2449    163.5899     44.2499   2.5969135030e+02  -5.8128046472e+01   0.02639724   0.01609613  31.96 0.0008583136    1.591    0.372
       103 -16.9085    215.5168    155.9251   2.6809687127e+02  -5.8340239592e+01     0.440759    0.2915794 -56.00   0.01675916    1.475    0.322
       104 -10.1819    200.5003     39.1552   2.6019786776e+02  -5.9438064697e+01   0.05256867   0.02589924  40.94  0.001334988    2.044    0.511
       105 -10.9047    156.1545     38.3698   2.5915155519e+02  -5.7941651538e+01   0.03346324   0.02364716  32.34 0.0007615911    1.390    0.281
       106  -9.4759    110.3023     39.3178   2.5826660742e+02  -5.6367354433e+01   0.01951797   0.01296007  53.77 0.0003924115    1.623    0.384
       107  -9.2514    247.6867     37.2185   2.6122294414e+02  -6.1051534754e+01    0.0331869   0.02096536  33.14 0.0005878171    1.544    0.352
       108 -15.4827    233.4009    163.9721   2.6913995311e+02  -5.8786632582e+01    0.2402606    0.1217108 -16.77   0.00583215    4.391    0.772
       109 -11.7888    220.6750    203.1707   2.7109947937e+02  -5.7736770274e+01   0.05825068   0.03036397 -63.23  0.001152219    1.956    0.489
       110 -10.2460    154.8497    183.8721   2.6800178347e+02  -5.5951055881e+01   0.03326109   0.02499583  15.96  0.000564055    1.395    0.283
       111  -9.5282    156.8759    208.0761   2.6944052237e+02  -5.5634630520e+01    0.0291615   0.02402092 -25.21 0.0008705067    1.315    0.240
       112 -10.6723    133.8460    183.8642   2.6742298993e+02  -5.5272362131e+01   0.03303846   0.02508947  14.04 0.0008480119    1.386    0.278
       113  -9.4523    205.5331    202.0818   2.7055746517e+02  -5.7277762878e+01   0.04890107   0.02959352  -3.80  0.001543012    2.476    0.596
       114 -10.4833    157.3578     16.0627   2.5773577902e+02  -5.8223550626e+01   0.02646538   0.02286743  14.84 0.0006374756    1.162    0.139
       115 -10.3641    139.4980    207.4924   2.6891190788e+02  -5.5088645201e+01   0.03803442   0.01800376  25.72  0.001201906    2.134    0.531
