#   1 NUMBER                 Running object number                                     
#   2 MAG_AUTO               Kron-like elliptical aperture magnitude                    [mag]
#   3 X_IMAGE                Object position along x                                    [pixel]
#   4 Y_IMAGE                Object position along y                                    [pixel]
#   5 X_WORLD                Barycenter position along world x axis                     [deg]
#   6 Y_WORLD                Barycenter position along world y axis                     [deg]
#   7 A_WORLD                Profile RMS along major axis (world units)                 [deg]
#   8 B_WORLD                Profile RMS along minor axis (world units)                 [deg]
#   9 THETA_WORLD            Position angle (CCW/world-x)                               [deg]
#  10 FWHM_WORLD             FWHM assuming a gaussian core                              [deg]
#  11 ELONGATION             A_IMAGE/B_IMAGE                                           
#  12 ELLIPTICITY            1 - B_IMAGE/A_IMAGE                                       
         1 -15.4336      4.1790    118.4710   1.3453707771e+02   4.9968832194e+01     7.630128    0.7313123 -66.69   0.01703942    9.462    0.894
         2 -13.5291    202.9659     32.1662   6.2382117741e+01   3.0513253433e+01    0.7513253    0.7126626 -60.78   0.00383589    1.186    0.157
         3 -13.7734    221.6407     12.8535   5.6404059665e+01   2.8651317052e+01    0.7674478    0.6851417  79.98   0.00255428    1.211    0.174
         4 -12.4794    172.2450    248.2354   1.1476635274e+02  -1.6215869644e+00     0.408649    0.3045943  25.71  0.002428884    1.199    0.166
         5 -12.9454    244.2093    248.1509   1.0096477118e+02  -1.2234953948e+01    0.5207021    0.4562894  21.55  0.003723655    1.407    0.289
         6 -13.6728     97.9993    249.3728   1.2989951391e+02   9.9058861205e+00     0.880882    0.5343099  29.11  0.004688214    1.851    0.460
         7 -13.5747      9.3036    207.4258   1.4322702163e+02   2.9597497540e+01    0.8292798    0.7058046  55.58  0.003434836    1.279    0.218
         8 -15.2242     11.4416    241.8250   1.4535738089e+02   2.2323437608e+01     2.809107     1.743714  54.65   0.01724344    1.403    0.287
         9 -12.5354    124.3112    249.7710   1.2468509382e+02   5.7882118849e+00    0.6450428    0.2232786  35.77  0.002563904    2.740    0.635
        10 -12.8943    139.3621    249.4619   1.2159851849e+02   3.4509364134e+00     0.491173    0.4619026 -40.10  0.003286399    1.210    0.174
        11 -12.3843     81.8047    248.9209   1.3302535871e+02   1.2349016991e+01    0.4595023     0.199333  42.31  0.002244229    1.998    0.500
        12 -14.8406     26.6360    223.8360   1.4125357617e+02   2.4387079101e+01     1.063363    0.9250517 -50.76  0.007636306    1.492    0.330
        13 -13.0913     39.3551    210.5800   1.3749045838e+02   2.5814927195e+01    0.6362361    0.5143443  69.68  0.002500556    1.122    0.109
        14  -8.9245    152.7069    213.0225   1.1302033542e+02   8.0655259166e+00    0.1610029    0.1269227 -46.96 0.0004379983    1.346    0.257
        15 -11.9536     52.3489    195.7035   1.3301309804e+02   2.7597239546e+01    0.2683068    0.2484981 -50.97  0.000694798    1.244    0.196
        16 -12.0674     59.7421    187.4289   1.3023898901e+02   2.8568503148e+01    0.2651583    0.2351042 -60.98  0.000366881    1.138    0.121
        17 -12.6141     56.6011    174.1499   1.2909532514e+02   3.2075684662e+01    0.3082168    0.2514716 -50.81 0.0006485662    1.231    0.187
        18 -12.0545     58.6474    170.6779   1.2806888849e+02   3.2637884382e+01    0.2725984    0.2232136 -52.72 0.0006130472    1.190    0.159
        19 -10.8255     71.5158    174.7802   1.2552266073e+02   2.9952615151e+01    0.2351602    0.2229044 -83.66 0.0003720359    1.037    0.036
        20 -13.8270      9.0437    157.3918   1.3843296767e+02   4.0794816457e+01      1.21685    0.6070547  86.57  0.005756297    2.478    0.597
        21 -11.9023    215.2991    249.0830   1.0646688318e+02  -8.3620502360e+00    0.3142137    0.2042897  38.17  0.001829991    1.551    0.355
        22 -10.0917     87.1099    165.4997   1.1999686710e+02   2.9853691874e+01    0.2156692    0.1413134  37.60  0.001031145    1.590    0.371
        23 -10.2754     93.5664    151.0296   1.1550091711e+02   3.2243935022e+01     0.309011    0.2604657 -53.55 0.0007858718    1.131    0.116
        24 -11.8573     81.9002    149.6892   1.1835019207e+02   3.4396813214e+01     0.316906     0.240212 -44.16 0.0005023481    1.277    0.217
        25  -9.4564     97.1304    147.0740   1.1372524240e+02   3.2581424219e+01    0.2175291    0.1902271 -27.45 0.0003305364    1.193    0.161
        26 -11.6528     68.6390    143.4756   1.2073715100e+02   3.7780959909e+01    0.4903925    0.3997655  87.19  0.001753869    1.437    0.304
        27 -10.8273     65.1744    141.6083   1.2133062864e+02   3.8690139967e+01     0.328345    0.2560012 -36.28 0.0009480749    1.307    0.235
        28  -9.7267    106.8341    136.4113   1.0875747361e+02   3.3360318219e+01     0.374245    0.2201433 -18.46  0.001307239    3.132    0.681
        29 -10.4271     93.7134    133.6244   1.1170304566e+02   3.6270316723e+01    0.2431918    0.2046537 -37.76  0.000364441    1.146    0.128
        30  -9.0303    104.8996    123.1932   1.0613909903e+02   3.6677356517e+01     0.189421    0.1637603  -9.49 0.0002795719    1.232    0.188
        31 -11.5966    241.9953     95.8549   7.1108255347e+01   1.3150442572e+01     0.250734    0.1647459  59.50   0.00135919    1.677    0.404
        32 -11.3979    199.6443    247.8439   1.0927343939e+02  -5.8450352059e+00    0.3748834    0.1573096 -47.55   0.00163139    3.048    0.672
        33 -12.0008     79.1971    166.8232   1.2225635956e+02   3.0735687154e+01    0.5205063    0.4224762 -29.30  0.002813312    1.421    0.296
