#   1 NUMBER                 Running object number                                     
#   2 MAG_AUTO               Kron-like elliptical aperture magnitude                    [mag]
#   3 X_IMAGE                Object position along x                                    [pixel]
#   4 Y_IMAGE                Object position along y                                    [pixel]
#   5 X_WORLD                Barycenter position along world x axis                     [deg]
#   6 Y_WORLD                Barycenter position along world y axis                     [deg]
#   7 A_WORLD                Profile RMS along major axis (world units)                 [deg]
#   8 B_WORLD                Profile RMS along minor axis (world units)                 [deg]
#   9 THETA_WORLD            Position angle (CCW/world-x)                               [deg]
#  10 FWHM_WORLD             FWHM assuming a gaussian core                              [deg]
#  11 ELONGATION             A_IMAGE/B_IMAGE                                           
#  12 ELLIPTICITY            1 - B_IMAGE/A_IMAGE                                       
         1 -12.3803    165.9716     39.7672   4.3538017968e+01   3.8684856444e+01    0.9448819    0.5961493 -29.24  0.004796988    1.780    0.438
         2  -9.1402    120.2534      8.8137   4.2048537185e+01   5.2893281203e+01    0.2791995    0.2138327  62.96  0.001174255    1.117    0.105
         3 -11.2255    185.4567      3.3630   3.1785481155e+01   3.8107102796e+01    0.4195277    0.2873713  25.36  0.002376867    2.314    0.568
         4 -11.1093    178.7475      6.9228   3.3311960502e+01   3.9308125610e+01    0.7018314    0.3006363 -65.39  0.002931704    3.088    0.676
         5 -11.5556    152.1882     33.0155   4.3895976087e+01   4.2823866415e+01    0.6893974    0.4682649 -73.09  0.003509582    1.769    0.435
         6 -10.5251    157.8142    157.0727   7.5581055922e+01   1.8620036366e+01    0.4254962    0.3485081  74.03   0.00121076    1.602    0.376
         7 -15.1709    118.8319    221.0110   9.6664290857e+01   1.1559190801e+01     1.684073    0.9604713 -48.30  0.008096744    1.928    0.481
         8 -15.6967     73.4324    241.5482   1.0928834622e+02   1.3928362107e+01     1.758641    0.6127937  48.17  0.006883313    2.618    0.618
         9 -16.3229    108.3080    216.0497   9.8420646140e+01   1.4238429375e+01     6.070331     0.657674 -49.66   0.01314827    9.209    0.891
        10 -15.9519     81.4903    185.3589   1.0065445331e+02   2.5352177350e+01     1.339393    0.9169834 -14.94  0.005983122    2.266    0.559
        11 -19.3917     78.3232    212.1233   1.0501775206e+02   1.9530127214e+01     5.511226      4.72901  50.36   0.02740889    1.066    0.062
        12  -8.9833    154.2731    152.3894   7.5395654255e+01   2.0352816458e+01    0.2786353    0.2491442 -81.48 0.0004933131    1.335    0.251
        13  -8.2783      6.1490    154.8130   1.1710391908e+02   4.1216347110e+01    0.1945397    0.1451895  73.15 0.0005071254    1.289    0.224
        14  -9.0859    172.5829    152.3953   7.1115871922e+01   1.6720754180e+01    0.2722797    0.2390707 -13.25  0.000521493    1.151    0.131
        15  -8.6740      1.8845    151.5933   1.1795729018e+02   4.2290257357e+01    0.2471565    0.1543455 -83.92 0.0007393952    1.361    0.265
        16  -8.0673    188.7725    151.3414   6.7371191686e+01   1.3777641973e+01    0.1991638    0.1355795  31.08 0.0003993687    1.597    0.374
        17  -7.7673    192.3053    144.2826   6.5068077863e+01   1.4504703430e+01    0.1464332    0.1128556  -2.32 0.0001892175    1.558    0.358
        18  -9.9860    152.7640    130.2931   7.0592838488e+01   2.5545473561e+01    0.4114533    0.3035854  80.06  0.001124279    2.018    0.504
        19 -10.1083    158.0164    133.7219   7.0159006659e+01   2.3693881523e+01    0.7631782    0.4399675 -50.59   0.00171462    1.804    0.446
        20  -9.7294    180.4219    138.6462   6.6261445305e+01   1.8014189600e+01    0.2893404    0.2580675  14.82 0.0005324477    1.180    0.153
        21  -7.7868    210.5290    238.5162   7.9740583856e+01  -5.4140683924e+00    0.1260356     0.100374   3.26 5.908403e-05    1.013    0.013
        22 -10.1487     35.9177    136.2227   1.0622805698e+02   4.3462910732e+01    0.2928383    0.2016312  -5.06  0.001475768    1.887    0.470
        23  -8.3964    200.8053    235.9878   8.1229322305e+01  -3.6960866198e+00    0.1728547    0.1601788  -2.46 0.0007740392    1.302    0.232
        24  -9.2704    204.0904    200.1669   7.4227136537e+01   1.7835641780e+00      0.26059    0.2009265   1.27  0.001169589    1.237    0.191
        25 -16.2200    100.1619    198.9613   9.7917124102e+01   1.9300777534e+01     1.441777    0.6483983 -70.46  0.005134105    3.243    0.692
        26  -8.8732    213.7151    232.5939   7.8133990837e+01  -4.9514498358e+00    0.2203902    0.1850399   9.76 0.0004357487    1.152    0.132
        27  -9.4485    161.7882    140.4144   7.0855490914e+01   2.1460248436e+01    0.7338127    0.1955826 -42.01  0.002039047    3.798    0.737
        28  -8.4128    207.5054    233.4673   7.9487583303e+01  -4.2360578644e+00    0.1299897    0.1017576   1.91 -7.540385e-06    1.053    0.051
        29  -9.3984    197.3480    177.9794   7.1248723144e+01   6.9728544906e+00    0.3784084    0.2708995 -70.38  0.001712184    2.414    0.586
        30  -9.2735     30.9306    121.9091   1.0555021004e+02   4.7561120702e+01    0.3706089    0.2065874 -19.41  0.001618951    2.506    0.601
        31  -9.6096     35.9428    116.8925   1.0299008129e+02   4.8358637975e+01    0.4153516    0.2347805 -11.28  0.001637832    2.560    0.609
        32  -9.4226    189.2991    178.4258   7.3015826581e+01   8.2906426202e+00    0.3608549    0.1969973  31.68  0.001541695    1.925    0.481
        33 -10.6600     96.5817    115.2393   8.2390388937e+01   4.0299579196e+01    0.3326153    0.2128125 -40.21  0.001299531    1.571    0.363
        34  -9.5896    190.9957    175.0015   7.1958158120e+01   8.6598366379e+00    0.2619913    0.2168615 -52.11 0.0008552253    1.375    0.273
        35  -9.9038    194.2057    232.1805   8.1921543764e+01  -2.1554161562e+00    0.4114461    0.2451111  36.79  0.001422515    1.645    0.392
        36  -8.4991     10.6013    232.4079   1.2151830810e+02   2.2999058710e+01    0.2965829    0.1193761  59.43 0.0009040802    2.194    0.544
        37  -8.5963    167.9825    113.2857   6.2824634478e+01   2.5837176813e+01     0.290463     0.213734 -68.47  0.001307485    1.719    0.418
        38 -11.0756     53.8654    110.9572   9.5587459011e+01   4.7881240796e+01    0.5270578    0.3361976  35.20  0.001851047    1.688    0.408
        39 -11.5589     73.4975    107.1973   8.7897416164e+01   4.6085866608e+01    0.5854959    0.4421833  50.56  0.002882728    1.539    0.350
        40 -11.6338     65.8995    109.1912   9.0997326403e+01   4.6724550368e+01    0.8085167    0.2992081  27.94   0.00280777    3.048    0.672
        41 -10.9749     63.1776    106.1675   9.1215505495e+01   4.7835469825e+01    0.4890119    0.2984041  22.78  0.002153293    1.813    0.448
        42  -8.9351    188.2050    103.1414   5.6170865143e+01   2.3357766142e+01    0.3019472    0.2200048 -44.95 0.0008010277    1.302    0.232
        43  -8.3367    220.0675    229.5628   7.6402934963e+01  -5.3475863266e+00    0.1852844    0.1388768 -20.36 0.0003176071    1.197    0.164
        44 -10.1174     84.3052     98.9097   8.2042500526e+01   4.6263888117e+01    0.3878602    0.2829493  34.49 0.0006912461    1.400    0.286
        45  -9.8363     91.6748     98.6741   7.9536388580e+01   4.5014591024e+01     0.333647    0.2403357  -1.90  0.001486646    1.802    0.445
        46  -9.9835     89.4478     94.6621   7.9133788392e+01   4.6309894575e+01    0.4170997    0.3037452  72.20  0.001242398    2.144    0.534
        47  -8.9465    196.0498    217.9365   7.9104137131e+01  -6.4504125411e-02    0.2005771    0.1693708   1.00 0.0002980396    1.008    0.008
        48 -10.5439    115.5109     94.3518   7.0945963748e+01   4.1264098076e+01    0.5056436    0.3398259  23.23  0.002170392    1.816    0.449
        49  -9.5506     50.2642    106.1833   9.5795066902e+01   4.9483971566e+01    0.2611059      0.23051  51.97 0.0008727932    1.312    0.238
        50  -8.6309     45.5373     91.7771   9.4131738388e+01   5.3466762297e+01    0.2488957    0.1635445   6.84  0.000548693    1.758    0.431
        51  -8.1190    101.8053     83.1568   7.1735520062e+01   4.6379933276e+01    0.2034874    0.1703141  -0.48 0.0003098266    1.289    0.224
        52 -10.7182    144.6292     73.7708   5.7345232256e+01   3.8672144196e+01    0.4046585    0.3766144 -66.63   0.00125054    1.125    0.111
        53 -11.9107    153.2887     64.4667   5.2781482365e+01   3.8173155334e+01    0.9129557    0.6473516 -42.15  0.004556914    1.447    0.309
        54 -10.5032    144.9894     59.3777   5.3033982934e+01   4.0944375010e+01    0.4664635    0.2426721  48.50    0.0015269    1.845    0.458
        55 -10.3387    160.0616     53.2948   4.8297014215e+01   3.8254438504e+01     0.255785    0.2387107  20.27 0.0006715781    1.223    0.182
        56 -10.6718    247.3931     47.1567   3.5479219901e+01   1.9875864363e+01    0.4643178    0.4120598  60.23  0.002477993    1.437    0.304
        57  -9.4312    140.2701    247.9820   9.5647192506e+01   3.1535507372e+00    0.3634752    0.2375267  39.58  0.001594915    1.347    0.258
        58 -10.6784    152.7876     46.4363   4.7679018261e+01   4.0961814909e+01    0.3586133     0.237888 -49.71  0.001096211    1.624    0.384
        59 -11.0022    159.7731     47.4796   4.6713696908e+01   3.9143769333e+01    0.3768425     0.288405  -9.83   0.00198101    1.694    0.410
        60  -8.3628    221.7750     40.1975   3.6512276882e+01   2.5953266949e+01    0.1884356    0.1409734 -65.54 0.0004543284    1.168    0.144
        61 -10.1936     14.2235     38.5305   9.2353387712e+01   6.7582992948e+01    0.3900236    0.1567655 -46.93  0.001931393    2.039    0.510
        62  -8.3120    121.0690     38.6840   5.1876851546e+01   4.9515934137e+01    0.1914689     0.161029  47.06  0.000348188    1.076    0.070
        63  -9.2795    213.6910     37.3321   3.6728156811e+01   2.8049528035e+01    0.2271468     0.207684 -81.73 0.0008959068    1.137    0.120
        64  -7.8802    226.1597     35.8158   3.5141267738e+01   2.5596080564e+01    0.1459911    0.1382024  77.58 0.0003919557    1.293    0.227
        65 -11.9526    159.3343     31.1498   4.2201149957e+01   4.1331472786e+01    0.5885628    0.4389204 -69.91  0.003283533    1.441    0.306
        66 -10.0517    189.4546     15.8193   3.4341817101e+01   3.5964283796e+01    0.3185661    0.1660701  45.21  0.001532072    2.509    0.601
        67  -8.1209      2.5693    161.5457   1.1862269390e+02   3.9811528433e+01    0.1257376    0.1022989 -80.22 0.0001687738    1.041    0.039
        68 -10.7040    148.9662    156.9688   7.7708656267e+01   2.0374929914e+01    0.5794368     0.340837  51.60  0.002350706    1.971    0.493
        69  -8.5204     21.5742    244.3488   1.2005738928e+02   1.9485349617e+01    0.2774228    0.1100086  54.98  0.001421535    2.120    0.528
