#   1 NUMBER                 Running object number                                     
#   2 MAG_AUTO               Kron-like elliptical aperture magnitude                    [mag]
#   3 X_IMAGE                Object position along x                                    [pixel]
#   4 Y_IMAGE                Object position along y                                    [pixel]
#   5 X_WORLD                Barycenter position along world x axis                     [deg]
#   6 Y_WORLD                Barycenter position along world y axis                     [deg]
#   7 A_WORLD                Profile RMS along major axis (world units)                 [deg]
#   8 B_WORLD                Profile RMS along minor axis (world units)                 [deg]
#   9 THETA_WORLD            Position angle (CCW/world-x)                               [deg]
#  10 FWHM_WORLD             FWHM assuming a gaussian core                              [deg]
#  11 ELONGATION             A_IMAGE/B_IMAGE                                           
#  12 ELLIPTICITY            1 - B_IMAGE/A_IMAGE                                       
         1 -14.3907    158.0656     53.8529   8.0862673023e+01   3.9004728155e+01     1.383747     1.247277  24.56  0.005325727    1.223    0.182
         2 -14.6257    170.5775     38.4414   7.4122906560e+01   3.8090405430e+01     1.091402    0.9678428  22.36  0.004026087    1.328    0.247
         3 -14.4966    186.9082      7.0479   6.3404685842e+01   3.7676633336e+01    0.9659541    0.8148796  79.67  0.004336333    1.026    0.025
         4 -10.2791     21.6593    234.1008   1.4753147281e+02   2.3707804653e+01    0.1280981   0.08214468 -78.13 0.0008710492    1.397    0.284
         5 -19.7211     62.9572    163.6362   1.3207670095e+02   3.4099806426e+01     19.43183     6.023484 -66.18   0.06884246    3.151    0.683
         6 -10.7494     34.7631    205.9103   1.4303794716e+02   2.8003726604e+01    0.1756412    0.1454848  51.27 0.0007813962    1.380    0.275
         7 -10.5585     29.2856    206.1287   1.4410124982e+02   2.8578250562e+01    0.1518552    0.1464652  58.05 0.0007253113    1.504    0.335
         8 -12.1115    163.8187    203.2013   1.1571018322e+02   7.6979223421e+00    0.3604974    0.2812298  29.68  0.001573758    1.339    0.253
         9 -12.7143    157.0240    201.5109   1.1685120359e+02   9.3427858563e+00    0.6074179    0.4151653 -87.59  0.002526441    2.249    0.555
        10 -11.1658    153.6602    195.2996   1.1647145715e+02   1.1253991891e+01    0.3878872    0.2444612  67.37   0.00167177    2.114    0.527
        11 -10.6009    139.3178    200.6337   1.2050123608e+02   1.2906431666e+01    0.2699004    0.2224382  76.58 0.0007006213    1.265    0.210
        12 -11.5554    161.2125    197.7245   1.1528433279e+02   9.2869237529e+00    0.2864663    0.2144767  66.80  0.001396794    1.523    0.343
        13 -10.8836    111.7262    196.7755   1.2589914966e+02   1.8778785511e+01    0.5213419    0.3110309  18.11  0.001928185    3.647    0.726
        14  -9.7516      1.1385    196.4532   1.4860889902e+02   3.3435197317e+01    0.1090755   0.05418233 -68.65 0.0003405782    1.708    0.414
        15 -12.6816    174.9038    193.2957   1.1155646953e+02   7.4708778101e+00    0.5479061    0.2873947 -55.45  0.001653921    2.313    0.568
        16 -13.2845    165.5765    188.4064   1.1261802233e+02   1.0307696660e+01    0.6909151    0.3993499  36.56  0.002265806    1.777    0.437
        17 -11.5023    170.3250    185.0433   1.1094563189e+02   1.0036970699e+01    0.2989556    0.2447576  61.35 0.0009047835    1.283    0.221
        18 -12.0249    176.4658    187.4943   1.1011133777e+02   8.3056533723e+00    0.3116142    0.2483165 -60.82  0.001055382    1.416    0.294
        19 -11.7246    174.6986    184.3315   1.0986785391e+02   9.2955914136e+00    0.3029923    0.2336713 -56.97 0.0008637519    1.422    0.297
        20 -10.0115    169.6680    195.3351   1.1304676794e+02   8.1032758841e+00    0.1480476    0.1125729  79.39 0.0007052196    1.733    0.423
        21 -11.0989    104.6974    193.6112   1.2696453012e+02   2.0698333807e+01    0.6443216    0.4320875   2.46  0.002441898    3.870    0.742
        22 -11.3633    180.5966    193.2483   1.1035223864e+02   6.3544605654e+00    0.3045771    0.2381959  82.58  0.001460856    1.732    0.423
        23 -12.4788    152.2600    183.3419   1.1457039491e+02   1.4034608138e+01    0.4405995    0.2680157 -70.40  0.001794161    2.334    0.572
        24 -10.4901    125.0231    249.6761   1.3038989618e+02   6.0329111622e+00    0.1676903    0.1370412 -68.77 0.0002031144    1.401    0.286
        25 -12.2220    207.4764    178.1231   1.0183789340e+02   3.8967280827e+00    0.5808023    0.3897807  10.31  0.002561549    2.143    0.533
        26  -9.4731    228.0000    231.9654   1.0813410988e+02  -8.6728198999e+00    0.1792026   0.06872579 -38.04 0.0004006403    2.786    0.641
        27 -10.4948    139.9114    249.6582   1.2758058179e+02   3.5347129766e+00    0.2124417    0.1817801  87.74 0.0008971793    1.291    0.225
        28 -12.0091    203.0104    172.0015   1.0145075128e+02   5.9540269301e+00    0.4462554    0.2376661 -44.82  0.001753146    1.906    0.475
        29 -12.8669    195.6797    169.7614   1.0246680851e+02   7.8954542390e+00      0.57363    0.4496983 -53.85  0.001482289    1.375    0.273
        30 -11.7027    193.7920    164.9189   1.0181927365e+02   9.2507484364e+00    0.3975682    0.3604283  68.74  0.001536965    1.204    0.169
        31 -10.0334    165.5039    172.5012   1.0948846120e+02   1.3633800212e+01    0.1502737    0.1444646  64.33 -0.0001783516    1.019    0.019
        32 -10.2887    177.2950    169.3225   1.0624980333e+02   1.1830147866e+01    0.1504888     0.120096  -0.73 0.0002721924    1.617    0.382
        33 -11.3643    229.9820    166.2639   9.5040882059e+01   1.6631196545e+00    0.2924902    0.1725106 -60.57  0.001179879    2.686    0.628
        34 -11.6913    122.7246    165.7515   1.1800499839e+02   2.3781885771e+01    0.2725715     0.230983  74.46 0.0003099051    1.189    0.159
        35 -11.4747     25.2547    165.7038   1.4106751807e+02   3.7970045833e+01    0.2252882    0.2016264  -4.22 0.0009014159    1.648    0.393
        36 -10.6634    200.6642    162.4772   9.9883270384e+01   8.2918648269e+00    0.3148109    0.2576737  17.94  0.001114778    1.376    0.273
        37 -10.2432    222.5245    161.9489   9.5501628011e+01   3.9121848352e+00    0.2173791     0.135645 -42.24 0.0008724004    1.555    0.357
        38 -14.4879    143.6299    143.4765   1.0826558015e+02   2.4670728724e+01     1.294062    0.7502943 -71.43  0.004550118    2.807    0.644
        39 -14.8869    133.8713    145.4320   1.1107906332e+02   2.6268901064e+01     1.662484     0.655338 -56.44  0.005376123    2.968    0.663
        40 -13.6391    135.7626    127.9456   1.0654465869e+02   2.9865541311e+01      1.25099    0.2835507 -49.93  0.003099635    4.773    0.790
        41 -11.2373    174.4426    148.9299   1.0240357177e+02   1.6742532511e+01     0.302374    0.2631102  75.12 0.0007747642    1.252    0.201
        42  -9.7086    176.8341    154.8340   1.0320946217e+02   1.4964312581e+01    0.2060096    0.1786391 -89.33 0.0004471739    1.313    0.238
        43 -11.5476     16.0948    150.2818   1.4144546842e+02   4.2326858339e+01    0.2465023    0.2040987 -26.19   0.00101735    1.680    0.405
        44 -10.6419    110.2163    222.9001   1.2992131284e+02   1.3543398004e+01    0.1885604    0.1534348  76.17 0.0003953027    1.129    0.114
        45 -12.6172     19.7878    141.1053   1.3947029918e+02   4.4113855860e+01    0.3288957    0.1841469  19.95  0.001806095    2.488    0.598
        46 -12.5036      4.9855    140.4008   1.4295996326e+02   4.5428495168e+01    0.3709311    0.3163852   1.91  0.001831386    1.666    0.400
        47 -13.3596      2.7824    126.1916   1.4186826751e+02   4.8759524977e+01     1.250228    0.3967254 -74.53  0.005415144    2.706    0.630
        48 -11.7363    152.5544    139.2649   1.0516287783e+02   2.3686583883e+01    0.2927431    0.2315315 -72.71  0.001364317    1.438    0.305
        49 -12.0588    160.4768    127.9593   1.0059415686e+02   2.4402191874e+01    0.4142774    0.3070595 -59.18  0.001882096    1.438    0.305
        50 -13.1069    113.6050    119.2179   1.1015073735e+02   3.6369481721e+01    0.4632592    0.3719707 -55.17  0.001328754    1.211    0.174
        51 -12.6593      2.7625    112.3840   1.4010008818e+02   5.1821793927e+01     0.380581    0.2250954 -74.32  0.002340536    1.370    0.270
        52  -9.8350    111.6766    217.7401   1.2893774680e+02   1.4341301835e+01    0.1198472    0.1060856  14.74 0.0004773829    1.553    0.356
        53 -10.9343    168.3105    113.1754   9.5093940386e+01   2.5724524851e+01    0.4164148    0.2801086 -88.36  0.001478711    2.366    0.577
        54 -12.1644    134.7751    112.2151   1.0283247957e+02   3.3566951549e+01     0.516408    0.1353928 -45.37   0.00143234    3.761    0.734
        55 -13.0655    117.8565    109.9461   1.0666060469e+02   3.7604954782e+01    0.5590085    0.2964329  49.56  0.002249597    2.014    0.503
        56 -10.8671    205.3660    110.2459   8.6801871786e+01   1.7559378039e+01    0.3188745     0.213356  49.22 0.0009363478    1.554    0.357
        57 -12.4116      9.3642    111.4201   1.3814965285e+02   5.1618074990e+01    0.4173865    0.2158652  -1.08  0.002134853    3.204    0.688
        58 -10.7287    116.4842    211.9017   1.2712538428e+02   1.4714606212e+01    0.3188435    0.1583447 -64.29   0.00140495    2.268    0.559
        59  -9.8734    124.4781     81.4707   9.6949656127e+01   4.2101050742e+01    0.1466685    0.1435057   5.25 0.0008095386    1.008    0.008
        60 -10.0843     93.4533     79.2983   1.0505385958e+02   4.8639591719e+01    0.1852155    0.1320641 -52.19 0.0009264731    1.483    0.326
        61 -10.1311    153.3092    212.6339   1.1952030903e+02   7.8626310175e+00     0.143815    0.1045487  77.46 0.0007037763    1.755    0.430
        62 -12.6113    107.4462    206.9064   1.2831963358e+02   1.7326968757e+01    0.6063731    0.3722755 -69.20  0.002082382    1.724    0.420
        63 -12.9926    174.6297     31.4395   7.1517640771e+01   3.7979537258e+01     0.420886    0.3531332  48.63 0.0009837084    1.229    0.186
        64 -10.7314     13.5093     59.5865   1.2666840375e+02   6.2184627445e+01    0.2006333    0.1505184 -43.45 0.0005201579    1.029    0.028
        65 -10.4091    131.0055     28.5578   7.8680400537e+01   4.8797235761e+01     0.207783    0.1228724  59.82 0.0007786014    1.582    0.368
