#   1 NUMBER                 Running object number                                     
#   2 MAG_AUTO               Kron-like elliptical aperture magnitude                    [mag]
#   3 X_IMAGE                Object position along x                                    [pixel]
#   4 Y_IMAGE                Object position along y                                    [pixel]
#   5 X_WORLD                Barycenter position along world x axis                     [deg]
#   6 Y_WORLD                Barycenter position along world y axis                     [deg]
#   7 A_WORLD                Profile RMS along major axis (world units)                 [deg]
#   8 B_WORLD                Profile RMS along minor axis (world units)                 [deg]
#   9 THETA_WORLD            Position angle (CCW/world-x)                               [deg]
#  10 FWHM_WORLD             FWHM assuming a gaussian core                              [deg]
#  11 ELONGATION             A_IMAGE/B_IMAGE                                           
#  12 ELLIPTICITY            1 - B_IMAGE/A_IMAGE                                       
         1 -11.8687    250.2061     68.5109   6.7613225271e+01   1.4901673790e+01     1.587397    0.1752821 -38.39   0.00374053    7.534    0.867
         2  -9.9154     30.8821     12.4573   1.0082326464e+02   6.8107034931e+01    0.7728928    0.2145085 -30.88  0.003263635    3.722    0.731
         3 -11.7841     29.9282     23.9932   1.0596684783e+02   6.6703313958e+01    0.4687481    0.2346434 -31.77  0.002369481    1.732    0.423
         4 -11.8394    211.8745     33.1393   6.4427957271e+01   2.8622427278e+01    0.7279407    0.4645583 -51.28  0.003772475    1.505    0.336
         5 -11.4168     66.9251     21.3769   9.0794578729e+01   6.2031088791e+01    0.6463911    0.4614361   4.15  0.003462872    1.319    0.242
         6 -12.4527     78.2994     31.3310   9.0877621763e+01   5.8900450452e+01     1.154176    0.6547719  35.74  0.006184616    1.625    0.385
         7 -11.9559    229.7336     29.3901   6.1614739292e+01   2.5011357585e+01    0.6690252    0.4189053 -85.68  0.003669948    1.531    0.347
         8 -12.0172    130.8083     19.9205   7.3437153765e+01   4.9449807248e+01    0.8872892    0.2161615  54.90  0.002888346    3.077    0.675
         9 -11.4466    200.3739      6.2939   5.9591167386e+01   3.4433129793e+01    0.6304626    0.2729869 -46.79  0.002623308    2.298    0.565
        10 -10.0967    177.8198     27.2077   6.7482596496e+01   3.7500775927e+01    0.9734189    0.2802346  46.16  0.002863594    5.106    0.804
        11  -9.8806    204.2448      6.7988   5.9306434066e+01   3.3482770999e+01    0.1607711    0.1431584 -78.08 0.0003696808    1.153    0.133
        12 -11.4478    208.4799      3.7596   5.8216667661e+01   3.2821092867e+01    0.4935094    0.2971953  89.79  0.002668551    1.481    0.325
        13 -10.3102    188.9371      9.0953   6.1502725160e+01   3.6828844326e+01     1.040523    0.6334614  27.70  0.005024461    2.809    0.644
        14 -10.9965    130.4121     14.0414   7.1670661743e+01   5.0120708795e+01     1.561804    0.2088257  50.24  0.004619819    4.768    0.790
        15 -12.1065    118.0007     15.9772   7.4830461923e+01   5.2703654796e+01    0.5518268     0.352134  87.30  0.002680114    2.431    0.589
        16 -12.6474    133.0157      3.9841   6.8079482545e+01   5.0421038304e+01    0.8217635    0.3283303  58.95  0.003409129    1.966    0.491
        17 -11.1706    123.5758      2.5703   6.9340428185e+01   5.2654869698e+01    0.7119153    0.2313518  44.02  0.002903938    2.869    0.651
        18 -12.3130    112.3008     22.4662   7.8296937162e+01   5.3278084539e+01    0.6635099    0.5042021  71.25  0.002577213    1.515    0.340
        19 -11.7929    112.0049     15.3548   7.5950950360e+01   5.4061997058e+01    0.6121447    0.2495702 -32.03  0.002289245    2.677    0.626
        20 -11.8025    112.2384      7.8548   7.3354642386e+01   5.4694557842e+01    0.9037608    0.2732086  63.71  0.003258989    3.626    0.724
        21 -13.7632    100.3684      6.3430   7.5507548526e+01   5.7313018108e+01    0.6463826    0.4583793 -34.14  0.002093149    1.681    0.405
        22 -12.1702     93.2124      8.3930   7.8012614252e+01   5.8577645929e+01    0.4249015    0.3270411  44.06  0.001234101    1.115    0.103
        23 -11.2227    147.9624     25.1625   7.1768580379e+01   4.4904771331e+01    0.7143822    0.4489001  20.93   0.00341147    2.291    0.563
        24 -11.0733      9.1765     19.7011   1.1349064318e+02   6.9209981488e+01    0.3757941    0.2742473  29.52  0.002782929    1.807    0.447
        25 -12.1534     23.6102      4.0010   1.0027472096e+02   6.9914986405e+01    0.9513059    0.3571317  31.06  0.005212995    2.517    0.603
        26 -11.3200     13.0765      8.5561   1.0714001858e+02   7.0413591323e+01    0.3288531    0.2296761   2.02  0.001350347    1.181    0.153
        27 -11.9201      3.4645     16.9144   1.1509829219e+02   7.0030258337e+01    0.4510252    0.1410774 -34.01  0.001773534    2.693    0.629
        28 -13.1763      4.1181     10.2138   1.1213174103e+02   7.0927430792e+01    0.7140602    0.3479165 -40.06  0.002414017    1.742    0.426
        29 -11.3247     50.5100     10.5238   9.2158463191e+01   6.5769070403e+01    0.3838988    0.2907273   8.26  0.001958141    1.048    0.046
        30 -11.4914     40.9262     21.5594   1.0046124049e+02   6.5759412768e+01    0.4961508    0.1505837 -35.49 0.0006238758    3.092    0.677
        31 -12.2804     43.3276     15.6468   9.7072171386e+01   6.6186812882e+01    0.8138373    0.4720432  47.81  0.004613122    2.490    0.598
        32 -10.6638     89.7750     21.7977   8.3889820765e+01   5.7926558351e+01    0.3738523    0.2105891   5.86  0.001766803    2.487    0.598
        33 -10.0337    247.1615     16.9887   5.7477352143e+01   2.2760594841e+01    0.2787089     0.116529 -47.98 0.0007678406    2.053    0.513
        34 -11.1614    210.9313     13.7676   6.0170678722e+01   3.1183931400e+01    0.3706917     0.256166  75.32   0.00124405    1.249    0.199
        35 -11.0365    202.0900     19.2298   6.2371541684e+01   3.2625431386e+01    0.4186256    0.3173458 -75.45  0.001855422    1.212    0.175
        36 -10.6156    208.2746     17.2543   6.1229725651e+01   3.1404715201e+01    0.4433553    0.2176296  89.23   0.00200869    2.272    0.560
        37 -11.4664    221.1336     12.3950   5.8863084698e+01   2.9007855279e+01    0.7597111    0.2887878  70.19  0.003291497    2.283    0.562
        38 -11.9530    231.6521      9.6979   5.7351791214e+01   2.6967979642e+01    0.5950163     0.361544  87.16  0.002072254    1.426    0.299
        39 -10.1004    224.4822      8.5472   5.7748264777e+01   2.8686244312e+01     0.167222     0.154349 -77.58 0.0009370858    1.264    0.209
        40 -10.2642    161.0976     18.4597   6.7661252206e+01   4.2502069063e+01    0.3217943    0.1862683 -44.69  0.001642832    1.908    0.476
        41 -10.3994    147.1229     11.9310   6.8054014534e+01   4.6462222564e+01    0.3121445    0.2154422 -69.80  0.001382316    1.783    0.439
        42 -10.4296    151.1857     14.9763   6.8263295859e+01   4.5212312984e+01     0.310232    0.2074284 -52.76  0.001697786    1.739    0.425
        43 -10.6105    163.9192      5.9517   6.3865037403e+01   4.3059615026e+01    0.3113365    0.2176324 -61.41  0.001127841    1.584    0.369
        44 -10.2242    167.6166      7.5440   6.3782706895e+01   4.2036037521e+01     0.190266    0.1611718  73.72 3.979658e-05    1.020    0.019
        45 -10.8486    170.1914     14.0392   6.5133380838e+01   4.0785416243e+01    0.3760886    0.1836933 -43.70  0.001413562    2.212    0.548
        46 -11.4364    165.2164     11.7138   6.5219117694e+01   4.2204852030e+01    0.4743428    0.2940705 -70.60  0.001963615    1.940    0.484
        47  -8.6651    168.4916      4.5017   6.2873110760e+01   4.2111312946e+01    0.2631802    0.1947032  72.55  0.001309199    1.126    0.112
        48 -10.5259    166.0434      2.0000   6.2540941888e+01   4.2913297150e+01    0.2885365    0.1576915  69.28 0.0009806167    1.515    0.340
        49 -10.3972    239.2324     13.5349   5.7468613735e+01   2.4871361148e+01    0.2364727    0.1661191  63.36 0.0008983649    1.530    0.346
        50  -9.9820    250.4407      9.5472   5.5794817194e+01   2.2957062276e+01    0.2127783    0.1414108 -30.86 0.0006506408    1.928    0.481
        51 -10.9229    123.2211      9.8521   7.1744988645e+01   5.2120770171e+01    0.3217224    0.1813066  56.37 0.0008626673    1.474    0.321
        52 -11.1142     82.6775      6.0536   7.9933491292e+01   6.0812515475e+01    0.4886049    0.2402684 -24.87  0.001995245    2.188    0.543
        53 -10.5470     77.0931      9.2228   8.2769989225e+01   6.1554640542e+01    0.2738781    0.1887058  33.24  0.001081324    1.207    0.172
        54  -9.6124     77.3652      4.7712   8.0934138954e+01   6.1904858711e+01    0.2283166    0.1407161  -3.42 0.0007364632    1.746    0.427
        55 -11.4027    156.5611      4.7730   6.4579825295e+01   4.4900632337e+01     0.506906    0.3414586  54.52  0.001983061    1.315    0.239
        56 -11.5049     67.8523      5.1533   8.3956583215e+01   6.3549599801e+01    0.5813747    0.2528386  38.17  0.002953524    1.952    0.488
        57 -11.0812     60.4279      4.0480   8.5906543659e+01   6.4884954783e+01    0.4021566    0.1926108  28.34    0.0020881    2.004    0.501
        58 -11.6541     55.4578      2.4046   8.6898902162e+01   6.5825648880e+01    0.3448949    0.1989411  35.93 0.0009783397    1.456    0.313
        59 -10.4731    176.9474      4.4988   6.1805386028e+01   4.0112730885e+01     0.582333    0.2029693  75.86  0.001724413    2.960    0.662
        60 -12.2504    247.0676      2.7530   5.4772771165e+01   2.4436362694e+01    0.4361116    0.2004618  63.56  0.001002193    2.144    0.534
        61  -9.4143    216.2183      4.9848   5.7752961279e+01   3.0930736375e+01    0.2263026     0.158055 -31.59 0.0008187073    1.735    0.424
        62 -10.2599    223.6814      2.0914   5.6490629858e+01   2.9561957958e+01    0.3076915    0.1811306  74.57   0.00155783    1.448    0.309
        63 -10.3718    217.1988      1.4498   5.6919942901e+01   3.1078332489e+01    0.3520979   0.09663946  70.45  0.001419574    2.984    0.665
        64  -9.9317    145.1744      4.7975   6.6304044974e+01   4.7559640596e+01    0.1878003    0.1554543  81.73  0.001048262    1.173    0.148
        65  -9.4646     42.5090      4.3289   9.2511565221e+01   6.7544331108e+01    0.1592237    0.1416502 -43.43  0.001174214    1.885    0.469
        66  -9.4047    229.7674      1.3807   5.5841939748e+01   2.8294585356e+01    0.1593843   0.09379274  71.21 0.0009060563    1.504    0.335
        67  -9.2135    183.4164      1.4069   6.0286735852e+01   3.8877155586e+01    0.1253865    0.1009827  85.54 5.706514e-05    1.040    0.038
        68 -11.9242     18.6200     13.5605   1.0669624299e+02   6.9254492993e+01    0.4236346    0.2930438   1.36   0.00268367    1.201    0.168
        69 -11.7180    194.7597    112.9209   8.6507719840e+01   1.9443525321e+01    0.4106465    0.3622525  37.35  0.002129116    1.246    0.197
        70  -9.7251     97.7169    115.0113   1.1067533308e+02   4.0120171978e+01    0.2184491    0.1930663 -47.26  0.001168187    1.076    0.071
        71 -10.8736    132.9198    111.2943   1.0010723447e+02   3.3973495492e+01    0.4307157    0.3025939 -31.36  0.001913762    1.600    0.375
        72 -10.6367     67.4450    107.6670   1.1786811328e+02   4.6592741335e+01    0.5945908    0.2348856 -36.37  0.001934733    3.800    0.737
        73 -11.1093    201.2663    107.9361   8.4050763409e+01   1.8913102515e+01    0.3761309    0.1990492 -43.79  0.001458758    1.807    0.447
        74 -11.9354    242.0547    101.3921   7.5773268266e+01   1.1116548679e+01     0.702206    0.4604798 -86.26  0.002316008    2.108    0.526
        75  -9.7481     73.8644    108.1369   1.1602581163e+02   4.5570065146e+01    0.1938846    0.1616518 -18.92  0.000820418    1.317    0.241
        76  -9.8046     35.1936    108.6869   1.2797711327e+02   5.0109846024e+01    0.2363469    0.1017541  35.83 0.0007428148    2.640    0.621
        77 -10.5916    230.8193    105.3875   7.8371691217e+01   1.2780171548e+01    0.2772015    0.2389744 -50.62    0.0007475    1.056    0.053
        78 -11.0892     48.8122    102.1670   1.2239118441e+02   5.0171189510e+01    0.3105138    0.1345403 -45.06  0.001353212    2.086    0.521
        79 -11.1102     50.0022     97.4972   1.2094481550e+02   5.1073380601e+01     0.324795    0.1912282 -28.84  0.001537031    2.005    0.501
        80  -9.6052     45.9734     98.5073   1.2246760126e+02   5.1300199841e+01    0.1808342    0.1646205 -34.44  0.001038878    1.088    0.081
        81 -10.3397     28.3862    102.2363   1.2881702238e+02   5.2178626104e+01    0.2176666    0.2058484 -45.61  0.001165132    1.151    0.131
        82 -10.9048    134.0118    103.1959   9.7670949900e+01   3.5466505385e+01    0.4848088    0.2109414 -42.32  0.001741017    2.308    0.567
        83  -9.5209     81.2379    102.3821   1.1235709149e+02   4.5734509234e+01     0.194547    0.1323346  46.89 0.0009454667    1.653    0.395
        84 -10.9874      4.5343     99.4871   1.3566930246e+02   5.4490432527e+01     0.309213    0.1809882 -56.05  0.001891096    1.296    0.228
        85 -11.8941    175.6824     97.5247   8.6472138905e+01   2.6956679619e+01    0.6109734    0.4432753 -76.98   0.00213357    1.752    0.429
        86  -9.4686     34.3990     99.1647   1.2630277705e+02   5.2323645321e+01    0.1812624    0.1101528 -70.37 0.0007463113    1.721    0.419
        87 -11.5988    158.4791     96.6557   8.9979701510e+01   3.1212786495e+01    0.4608524    0.3911433  75.84   0.00176904    1.266    0.210
        88  -9.5844     63.3331     98.3184   1.1689255044e+02   4.9241283421e+01    0.1430262   0.09774077 -24.28 0.0004887846    1.694    0.410
        89 -10.4820    226.4139     95.7773   7.6873220670e+01   1.5468506769e+01    0.5021178    0.1557889 -43.67  0.001706308    2.903    0.656
        90  -9.7263     38.9059     96.8250   1.2435843928e+02   5.2406683685e+01    0.2030739    0.1532036 -35.16  0.001217013    1.258    0.205
        91 -10.9181    188.1882     94.1420   8.3103023912e+01   2.4613253910e+01    0.2636643    0.2500302  89.09 0.0009169895    1.022    0.022
        92 -10.4954    114.5826     95.0274   1.0061112343e+02   4.1275781956e+01    0.3195607    0.1958277 -60.88  0.001312175    2.113    0.527
        93  -9.9427    193.5066     93.5153   8.1939351270e+01   2.3463473665e+01    0.2433649    0.2257798 -47.47 0.0007646537    1.094    0.086
        94 -10.7493    193.0107     91.0000   8.1399735723e+01   2.4045884569e+01    0.3717965    0.2492294  44.89  0.001701392    1.623    0.384
        95 -10.6814    214.1855     89.1595   7.7274279178e+01   1.9406548758e+01    0.2828499    0.2200398 -35.58  0.000651904    1.341    0.254
        96 -10.1179     39.3147     92.3364   1.2321595989e+02   5.3346270802e+01    0.1991987    0.1638492 -31.44 0.0008622259    1.156    0.135
        97 -10.0374     33.6595     92.3247   1.2506775685e+02   5.3891802784e+01    0.2161663    0.1789993  16.56   0.00139837    1.397    0.284
        98 -10.8667     35.6852     90.3465   1.2395607006e+02   5.4129526028e+01    0.2916987    0.2230647  78.12  0.001683403    1.854    0.461
        99 -11.4338    200.2432     89.9014   7.9817995959e+01   2.2529066031e+01    0.5341356    0.3191664  66.17   0.00191269    1.832    0.454
       100 -10.5813     88.0508     90.1809   1.0700178255e+02   4.7236086687e+01    0.3634785    0.2015845 -42.81  0.001168349    1.714    0.417
       101 -10.8142    220.7287     92.1023   7.6916697797e+01   1.7392353652e+01    0.3792379    0.2101371 -61.52  0.001495841    2.199    0.545
       102 -11.2194     51.8998     87.6957   1.1792988424e+02   5.2970834945e+01     0.513722    0.3412467  14.91  0.002772016    1.774    0.436
       103 -10.7628     57.2997     85.3071   1.1551207409e+02   5.2812799590e+01     0.452444    0.2726431   7.95  0.002141467    2.297    0.565
       104 -10.9988     14.0760     88.5599   1.3070201053e+02   5.6258000510e+01    0.3028131    0.2824517  17.57  0.001273071    1.326    0.246
       105 -10.2814      2.0523     89.7015   1.3479471451e+02   5.6737935861e+01    0.2488133    0.1360071 -45.25  0.001120442    1.512    0.338
       106 -11.8016      4.6716     81.7340   1.3247903260e+02   5.8273479864e+01    0.6553888    0.2138769 -53.29  0.002586673    2.087    0.521
       107 -11.0879    154.1683     87.3927   8.8436796187e+01   3.4018784699e+01    0.4625269    0.2885821  69.09  0.001891323    2.028    0.507
       108 -10.6291     98.0926     77.4537   1.0024695981e+02   4.7976719783e+01    0.3776054    0.2636057  60.06  0.001136669    1.863    0.463
       109 -11.2090    107.2042     86.1330   1.0015578498e+02   4.4548345465e+01    0.5513207    0.3902759  -6.23  0.002494177    1.956    0.489
       110 -11.2151    101.7116     82.2896   1.0062161723e+02   4.6364721198e+01    0.6020225    0.3817028 -31.49   0.00279055    1.676    0.403
       111 -10.3672     42.2940     87.1354   1.2099622098e+02   5.4157476268e+01    0.2516831    0.1414355 -56.15   0.00129712    1.593    0.372
       112 -10.4600     18.1258     81.7430   1.2793575829e+02   5.7416523665e+01      0.37593    0.1879777  13.72  0.001750626    2.487    0.598
       113 -11.3621     29.4135     81.9890   1.2412889738e+02   5.6470502526e+01    0.3767235    0.2923248 -24.08  0.001709305    1.265    0.210
       114  -9.8564     28.7144     77.3494   1.2325578187e+02   5.7489567817e+01    0.2279512    0.1539322 -43.04  0.001013663    1.208    0.172
       115 -11.6241     25.6903     84.9967   1.2608730241e+02   5.6152624863e+01    0.4041716    0.3190581  67.71   0.00249747    1.763    0.433
       116 -10.3641     23.3896     80.1850   1.2578124176e+02   5.7344402805e+01    0.2624512    0.2098355 -57.88  0.001685568    1.178    0.151
       117  -9.5392    246.4588     87.4996   7.2130297841e+01   1.2591251008e+01    0.1886564    0.1279105  80.52 0.0006393407    1.701    0.412
       118 -10.7931    241.8431     85.4548   7.2309211893e+01   1.3908075788e+01    0.4191144     0.340336  31.64  0.001661907    1.701    0.412
       119 -11.0807    239.2590     82.4607   7.2004352721e+01   1.4964105632e+01    0.5314493    0.3995836 -11.64  0.002690125    2.026    0.506
       120 -10.6378    221.7830     84.4933   7.4981851251e+01   1.8485916906e+01     0.422887    0.2732832 -63.90  0.001993362    1.676    0.403
       121 -11.1880    217.3133     82.8368   7.5281847401e+01   1.9792282595e+01    0.3983205    0.2927497 -41.42  0.001256404    1.330    0.248
       122 -11.0574    220.1428     75.4252   7.3118712395e+01   2.0397431207e+01    0.6161791    0.4600134  34.56  0.003113231    1.834    0.455
       123 -10.2996    146.6949     86.4793   8.9917612769e+01   3.5941959827e+01    0.2670183    0.1979115 -12.28  0.001198245    1.798    0.444
       124 -11.1093    119.4549     86.3440   9.6798912111e+01   4.2018861420e+01    0.5885758    0.2177371  44.22  0.002039962    2.706    0.630
       125 -10.3047     82.2720     85.8845   1.0757986907e+02   4.9081796181e+01    0.3723717    0.1708479 -38.00  0.001501943    2.248    0.555
       126  -9.7047    205.2881     85.8898   7.7961573269e+01   2.2057503703e+01    0.2413188    0.1668341 -54.65 0.0007739565    1.427    0.299
       127 -11.0184    248.7316     84.1906   7.1119584070e+01   1.2671876204e+01    0.2908161    0.2154115 -80.09 0.0006416239    1.421    0.296
       128 -10.1405    186.2591     84.4034   8.0980309262e+01   2.6863671371e+01    0.2785097     0.254167  81.69  0.001037842    1.060    0.057
       129 -10.8139    188.8465     81.0736   7.9646339396e+01   2.6831450960e+01    0.4810105    0.3203315  88.52  0.002084561    1.968    0.492
       130 -10.3883    192.2782     72.7975   7.6925489541e+01   2.7425134314e+01    0.4006468    0.3594279 -60.49  0.002226641    1.085    0.079
       131  -9.6580    182.0135     83.6951   8.1603634067e+01   2.8015910806e+01    0.2092606    0.1859634  71.40  0.000408163    1.098    0.089
       132 -10.0676    140.1721     84.1719   9.0832589574e+01   3.7881566252e+01    0.2118219    0.1809578 -75.60  0.001067964    1.345    0.257
       133  -9.7262    229.4897     83.5185   7.3612964681e+01   1.6922651295e+01    0.1426207    0.1255509 -67.04 -3.975534e-05    1.010    0.010
       134 -10.4440    188.7974     75.7949   7.8302384868e+01   2.7759434882e+01    0.3405046    0.2362659 -64.42 0.0009494062    1.602    0.376
       135 -10.2863    160.1622     81.3986   8.5450108328e+01   3.3703073920e+01    0.3813948    0.2512154  72.91  0.001506277    1.868    0.465
       136 -11.6854    135.0775     80.4965   9.1031629426e+01   3.9724802669e+01     0.471982     0.277696 -36.83   0.00199373    1.764    0.433
       137  -9.9065     40.6038     82.1716   1.2033698461e+02   5.5374300211e+01    0.1924165   0.09539842 -44.99 0.0006700832    1.696    0.410
       138  -9.9322     63.0869     79.5845   1.1200922183e+02   5.3226246554e+01    0.4038034    0.2838374  84.32   0.00181761    2.944    0.660
       139  -9.9227     58.3639     77.1743   1.1291898693e+02   5.4335968066e+01    0.2075046    0.1631646 -25.82 0.0006445917    1.183    0.154
       140 -11.8514     59.1596     69.8338   1.1050430891e+02   5.5663384411e+01    0.6280827    0.4285855 -31.31  0.003513542    1.356    0.263
       141 -10.3385    176.9961     77.7082   8.0998540424e+01   3.0292541504e+01    0.4152184    0.2327866 -55.31  0.001691835    2.060    0.515
       142 -11.1159    172.0496     71.5804   8.0320073581e+01   3.2547341177e+01    0.5413126    0.3334519  82.94  0.002182766    2.310    0.567
       143 -11.2551    167.6208     76.5664   8.2556134482e+01   3.2766449099e+01    0.6464397    0.3747778  73.68  0.002534375    2.317    0.568
       144 -11.2079     68.3433     75.9288   1.0919901604e+02   5.3213594885e+01    0.4307362    0.3051193 -43.63  0.001438006    1.314    0.239
       145 -10.2976    237.5264     76.5272   7.0931541397e+01   1.6323630236e+01    0.2660393    0.2231167 -54.68  0.001072706    1.085    0.079
       146 -10.5688    234.2068     73.4442   7.0692987219e+01   1.7555699754e+01    0.4447558    0.2707665 -53.67  0.001613657    1.523    0.344
       147 -10.1080     75.7570     83.2720   1.0890358693e+02   5.0644634633e+01    0.3358977    0.2014745 -31.63  0.001397062    1.763    0.433
       148  -9.7137     36.7186     76.2017   1.2015616677e+02   5.6987629302e+01    0.2674817     0.103361 -39.32  0.001150111    2.465    0.594
       149 -12.4737    124.6670     69.7467   9.0483066429e+01   4.3965348244e+01    0.6200311    0.4961536 -68.35  0.002532434    1.575    0.365
       150 -10.0267    126.2794     63.9842   8.8311178541e+01   4.4584995226e+01    0.2775366    0.2102246   8.28 0.0006323752    1.648    0.393
       151 -10.0888    144.4998     75.4957   8.7310052513e+01   3.8467505011e+01    0.1481431    0.1434848  52.91 -0.0001015674    1.006    0.006
       152 -11.4611     82.0166     74.9392   1.0444485328e+02   5.1285269856e+01    0.2127679    0.1949666   5.95            0    1.066    0.062
       153 -10.8737     19.1957     72.9250   1.2555117319e+02   5.9148573446e+01    0.4106591    0.2229557 -24.28  0.002232464    2.040    0.510
       154 -11.4243    223.8688     45.3525   6.5747680011e+01   2.4181541345e+01    0.7928277    0.6012758 -61.06  0.004309575    1.195    0.163
       155  -9.9959    141.9890    243.5087   1.2383617119e+02   3.4859335382e+00     0.183078    0.1085152  21.68 0.0008103738    2.539    0.606
       156 -11.9469    233.7187     47.2240   6.5001790572e+01   2.1687992271e+01    0.4516624    0.3031287 -73.20   0.00119797    1.436    0.304
       157 -11.1779    246.4500     57.1929   6.5674295044e+01   1.7438963704e+01    0.4615763    0.3250491 -51.50  0.001775177    1.248    0.199
       158 -10.7495    242.4417     54.4673   6.5554598684e+01   1.8709623570e+01    0.3641495    0.2235983  79.47  0.001210025    1.669    0.401
       159 -11.7006    234.9640     56.7963   6.6931496462e+01   2.0001131611e+01    0.7701026    0.3495189  54.37  0.003417005    2.391    0.582
       160 -11.2469    237.8521     51.6891   6.5487817490e+01   2.0123324654e+01    0.3899922     0.302078  41.38  0.002216718    1.792    0.442
       161 -10.6717    214.7383     71.7840   7.3066252933e+01   2.2249710995e+01     0.361326    0.3023698   3.52  0.001640251    1.724    0.420
       162 -10.8088    150.9305     71.9866   8.4836073728e+01   3.7566764088e+01    0.3457763      0.20876  58.26  0.001518926    1.656    0.396
       163 -11.5148    115.8681     69.9685   9.2883298036e+01   4.5812752642e+01    0.4683276    0.2823943 -39.27  0.002160172    1.688    0.407
       164 -10.7722     51.6845     71.3527   1.1355689623e+02   5.6317847279e+01     0.258725    0.2233441  25.38 0.0006556037    1.290    0.225
       165 -10.7689     32.7030     70.3502   1.2004406591e+02   5.8539868523e+01    0.4096009    0.1785024 -42.62  0.002013043    1.913    0.477
       166  -9.9585    226.3566     69.5191   7.0875673587e+01   1.9947436448e+01    0.3995746    0.1217106 -38.33  0.001393053    3.108    0.678
       167 -10.1685    202.3142     70.7049   7.4730632852e+01   2.5360465962e+01    0.2740954     0.160444 -51.01  0.001236136    1.700    0.412
       168 -11.0442    102.7984     70.7157   9.6793523900e+01   4.8324097311e+01    0.4727977    0.2794709  58.64  0.002038477    2.257    0.557
       169 -10.1686      5.8739     71.1122   1.2988426863e+02   6.0379722779e+01    0.1570356    0.1366458 -64.88 0.0002938666    1.258    0.205
       170 -11.0705    133.1116     68.1748   8.7882362834e+01   4.2354727233e+01     0.388861    0.3302837  71.06  0.002068381    1.292    0.226
       171 -10.5010     26.4936     65.1387   1.2091365263e+02   6.0108826905e+01    0.5837535    0.2538341 -22.01  0.002350935    3.720    0.731
       172 -10.1950     46.8053     68.1778   1.1436214617e+02   5.7504088021e+01    0.3074859    0.1860541 -52.56  0.001661641    1.626    0.385
       173 -11.2788     42.3832     69.0756   1.1620502209e+02   5.7820775600e+01    0.6293339    0.5185292 -63.74  0.003993818    1.465    0.318
       174 -10.9985     36.4469     56.2346   1.1459860268e+02   6.0846489088e+01    0.4220569    0.2111016 -43.56  0.001908768    1.686    0.407
       175 -10.8213     36.1876     63.5961   1.1689233631e+02   5.9511079586e+01    0.5586483    0.2738451  15.05  0.002738796    2.547    0.607
       176 -10.2009     32.4848     62.0028   1.1780885975e+02   6.0170653453e+01    0.2417076    0.1513281 -46.63 0.0008592782    1.364    0.267
       177 -10.8291     33.4541     58.4795   1.1641278187e+02   6.0734415839e+01     0.272921    0.2007201 -61.65  0.001004396    1.678    0.404
       178 -10.6368    179.7313     68.7620   7.8113612060e+01   3.1145423556e+01    0.5151793    0.1886154  54.56   0.00183896    2.566    0.610
       179 -10.1939    158.4718     57.8843   7.9217314692e+01   3.8052867570e+01    0.3897093    0.2554237  16.46  0.001623234    2.534    0.605
       180 -10.4570    152.8739     44.5988   7.6516904209e+01   4.1327996997e+01    0.3900625    0.2098906 -19.98  0.001575857    2.571    0.611
       181 -11.9084    160.0906     50.3556   7.6767591940e+01   3.8781257033e+01    0.6056458     0.434831  88.91  0.002400677    1.660    0.398
       182 -12.0602    165.0100     62.3802   7.9179895529e+01   3.5766709618e+01    0.9373983    0.6291499  16.31  0.003957811    2.466    0.595
       183 -11.8173    165.9615     56.9075   7.7479758586e+01   3.6385523407e+01    0.8260294    0.5734714 -32.55  0.004097422    1.575    0.365
       184 -11.4479    140.2966     68.2679   8.6186529666e+01   4.0693512175e+01    0.5795259    0.2711732  47.56  0.002305221    2.048    0.512
       185 -10.0992     79.9221     69.2654   1.0337127905e+02   5.2692180521e+01     0.244179    0.1736685  15.31 0.0008790139    1.567    0.362
       186  -9.6837     69.0788     69.3211   1.0696369633e+02   5.4370448298e+01    0.1794349    0.1624441  14.04 0.0004993341    1.135    0.119
       187 -11.7567    151.9247     66.4998   8.3045769003e+01   3.8253652089e+01    0.7014692    0.2624229  45.90  0.001846457    2.729    0.634
       188 -11.4026    148.3375     64.6531   8.3297331162e+01   3.9408413197e+01    0.6286613    0.3915877 -83.32  0.002357506    3.002    0.667
       189 -11.6926    110.4468     66.4665   9.3287328849e+01   4.7543703675e+01    0.4654886    0.2720738  22.04  0.001884665    2.505    0.601
       190  -9.6754    111.3554     62.7372   9.1860946965e+01   4.7986924585e+01    0.1984597    0.1609185  10.44 0.0003510366    1.340    0.254
       191  -9.3478     92.3960     66.8005   9.8668847678e+01   5.0979613309e+01    0.1943678    0.1235856 -26.45 0.0005954092    1.692    0.409
       192 -10.5141    205.2520     65.5204   7.3001026562e+01   2.5501175187e+01    0.3152835     0.218981  85.55 0.0008593447    1.556    0.357
       193 -10.2953    234.4252     63.4578   6.8456447638e+01   1.9098925138e+01    0.2686803      0.19012 -45.70 0.0009230627    1.322    0.243
       194 -10.0248    190.2014     64.9799   7.5287847444e+01   2.9210683180e+01    0.2503159     0.200038  62.48 0.0007415268    1.207    0.171
       195 -11.0627    185.3610     60.6650   7.4996577500e+01   3.1070836511e+01    0.3260541    0.2180642 -66.73 0.0009035272    1.722    0.419
       196 -10.8209     12.6190     56.4158   1.2382031334e+02   6.2820092951e+01    0.2978872    0.1777214  28.55  0.001863305    2.023    0.506
       197 -10.8472     10.7972     63.5421   1.2634014095e+02   6.1580071741e+01    0.3318461    0.2050297 -47.99  0.001787025    1.241    0.194
       198 -12.9735     19.6965     58.8271   1.2175165569e+02   6.1859919663e+01    0.5194178    0.3247756 -32.33  0.003258008    1.357    0.263
       199 -11.5448     25.7209     53.0173   1.1774892669e+02   6.2438574784e+01    0.2692482    0.1780152 -13.04 0.0005609941    1.504    0.335
       200  -9.8551     28.9886     49.0131   1.1522726303e+02   6.2854365227e+01    0.1788008    0.1419301 -24.09 0.0003586091    1.011    0.011
       201 -10.4262     53.9170     62.5546   1.1012287960e+02   5.7701771062e+01    0.4135979    0.2231769 -53.31   0.00203081    2.072    0.517
       202 -10.3189     57.5091     60.3175   1.0813820752e+02   5.7640119603e+01     0.229818    0.1976416  17.53  0.001234261    1.203    0.168
       203 -11.4790     67.2725     61.9804   1.0526794449e+02   5.5975999413e+01    0.2805474    0.2388461  -1.88 0.0007061268    1.090    0.083
       204 -11.1092     97.5599     61.4120   9.5383526445e+01   5.0946733041e+01     0.317575    0.2584604 -74.60  0.001175493    1.791    0.442
       205 -10.8277    212.0452     54.4919   6.9370138658e+01   2.5597664362e+01    0.7330697    0.3117026 -64.25  0.002273513    4.420    0.774
       206 -10.4646    216.1447     60.5060   7.0212226296e+01   2.3721387356e+01    0.4927641     0.209207  63.54  0.001983338    2.331    0.571
       207 -11.1262    221.8581     57.2768   6.8692808075e+01   2.2892425816e+01    0.5085194    0.3578879 -76.11  0.002479884    1.434    0.303
       208 -10.3638    177.9697     60.4347   7.6224632516e+01   3.2911362510e+01    0.4894496    0.2926145 -23.31  0.001462169    2.212    0.548
       209 -10.9119    171.5103     48.8402   7.4252909182e+01   3.6220229234e+01    0.8125163    0.1948195 -36.09  0.002543818    4.053    0.753
       210 -12.2621    185.9136     46.9469   7.1359870859e+01   3.2973671513e+01    0.6714975    0.5772684 -40.99  0.001858782    1.258    0.205
       211 -11.7456    180.4984     38.6125   7.0047051601e+01   3.5427744088e+01    0.6083951    0.3464583 -74.20  0.002582441    2.454    0.592
       212 -10.0471    186.8063     38.2344   6.8995820154e+01   3.3945023256e+01    0.2398309    0.2027695  66.96  0.001318585    1.113    0.102
       213 -11.0530    174.0336     57.4655   7.6136421251e+01   3.4331213110e+01    0.3763801    0.3091916 -13.10  0.001109506    1.526    0.345
       214 -11.9183    176.3081     52.5142   7.4405433936e+01   3.4516729729e+01    0.5655479    0.4719156  49.29  0.002359581    1.234    0.190
       215  -9.7633     79.2597     61.0836   1.0097448125e+02   5.4259576639e+01    0.3581847    0.1558433  50.58  0.001359565    3.242    0.692
       216  -9.3638     46.4437     59.7829   1.1196619836e+02   5.9114119897e+01    0.1856557   0.09718356 -35.69 0.0009439435    1.729    0.422
       217 -11.5804    202.4425     36.0530   6.6287598175e+01   3.0469655362e+01    0.7160164    0.4583586 -84.35  0.003633254    1.659    0.397
       218 -10.9790    200.6718     59.1077   7.2133490440e+01   2.7603085072e+01    0.6124397    0.3751722  83.59  0.002780401    1.902    0.474
       219 -11.0440    200.9566     48.4375   6.9477725713e+01   2.9122383991e+01    0.9917667    0.2606257 -37.30  0.003346582    3.598    0.722
       220 -10.9430    194.5931     38.8577   6.8030576515e+01   3.1979547900e+01    0.6572902    0.2969377 -54.41  0.002691752    2.556    0.609
       221 -10.9259    194.5170     30.8201   6.6067901066e+01   3.3035860794e+01    0.3378778    0.2963005  12.90  0.001325805    1.557    0.358
       222 -11.4865    205.1662     44.1719   6.7863129697e+01   2.8720363715e+01    0.5182308    0.3078176 -82.84    0.0023872    2.013    0.503
       223 -10.8669    207.7993     41.3738   6.6849864565e+01   2.8482534016e+01    0.2853571     0.203811  58.52 0.0007729977    1.410    0.291
       224  -9.9177    191.8034     58.9321   7.3483006056e+01   2.9771829203e+01    0.3159152    0.1941333  67.41   0.00148293    1.589    0.371
       225  -9.6410    138.8815     59.0542   8.3772332537e+01   4.2518875849e+01    0.2151243    0.1918281 -70.16  0.001047422    1.254    0.203
       226 -10.3704      3.3872     57.8957   1.2774969901e+02   6.3101215663e+01    0.2315279    0.1813477  80.69  0.001571906    1.987    0.497
       227 -10.8738    123.0748     55.0000   8.6324126797e+01   4.6719601921e+01    0.2979623    0.1843699  50.75 0.0008715286    1.532    0.347
       228 -11.7661    119.6113     53.7994   8.6822409254e+01   4.7658447647e+01    0.4569299    0.2345791 -40.67   0.00158561    2.075    0.518
       229 -10.8195     99.8480     55.4833   9.2773122935e+01   5.1472799758e+01    0.3370918    0.2895933  -4.10  0.001662191    1.149    0.129
       230 -10.8663     88.1826     55.8791   9.6414352750e+01   5.3592699180e+01    0.4086803    0.2569759  62.47  0.001593055    2.577    0.612
       231 -10.9585     85.8688     52.1124   9.5869331243e+01   5.4607313113e+01    0.4394672    0.2927973  -0.90  0.001618604    1.877    0.467
       232  -9.3140     76.1829     56.8201   1.0057807844e+02   5.5488311778e+01    0.3181694    0.1909333  -1.70  0.001395424    2.555    0.609
       233 -11.5144    140.9656     51.4179   8.1006888200e+01   4.3187893479e+01    0.4766123    0.3355632  38.00  0.001359449    1.467    0.318
       234 -11.6400    150.1954     52.3742   7.9320058788e+01   4.0867408853e+01    0.5421365     0.407774  22.02  0.002731463    1.659    0.397
       235 -10.5994    146.3408     48.3442   7.8936433763e+01   4.2364468795e+01    0.4898732    0.2568306  64.57  0.002086682    2.013    0.503
       236 -10.8651     60.8025     52.7573   1.0448571818e+02   5.8497863307e+01    0.3224236    0.1965654 -41.11 0.0006147692    1.577    0.366
       237 -10.1968    192.9505     53.9116   7.2031223093e+01   3.0253623923e+01    0.2125179    0.1866641 -88.35  0.000409065    1.042    0.041
       238 -10.0084    104.8337     53.9046   9.0826633174e+01   5.0733300965e+01    0.2192563    0.1803165  13.55 0.0007144476    1.235    0.190
       239 -10.0872     71.1331     53.6169   1.0119221238e+02   5.6823208947e+01    0.2278126      0.16382 -42.64 0.0007930574    1.463    0.316
       240 -10.8479     75.9650     51.6624   9.8908726270e+01   5.6368313238e+01    0.2632196    0.2319632  48.23  0.001218613    1.390    0.281
       241 -10.0603      7.0472     48.6999   1.2391418519e+02   6.4595761145e+01    0.1961751    0.1561267 -46.22 0.0007125179    1.194    0.163
       242 -11.7172     42.8448     49.8873   1.1013340868e+02   6.1269347454e+01    0.5571352     0.242651  30.83  0.002383041    2.415    0.586
       243 -11.1023     38.2385     43.9035   1.0989404265e+02   6.2783251096e+01    0.3453956    0.3350933 -61.07  0.002052099    1.536    0.349
       244 -11.1538     31.4896     43.1731   1.1232055605e+02   6.3607368575e+01    0.3066553    0.2714166  27.70  0.001276634    1.469    0.319
       245 -10.0235     55.1624     49.9999   1.0557922977e+02   5.9728277180e+01     0.204042    0.1559869  42.12 0.0008264842    1.615    0.381
       246 -10.3938    194.5564     47.8355   7.0263306836e+01   3.0750014108e+01    0.3801138    0.3125085  80.78  0.001619263    1.113    0.101
       247  -9.6923     94.0294     48.2797   9.2068992403e+01   5.3697049711e+01     0.298209    0.1478908  42.38   0.00136574    1.913    0.477
       248 -10.3855     58.5077     45.4923   1.0280330570e+02   5.9999347314e+01    0.2483497    0.1120714 -39.35 0.0008003032    2.093    0.522
       249  -9.5533     54.8133     46.1855   1.0439106662e+02   6.0395704505e+01    0.1750822    0.1274759  -7.69 0.0005203437    1.310    0.237
       250  -8.8257     12.5361     34.2884   1.1721048031e+02   6.6705959321e+01    0.2147936     0.142921  15.68 0.0008351774    1.587    0.370
       251 -10.0721     16.0477     31.7464   1.1482187135e+02   6.6842466537e+01    0.2312502    0.1436794 -48.37 0.0008259811    1.642    0.391
       252 -12.3258     20.2366     42.0111   1.1651124253e+02   6.4823356033e+01    0.5850961    0.4473624 -65.85  0.002353179    1.939    0.484
       253 -10.6208     12.1522     40.9981   1.1954524563e+02   6.5614373938e+01    0.4693477    0.2219817 -15.88  0.002445664    2.560    0.609
       254 -10.9243    142.2758     43.5880   7.8367221775e+01   4.3981030928e+01    0.3810894    0.2848207  43.28  0.001772319    1.289    0.224
       255 -11.1571    118.2432     42.0883   8.3389626297e+01   4.9631796787e+01    0.4715384    0.2995347 -37.08  0.001954138    1.699    0.411
       256  -9.7555     67.0852     43.7637   9.9155701622e+01   5.9006445609e+01    0.2041368    0.1631874 -39.91  0.001262092    1.404    0.288
       257  -9.9454    213.9109     42.8064   6.6398908961e+01   2.6845667484e+01    0.1991066    0.1678965  60.36 0.0006619604    1.283    0.221
       258  -9.8436     97.5659     42.7717   8.9147025370e+01   5.3811950116e+01    0.2430343    0.1279908 -29.03   0.00114001    2.011    0.503
       259 -10.5626     99.6742     38.2655   8.6993345745e+01   5.4009083805e+01    0.3026691    0.2231857   1.56 0.0009637519    1.492    0.330
       260  -9.5652    238.4090     42.2542   6.3421899453e+01   2.1353803962e+01    0.1828782    0.1016241 -51.53 0.0006685515    1.611    0.379
       261 -10.5423     86.9042     41.1243   9.1737488134e+01   5.6055507642e+01    0.2820894    0.2619515 -32.38  0.001233513    1.266    0.210
       262 -10.3104    161.8672     41.1180   7.3836377731e+01   3.9628239667e+01    0.2449688    0.2302369  -1.63            0    1.237    0.192
       263 -10.0452    161.5238     37.5102   7.2886488031e+01   4.0181455853e+01    0.2448896    0.1561142  63.31 0.0007921105    1.422    0.297
       264  -9.8522    106.6834     43.9563   8.7007093229e+01   5.1820323513e+01    0.2563157    0.1871968 -81.77  0.001222085    2.420    0.587
       265  -9.4086    242.5247     40.5395   6.2630563626e+01   2.0693874218e+01    0.1324473    0.1037408 -72.81 0.0008080578    1.062    0.059
       266  -9.8801    130.2909     40.1146   7.9906376581e+01   4.7213451477e+01    0.1777586    0.1716233  35.73 0.0004458946    1.066    0.062
       267 -10.4104    171.0256     37.9244   7.1378899227e+01   3.7822733623e+01    0.4466623    0.2506319 -88.20   0.00110708    2.629    0.620
       268 -11.7760    146.8723     35.3427   7.4974396522e+01   4.3965507504e+01    0.7593371    0.3170012  55.13  0.002981161    2.069    0.517
       269  -9.7532    136.5564     38.7251   7.8098823596e+01   4.5955929241e+01    0.2539898    0.1436184  47.40 0.0006401003    1.620    0.383
       270 -10.5026     46.0003     37.1362   1.0446757574e+02   6.2941228526e+01    0.2373506    0.1448423 -34.83 0.0009489353    1.491    0.329
       271 -11.2489     53.9499     36.1691   1.0110101605e+02   6.2043871200e+01    0.6591956    0.3667481  42.47  0.003577681    2.083    0.520
       272 -10.2446     51.2170     30.7616   1.0008393720e+02   6.3184897043e+01    0.2299408    0.1657419   4.81 0.0006604336    1.257    0.205
       273 -10.4543     55.2325     29.9491   9.8274157407e+01   6.2738307811e+01    0.2022459    0.1577217   5.81 0.0004315946    1.088    0.081
       274 -10.7193    124.2710     35.4778   7.9802821284e+01   4.9160361031e+01    0.4972901    0.2776872 -18.78  0.002301238    2.236    0.553
       275 -10.3843    109.7742     37.1640   8.3901218709e+01   5.2088315344e+01      0.37089     0.172931 -36.87  0.001271493    2.306    0.566
       276  -9.9610     36.5651     27.1036   1.0442496473e+02   6.5532531045e+01    0.2023298      0.12863  24.29 0.0008144071    1.523    0.344
       277  -9.9944     16.2172    240.4004   1.4718092662e+02   2.2376641566e+01    0.1541706   0.07721107  53.69 0.0007944662    1.635    0.388
       278  -9.5304     25.3181     38.2466   1.1315476981e+02   6.5004195230e+01    0.1452821    0.1086919  -9.05 0.0002756685    1.163    0.140
       279 -10.5400     24.6727     34.2993   1.1204449844e+02   6.5693773207e+01    0.2205784    0.2004015 -52.84  0.001644243    1.618    0.382
       280 -10.6205     23.5633     29.2462   1.1068323528e+02   6.6575214311e+01    0.3060825    0.1751546 -48.23  0.001844366    1.941    0.485
       281 -11.1626     28.1905     29.2685   1.0872698609e+02   6.6122731109e+01    0.3314536    0.2126393 -15.88   0.00123898    1.371    0.271
       282 -10.2481     53.0120    238.2289   1.4054705223e+02   1.8380077596e+01    0.1530644   0.08665595  44.51 0.0004798088    1.634    0.388
       283 -10.4156    221.9455     36.2966   6.3960137436e+01   2.5871119461e+01    0.4229203    0.2170025  77.58   0.00160535    1.957    0.489
       284 -10.4573    248.3158    235.8745   1.0205513811e+02  -1.2666432087e+01    0.1981647    0.1683376  17.92 0.0003799049    1.201    0.168
       285 -11.1858    217.5293     29.1275   6.2868518065e+01   2.7823217761e+01    0.3535579    0.2432816 -78.11  0.001289841    1.362    0.266
       286 -10.2614    248.7077     43.7549   6.2656506394e+01   1.8916180420e+01    0.3481922    0.1350389  63.21  0.001560254    2.533    0.605
       287 -10.7035     89.8275     33.2261   8.8039336277e+01   5.6568022348e+01    0.8578103    0.2975323  40.71  0.003436775    2.738    0.635
       288  -9.6358    109.6955    225.3452   1.2796068891e+02   1.2489004183e+01    0.1418003   0.09320622  72.13 0.0001665493    1.690    0.408
       289 -11.2459     72.2784     17.4334   8.7485907674e+01   6.1577366534e+01    0.4800972    0.2107138  41.53  0.002413064    1.996    0.499
       290  -9.9294     52.5251    224.5044   1.3940664321e+02   2.1275487381e+01    0.1250662   0.09874939  77.29 0.0001003896    1.012    0.012
       291 -11.9593     66.3237     30.8437   9.4661483730e+01   6.0954054628e+01     0.418795    0.4003489  74.24  0.002011666    1.586    0.369
       292 -10.7040     61.4993     31.5160   9.6605115963e+01   6.1609064237e+01    0.2140597    0.1651235  16.85 0.0006435422    1.144    0.126
       293 -10.2841    244.8769     25.5179   5.9351877871e+01   2.2185473555e+01    0.3190648     0.147944  77.00  0.001575589    2.082    0.520
       294  -9.7253    246.1584     33.3199   6.0795188340e+01   2.0892685576e+01    0.5190539    0.1760457  71.62  0.001602718    2.998    0.666
       295 -10.7756    248.5782     29.6649   5.9838273999e+01   2.0859979370e+01    0.7463721    0.2247414  64.38  0.003127646    3.064    0.674
       296 -11.0565    236.0586     31.8548   6.1487650674e+01   2.3282999827e+01    0.4469388    0.2344683  82.54  0.002226977    1.922    0.480
       297  -9.9756    126.7358    216.7601   1.2313874838e+02   1.1314268365e+01     0.197956    0.1509153  71.88  0.001056244    1.388    0.279
       298 -10.7499    136.5788     31.3678   7.5828608021e+01   4.6859334386e+01    0.5481651     0.339637  18.50   0.00252791    2.337    0.572
       299 -10.4990    136.8966     23.9899   7.3496489126e+01   4.7623024980e+01    0.3999682    0.2457114 -12.23  0.001997942    2.124    0.529
       300 -10.6637     26.4307    212.8811   1.4340009816e+02   2.6917801549e+01    0.2433805    0.1744913 -57.28  0.001566442    1.685    0.406
       301 -10.1137    247.8215    203.4036   9.6179024431e+01  -7.8162529697e+00    0.1797779    0.1117827  24.88 0.0006938443    1.681    0.405
       302 -10.4454    178.8755     31.0621   6.8328432186e+01   3.6781002123e+01    0.5180261     0.178053  63.62  0.001290553    2.555    0.609
       303 -10.1679    234.0000    200.9871   9.8223464435e+01  -5.1951602959e+00    0.2185725   0.07099432 -39.75 0.0008081631    2.982    0.665
       304  -9.5815      7.5358    186.4901   1.4495406232e+02   3.4589460513e+01    0.1190622   0.08957072 -88.29 3.729616e-05    1.022    0.021
       305  -9.7389     38.2195    179.7712   1.3777553758e+02   3.3042342848e+01    0.1746854    0.1109519  16.31 0.0008925123    2.489    0.598
       306  -9.7064    187.3132     14.4398   6.2989812485e+01   3.6656476571e+01    0.2349342    0.1679744  80.56 0.0008156553    1.215    0.177
       307 -11.7477    246.1004    177.3334   9.1338563133e+01  -3.2420427567e+00    0.3339781    0.2386339 -26.07  0.001103956    1.311    0.237
       308 -10.4961    186.2210     25.9432   6.5976684016e+01   3.5623405560e+01    0.5788127    0.2210431 -26.05  0.002230944    3.494    0.714
       309 -11.2459    171.4045     31.0215   6.9460766180e+01   3.8596929746e+01    0.3785636    0.2606413  88.22  0.001497135    1.548    0.354
       310  -9.1953    166.0231     30.0000   7.0044517685e+01   4.0022579666e+01    0.2623987     0.148373  62.32 0.0006819657    1.554    0.356
       311  -8.8478    160.6461     32.7283   7.1699768482e+01   4.0991480679e+01    0.1409194   0.09440722  40.03 0.0006998624    1.637    0.389
       312  -8.9060    113.4448     32.4414   8.1385469287e+01   5.1899378861e+01     0.135408    0.1140059  31.44 0.0002642382    1.091    0.083
       313 -11.3535    107.3074     29.5395   8.1939236828e+01   5.3541960865e+01     0.669023    0.2949018  57.80  0.002883401    2.359    0.576
       314 -10.2409    228.9413    175.3971   9.4038392270e+01   1.3283099130e-01    0.2324902    0.1854896 -46.21 0.0005529441    1.296    0.228
       315  -9.5389      9.3114    167.3464   1.4289363136e+02   3.8750735897e+01     0.120505   0.07509115 -52.45 0.0007045895    1.710    0.415
       316 -11.1642    247.2954    165.9642   8.8803467264e+01  -1.4778000883e+00    0.2388961     0.198538  23.67 0.0004465542    1.292    0.226
       317 -10.2533     14.0051    165.0252   1.4162093103e+02   3.8883467712e+01    0.1945128    0.1527932 -85.22  0.001028052    1.022    0.021
       318 -10.9066    249.1409    161.6492   8.7596426534e+01  -1.0454296687e+00    0.2473305    0.1729085 -46.23  0.001317727    1.396    0.283
       319 -10.0352      2.5865    161.2285   1.4380067841e+02   4.0678062201e+01    0.1726673   0.08257219 -65.79 0.0009470003    1.637    0.389
       320 -10.3906    249.4720    155.8896   8.6342054161e+01  -8.9691310575e-02    0.2424025    0.2223698 -43.99 0.0009823517    1.124    0.110
       321 -10.3529     76.8185    156.2111   1.2507089596e+02   3.3668576637e+01     0.255125    0.1426636  73.77 0.0009597875    2.894    0.654
       322 -12.4526     19.4036    148.3280   1.3848538412e+02   4.2295887351e+01     0.655032    0.3737034 -43.34  0.003527995    2.023    0.506
       323 -11.6216    152.8557     27.9225   7.1695531877e+01   4.3430368197e+01     0.391254    0.2650397 -21.57 0.0005600888    1.774    0.436
       324  -9.8545     34.5023    150.4874   1.3500678942e+02   4.0366537569e+01    0.1309137    0.1076044 -78.92 -9.355068e-05    1.025    0.025
       325  -9.7737     25.7349     14.3187   1.0383845810e+02   6.8442569940e+01    0.1682409    0.1113415  23.31 0.0006436164    1.467    0.318
       326  -9.9475     15.6931     21.5163   1.1121714508e+02   6.8420048460e+01     0.155441    0.1204592 -16.82 0.0003642954    1.093    0.085
       327 -11.2162      4.7850     27.0563   1.1816774758e+02   6.8404430179e+01    0.3739295    0.2449867  10.94  0.002708325    1.567    0.362
       328 -11.0920     11.8183     25.6500   1.1450696258e+02   6.8121000112e+01    0.4267878    0.2093277 -19.35  0.001710562    2.074    0.518
       329 -12.7883    238.6293    145.5476   8.5977631964e+01   3.7844052518e+00     1.047463    0.6709971  82.21  0.004159039    3.234    0.691
       330 -11.2964    236.3020    135.1178   8.4105607355e+01   6.1657073610e+00    0.3516569    0.2751411  21.29  0.001302224    1.605    0.377
       331 -10.9378    247.7646    145.0032   8.4331992117e+01   2.1608487867e+00    0.2930633    0.2694183  -0.76  0.001694329    1.167    0.143
       332 -11.7856    245.7065    140.6639   8.3744471826e+01   3.3274883456e+00    0.3827955    0.2897811  49.30  0.002094246    1.486    0.327
       333 -10.5756    229.4690    153.9778   8.9409345230e+01   3.9879818612e+00    0.2624939    0.2169376 -65.35  0.001049286    1.422    0.297
       334  -9.6714    191.6664     26.5960   6.5410925275e+01   3.4237302762e+01    0.1908468    0.1449178  41.74   0.00107004    1.589    0.371
       335 -11.2398     38.9788    145.9787   1.3322402039e+02   4.0977081868e+01    0.4435796    0.2625638 -69.97  0.002332307    1.450    0.310
       336  -9.1499     61.2971    147.3132   1.2759111345e+02   3.8013161675e+01    0.1372013   0.09982945 -37.98 0.0002603979    1.602    0.376
       337  -9.8149      5.0975    147.1851   1.4181937869e+02   4.3694903263e+01    0.1881754    0.1307195 -59.86  0.001216634    1.290    0.225
       338 -10.1181    201.2487     25.6550   6.3972903290e+01   3.2065918860e+01    0.2088605    0.1555647 -58.24 0.0007454291    1.306    0.235
       339 -10.1017    159.9938     24.5661   6.9528285665e+01   4.2103740051e+01    0.4046454    0.2347435  88.04  0.001835184    2.207    0.547
       340 -10.6542     50.8299     25.1705   9.8053014489e+01   6.3988790242e+01    0.4343537    0.1527931  33.21  0.001949123    2.851    0.649
       341  -9.6651     18.7627     26.0446   1.1157283960e+02   6.7489857748e+01    0.1630083   0.09544258  -8.34 0.0003688887    1.677    0.404
       342 -10.5642    168.5946     24.1359   6.8049280060e+01   4.0083487136e+01    0.4683199    0.2309708  50.59  0.002166145    1.935    0.483
       343 -10.8092      7.0071    143.1096   1.4091031229e+02   4.4490772285e+01     0.333768    0.1712492  55.13  0.001783439    2.275    0.561
       344  -9.9533    217.5985     22.1881   6.1328358959e+01   2.8667538666e+01    0.3363552    0.1709314 -79.77  0.001523696    2.326    0.570
       345 -11.1451     98.3869     22.1982   8.1681697531e+01   5.6194208161e+01    0.2615291    0.1961931  38.99 0.0007359255    1.152    0.132
       346 -11.7099    211.9564    138.5412   8.9233602389e+01   1.0528673454e+01    0.6151124    0.4488844  20.60  0.002708542    1.817    0.450
       347 -10.8706    244.3472     20.8331   5.8469955454e+01   2.2888182916e+01    0.2770527    0.2074298 -84.55 0.0009793333    1.102    0.093
       348 -10.1827    240.5799     19.7560   5.8588650044e+01   2.3832110194e+01     0.245953    0.1501863 -50.61  0.001426398    1.469    0.319
       349  -9.2118    164.8249     33.8758   7.1307205934e+01   3.9840656073e+01    0.1839939    0.1478243 -71.01 0.0006161073    1.333    0.250
       350 -10.2723     54.5206    137.9587   1.2779900781e+02   4.1134024943e+01    0.2185058    0.1193429 -62.19   0.00103357    1.594    0.373
       351  -9.9353    198.4396     19.5605   6.2874730638e+01   3.3448854072e+01     0.321433    0.1939153 -47.10  0.001314297    1.669    0.401
       352 -10.3694      3.8147    135.9067   1.4087484874e+02   4.6363928706e+01    0.2327263    0.2100851  -7.41  0.001720381    1.480    0.324
       353  -9.7675      9.0872    134.8746   1.3941694448e+02   4.6232773676e+01    0.1794475    0.1394844  83.46  0.000521698    1.265    0.210
       354 -11.2190    249.4230    132.3819   8.1377072350e+01   4.1152643794e+00    0.3895703    0.2939589 -16.01  0.002063116    1.583    0.368
       355 -11.3297     12.9787    125.0143   1.3709557985e+02   4.8216156887e+01    0.2928674     0.202686 -49.70  0.001833369    1.341    0.254
       356 -11.1377     12.0098    130.0004   1.3803378503e+02   4.7141495262e+01    0.3358029    0.2208826 -24.24   0.00167477    2.055    0.513
       357  -9.8224    232.6047     18.7703   5.9114243088e+01   2.5696833607e+01    0.2719474   0.08095182 -43.41  0.001139925    2.862    0.651
       358 -11.3153    242.4688    129.7240   8.1911074499e+01   5.9388358142e+00    0.3147186    0.2529474  38.84  0.001633189    1.428    0.300
       359 -10.8536    224.0534    129.2169   8.4903071465e+01   9.7788797666e+00    0.2841485    0.1993398  57.71  0.000822274    1.580    0.367
       360 -10.3322    148.1847     17.9814   6.9632082401e+01   4.5617792292e+01    0.3018019    0.1711438  29.91  0.001398061    2.382    0.580
       361 -11.0367    226.6338    125.6747   8.3653829430e+01   9.9092847070e+00     0.389579    0.3004116 -59.44  0.000982897    1.340    0.254
       362 -10.5683     72.3308    129.1172   1.2115059841e+02   4.0891592384e+01    0.2298781    0.1986904  12.29  0.000855034    1.375    0.273
       363 -11.7751     25.1604    128.3988   1.3427227879e+02   4.6463247680e+01    0.4837635    0.2427278  19.56  0.002410966    2.649    0.622
       364 -10.8483     56.1128    126.4178   1.2523522171e+02   4.3700677331e+01    0.3826736    0.1901286 -48.51  0.001729998    1.849    0.459
       365 -10.0810    207.9816    127.3162   8.7401375062e+01   1.3606697526e+01    0.2086746    0.2013395  74.68 0.0006950238    1.076    0.071
       366 -10.7760     67.0185    124.2372   1.2166088705e+02   4.2799857233e+01    0.2675239    0.2058403 -13.32  0.001395148    1.682    0.406
       367 -10.9194     15.2786    132.5576   1.3751495487e+02   4.6305257457e+01    0.3252314    0.2724516   6.24  0.001901387    1.576    0.365
       368  -9.9854    155.9914     16.3054   6.7864953241e+01   4.3941166064e+01    0.2498644    0.1683485 -59.26  0.001347156    1.736    0.424
       369  -9.5490     92.1528     15.6918   8.0982421444e+01   5.8102495370e+01    0.1790889    0.1332772  40.81  0.001110481    1.149    0.130
       370  -9.7263     79.2318     15.8014   8.4697030128e+01   6.0523790122e+01    0.1751716    0.1325112 -75.77 0.0007342601    2.710    0.631
       371  -9.8216    178.8439     14.7082   6.4133671769e+01   3.8648038496e+01    0.1843202     0.141173  77.39   0.00046815    1.119    0.106
       372  -9.5878    242.7655     13.3998   5.7144975565e+01   2.4127049125e+01    0.2398726     0.139075  72.32  0.001393609    1.571    0.364
       373 -10.3894    217.3040    120.2886   8.4056446402e+01   1.2931023364e+01    0.3513034    0.2360853 -26.97   0.00112199    1.724    0.420
       374  -9.2742     67.6404     13.2469   8.7317286743e+01   6.2804251729e+01     0.102389   0.09222378  61.74 0.0003891546    1.603    0.376
       375 -10.7214     22.8971    108.1346   1.3159581288e+02   5.1309141333e+01    0.3060138     0.221298 -10.50  0.001863431    1.737    0.424
       376 -11.7755     10.3789    107.2165   1.3516842665e+02   5.2424809220e+01    0.7476858    0.2313399 -42.70  0.003043898    3.337    0.700
       377 -11.9946     22.2017     95.9730   1.2953772112e+02   5.4068073100e+01    0.5073277    0.3015146 -27.28  0.002361478    1.922    0.480
       378 -11.8223     18.3076    104.1574   1.3227877033e+02   5.2554140493e+01    0.3394059    0.3012064  58.32  0.001407083    1.371    0.271
       379 -11.0103     15.8999     98.5724   1.3201735374e+02   5.3963827041e+01    0.3834127    0.1989177 -30.29  0.001519677    2.265    0.558
       380 -10.2251     55.1304     17.5926   9.3405916771e+01   6.4304758038e+01    0.2599763    0.1770754  -2.87 0.0009045749    1.365    0.267
       381 -11.2221      5.8139    119.9945   1.3835054521e+02   4.9849947042e+01    0.2751255    0.1828022  81.37  0.001666385    1.663    0.399
       382 -10.9552      5.4939    116.0201   1.3788880657e+02   5.0766315988e+01    0.2985148    0.2047529 -71.57  0.001040008    1.176    0.150
       383 -10.5771    246.7127    122.0386   7.9575246617e+01   6.4956699555e+00    0.2075184     0.162145 -43.61 0.0008911181    1.132    0.116
       384  -9.1714     20.2886    119.3584   1.3423172292e+02   4.8959848607e+01    0.1322472    0.0746183 -45.11 0.0007025264    1.684    0.406
       385 -10.0556     13.0246    117.4845   1.3599415902e+02   4.9932408680e+01    0.1517616    0.1233959  17.41 0.0006912972    1.560    0.359
       386 -11.6478    237.7505    113.5220   7.9103376763e+01   9.8419693056e+00    0.3460428    0.2688176 -42.82  0.000883308    1.170    0.145
       387 -12.2985    227.9294    112.5232   8.0456089673e+01   1.2094244193e+01    0.8685788    0.3677489  51.23  0.003398729    2.529    0.605
       388 -11.8688    207.4655    112.3801   8.3974241669e+01   1.6639329238e+01    0.5963327    0.3185702 -49.83  0.001100817    1.871    0.466
       389  -9.2892     22.9910    115.0562   1.3275965364e+02   4.9729167095e+01    0.1470465    0.1164516 -62.20 0.0003027012    1.022    0.022
       390 -10.7838    233.0024     99.3086   7.6660729155e+01   1.3401770803e+01    0.4047439     0.306483 -80.99  0.002105139    1.487    0.328
       391  -9.7754    245.1741     93.2122   7.3542227068e+01   1.1888104173e+01    0.2276481    0.1698756 -59.69 0.0004370205    1.243    0.196
       392 -11.7443    246.0271     97.7479   7.4407857720e+01   1.0930018524e+01    0.7008175    0.3980584  80.35  0.002964539    2.694    0.629
       393 -10.9135    183.1404     27.8188   6.6876491170e+01   3.6142569612e+01    0.6030722    0.2222634 -46.00  0.002400103    2.885    0.653
       394 -12.3284    246.4821    109.2197   7.6832367720e+01   8.8283082614e+00    0.6443291    0.4225534 -43.42  0.003312181    1.347    0.258
