#   1 NUMBER                 Running object number                                     
#   2 MAG_AUTO               Kron-like elliptical aperture magnitude                    [mag]
#   3 X_IMAGE                Object position along x                                    [pixel]
#   4 Y_IMAGE                Object position along y                                    [pixel]
#   5 X_WORLD                Barycenter position along world x axis                     [deg]
#   6 Y_WORLD                Barycenter position along world y axis                     [deg]
#   7 A_WORLD                Profile RMS along major axis (world units)                 [deg]
#   8 B_WORLD                Profile RMS along minor axis (world units)                 [deg]
#   9 THETA_WORLD            Position angle (CCW/world-x)                               [deg]
#  10 FWHM_WORLD             FWHM assuming a gaussian core                              [deg]
#  11 ELONGATION             A_IMAGE/B_IMAGE                                           
#  12 ELLIPTICITY            1 - B_IMAGE/A_IMAGE                                       
         1 -13.8720    224.1258     18.1924   3.7790248620e+01   2.7337678550e+01    0.9597749    0.8660684  38.40   0.00262613    1.438    0.304
         2 -12.5254    215.6086     26.9992   4.0722151196e+01   2.8251503882e+01    0.4931373    0.4489138  31.07  0.001126451    1.398    0.285
         3 -13.6029    199.2026     40.5923   4.6125632359e+01   3.0413146058e+01     1.330845    0.9834402  21.32  0.004203227    1.926    0.481
         4 -13.9595    207.7756     34.2295   4.3399012250e+01   2.9190873704e+01     1.528628     1.207175 -15.40  0.006987169    1.551    0.355
         5 -10.9211      2.1867      3.1486   9.0303963275e+01   7.4028762114e+01    0.2938118    0.1103567 -43.61  0.001582141    2.230    0.552
         6  -9.6134    132.7087     10.6387   4.7192511107e+01   5.0235154869e+01    0.2182642    0.1581186  77.33 0.0005413666    1.420    0.296
         7 -10.5825     49.3133      2.9938   6.6421857837e+01   6.8326889586e+01    0.2219547    0.1761906  60.52 0.0008707521    1.948    0.487
         8 -10.3164     44.4650      1.4593   6.7595510992e+01   6.9254580595e+01    0.2164042    0.1077897  47.27  0.001149064    2.201    0.546
         9 -10.8971    246.3622      1.6734   3.2462436194e+01   2.4308617861e+01    0.4756705    0.1483351  77.24  0.001952199    3.153    0.683
        10 -11.2622    193.1811    195.1573   8.4667555660e+01   4.2279069720e+00    0.8374129    0.4277093 -61.69  0.002492016    6.003    0.833
        11 -11.4471    139.4026    248.0030   1.0371617753e+02   4.2655367916e+00    0.4319237    0.2646871 -59.48  0.002493293    2.082    0.520
        12 -14.0338      4.1208    183.9942   1.2474046148e+02   3.4728866486e+01     1.661701    0.5214937 -82.61 0.0008285501    2.810    0.644
        13 -13.9273     22.5855    223.9985   1.2371230654e+02   2.4553488881e+01     1.205276    0.4801818  70.07  0.003878848    2.553    0.608
        14 -15.8112     54.8853    248.2229   1.1951795360e+02   1.6214468304e+01      9.16578     2.239704  31.45   0.01189142    9.742    0.897
        15 -14.8122      9.4973    207.4701   1.2514271155e+02   2.9218941527e+01     1.215404     1.059446 -22.27  0.005121242    1.911    0.477
        16 -13.4059     34.7004    206.5643   1.2017518962e+02   2.6839993317e+01    0.5523552     0.476281 -48.20  0.001171791    1.609    0.379
        17 -16.4993     41.2115    194.3981   1.1778590728e+02   2.8753439643e+01     9.870992     3.798203  64.24   0.03859292    3.432    0.709
        18 -11.8733     67.3985    173.4970   1.0946678635e+02   3.0290366433e+01    0.3168752    0.2656151 -40.86  0.001005228    1.463    0.317
        19 -13.4941     64.4188    159.7045   1.0825483072e+02   3.3996577941e+01    0.5691637    0.3301547 -47.10  0.002128108    1.908    0.476
        20 -13.3580     57.7170    130.0387   1.0522944325e+02   4.2170549010e+01     2.997936    0.8954988 -71.50  0.006264808    8.720    0.885
        21 -11.8072     76.9726    163.7675   1.0569229187e+02   3.1264483547e+01    0.3407433     0.318048  83.34 0.0003632002    1.063    0.060
        22 -14.3101     81.1671    156.8861   1.0350682699e+02   3.2306599324e+01     3.268554     1.358586  57.72  0.002715261    4.021    0.751
        23 -13.4193     68.4295    144.3424   1.0474914571e+02   3.7218585153e+01    0.9219878    0.6064675  84.98  0.003084207    1.850    0.459
        24 -10.1104    158.9523    161.9277   8.5311100292e+01   1.7092302526e+01    0.4204413    0.3018922  85.64  0.001783796    2.269    0.559
        25 -10.1997    111.4868    196.5314   1.0249685236e+02   1.8361666634e+01    0.3495612    0.2178507  89.42  0.001547181    2.375    0.579
        26 -10.9554    133.6407    143.7652   8.7374354883e+01   2.6166582931e+01      1.19537    0.2776163 -54.10  0.002510994    6.976    0.857
        27 -10.0876    174.8357    148.9348   7.8895999110e+01   1.6570322216e+01    0.2865487    0.2180281 -62.97 0.0009021158    1.598    0.374
        28 -10.7609    139.4257    171.3022   9.1730037933e+01   1.8872522052e+01    0.4704359    0.2397069  53.80   0.00181816    2.346    0.574
        29 -11.9752     31.4030    144.1439   1.1466863968e+02   4.1594321779e+01     0.427303    0.3193481  44.69  0.002577973    1.466    0.318
        30 -10.9090     99.5699    141.6245   9.5775881545e+01   3.3048121213e+01    0.6517391    0.3731897 -30.19  0.002437703    2.752    0.637
        31  -9.9110    230.0000    166.0100   7.1755532796e+01   2.7058305262e+00    0.2265975    0.0713896 -37.63 0.0007093922    2.918    0.657
        32 -12.2965     86.4999    141.4973   9.9295573983e+01   3.5242292761e+01    0.3068212    0.2606478 -48.39  0.000505264    1.183    0.155
        33  -9.6067    159.4779    135.4961   7.9198351584e+01   2.2639566264e+01     0.263724    0.1453316 -54.41 0.0005494706    2.072    0.517
        34 -10.5808     27.5177    135.8892   1.1464219182e+02   4.3970349268e+01    0.2026422    0.1076492 -70.35 0.0007428898    1.550    0.355
        35 -12.0581     66.6985    127.0216   1.0205205992e+02   4.1741896219e+01    0.6020288    0.3401038 -62.22   0.00275482    1.616    0.381
        36 -11.4145     48.4319    130.9322   1.0805386137e+02   4.3058908709e+01    0.3749053    0.1975306  86.81  0.001456753    2.940    0.660
        37 -10.7319     96.7658    127.6297   9.3523552985e+01   3.6923447006e+01    0.2904786    0.2584255 -21.73 0.0007267689    1.260    0.207
        38  -9.0052    125.7054    127.3493   8.5562347946e+01   3.1540878781e+01    0.1595575    0.1238527 -87.09 0.0003306439    1.676    0.403
        39 -10.3246    115.9956    125.3415   8.7663445263e+01   3.3931036334e+01    0.2851709    0.2166086 -24.92  0.001301064    1.572    0.364
        40 -11.2855    135.3191    122.5819   8.1884585982e+01   3.0645239765e+01    0.6064811    0.1400671 -49.52  0.001463288    4.851    0.794
        41  -9.8548    106.6604    119.9056   8.8912026555e+01   3.6990502613e+01    0.2240162    0.2076922  12.31 0.0002859313    1.181    0.154
        42 -10.9238    107.8690    131.2342   9.1263451242e+01   3.4071550519e+01    0.5817702    0.3437704  41.22  0.002427456    1.758    0.431
        43 -12.3559     23.3035    118.5250   1.1341294994e+02   4.8567000247e+01    0.4199238    0.2306152 -62.57  0.002210889    1.450    0.310
        44 -11.0284     43.8491    122.6442   1.0797975832e+02   4.5613642701e+01    0.2487217    0.1587127 -56.51 0.0007005311    1.349    0.259
        45  -9.7835     83.8789    117.9209   9.5030727720e+01   4.1426260058e+01    0.2361032    0.1775265  79.75  0.001117338    1.717    0.418
        46 -10.2970    146.0742    182.7153   9.2365564070e+01   1.5202543326e+01    0.2099919    0.1868864  33.53  0.001165947    1.091    0.083
        47  -9.7280    168.1375    112.9561   7.1533269983e+01   2.5467983058e+01    0.3249177    0.2286712 -79.00  0.001309682    2.190    0.543
        48 -10.0061    205.4130    110.3459   6.3376459127e+01   1.7560993425e+01    0.2921441    0.2347411  46.17 0.0008721864    1.337    0.252
        49  -9.8988     41.8583     92.0444   1.0250172337e+02   5.3224825760e+01    0.2040583    0.1725328 -48.90  0.000520761    1.026    0.026
        50 -10.4733     53.0593     90.8124   9.8344002769e+01   5.2247227254e+01    0.2669801    0.1827554 -43.48  0.001069025    1.305    0.234
        51  -9.2641     73.2380     83.8201   8.9535890216e+01   5.1054541550e+01    0.2193268    0.1523724  79.06 0.0009029905    2.645    0.622
        52  -9.3629    160.2782     81.6673   6.4560288088e+01   3.3443557727e+01    0.1574351    0.1191712 -68.23  0.000432489    1.605    0.377
        53  -8.9211     92.4786     66.5283   7.7671420195e+01   5.1321474974e+01    0.1444482      0.13553 -18.35 0.0002404869    1.042    0.041
        54  -9.4453     47.7989     62.1650   9.2129615173e+01   5.9179333403e+01    0.1832078    0.1671044 -43.68 0.0004851731    1.177    0.151
        55 -10.8830     13.5224     60.1406   1.0542830184e+02   6.2796356430e+01    0.2218415    0.1785202 -45.13  0.000479445    1.037    0.036
        56 -10.7637    170.0257    231.1454   9.5434347375e+01   2.1250321549e+00    0.2033649    0.1837518 -28.98 0.0008153016    1.253    0.202
        57  -9.8642    154.5120    220.5549   9.6926367526e+01   6.4481292000e+00    0.3354743    0.1339087 -53.77   0.00135912    3.174    0.685
        58 -16.1155      8.9712    239.1593   1.2690596065e+02   2.3013782541e+01     7.576916      2.45438 -78.72    0.0397932    2.727    0.633
        59 -11.2308    183.7157    216.2204   9.0332924787e+01   2.2938654663e+00    0.3193737    0.1630868  50.65  0.001417291    2.392    0.582
        60 -10.0661     12.3730     52.8344   1.0395763071e+02   6.4407185690e+01    0.1844474   0.08015409 -49.09 0.0002973069    1.700    0.412
        61 -10.3524    136.8781     43.1366   5.7543772362e+01   4.5449639014e+01    0.2188676    0.1928643 -74.18 0.0005264683    1.288    0.223
        62 -10.5531    140.0533     37.8679   5.5096908978e+01   4.5398433072e+01    0.3255178    0.2483298 -78.13 0.0006639895    1.641    0.391
        63  -9.7079    136.4904     34.9735   5.4856063390e+01   4.6641588195e+01    0.2209731    0.1900084  77.96 0.0004264189    1.240    0.194
        64  -9.9168    189.7896     15.1894   4.0497965377e+01   3.5759290242e+01    0.1781468    0.1524504  42.91 0.0008129109    1.346    0.257
        65  -8.7350    130.6603    213.2623   1.0079558769e+02   1.1780358214e+01    0.1350562   0.09434707  62.16 0.0002654176    1.589    0.371
        66  -9.9669    113.1483    207.6058   1.0373270506e+02   1.5782986051e+01    0.2142293    0.1737095 -82.84  0.000555706    1.330    0.248
        67  -9.3585     99.3129    180.9558   1.0292176887e+02   2.3786223660e+01    0.1927217    0.1751645 -76.45 0.0005563675    1.086    0.079
        68 -11.9901     62.1933    178.9196   1.1140971293e+02   2.9712158743e+01    0.4257609    0.2774239 -37.40  0.002112276    2.222    0.550
