#   1 NUMBER                 Running object number                                     
#   2 MAG_AUTO               Kron-like elliptical aperture magnitude                    [mag]
#   3 X_IMAGE                Object position along x                                    [pixel]
#   4 Y_IMAGE                Object position along y                                    [pixel]
#   5 X_WORLD                Barycenter position along world x axis                     [deg]
#   6 Y_WORLD                Barycenter position along world y axis                     [deg]
#   7 A_WORLD                Profile RMS along major axis (world units)                 [deg]
#   8 B_WORLD                Profile RMS along minor axis (world units)                 [deg]
#   9 THETA_WORLD            Position angle (CCW/world-x)                               [deg]
#  10 FWHM_WORLD             FWHM assuming a gaussian core                              [deg]
#  11 ELONGATION             A_IMAGE/B_IMAGE                                           
#  12 ELLIPTICITY            1 - B_IMAGE/A_IMAGE                                       
         1 -12.7019      2.4757    131.4582   1.1448027378e+02   4.7168016426e+01     3.547012    0.5152401 -74.69  0.008584485    6.792    0.853
         2 -13.5823     33.8165    188.0285   1.1185167282e+02   3.0129091768e+01     4.801655     1.868904  71.20   0.01417277    5.142    0.806
         3 -11.3584      2.2417     78.2585   1.0660034876e+02   6.0221653939e+01     1.181853    0.1743022 -65.78  0.003497273    4.998    0.800
         4 -11.9959    214.9094     40.1840   3.5632980221e+01   2.7535627038e+01    0.9212382    0.6810108 -71.13   0.00417708    1.190    0.160
         5 -11.1742    222.7440     32.8120   3.3295093873e+01   2.6848319048e+01    0.5673843    0.3837351  64.89  0.001197977    1.559    0.359
         6 -10.2920      2.2085     11.9250   8.5873568367e+01   7.3158817027e+01    0.5537329    0.1216729 -45.70  0.002268947    3.872    0.742
         7 -11.2011      2.4177     26.5438   9.2018783373e+01   7.0777572872e+01    0.6805614     0.174135 -52.11    0.0028316    3.410    0.707
         8 -11.6684    233.4048     23.5131   3.0509175889e+01   2.5833188929e+01    0.6795819    0.4916273 -59.97  0.002844618    1.122    0.109
         9  -8.5383    250.5776      3.1425   2.5585876800e+01   2.4846071347e+01    0.2946299   0.08299771 -36.95  0.001422815    3.076    0.675
        10  -9.7323     22.3948    222.2200   1.1740225995e+02   2.3188353595e+01    0.2466825    0.1915565 -84.69 0.0007295525    1.184    0.155
        11 -12.9917     96.4954    225.0844   1.0086959045e+02   1.3184891469e+01     4.472744    0.8920276  41.29  0.005621155    4.149    0.759
        12 -10.2499     48.1627    182.9067   1.0758023807e+02   2.9824283849e+01    0.5167559    0.3575712  34.48  0.001662231    1.499    0.333
        13  -8.4948    164.0000    223.0095   8.5003873186e+01   3.1583855227e+00    0.2146427   0.07726837 -47.56 0.0008023056    2.942    0.660
        14 -10.9375      7.7334    189.2933   1.1833026062e+02   3.2260169349e+01    0.4588117    0.3608406  64.44  0.002932343    1.173    0.148
        15 -11.1874      2.4056    187.3030   1.1943855619e+02   3.3169105061e+01     1.031236    0.2980033 -82.71  0.003802611    3.337    0.700
        16 -10.2649     56.0646    174.9763   1.0442585779e+02   3.0900170610e+01    0.4948263    0.3092089 -30.78  0.002175891    2.223    0.550
        17 -10.2229     61.6479    169.8433   1.0213625238e+02   3.1518044737e+01    0.3489192     0.285702 -31.52 0.0007675553    1.414    0.293
        18 -11.5011     26.1502    201.0011   1.1492531258e+02   2.7737978276e+01    0.5733155    0.4239637 -29.23  0.001105978    1.921    0.479
        19  -9.3496     80.5469    248.9767   1.0717168586e+02   1.0450816696e+01    0.2571578    0.1674914  38.11 0.0007038428    1.328    0.247
        20  -9.5949      7.7338    167.7085   1.1659562015e+02   3.7601988179e+01     0.195379     0.164995  25.17 0.0008352238    1.425    0.298
        21 -11.7266     68.3920    144.9695   9.5944194718e+01   3.7141564900e+01    0.9445828    0.6520861  81.71  0.003094221    1.909    0.476
        22 -11.0134     58.1983    132.1985   9.6712760242e+01   4.1868968253e+01     1.064486    0.4189908 -73.41  0.002966488    4.485    0.777
        23 -10.0709     72.3125    160.9302   9.7650077916e+01   3.2389062711e+01    0.3540318    0.3061388 -64.18 0.0005283272    1.097    0.088
        24 -11.4520     79.2573    155.0511   9.4557855012e+01   3.2906307084e+01     1.047912    0.9233264 -70.27  0.002378399    1.111    0.100
        25  -9.5073     35.2117    159.6168   1.0821255102e+02   3.7271637263e+01    0.5529164    0.2596617  62.84  0.001714766    3.006    0.667
        26  -8.0982     21.9994    147.5357   1.1051726613e+02   4.1651055536e+01     0.188957    0.1390065  18.37 0.0009831077    1.615    0.381
        27  -9.3066     95.0547    141.3020   8.7042778531e+01   3.3915177713e+01    0.3852049    0.3196845 -18.53  0.001220741    1.360    0.265
        28 -10.6743     83.1803    139.5703   9.0284241554e+01   3.6332017534e+01    0.3580438    0.2892927 -43.55 0.0004742757    1.207    0.171
        29 -11.6781     59.0735    156.5017   1.0079495486e+02   3.5352574339e+01    0.5741191    0.3200928 -42.74  0.001354872    1.957    0.489
        30  -7.9138     74.5097    208.0370   1.0397932637e+02   2.0220192956e+01     0.202051     0.134093 -68.90  0.000577405    1.531    0.347
        31  -9.1832    106.9322    130.7491   8.1060887457e+01   3.4431569533e+01    0.3808293    0.3292128  -0.00  0.001079143    1.287    0.223
        32 -10.0062     67.0842    128.2950   9.3002654989e+01   4.1682464558e+01    0.5379629    0.3332116  64.82  0.002136337    2.438    0.590
        33  -8.4050    114.6384    125.1447   7.7421560175e+01   3.4313078634e+01    0.2410286    0.1406853 -38.67 0.0009419299    1.791    0.442
        34 -10.3056     20.2372    195.1393   1.1583020415e+02   2.9732158618e+01     0.305298    0.2415385  65.42  0.001891384    1.148    0.129
        35  -9.4660     59.1329    122.0758   9.4319357116e+01   4.4371710379e+01    0.3603704    0.2272973  19.99 0.0006920901    1.813    0.448
        36  -8.1385    105.0638    119.2735   7.8761178732e+01   3.7583609391e+01      0.21846    0.1979001  26.61 0.0005562946    1.132    0.117
        37  -7.9854    205.5205    110.4918   5.2914351341e+01   1.8224397258e+01    0.1442379    0.1286898 -49.19 3.196862e-05    1.009    0.009
        38  -7.7511     71.4906    107.5361   8.6643655208e+01   4.6258203292e+01    0.1525831    0.1396765 -30.21 0.0001154989    1.024    0.024
        39 -14.0962     21.0241    244.1074   1.1909187207e+02   1.8616235043e+01     4.620327     1.669713  25.94   0.02023244    3.382    0.704
        40  -9.1579     57.2264     76.1930   8.3092092849e+01   5.5534427771e+01     0.378863    0.2034964  53.43  0.001421587    3.328    0.700
        41  -9.6853     13.2336     60.3792   9.7476018578e+01   6.3549368758e+01    0.2739957    0.1784577 -51.93  0.001378903    1.336    0.251
        42  -8.0877     44.4923     90.4879   9.2195640725e+01   5.3969178042e+01    0.1400305    0.1277824 -38.89 -9.516638e-05    1.074    0.069
        43 -11.3606    199.1775     52.3983   4.0229997306e+01   2.9270027372e+01    0.8524011    0.4667237 -36.92  0.004220004    1.814    0.449
        44 -11.6525    206.7107     45.2593   3.7659829943e+01   2.8613117680e+01    0.6665233    0.4970234 -88.40  0.002579993    1.264    0.209
        45  -9.0114     30.4721    220.3979   1.1551715455e+02   2.2753847459e+01    0.4230786    0.1322429  45.70    0.0017642    2.699    0.630
        46  -8.2450     28.9310     52.7056   8.7647917983e+01   6.3761853837e+01    0.1743101    0.1463151  -3.49   0.00039124    1.121    0.108
        47 -10.0385      2.0783     51.0125   1.0026849467e+02   6.6167060984e+01    0.3426685    0.1424342 -63.75  0.001596772    2.458    0.593
        48  -9.7900    134.7949    230.6810   9.2787293673e+01   6.2044454470e+00    0.3325756    0.1898778 -53.94  0.001597056    1.977    0.494
        49 -12.8598      8.9093    207.7234   1.1934097787e+02   2.7786928569e+01     1.276625    0.8816609 -70.32  0.003715983    1.377    0.274
        50  -9.1831     45.8969    223.6995   1.1237264806e+02   2.0265831983e+01    0.4040266    0.1695964  70.28  0.001145787    3.585    0.721
        51  -9.7217     23.5313    225.4698   1.1738611597e+02   2.2347098715e+01    0.2900514    0.2081534  31.01   0.00155057    1.526    0.345
        52  -8.2317    130.1315     29.8313   4.5043167035e+01   4.8322780731e+01    0.1907855    0.1678483  83.73 0.0002962395    1.153    0.132
        53  -8.8721    127.3588     35.1324   4.7287072094e+01   4.8347320910e+01    0.2444758    0.1979762  80.21 0.0004442995    1.302    0.232
