#   1 NUMBER                 Running object number                                     
#   2 MAG_AUTO               Kron-like elliptical aperture magnitude                    [mag]
#   3 X_IMAGE                Object position along x                                    [pixel]
#   4 Y_IMAGE                Object position along y                                    [pixel]
#   5 X_WORLD                Barycenter position along world x axis                     [deg]
#   6 Y_WORLD                Barycenter position along world y axis                     [deg]
#   7 A_WORLD                Profile RMS along major axis (world units)                 [deg]
#   8 B_WORLD                Profile RMS along minor axis (world units)                 [deg]
#   9 THETA_WORLD            Position angle (CCW/world-x)                               [deg]
#  10 FWHM_WORLD             FWHM assuming a gaussian core                              [deg]
#  11 ELONGATION             A_IMAGE/B_IMAGE                                           
#  12 ELLIPTICITY            1 - B_IMAGE/A_IMAGE                                       
         1  -8.9926     74.0849     19.6027   8.9920981711e+01   6.2417821336e+01    0.2903076    0.1857311 -45.97 0.0008529848    2.056    0.514
         2  -8.8501    232.4256     13.7481   5.9454286496e+01   2.4808193702e+01    0.2833383    0.1268614 -26.18  0.001267572    2.522    0.604
         3  -8.6861     55.6882     10.2432   9.2395883681e+01   6.6773456435e+01    0.1894865    0.1721345 -13.05 0.0006703404    1.280    0.219
         4  -8.0302     47.6136      9.8471   9.5534870598e+01   6.8087951380e+01    0.1644375    0.1014662 -38.45 0.0009430826    1.820    0.451
         5  -8.2119     90.7968      8.9935   8.0054960792e+01   6.0246613107e+01     0.198336    0.1382354 -49.58 0.0006503873    1.952    0.488
         6  -8.6173     33.5484      5.3847   9.9675945334e+01   7.0615192739e+01    0.2511773    0.1751496 -56.98    0.0013744    3.011    0.668
         7  -8.3386     78.9298      3.7899   8.1181146758e+01   6.3201785664e+01    0.2232017     0.149103 -47.33  0.001205291    2.114    0.527
         8  -7.4066     44.6617      3.3125   9.3491499957e+01   6.9311108450e+01    0.1005836   0.09586348 -54.94 0.0006712896    1.692    0.409
         9  -7.8888     16.1777      3.3692   1.0765106007e+02   7.2861748701e+01    0.1368226   0.09377301  29.84 0.0006829609    1.687    0.407
        10  -7.6550    115.2874      2.6388   7.1586272759e+01   5.5258370061e+01    0.1298709   0.09832377 -62.28  0.000564803    1.688    0.408
        11  -8.3636     62.2169      1.6115   8.5660118230e+01   6.6590618708e+01    0.1651754    0.1426517  47.76  0.000478968    1.369    0.270
        12  -8.8891    120.2033    245.5902   1.2957891873e+02   9.5599099161e+00    0.3200156     0.187565  74.06  0.001669107    2.430    0.588
        13  -8.4461    248.8006    249.4406   1.0691445503e+02  -1.0932336636e+01    0.2278063    0.1209567 -23.19  0.001417696    1.986    0.497
        14  -9.1981    211.2946    247.0101   1.1295319384e+02  -5.2357516185e+00    0.2934961    0.2142632 -63.62  0.001432412    2.859    0.650
        15  -8.1489    191.9088    249.9365   1.1683679707e+02  -2.5805673810e+00    0.1749382    0.1309929  57.67 0.0009113539    1.725    0.420
        16  -8.5106     94.0538    249.7967   1.3483514026e+02   1.2853889667e+01    0.2595697    0.1244377  64.09  0.001320644    2.336    0.572
        17  -7.2518     86.2881    250.6673   1.3631771109e+02   1.3832940301e+01    0.1194252   0.06817122  64.64 0.0007016683    1.625    0.385
        18  -9.0455     10.0223    244.8184   1.4904204670e+02   2.4201644714e+01    0.3184189   0.08642007  82.01  0.001190876    5.700    0.825
        19  -8.5721    139.5149    244.5759   1.2583025588e+02   6.6305743999e+00    0.1806456    0.1170779 -73.81  0.001020678    2.302    0.566
        20  -8.3012     50.4029    244.5724   1.4223375743e+02   1.9684487516e+01    0.2102679   0.08230485  88.09 0.0009500582    3.573    0.720
        21  -9.4972    248.6732    242.5457   1.0585472915e+02  -1.0200651427e+01    0.2400346    0.2130967 -30.23  0.001095336    1.699    0.411
        22  -8.7680    201.9547    243.4123   1.1408679901e+02  -3.3464309844e+00     0.185816    0.1697564 -68.22 0.0008721804    1.703    0.413
        23  -9.0125    168.9803    243.6307   1.2017484159e+02   1.9490849848e+00    0.1878547    0.1801435 -82.47 0.0005976596    1.370    0.270
        24  -8.5744     77.9945    243.4560   1.3720915487e+02   1.6224382215e+01    0.2694156    0.1273717  66.79  0.001374078    2.342    0.573
        25  -8.8057    178.0599    242.3042   1.1830172481e+02   6.4577417962e-01    0.2163539    0.1583847   8.39  0.001335783    1.615    0.381
        26  -9.4989    160.5534    240.8295   1.2138092004e+02   3.7396520141e+00    0.3574828    0.2460265 -88.64  0.001595177    2.722    0.633
        27  -9.3717    194.5518    240.2725   1.1496716104e+02  -1.7641928191e+00    0.2662835    0.2188962 -69.38  0.001214546    2.001    0.500
        28  -9.2585    183.0993    240.1261   1.1705713114e+02   1.1820558237e-01    0.3771748    0.2515689  64.15   0.00204554    2.318    0.569
        29  -7.9057    153.3966    242.1854   1.2291138180e+02   4.7213992715e+00    0.1436311    0.1168608 -78.91 0.0005342605    1.672    0.402
        30  -8.1391     88.3561    242.1826   1.3518793220e+02   1.4963868924e+01    0.1517887    0.0984916  89.73 0.0006177653    1.714    0.417
        31  -9.0880    241.5412    238.4030   1.0638672251e+02  -8.7477419430e+00    0.4348239    0.2123142 -10.65  0.002121587    2.952    0.661
        32  -7.9353    214.4639    241.0852   1.1149975895e+02  -5.0141723553e+00    0.1535819    0.1124053 -25.00 0.0004899069    1.552    0.356
        33  -8.4922    146.2912    239.9800   1.2397780706e+02   6.2265193041e+00    0.1627809    0.1424796  56.99 0.0008843197    1.172    0.147
        34  -8.4967    209.0737    238.6472   1.1208853638e+02  -3.8738621785e+00    0.1752678    0.1599969 -22.43 0.0006369453    1.393    0.282
        35  -8.7635    136.0183    239.1296   1.2583475977e+02   8.0487618007e+00    0.2417465    0.1378892  55.05  0.001269249    1.671    0.401
        36  -8.5842    129.3120    239.0867   1.2711395270e+02   9.1487484264e+00    0.2469855     0.126682  58.49  0.001214677    2.150    0.535
        37  -9.3081    230.9942    236.8666   1.0794336304e+02  -7.0286122793e+00    0.2666917    0.2001968 -43.02  0.001207706    1.927    0.481
        38  -7.8160     40.4952    238.5572   1.4358105340e+02   2.1954787290e+01    0.1117726   0.08008085  65.32 0.0001047143    1.007    0.007
        39  -9.1666    248.0847    235.4333   1.0480874241e+02  -9.3538361027e+00    0.2826786    0.2024296 -33.79  0.001183459    1.752    0.429
        40  -9.3388    246.5641    229.0778   1.0401653475e+02  -8.4271300017e+00    0.3030023    0.1828077 -27.07  0.001495698    1.718    0.418
        41  -8.1803     25.6374    237.2934   1.4608491229e+02   2.3879871967e+01    0.1896357   0.08456936  64.98  0.001123205    1.835    0.455
        42  -8.8313    217.3147    235.6970   1.1015723856e+02  -4.8007506422e+00    0.2276569     0.160984  36.90 0.0006883366    1.254    0.203
        43  -9.5137    213.8606    232.0388   1.1019621395e+02  -3.8012586650e+00    0.2998903    0.2473943  69.68  0.001437149    2.032    0.508
        44  -9.1095    203.1756    234.8620   1.1257441118e+02  -2.4512096510e+00    0.2596162     0.190201 -56.57  0.001343111    2.191    0.544
        45  -9.7284    175.7704    233.4650   1.1746976386e+02   2.2696996462e+00    0.4327402    0.2653433 -62.01  0.002227809    2.765    0.638
        46  -8.3322    170.1536    235.7249   1.1886036959e+02   2.8853898914e+00    0.1838657     0.168353 -75.89 0.0006877308    1.452    0.311
        47  -9.3591    109.0011    234.6576   1.3051845226e+02   1.3133693122e+01    0.4611274    0.1923207  53.85  0.001836931    2.274    0.560
        48  -7.9188    152.9483    235.4643   1.2211440883e+02   5.8130437150e+00    0.1729727   0.08901955  56.70 0.0007414954    2.298    0.565
        49  -8.9672     78.8523    234.3446   1.3625559023e+02   1.7705617899e+01    0.2384409    0.1554365  79.63 0.0008769136    1.534    0.348
        50  -8.0208     53.9666    234.9009   1.4092203591e+02   2.0956809708e+01    0.1887479   0.09835587  65.79 0.0005363412    1.690    0.408
        51  -9.3498      8.6651    235.0294   1.4883871531e+02   2.6059738474e+01    0.1493931    0.1037877  78.52  0.001167342    1.119    0.107
        52  -8.3094    122.8233    234.1560   1.2778262214e+02   1.1012171861e+01    0.1945476    0.1406251  61.49 0.0007129401    1.304    0.233
        53  -8.2246     99.2384    234.2421   1.3235672151e+02   1.4717270961e+01    0.1730162    0.1149585  63.41 0.0007000071    1.366    0.268
        54  -8.9289     68.5122    232.4762   1.3804015781e+02   1.9482033946e+01    0.3936719    0.1734597  68.94  0.001829324    2.800    0.643
        55  -9.4112    186.6768    230.8085   1.1501265654e+02   8.1534067518e-01    0.3330519    0.2562892 -72.70  0.001391784    2.204    0.546
        56  -8.9726    141.3344    230.9780   1.2377437254e+02   8.4751499278e+00    0.5638168    0.2200148  56.75  0.001952033    4.190    0.761
        57  -9.0667    236.2676    230.9083   1.0606978735e+02  -7.1227970827e+00    0.2170264    0.1791233 -16.52  0.000757166    1.334    0.250
        58  -7.8543    157.7734    232.0307   1.2071607132e+02   5.5281058594e+00    0.1401178    0.1075084 -48.91 0.0003920606    1.624    0.384
        59  -8.1644     92.6554    232.2651   1.3342298282e+02   1.6062375265e+01    0.2060396    0.1139225  65.26  0.001101207    1.868    0.465
        60  -8.8165      1.7736    230.9125   1.4980657713e+02   2.7467352900e+01    0.2021561   0.09460459  73.78 0.0009924019    1.673    0.402
        61  -8.9488    151.3539    229.0314   1.2155108209e+02   7.0905736986e+00    0.2711518    0.1787596  79.98  0.001286505    2.619    0.618
        62  -9.4864    148.8106    224.6897   1.2144978365e+02   8.2283929317e+00    0.3883786    0.2638876  82.80  0.001318719    2.380    0.580
        63  -8.1857    229.7955    228.9456   1.0686922825e+02  -5.9092402124e+00    0.1580276    0.1408979 -62.84 0.0007614709    1.932    0.483
        64  -8.8870    162.1120    227.6838   1.1925938068e+02   5.4599816205e+00    0.3425204    0.2006386  55.09  0.001559945    1.842    0.457
        65  -9.3199    160.3934    221.3391   1.1867013250e+02   6.7603229206e+00    0.5463949    0.2768403  61.36  0.001778549    3.434    0.709
        66  -8.9000    128.1076    227.3491   1.2591392046e+02   1.1295486872e+01    0.2719026     0.189778  74.85  0.001161164    1.736    0.424
        67  -8.0934    120.4431    227.9365   1.2750550688e+02   1.2459728837e+01    0.1664374    0.1016756  85.27 0.0008075348    2.520    0.603
        68  -8.0893    223.4834    226.5454   1.0758603161e+02  -4.6323448713e+00    0.2221713    0.1152543 -33.25 0.0007991861    2.141    0.533
        69  -8.6597    206.1645    225.8588   1.1060591458e+02  -1.7497920466e+00    0.2587383    0.1715414 -40.32  0.001122789    1.838    0.456
        70  -7.7765     49.4348    226.9263   1.4116917777e+02   2.2996818088e+01    0.1633784   0.07447346  76.56 0.0008062848    2.480    0.597
        71  -8.2044    200.0192    226.0307   1.1177038278e+02  -7.5409933974e-01      0.20415    0.1559547 -32.10 0.0009148189    1.522    0.343
        72  -8.7720    180.3845    224.0253   1.1517153084e+02   2.8669576948e+00     0.229748    0.2128259  68.94 0.0007726536    1.357    0.263
        73  -8.7780    104.9228    223.7610   1.3010153163e+02   1.5702136561e+01       0.3012    0.1863721  86.49  0.001431611    2.109    0.526
        74  -8.7732     93.8770    224.1134   1.3234033582e+02   1.7354369675e+01    0.2988906    0.1632197  70.64  0.001278974    2.212    0.548
        75  -8.0457     38.4504    224.9414   1.4306171868e+02   2.4696805840e+01    0.1613642   0.07048751  75.42 0.0008072731    2.442    0.590
        76  -8.7677    216.5422    223.1979   1.0827661818e+02  -3.0946022629e+00     0.260351    0.1944137 -43.97  0.001171043    1.777    0.437
        77  -8.7655    173.0466    223.2182   1.1646762396e+02   4.2585468362e+00    0.2710487    0.2054448 -72.03   0.00101801    2.020    0.505
        78  -7.8283    113.9792    224.0013   1.2831782016e+02   1.4206078931e+01     0.147253    0.1284371  67.46 0.0003835416    1.117    0.105
        79  -8.4743    194.6704    232.8463   1.1382933164e+02  -7.9595931578e-01    0.1853127    0.1712714 -69.31  0.000703019    1.566    0.361
        80  -9.1543    239.6915    221.4292   1.0389500772e+02  -6.5114119573e+00    0.2791449    0.2474798   2.61  0.000974887    1.257    0.204
        81  -9.3807    192.6758    221.5207   1.1242721283e+02   1.1206511865e+00    0.3122933    0.2517878  77.00  0.001112437    1.960    0.490
        82  -8.6025    140.4890    223.0087   1.2287535296e+02   9.9393444077e+00    0.1651742    0.1298832 -62.25   0.00100788    1.546    0.353
        83  -9.3803    225.7992    221.4014   1.0631673894e+02  -4.3489848155e+00    0.2637056    0.2145868   0.06  0.001040647    1.151    0.131
        84  -8.9618      7.3130    222.0003   1.4846905727e+02   2.8572742988e+01    0.2250985   0.06569001  46.81    0.0012036    2.433    0.589
        85  -9.1023    120.4920    219.4291   1.2643730963e+02   1.3953373569e+01    0.4600114    0.2220535  62.15   0.00162703    2.857    0.650
        86  -8.5271     83.0127    220.8747   1.3416191975e+02   1.9584132237e+01    0.2751839    0.1381775  66.20  0.001333855    2.244    0.554
        87  -7.9947     72.7088    220.6684   1.3618161062e+02   2.1101354546e+01    0.2346761     0.121043  82.13 0.0009938172    2.440    0.590
        88  -7.8937     27.4682    221.5177   1.4485238084e+02   2.6589157046e+01    0.1115591   0.08262774  70.91 0.0001069789    1.023    0.023
        89  -8.0996    202.8334    220.1149   1.1028638859e+02  -4.0794298915e-01    0.1768031    0.1607912  39.26 0.0005609887    1.264    0.209
        90  -8.8597    248.6236    217.8287   1.0175810855e+02  -7.4215076170e+00    0.3406428    0.2569882  76.47  0.001653274    4.086    0.755
        91  -8.4919    210.0283    218.8688   1.0874462440e+02  -1.4442613456e+00    0.1921289    0.1621939 -49.31 0.0006703185    1.633    0.388
        92  -9.3526    132.8576    215.9808   1.2345487263e+02   1.2470630538e+01    0.4577169    0.2729613  75.63  0.002027104    2.822    0.646
        93  -8.3977     62.1555    217.4681   1.3796677769e+02   2.3159516240e+01     0.261822    0.1330867  68.13 0.0009619709    2.004    0.501
        94  -8.7918     51.3933    217.2816   1.4005184882e+02   2.4589965473e+01    0.2648021    0.1513482  73.18 0.0008111726    1.618    0.382
        95  -8.8015    169.3298    216.0459   1.1609061415e+02   6.0334028519e+00    0.3147722    0.2224614 -53.47  0.001270797    1.786    0.440
        96  -8.6774    142.9080    216.4139   1.2146365696e+02   1.0646812638e+01    0.2850796    0.1966557  88.75  0.001318643    2.212    0.548
        97  -8.0708    111.7675    217.1704   1.2793241189e+02   1.5806853948e+01    0.2214908    0.1156501  68.10 0.0009443008    2.780    0.640
        98  -8.7722    232.3360    214.4767   1.0397409133e+02  -4.5033291712e+00    0.2491641     0.183346 -25.76  0.001074345    1.427    0.299
        99  -8.6286    185.8479    214.4083   1.1258248894e+02   3.3608517513e+00    0.2503465    0.1769533 -52.90   0.00104592    1.873    0.466
       100  -8.3675    154.1283    215.0686   1.1898841453e+02   8.8967117913e+00    0.1988052    0.1478961  68.85  0.000563563    1.645    0.392
       101  -8.9584     93.1083    213.9362   1.3137557477e+02   1.9387030603e+01    0.3293794    0.1912782  80.89  0.001217212    2.211    0.548
       102  -9.3402     73.1298    212.0900   1.3526465631e+02   2.2702651941e+01    0.5798163     0.206991  60.10  0.002129985    3.817    0.738
       103  -8.2663    224.6099    212.0533   1.0492285097e+02  -2.9389271448e+00    0.2487605    0.1159369 -34.57  0.001222158    2.316    0.568
       104  -9.4962    213.8307    212.1262   1.0689551764e+02  -1.1541597246e+00    0.2930886     0.240649  56.24  0.001490077    1.598    0.374
       105  -8.7958    161.7283    212.6096   1.1707513408e+02   7.9513651312e+00    0.2739697    0.2329449  75.10  0.001126766    1.428    0.300
       106  -9.5306    204.3300    209.5235   1.0821595569e+02   8.4476831424e-01    0.4568642    0.2150659 -43.57  0.002136098    2.555    0.609
       107  -9.7548    163.8020    203.1195   1.1512811659e+02   9.1789182813e+00    0.4436306    0.2810679  62.61 0.0009470353    2.069    0.517
       108  -9.5857    175.4407    210.0508   1.1391447985e+02   5.9009809080e+00    0.3980501    0.2673883  71.67  0.001397653    2.543    0.607
       109  -9.9149    170.6299    207.2282   1.1441518610e+02   7.2337707898e+00    0.2406952    0.2010431  44.54 0.0003008958    1.101    0.092
       110  -7.8267    106.3262    212.6934   1.2849884550e+02   1.7531480194e+01    0.1355986    0.0855796  65.59 0.0007036178    1.650    0.394
       111  -8.2156      8.2514    211.8633   1.4779912353e+02   3.0405151089e+01    0.1963221   0.06395099  63.24 0.0009410115    2.797    0.642
       112  -8.8359    148.0235    210.6802   1.1957269730e+02   1.0737506650e+01    0.2548239     0.202462  78.36 0.0009592151    1.542    0.352
       113  -8.8929    116.3751    210.6459   1.2614425215e+02   1.6257950336e+01    0.3148833    0.1845163  63.67  0.001085115    1.926    0.481
       114  -8.3898     85.8542    209.9957   1.3242975929e+02   2.1258163508e+01    0.2925829    0.1483441  84.23  0.001228115    3.134    0.681
       115  -8.2418     46.1947    209.4865   1.4043926246e+02   2.6766621759e+01    0.2404408    0.1259964  60.76  0.001358528    1.654    0.396
       116  -9.2724    236.7002    207.3526   1.0195100733e+02  -4.2794230680e+00    0.4389002    0.2025601 -30.78  0.001727535    2.250    0.555
       117  -9.3617    246.3429    207.1901   1.0026448148e+02  -5.7755550284e+00    0.2675354     0.184136 -14.07 0.0005953914    1.380    0.275
       118  -9.3164    250.1093    202.0283   9.8693831316e+01  -5.7069990103e+00    0.3253475    0.1637969 -30.37  0.001421046    1.958    0.489
       119  -7.9726    156.5067    207.9510   1.1740737633e+02   9.6824212690e+00    0.1742791    0.1359762 -52.24 0.0005640906    1.518    0.341
       120  -8.4808    139.1484    207.9573   1.2100405387e+02   1.2805533198e+01    0.2556211    0.1820198  72.90 0.0009915628    1.746    0.427
       121  -8.0104    126.4080    208.3326   1.2372644164e+02   1.4976927966e+01    0.1650435    0.1250215 -79.24 0.0006697316    1.573    0.364
       122  -9.2544     99.4425    206.1564   1.2913023721e+02   1.9903337447e+01    0.4095617    0.2298264  78.35  0.001571621    2.580    0.612
       123  -8.2308    192.2771    210.3834   1.1066546261e+02   2.8347814376e+00    0.1868193    0.1606653 -70.60 0.0005721978    1.676    0.403
       124  -8.0592     11.6183    207.2114   1.4693068929e+02   3.0986961514e+01    0.1444222   0.08254455 -73.41 0.0008364295    1.640    0.390
       125  -8.5006     56.6605    205.5728   1.3799677763e+02   2.6236927747e+01    0.3180353    0.1340702  62.95  0.001428293    2.611    0.617
       126  -9.4790    194.8746    203.4230   1.0896157097e+02   3.4349336705e+00     0.407782    0.3487469 -38.94   0.00166035    1.368    0.269
       127  -9.3325    192.4130    197.4818   1.0838640231e+02   4.8164728631e+00    0.3194882    0.2767102 -51.18  0.001400181    1.429    0.300
       128  -9.1653    183.8382    204.1331   1.1125092238e+02   5.3267013723e+00    0.3053127     0.236354  70.09 0.0009640678    1.805    0.446
       129  -8.7273    131.4529    204.4146   1.2209828436e+02   1.4823089529e+01    0.2989296     0.179524  69.44  0.001036023    2.349    0.574
       130  -8.3167    108.9571    205.1511   1.2698237357e+02   1.8548475266e+01    0.2104404     0.153256  67.24 0.0007045434    1.349    0.259
       131  -7.8454     92.3424    205.6578   1.3057129107e+02   2.1122354488e+01    0.1407375   0.08414923  67.36 0.0007048046    1.781    0.438
       132  -9.1581    243.0878    200.6160   9.9624483667e+01  -4.4221087100e+00    0.3012286    0.1678576 -32.14 0.0007821608    1.815    0.449
       133  -7.9667    222.3487    201.5773   1.0346212227e+02  -1.1261296331e+00     0.220351    0.1075861 -48.52 0.0008955743    3.118    0.679
       134  -8.3031    210.8793    202.1249   1.0567773079e+02   7.8000172746e-01    0.1840982    0.1720885  49.44 0.0005669708    1.335    0.251
       135  -8.8881    140.5671    201.2061   1.1967917210e+02   1.3785056487e+01    0.3259657    0.2214027  79.47  0.001135376    2.147    0.534
       136  -8.4640     80.1000    201.4580   1.3268008224e+02   2.3823985753e+01    0.2827838    0.1547184  69.23  0.001371975    2.074    0.518
       137  -8.1951     48.6520    202.3191   1.3934163354e+02   2.7910870422e+01    0.2053371     0.108066  66.68  0.001101421    1.806    0.446
       138  -9.1424    237.1219    198.0143   1.0017555759e+02  -3.1104324401e+00     0.408329    0.1757365 -31.97   0.00190784    2.380    0.580
       139  -9.4935    149.5286    198.5803   1.1736129187e+02   1.2624027370e+01    0.4344652    0.2938133  83.63  0.001428056    2.432    0.589
       140  -8.9524    123.9712    199.3956   1.2295943015e+02   1.7097837217e+01    0.3049524    0.2083791  78.94   0.00129266    1.879    0.468
       141  -9.2858    113.0006    198.6701   1.2523086085e+02   1.9140177617e+01    0.4496309    0.2561704  69.15  0.001930307    2.374    0.579
       142  -9.0020     88.6449    198.6266   1.3051177032e+02   2.3111148651e+01    0.3390938    0.2080368  79.26   0.00155737    1.917    0.478
       143  -8.4156    176.9889    199.1413   1.1176066179e+02   7.4070176786e+00    0.1975892    0.1734337  60.57 0.0004793149    1.285    0.222
       144  -8.3607    202.1672    197.6588   1.0652198582e+02   3.0046222647e+00    0.2048337    0.1820629 -46.51 0.0005782046    1.393    0.282
       145  -9.1553     61.4008    197.1574   1.3619718703e+02   2.7338919158e+01    0.3770569    0.1991525  71.96  0.001462766    2.081    0.519
       146  -8.0152     12.5044    198.0029   1.4622637779e+02   3.2732906983e+01    0.1623168   0.06640008  74.73 0.0006026921    2.397    0.583
       147  -8.7247    215.9499    195.8198   1.0358000327e+02   8.1297930186e-01    0.2485451    0.1880491 -47.89 0.0007697932    1.699    0.411
       148  -8.0725     53.6953    196.9332   1.3780439016e+02   2.8388920545e+01     0.241741    0.0879499  61.91 0.0009056535    3.622    0.724
       149  -7.7321     36.2942    196.9239   1.4141484530e+02   3.0480043905e+01    0.1961922   0.07284883  83.40 0.0007027214    4.298    0.767
       150  -8.4705    133.0396    195.8363   1.2045723299e+02   1.6163997629e+01    0.2304701    0.1731533 -82.25 0.0006673681    1.654    0.395
       151  -9.3339    245.7086    193.6685   9.7886834107e+01  -3.9269528254e+00    0.2971399    0.2440268 -63.03  0.001228489    2.111    0.526
       152  -8.9633    185.2550    194.7112   1.0930905070e+02   6.5980591916e+00    0.2455021    0.2324125 -84.38 0.0007360694    1.325    0.245
       153  -8.7639    161.1969    194.5264   1.1422091262e+02   1.1173036825e+01    0.2835254    0.2113474  71.98  0.000924963    1.757    0.431
       154  -8.9730     43.9807    193.5820   1.3953827187e+02   3.0283285457e+01    0.4116775    0.1778738  68.77  0.001726701    2.731    0.634
       155  -8.6016    231.1943    193.7289   1.0041950240e+02  -1.5302028497e+00    0.2527095    0.1533326 -28.98 0.0009296862    1.670    0.401
       156  -8.7157     77.0511    193.8111   1.3245654901e+02   2.5850108717e+01     0.257761    0.1743274  75.08 0.0005829624    1.461    0.315
       157  -8.9336    224.3584    193.6478   1.0163156281e+02  -3.4413105617e-01     0.358369    0.1896353 -38.60  0.001743523    2.042    0.510
       158  -7.8583    205.3476    192.1844   1.0490257397e+02   3.2711265172e+00    0.1735665    0.1236381 -45.68 0.0005453016    1.679    0.404
       159  -8.5668    198.8852    191.6190   1.0604573129e+02   4.5527567218e+00    0.2369731    0.1957391 -42.96 0.0006983606    1.409    0.290
       160  -8.8938    172.2068    191.8963   1.1146277351e+02   9.5466314300e+00    0.2653221    0.2271291  65.25 0.0007982595    1.338    0.253
       161  -9.1941    139.5994    190.9223   1.1824153900e+02   1.5903826500e+01    0.3754595    0.2427039  74.18  0.001065598    2.288    0.563
       162  -9.0321    216.4069    188.4784   1.0211397658e+02   1.8263702236e+00    0.3192926    0.2241716 -27.11  0.001448892    1.470    0.320
       163  -7.6800    179.0174    191.5170   1.0999397094e+02   8.3140672410e+00    0.1805671    0.1141931  62.63  0.000459157    2.215    0.549
       164 -10.4377     92.3466    188.8685   1.2844505845e+02   2.4553290248e+01      0.94703    0.2707646  50.34  0.003131041    3.759    0.734
       165  -8.7272     21.7113    191.0466   1.4394148947e+02   3.3254871046e+01    0.3908877     0.101983  56.40  0.001500054    4.028    0.752
       166  -8.4108    148.6091    189.5902   1.1605927629e+02   1.4465385275e+01    0.2618124    0.1871306  77.93 0.0009859543    1.945    0.486
       167  -8.9039    129.2973    188.5908   1.2012928533e+02   1.8261266542e+01    0.3143925     0.223206 -85.32  0.000875878    1.846    0.458
       168  -7.7541      6.4962    190.4836   1.4694773994e+02   3.4810893903e+01    0.1123187   0.08284618  78.12 0.0008104564    1.002    0.002
       169  -8.2618    237.1170    188.6022   9.8404661947e+01  -1.8165447782e+00    0.2053113     0.164887 -34.34 0.0008180242    1.391    0.281
       170  -9.3110    155.8509    187.4279   1.1412102959e+02   1.3489068481e+01    0.3772826    0.2472571 -64.20  0.001223616    2.041    0.510
       171  -9.8848    120.9683    186.6763   1.2168402621e+02   2.0154383844e+01    0.5738633    0.3052812 -74.84  0.002238579    3.119    0.679
       172  -8.4751     33.9928    187.9775   1.4115679474e+02   3.2605701411e+01    0.2819698    0.1240047  78.95  0.001286384    2.665    0.625
       173  -8.8277    242.8123    188.0387   9.7313056185e+01  -2.6926773831e+00    0.2079297    0.1280189  -5.72 0.0007740946    1.886    0.470
       174  -8.7753    191.5376    187.3223   1.0669007028e+02   6.6345596895e+00    0.2859673    0.2206912 -73.19  0.001009244    2.023    0.506
       175  -8.8123    165.0136    187.0074   1.1209032142e+02   1.1799278182e+01    0.2848822    0.2260322 -82.49 0.0009594709    1.734    0.423
       176  -9.1368     54.7105    186.9497   1.3659587018e+02   3.0366231251e+01    0.3746249    0.1889047  71.58  0.001628825    2.272    0.560
       177  -8.2552    230.4285    187.2860   9.9331439266e+01  -4.8302137996e-01      0.17049    0.1193602 -41.34 0.0009441567    1.649    0.393
       178  -9.1890    109.5003    186.1595   1.2419086013e+02   2.2276878653e+01    0.3745301      0.23294  72.58  0.001152154    2.052    0.513
       179  -8.6613    249.2705    185.4553   9.5724951333e+01  -3.4031952089e+00    0.2251391    0.1870724 -31.84 0.0007873544    1.353    0.261
       180  -8.7408    183.0103    185.4560   1.0805973793e+02   8.5873916128e+00    0.2381337     0.197041 -61.92 0.0005616057    1.537    0.350
       181  -9.0216    210.2973    184.5662   1.0251069637e+02   3.5463798087e+00    0.2238642    0.2017008 -20.98 0.0005480367    1.177    0.150
       182  -8.9456    202.9070    184.9778   1.0400764718e+02   4.8628298144e+00    0.2450261    0.2132054  86.33 0.0007747705    1.649    0.393
       183  -8.9945     66.5435    184.4612   1.3369457857e+02   2.9331274492e+01    0.3540626    0.1987323  69.73  0.001022822    1.944    0.486
       184  -8.2788    224.1447    183.6818   9.9765625081e+01   1.1543314842e+00    0.2075122    0.1753201 -37.23 0.0004752364    1.351    0.260
       185  -8.0887    197.4519    183.9733   1.0488059388e+02   6.0601930263e+00    0.1763488    0.1221162 -65.97 0.0005203151    2.431    0.589
       186  -9.0834    174.2830    183.5249   1.0949979630e+02   1.0623151703e+01      0.29075     0.236162 -81.89 0.0008929228    1.708    0.414
       187  -8.8115     44.3525    182.4983   1.3842557204e+02   3.2595831302e+01    0.2806593    0.1427373  64.21 0.0008988103    1.971    0.493
       188  -7.8728     19.6567    183.3268   1.4380286977e+02   3.5073246089e+01    0.1270893   0.06587026  66.21 0.0007030522    1.741    0.426
       189  -7.7736      1.7537    183.6242   1.4748525027e+02   3.6626508433e+01    0.1485555   0.07958291  49.34 0.0009396747    1.663    0.399
       190  -8.5534    240.7884    181.3382   9.6364112021e+01  -1.4186516728e+00    0.3003397    0.1608869 -46.34  0.001409388    2.458    0.593
       191  -9.2376    147.4458    180.5942   1.1473939436e+02   1.6415053824e+01     0.369256     0.266351 -85.54  0.001029047    1.996    0.499
       192  -9.4479     25.7176    179.2308   1.4219556100e+02   3.5343135337e+01    0.6002343    0.2190328  75.71  0.002192904    4.314    0.768
       193  -8.5770    137.7196    179.4967   1.1671623346e+02   1.8503139459e+01    0.2747343    0.2027787  85.95  0.001115715    1.782    0.439
       194  -9.2982    191.5872    178.4546   1.0497725235e+02   8.1188229108e+00    0.3097581     0.239988  62.20  0.000595532    1.580    0.367
       195  -8.0214    169.1767    178.8517   1.0969525788e+02   1.2474986557e+01    0.2102288    0.1864324  71.62 0.0006197599    1.289    0.224
       196  -8.9013     35.7973    176.5686   1.3975264078e+02   3.4855946829e+01    0.4989321    0.1926685  79.02  0.001729173    4.566    0.781
       197  -8.6174    250.5041    172.9527   9.3072433774e+01  -1.8850489600e+00     0.223845    0.1778315  -6.75 0.0006476861    1.124    0.110
       198  -9.1868    248.8993    177.4034   9.4219562420e+01  -2.2372777912e+00    0.2861343    0.2598852  53.78 0.0009521627    1.485    0.326
       199  -8.0790    247.3196    173.7106   9.3751667691e+01  -1.4526222220e+00    0.1988852    0.1206448 -31.92 0.0002931706    1.577    0.366
       200  -8.6387    217.5933    177.6012   9.9773980937e+01   3.2786086890e+00    0.2481366     0.204722 -51.78  0.000748942    1.539    0.350
       201  -8.4994    204.9348    177.9141   1.0223694924e+02   5.6212348941e+00    0.2321031    0.1873186 -41.44  0.000662003    1.381    0.276
       202  -8.6068    129.3129    177.4448   1.1826746974e+02   2.0510765508e+01    0.3007471    0.2039888  72.38 0.0008883628    1.879    0.468
       203  -8.5374    231.1267    176.7811   9.7152372437e+01   9.3140638853e-01    0.2201946    0.1719226 -39.80  0.000808496    1.436    0.304
       204  -9.4125    183.1891    175.7704   1.0616124582e+02   1.0244620693e+01    0.4198096    0.2620945 -36.18 0.0009900664    1.750    0.429
       205  -9.4549    104.2349    174.8192   1.2366076871e+02   2.5584086145e+01    0.5553087    0.2881525  62.63  0.002022934    2.522    0.603
       206  -8.1585     97.9522    177.5261   1.2555111720e+02   2.6060090047e+01    0.2064401    0.1254427  42.36  0.000578088    1.537    0.350
       207  -9.0277     89.0532    176.8116   1.2752874154e+02   2.7658946551e+01     0.291776    0.1823807  78.03  0.001019176    1.945    0.486
       208  -9.9022     57.3645    173.3703   1.3449897625e+02   3.2986512458e+01    0.7643689    0.3336428  79.83  0.002541265    4.622    0.784
       209  -8.5178     12.9866    176.7672   1.4472825313e+02   3.7087755197e+01    0.2599498    0.1121273  65.23  0.001327572    2.260    0.558
       210  -8.0025    211.4342    176.2750   1.0066600085e+02   4.6460164474e+00    0.1781792    0.1296767 -45.43  0.000843451    1.587    0.370
       211  -9.2758    158.8389    175.1361   1.1122126781e+02   1.5229978200e+01    0.3940798    0.2693973  76.75  0.001375891    2.285    0.562
       212  -8.0156     79.5048    158.4656   1.2710898621e+02   3.3241816342e+01     0.196087    0.1697304 -28.54 0.0008975053    1.515    0.340
       213  -9.5865     81.6786    154.6889   1.2596151684e+02   3.3772532622e+01     0.520682    0.3006577  78.20  0.001727109    2.521    0.603
       214 -10.6089     76.1047    171.2298   1.2980554392e+02   3.0871435675e+01    0.9847699    0.4072848 -79.81  0.003171411    4.513    0.778
       215  -8.8503     74.9369    160.0561   1.2849237178e+02   3.3561435713e+01    0.2699621     0.191523   2.90  0.001274385    2.487    0.598
       216  -8.6096    224.4131    174.2488   9.7850759041e+01   2.5338949674e+00    0.1802224    0.1235579 -42.99 0.0006850144    1.641    0.391
       217  -9.6470    175.7272    172.2277   1.0701983297e+02   1.2380779695e+01    0.3684718    0.2602402 -35.37 0.0008063873    1.551    0.355
       218  -8.3557    142.9974    172.9494   1.1434294658e+02   1.8797891172e+01    0.2254499    0.1704256  76.34 0.0005688873    1.638    0.389
       219  -8.0833    194.2068    172.6164   1.0329193362e+02   8.6034722109e+00    0.2071561    0.1226951  34.75 0.0007800613    1.654    0.395
       220  -8.4717    134.7502    171.7600   1.1601028710e+02   2.0645579782e+01    0.2697062      0.19954 -67.45 0.0007916547    1.560    0.359
       221  -9.5226    121.3309    170.4117   1.1889655522e+02   2.3471500117e+01    0.4259716    0.2810152 -79.27  0.001018611    2.020    0.505
       222  -9.0909     44.9552    171.0185   1.3711669386e+02   3.5038049261e+01      0.36554    0.1905677  79.28  0.001259882    2.182    0.542
       223  -8.5825    230.7910    170.5539   9.5960039754e+01   1.9272341795e+00    0.2468836    0.1854553 -35.41 0.0008149584    1.374    0.272
       224  -8.5664    205.7489    169.9429   1.0047588407e+02   6.7768475228e+00    0.3727122    0.1742065 -47.31   0.00122582    2.599    0.615
       225  -7.7736     68.5071    170.9764   1.3158009802e+02   3.2019393374e+01    0.1874548    0.1017376  84.01 0.0008083851    2.436    0.590
       226  -8.3493    237.1637    169.6857   9.4668276862e+01   9.0476383338e-01    0.2135848    0.1693448 -36.81  0.000530766    1.349    0.259
       227  -8.8292    198.2398    170.1018   1.0197871739e+02   8.2332343454e+00     0.242101    0.2063899  55.10 0.0006699905    1.298    0.230
       228  -9.1337    167.3282    168.7756   1.0813164972e+02   1.4731774121e+01    0.3702857    0.2451283  67.60  0.001205068    2.118    0.528
       229  -8.5046    149.8699    169.7751   1.1219034151e+02   1.8072045657e+01    0.2556278    0.1880135 -88.26 0.0007994515    1.933    0.483
       230  -7.8801    244.5209    169.4680   9.3369742968e+01  -3.6343321727e-01    0.1288964    0.1146501  -2.36 0.0008085673    1.066    0.062
       231  -8.4362     88.5195    168.5659   1.2643973424e+02   2.9560833349e+01    0.2341796    0.1278957 -76.25 0.0008590093    2.231    0.552
       232  -8.4205    218.8795    168.2782   9.7650934038e+01   4.5059834448e+00     0.192719    0.1842384  47.10 0.0005805746    1.232    0.188
       233  -8.0464    211.3691    168.1852   9.9038530555e+01   5.9687845952e+00    0.2765171    0.1199378 -44.53  0.001095245    2.610    0.617
       234  -8.8088    212.9045    163.6781   9.7813216253e+01   6.4086755222e+00    0.2872019    0.2011452 -34.14 0.0007550289    1.447    0.309
       235  -8.8153    111.5810    167.4296   1.2069605976e+02   2.5894972257e+01    0.3013277    0.2026658  78.49 0.0009987782    1.917    0.478
       236  -8.9356    191.9112    166.6637   1.0254197578e+02   1.0100906033e+01    0.2602992    0.2077432 -48.36 0.0006435916    1.413    0.292
       237  -9.0753    184.9697    166.5036   1.0393033159e+02   1.1543323968e+01    0.2639107    0.2041576 -60.96  0.000909385    1.635    0.389
       238 -10.1541     95.4072    163.3678   1.2394178608e+02   2.9597415742e+01    0.8511066    0.4309008  72.72  0.002724986    4.289    0.767
       239  -9.1367     20.6738    166.3811   1.4222864508e+02   3.8623121766e+01    0.3517842    0.1412535  60.72  0.001340963    2.659    0.624
       240  -8.8942    159.5648    164.5767   1.0899608728e+02   1.7133762246e+01    0.3079007    0.2562103 -72.72   0.00114432    1.443    0.307
       241  -9.9169    136.6097    164.3727   1.1419891583e+02   2.1814517449e+01    0.6408122    0.2980215  57.07  0.001909342    2.816    0.645
       242  -7.9055    250.5574    165.0322   9.1470595658e+01  -7.7102414125e-01    0.1937201    0.1156783 -32.09  0.001016674    1.570    0.363
       243  -8.2885    233.8798    165.1047   9.4302149115e+01   2.1890375329e+00    0.1934806     0.177619 -44.09 0.0006454735    1.313    0.239
       244  -9.4768     33.5204    163.4221   1.3898955277e+02   3.8001331553e+01    0.5234178    0.2127616  59.92  0.002145599    2.827    0.646
       245  -8.2591    239.9759    164.0910   9.3042808431e+01   1.2323657962e+00    0.2006759    0.1731073  -6.22 0.0005346921    1.037    0.036
       246  -8.6137    204.9259    162.7294   9.9141015076e+01   8.1529689451e+00    0.2573122    0.2027631 -45.68 0.0006258496    1.411    0.291
       247  -8.3731    200.2309    163.0059   1.0011766416e+02   9.0523088016e+00    0.1825695    0.1177294 -36.76 0.0004735248    1.607    0.378
       248  -9.2417      3.5068    162.4733   1.4575759314e+02   4.0947942745e+01    0.3683098    0.1513222  54.30   0.00195478    2.290    0.563
       249  -8.8455    151.6414    161.1252   1.1008489724e+02   1.9450524527e+01    0.3040746      0.23774 -86.30 0.0008762683    1.667    0.400
       250  -7.7036    221.7116    161.6869   9.5762295684e+01   5.0158445878e+00     0.140112    0.1012098   6.15 0.0003040305    1.585    0.369
       251  -8.9333    177.5418    160.6650   1.0427661477e+02   1.4152899510e+01    0.3123552    0.2523804  82.57  0.001030703    1.652    0.395
       252  -8.7451     60.6592    160.5002   1.3209648279e+02   3.5451373968e+01    0.3401272    0.1651027  64.66  0.001419675    2.667    0.625
       253  -8.7041    246.0755    163.0349   9.1800730557e+01   3.0021566647e-01     0.199377    0.1706569  -0.58 0.0004383157    1.033    0.032
       254  -8.6963    227.3398    158.9978   9.4182343312e+01   4.3622009467e+00    0.2624155    0.1968642 -52.54  0.001070902    1.673    0.402
       255  -9.7613    105.8445    157.5758   1.2036635279e+02   2.9093447563e+01    0.5739205    0.4087759 -70.14  0.001146517    1.502    0.334
       256  -9.7432    250.1888    157.9229   9.0073316343e+01   3.2200965760e-01    0.3222088    0.1720854 -31.26 0.0007974139    1.747    0.427
       257  -8.2506    236.8806    158.8319   9.2480521997e+01   2.5919173962e+00    0.1717235    0.1591369 -46.89 0.0005383041    1.304    0.233
       258  -9.0619    167.7212    157.6377   1.0576217032e+02   1.6792089374e+01    0.3761585    0.2697052  86.67  0.001267041    2.232    0.552
       259  -8.4755    128.2571    158.8537   1.1511741507e+02   2.4623077327e+01    0.2748478    0.2138223  83.83 0.0007856384    1.530    0.347
       260  -8.4074    196.5350    157.9961   9.9790687186e+01   1.0683415828e+01    0.2597114    0.2004488  61.69 0.0007700228    1.532    0.347
       261  -8.6869    187.7955    157.4998   1.0145863081e+02   1.2591842229e+01    0.2681101    0.2270974 -77.70 0.0007816124    1.536    0.349
       262  -8.3776    217.9059    156.5885   9.5381125431e+01   6.5876737584e+00    0.2721536    0.1736697 -50.74 0.0009624456    1.933    0.483
       263  -9.0814    157.6377    156.0199   1.0767029291e+02   1.9233677924e+01    0.3368007       0.2512 -67.44  0.001022385    1.673    0.402
       264  -9.6216    118.8199    154.1015   1.1649906510e+02   2.7475249787e+01    0.5893952    0.3477662 -78.77  0.002229823    2.788    0.641
       265  -8.5290     23.2391    156.3137   1.4071627814e+02   4.0612255556e+01    0.2670314     0.126049 -39.90  0.001131181    3.837    0.739
       266  -8.3521    204.7010    155.5930   9.7666123121e+01   9.4202593106e+00    0.2271352    0.1730502 -57.97 0.0003632411    1.663    0.399
       267  -8.6792    144.8926    155.2657   1.1044865524e+02   2.2041156213e+01    0.3661108    0.2332142  66.80  0.001336454    2.105    0.525
       268  -9.3545     49.7969    155.3499   1.3412025193e+02   3.7998485884e+01    0.3965172    0.2051197  62.74  0.001858718    2.198    0.545
       269  -9.1288    242.8273    154.8601   9.0643432312e+01   2.0996095856e+00    0.2519986    0.1869354 -69.69 0.0005708172    2.327    0.570
       270 -10.3313     68.0218    153.3955   1.2924320739e+02   3.6080098945e+01    0.5780716    0.3330974 -77.77  0.001782234    1.853    0.460
       271  -8.1661    232.9577    153.9887   9.2134472511e+01   4.0775898005e+00    0.2047202    0.1690117 -68.56 0.0008698299    1.727    0.421
       272  -9.5810    132.7191    153.0079   1.1288308116e+02   2.4995211248e+01    0.4476026    0.3127062  77.58   0.00136617    1.953    0.488
       273  -9.2955    133.5075    148.4895   1.1176081628e+02   2.5807332603e+01    0.3973143    0.2518711 -44.33  0.001787431    1.688    0.408
       274  -8.9186    151.9256    152.7702   1.0829153837e+02   2.1092686122e+01     0.265583     0.197322 -64.52  0.001065354    1.599    0.375
       275  -8.2491     20.1664    152.8583   1.4111898206e+02   4.1667434253e+01     0.186534     0.129054  73.70 0.0005768818    1.305    0.233
       276  -8.2719    182.4793    151.5871   1.0128583625e+02   1.4809673265e+01    0.2800085    0.2037746 -75.86  0.001239302    2.114    0.527
       277  -9.6305     29.2904    150.6949   1.3867225041e+02   4.1298410944e+01    0.4636446    0.2132789  71.65  0.002044532    2.773    0.639
       278  -9.6042    248.8570    149.4117   8.8509713303e+01   1.8175577712e+00     0.319905    0.1841183 -36.72  0.000747474    1.642    0.391
       279  -9.0775    246.9452    143.9737   8.7660187894e+01   2.9872810166e+00    0.2702289    0.1743444 -27.21 0.0005211671    1.458    0.314
       280  -8.9504    189.3181    150.2691   9.9575317146e+01   1.3591839223e+01    0.3109014    0.2393434 -56.45 0.0008333111    1.534    0.348
       281  -8.3422    162.7135    150.8601   1.0542500958e+02   1.9189648403e+01    0.2728341    0.2072639 -68.52  0.001017472    1.658    0.397
       282  -8.7757     98.1995    150.6460   1.2104257077e+02   3.1995764487e+01    0.2929393    0.2069409  88.89 0.0009364353    1.707    0.414
       283  -8.7691      2.6480    150.1698   1.4503854552e+02   4.3688897532e+01     0.292285    0.1286629  79.23  0.001463248    2.313    0.568
       284  -9.7787    243.1733    149.8055   8.9517983172e+01   2.8017676231e+00    0.3427854    0.2214514  48.01  0.001792172    1.672    0.402
       285  -8.4402    237.4569    150.4577   9.0611387988e+01   3.7732338183e+00    0.2008004    0.1210398  35.82 8.571662e-05    1.717    0.418
       286  -8.0988    212.9230    149.9513   9.4872018684e+01   8.6982548130e+00     0.205831    0.1732106 -72.02 0.0005096698    1.590    0.371
       287  -9.7907     39.9673    148.0763   1.3568618185e+02   4.0793203572e+01    0.5079925    0.2492704  67.84  0.002032694    2.581    0.613
       288  -8.5617    198.8728    149.0215   9.7373489319e+01   1.1785922999e+01    0.2187694    0.1947693 -77.17 0.0005689918    1.393    0.282
       289 -10.2770     89.2021    146.0587   1.2254197237e+02   3.4560130701e+01    0.7301894    0.4001505 -85.37  0.002683772    3.155    0.683
       290  -8.5657    233.2913    147.6106   9.0708645431e+01   5.0169176508e+00    0.2524824    0.1720162 -32.08 0.0006161062    1.402    0.287
       291 -10.4164    149.0127    144.8580   1.0726406978e+02   2.3344048674e+01    0.6676686    0.4559158 -80.49  0.001635365    2.301    0.565
       292  -8.8595    150.8274    136.1534   1.0487433429e+02   2.4764596257e+01    0.3742021    0.2300619  25.58  0.001461705    2.260    0.558
       293 -10.4204    106.8432    144.0777   1.1756634387e+02   3.1952484965e+01    0.8641387    0.5544324 -84.64    0.0026563    2.254    0.556
       294  -9.0204     77.7871    146.9005   1.2568347424e+02   3.6162999561e+01      0.30628    0.2022606 -88.84 0.0008419066    1.771    0.435
       295 -10.4006     54.7160    144.1350   1.3132771187e+02   3.9986714052e+01    0.8879237    0.4516723  84.63  0.003147274    3.003    0.667
       296  -9.4243     57.2321    135.5740   1.2934114983e+02   4.1669238593e+01    0.3256302    0.1769214  18.07  0.001407069    2.856    0.650
       297  -8.2908    223.4547    147.0627   9.2311684734e+01   7.0444563464e+00    0.2061991    0.1958184 -74.72 0.0006611207    1.283    0.220
       298  -9.7337    139.2997    137.6624   1.0799313359e+02   2.6930879623e+01    0.5344675    0.3577351  42.11  0.002429682    1.458    0.314
       299  -9.1745     13.5906    146.3833   1.4209973490e+02   4.3681625734e+01    0.3253959    0.1548287  58.00  0.001376692    2.175    0.540
       300  -8.3440    240.4088    145.4787   8.9048812837e+01   3.9848434498e+00    0.2259628    0.1801232 -20.68 0.0001339563    1.173    0.148
       301 -10.5452    242.7097    143.3324   8.8207641445e+01   3.8798939344e+00    0.8252795    0.2283766 -36.91  0.002850082    3.322    0.699
       302  -8.1186    206.7747    146.4040   9.5253986257e+01   1.0581011170e+01    0.1887465    0.1804195 -30.22 0.0005975982    1.101    0.091
       303  -8.1750    175.4741    146.1640   1.0157857562e+02   1.7352859461e+01    0.2334901    0.2041249  75.87  0.000601634    1.318    0.241
       304  -9.8598    124.9396    142.6984   1.1266123984e+02   2.8795206361e+01    0.5552757    0.3524751 -76.80   0.00159988    2.356    0.576
       305 -11.0966     68.9119    140.2751   1.2693345766e+02   3.9002556955e+01    0.9798119    0.4326389 -59.61  0.003974752    2.095    0.523
       306  -9.9610     73.1501    129.2495   1.2380434420e+02   4.0973316944e+01    0.4953318    0.3070796 -84.10  0.001615878    2.054    0.513
       307  -9.9228    139.1618    145.2799   1.0970674834e+02   2.5332137914e+01    0.5062495    0.3368744 -73.81  0.001108155    2.138    0.532
       308  -8.1411    194.4747    143.9933   9.7127871619e+01   1.3629862028e+01    0.2012036    0.1270979 -62.29 0.0005634804    2.398    0.583
       309  -8.9711    182.5673    143.0806   9.9371287266e+01   1.6391474570e+01    0.3797649    0.2433794 -58.35  0.001077234    2.024    0.506
       310  -8.8850    165.5771    144.1210   1.0329587866e+02   1.9912791188e+01    0.3179961    0.2144544  55.98  0.000791575    1.559    0.359
       311  -9.2623      2.5342    141.2879   1.4434665004e+02   4.5654561790e+01    0.4120849    0.1716956  79.82  0.001708422    2.668    0.625
       312  -8.4208    250.4511    140.9503   8.6456485171e+01   2.7945915455e+00    0.2009703    0.1194295 -32.50 0.0005903945    1.541    0.351
       313  -9.7627     23.6858    138.2957   1.3871638418e+02   4.4649683504e+01    0.5085006    0.2284046  63.94  0.002233782    2.803    0.643
       314  -8.7255    172.3679    138.4982   1.0051131776e+02   1.9525789453e+01    0.3176243    0.2323674 -77.54 0.0008152293    1.997    0.499
       315 -10.0640    229.2368    137.2380   8.9126086450e+01   7.4830733022e+00    0.4180505    0.2946383  -5.53  0.001321679    1.717    0.418
       316  -8.2908    207.5268    138.0102   9.3219476882e+01   1.1884341097e+01    0.2150223     0.140045 -39.59 0.0007355991    1.538    0.350
       317  -8.5896    197.6038    137.5636   9.5037963939e+01   1.4114502192e+01    0.2847472    0.2145653 -55.94 0.0008143783    1.552    0.356
       318 -10.5047     83.3637    133.2264   1.2171606171e+02   3.8479956280e+01    0.6162666     0.374173 -63.67  0.001402596    1.638    0.389
       319  -8.9364     83.8282    123.6952   1.1967029958e+02   4.0624054768e+01    0.5214143    0.3644059 -10.32  0.002308893    2.401    0.583
       320  -8.6282    162.7124    136.3443   1.0216404121e+02   2.2101798874e+01     0.267599    0.1896833 -57.27 0.0007113981    1.615    0.381
       321  -9.0306    115.0510    136.3408   1.1383467655e+02   3.2154515812e+01    0.2992551    0.2341261 -57.31 0.0006418967    1.298    0.229
       322  -8.8682    112.5289    133.0579   1.1378569483e+02   3.3379695019e+01     0.303645    0.2336635  89.74 0.0007684755    1.573    0.364
       323  -9.4941     39.0795    136.1036   1.3436282907e+02   4.3655873763e+01    0.2854796    0.1818946  88.57 0.0008897003    1.599    0.375
       324  -8.9996    248.3120    135.3039   8.5572850171e+01   4.0507567320e+00    0.2856894    0.1994401 -34.85 0.0006416147    1.325    0.245
       325  -8.4961    246.8739    130.3121   8.4705991897e+01   5.0912652525e+00    0.2522028    0.1685627 -44.89 0.0007143003    1.533    0.348
       326  -7.5789    192.5203    136.5131   9.5810609246e+01   1.5424161471e+01     0.147986    0.1433988  19.78 5.739303e-05    1.010    0.010
       327  -8.4766    187.9703    135.7137   9.6551692522e+01   1.6581711792e+01    0.2677926    0.1867981 -52.17 0.0006484622    1.609    0.379
       328  -8.9397    179.2602    133.6565   9.7892285362e+01   1.8921801838e+01    0.3787375    0.2260483 -54.62  0.001226019    2.035    0.509
       329  -8.1066    237.4981    133.8983   8.6996141801e+01   6.3645287268e+00    0.2070696    0.1269899 -35.36  0.001009368    1.531    0.347
       330 -10.0987    132.0344    130.9944   1.0827583896e+02   2.9904500294e+01    0.5962892    0.3481108 -63.51  0.001646748    2.236    0.553
       331 -10.4372     98.2487    130.2546   1.1702249054e+02   3.6660948753e+01    0.6801457    0.3320631 -58.52  0.001589025    2.126    0.530
       332  -8.9159     99.5340    120.3432   1.1448540582e+02   3.8700293247e+01    0.5221717    0.3303132  12.74  0.002013709    2.849    0.649
       333  -9.1412    143.0283    131.7401   1.0572103749e+02   2.7392691979e+01    0.2996767    0.2433562 -75.65 0.0007486853    1.450    0.310
       334  -9.6296    152.9633    129.0089   1.0268884920e+02   2.5774382387e+01    0.5499629    0.2856228 -55.39  0.001183859    2.363    0.577
       335  -8.0866    154.3484    123.3308   1.0098188753e+02   2.6631801654e+01    0.2317503    0.1571936  32.50 0.0007208661    1.659    0.397
       336 -10.1157     12.8248    128.7982   1.4051911751e+02   4.7709029718e+01    0.5906221    0.2701025  87.16  0.002788618    2.437    0.590
       337  -7.6097    220.5144    130.4005   8.9097760255e+01   1.0418860767e+01    0.1403212    0.1339837   1.52 0.0001239427    1.020    0.020
       338  -8.2202    204.5071    130.1032   9.1963716147e+01   1.3932676966e+01    0.2215389     0.142524 -39.13  0.000796906    1.547    0.353
       339  -8.0407    192.7966    130.3177   9.4302561629e+01   1.6501995063e+01    0.2038019    0.1855731 -49.09 0.0005123362    1.152    0.132
       340  -9.4138    168.3415    129.4538   9.9269064695e+01   2.2213104055e+01    0.3334053    0.2521113 -62.59 0.0008261143    1.571    0.363
       341  -8.6926    161.5243    130.4654   1.0104877282e+02   2.3554191179e+01    0.1540082    0.1480219  33.61 6.257062e-05    1.035    0.033
       342  -9.0745    250.6380    129.8136   8.4017265934e+01   4.4468211467e+00    0.4428069    0.1160588 -34.82   0.00128469    3.469    0.712
       343  -8.1801    211.4606    129.2181   9.0456008010e+01   1.2564437731e+01    0.2068888    0.1321772 -48.86 0.0009331037    1.714    0.416
       344  -8.0083    186.2936    129.6221   9.5460309427e+01   1.8098708132e+01    0.1557965    0.1201771 -75.31 0.0007021919    1.744    0.427
       345 -10.7402     44.9206    123.7994   1.3090845858e+02   4.5892762102e+01     1.026304    0.5106399  76.19  0.003836882    3.683    0.728
       346  -8.0850     26.2387    129.5952   1.3698945614e+02   4.6417956108e+01    0.1503419    0.1220304   3.43 0.0009560322    1.664    0.399
       347 -10.3247     59.9387    125.0158   1.2678957669e+02   4.3797459786e+01     0.685509    0.3882506  77.20  0.002421933    2.777    0.640
       348 -10.0637    117.8300    125.0440   1.1057214981e+02   3.4136162307e+01    0.5824019    0.4085419 -75.81  0.001674065    1.853    0.460
       349  -8.4540    228.4699    125.4382   8.6587682257e+01   9.5681083489e+00    0.2487233    0.1206666 -45.03 0.0009721001    2.151    0.535
       350  -9.0186    179.1030    124.8054   9.5803020189e+01   2.0655405703e+01    0.3262461    0.2576535  70.40 0.0008142732    1.473    0.321
       351 -10.2404     28.3401    122.2779   1.3542980813e+02   4.7917201577e+01    0.7417166    0.3468079  77.89  0.002932932    3.501    0.714
       352  -9.2676     27.2123    113.6216   1.3450673245e+02   5.0016712390e+01    0.4386144     0.140992  27.31  0.001840666    3.468    0.712
       353  -8.0610    188.4402    124.2225   9.3720939033e+01   1.8619083921e+01    0.2084324    0.1425692 -50.20 0.0006808973    1.583    0.368
       354  -7.9449    194.8457    122.0101   9.1902018789e+01   1.7559314654e+01    0.2458289    0.1653593 -61.08 0.0007217976    1.935    0.483
       355  -8.6899    172.0652    121.6884   9.6552396078e+01   2.2885330570e+01    0.2516795    0.2109509 -59.20 0.0005116542    1.305    0.233
       356  -9.3903    158.6503    121.5469   9.9535717151e+01   2.6013094836e+01    0.3388714    0.2721939  86.68 0.0009255744    1.555    0.357
       357  -9.7675     71.1081    119.8625   1.2256160165e+02   4.3467424836e+01    0.4487399    0.2611014 -75.93  0.001143973    2.113    0.527
       358  -7.6480    203.2476    121.6560   9.0196304967e+01   1.5712582527e+01    0.1470067    0.1141115 -64.44 0.0003602472    1.573    0.364
       359 -10.0329    141.6166    118.6008   1.0288233784e+02   3.0483425310e+01    0.5304065    0.3469616 -71.34  0.001329095    2.270    0.559
       360  -9.8146    130.6478    118.5960   1.0565720487e+02   3.2887338872e+01    0.4640895     0.307691 -69.80  0.001265731    2.056    0.514
       361 -10.6217    133.4251    109.5701   1.0263880920e+02   3.4208551690e+01    0.7039129    0.3965652 -51.42  0.002131648    1.895    0.472
       362  -8.9808    246.8071    119.2226   8.2256581097e+01   6.8184033183e+00    0.2191499     0.195696  46.64 0.0006605727    1.221    0.181
       363  -9.7287      2.9670    117.2773   1.4195690149e+02   5.0987740380e+01    0.4742656    0.2220161  77.45   0.00231607    2.541    0.606
       364  -8.0544    231.6332    117.7792   8.4301218117e+01   1.0153350861e+01    0.2036746    0.1203603 -43.86 0.0005093907    1.673    0.402
       365  -8.7753     59.2144    115.5779   1.2524158419e+02   4.6100814525e+01    0.4396384    0.2784704 -19.44  0.001957961    2.642    0.621
       366  -7.8847    219.3152    116.6895   8.6106449131e+01   1.2987304905e+01    0.1449738     0.113019 -70.55 0.0002534896    1.635    0.388
       367  -8.2489    192.9876    115.4828   9.0665083199e+01   1.9178754156e+01    0.2277566    0.2026006 -38.89 0.0004227436    1.127    0.112
       368  -8.4501    185.5381    115.9955   9.2285242323e+01   2.0825717409e+01    0.2287352    0.1496346 -40.51 0.0004483319    1.540    0.351
       369 -10.0431    109.2425    114.2433   1.1032262309e+02   3.8245699680e+01    0.6224269    0.3566078 -65.68  0.001763768    2.327    0.570
       370  -8.7725    109.0206    107.4978   1.0869163189e+02   3.9783945388e+01    0.2930993    0.1477393  37.06  0.001137228    2.144    0.534
       371  -7.6189    153.3170    115.6798   9.9305456490e+01   2.8432583852e+01    0.1593476    0.1245838 -87.01 0.0006182586    1.660    0.398
       372 -10.1486     92.6961    112.3821   1.1458890530e+02   4.1735800419e+01    0.6004018    0.3415109 -68.46  0.001412934    2.308    0.567
       373  -8.8504     93.5057    104.5361   1.1243385395e+02   4.3362895645e+01    0.3380338     0.220239  21.98  0.001423157    2.025    0.506
       374 -10.0127     78.8664    112.3848   1.1867458730e+02   4.4032865940e+01    0.6374828    0.3920678 -85.07  0.002612202    2.574    0.612
       375  -8.7450     78.0538    105.6733   1.1738056662e+02   4.5699597152e+01    0.3154832    0.2331033 -18.22  0.001268724    1.808    0.447
       376  -8.0447    167.3885    114.3146   9.5726985275e+01   2.5420922420e+01    0.2121519    0.1458395 -50.85 0.0006978544    1.556    0.358
       377 -10.1421    121.8069    112.2495   1.0638795508e+02   3.6139379004e+01    0.4552506    0.3394496 -42.37  0.001449207    1.374    0.272
       378  -8.7032    174.8339    112.0679   9.3527894310e+01   2.4094556869e+01    0.3001803    0.2023391 -45.98 0.0005357725    1.528    0.346
       379  -8.7957    159.2510    111.9848   9.6968201926e+01   2.7795830709e+01    0.2773272    0.2449215 -73.98 0.0005123451    1.253    0.202
       380 -10.0997     66.4697    109.8251   1.2186688382e+02   4.6462705771e+01    0.6331035    0.3571762 -59.25  0.002247211    1.651    0.394
       381  -9.8997     14.1532    111.3237   1.3804939564e+02   5.1585067208e+01    0.3513039    0.2092846  74.98   0.00118382    1.907    0.476
       382  -9.2402    248.6842    108.8689   7.9653612103e+01   8.0406810948e+00    0.2475118    0.2029447  68.36  0.001076421    1.427    0.299
       383 -10.2661    249.2452    103.4549   7.8350228863e+01   8.7567026574e+00    0.5242498    0.2177247 -28.04  0.002034077    2.626    0.619
       384  -8.2624    189.1091    108.0472   8.9559744870e+01   2.1448499750e+01    0.2424691    0.1845713 -73.14 0.0005957274    1.678    0.404
       385  -9.8164    139.9998    104.1783   9.9532878307e+01   3.3850646013e+01    0.5348312      0.30369 -50.84  0.001402006    1.902    0.474
       386 -10.5212     45.7344    102.6839   1.2688261117e+02   5.0710779619e+01    0.7136603    0.3933609  69.84  0.002945824    3.155    0.683
       387 -10.6438     22.8358    102.7314   1.3415775666e+02   5.2882600255e+01    0.6767754    0.3543175  76.16  0.002614795    2.886    0.654
       388  -8.7464    166.8672    104.5428   9.3296540376e+01   2.7442382954e+01     0.293638    0.2221911 -50.42 0.0005441427    1.386    0.278
       389  -9.6515    150.5837    103.1269   9.6656649171e+01   3.1603687094e+01    0.4811495    0.3012157 -61.62  0.001252298    2.112    0.527
       390  -8.5694      6.9052    103.3214   1.3916461061e+02   5.3879931349e+01    0.2014724    0.1378766 -87.11 0.0007539648    1.345    0.256
       391 -10.0612    128.4990    102.1937   1.0195692232e+02   3.6846393059e+01    0.3643998    0.2844446 -80.63 0.0007035193    1.643    0.391
       392 -10.6633    109.2365     99.2137   1.0644474997e+02   4.1544094428e+01    0.8521441    0.4762895  65.88  0.002283217    3.141    0.682
       393  -8.8886    107.5042     92.7918   1.0516897315e+02   4.3260512345e+01    0.5078788    0.2784574  26.57  0.001880049    2.671    0.626
       394  -8.4245    159.7954    100.9833   9.3927446303e+01   2.9830809850e+01     0.287299    0.2110408 -60.36 0.0006699578    1.578    0.366
       395  -9.1365     81.8492     99.9248   1.1481310604e+02   4.6392018575e+01    0.3942213    0.2698896 -81.21  0.001074589    2.054    0.513
       396 -10.7851    123.8155     90.9728   1.0007032544e+02   4.0192648198e+01    0.7738109    0.6128234 -11.29  0.002581314    1.564    0.360
       397  -9.3008     95.0792     97.0213   1.1001191543e+02   4.4740495258e+01    0.3628429    0.2395999 -62.45 0.0006661299    1.728    0.421
       398 -10.0460     63.8918     95.7949   1.1950700936e+02   5.0029733769e+01    0.5778671     0.364925 -85.75  0.001643962    2.497    0.600
       399  -8.5790     64.6105     87.8970   1.1730856930e+02   5.1691309068e+01    0.3191251    0.1964474   7.00  0.001389715    2.585    0.613
       400  -8.6173    150.8555     95.8520   9.4595592021e+01   3.2973627784e+01     0.424502    0.2653864 -10.72  0.001498166    2.914    0.657
       401  -8.0079    175.4070    102.2054   9.0836991666e+01   2.5822393987e+01    0.2184527    0.1433164 -49.75  0.000416459    1.624    0.384
       402  -7.9654    188.6030     93.7642   8.5946974173e+01   2.4135970521e+01    0.2184204    0.1382847 -47.44 0.0007828302    1.634    0.388
       403  -8.5665    176.6559     93.5087   8.8248126652e+01   2.7119521896e+01    0.3083493    0.2219767 -65.36  0.001080164    1.710    0.415
       404  -8.2955    164.8734     94.1516   9.0924385289e+01   2.9899498574e+01     0.234393     0.211057 -76.52 0.0004517022    1.199    0.166
       405  -9.3303    138.9206     92.3360   9.6518588381e+01   3.6486260076e+01    0.4104793    0.2873031 -79.64 0.0008767025    2.186    0.543
       406  -9.0169     46.5685     92.4819   1.2447274088e+02   5.2943791531e+01    0.3622329    0.2208122   9.59  0.001776095    2.299    0.565
       407  -9.7986      4.8490     91.8270   1.3823212706e+02   5.6569567922e+01    0.3404319    0.1977284  78.17  0.001275504    2.073    0.518
       408  -8.3098    157.9711     91.7912   9.1808346322e+01   3.2031841244e+01    0.2813903    0.1925184 -53.67 0.0005764685    1.620    0.383
       409  -9.8172     34.8006     89.9200   1.2790389305e+02   5.4741684107e+01    0.4325149    0.2513326 -85.70  0.001870052    2.360    0.576
       410  -9.1670     22.9054     90.2663   1.3200284787e+02   5.5698446848e+01    0.2499886    0.2047376 -17.35 0.0008216816    1.422    0.297
       411  -8.2197    151.0261     89.4313   9.2744419585e+01   3.4167686298e+01    0.2412506    0.2060874 -41.50 0.0004323865    1.197    0.165
       412 -10.2214     86.7318     85.5903   1.0943950054e+02   4.8700492188e+01    0.7858583    0.4501224 -45.79  0.001354804    1.677    0.404
       413  -7.6327    188.3126     87.3158   8.4283618178e+01   2.5333131008e+01    0.1548404    0.1198438  19.24 0.0002302914    1.640    0.390
       414  -9.8120     48.5150     84.5049   1.2195985143e+02   5.4503519220e+01    0.4500501    0.2930374  77.91  0.001632245    2.554    0.608
       415  -9.8106    104.7823     83.4372   1.0325636583e+02   4.5748522705e+01     0.459052    0.3299184 -71.38 0.0009490236    1.923    0.480
       416  -8.8542    104.8149     77.7641   1.0152517123e+02   4.6880807735e+01    0.3827582    0.2429095  12.28  0.001480318    2.676    0.626
       417  -8.6803    157.9847     83.8788   8.9555340818e+01   3.3496762802e+01    0.2665332    0.2217312 -42.08 0.0004219489    1.230    0.187
       418  -9.3460    140.8761     82.7734   9.3249107671e+01   3.7870097760e+01    0.3614098    0.2130752 -43.17 0.0008343536    1.739    0.425
       419  -8.3048     35.3879     82.7836   1.2616713763e+02   5.6276647592e+01    0.1895918   0.09598248 -51.31 0.0007195463    1.657    0.397
       420  -8.0650    184.8306     82.5864   8.3660329424e+01   2.7012550688e+01    0.2123921    0.1462281  71.62 0.0005787733    1.635    0.388
       421  -9.8238     24.6426     80.3432   1.2946263696e+02   5.7765510345e+01    0.4407571    0.2524635 -86.12  0.001454948    2.398    0.583
       422  -9.4495      9.7199     80.9177   1.3485940932e+02   5.8692123474e+01    0.2975921    0.1775249  63.98  0.001036396    2.301    0.565
       423  -8.7924    149.4225     79.2293   9.0149176017e+01   3.6454368102e+01    0.5863155    0.2785494 -55.81  0.001894715    3.220    0.689
       424  -8.9879    119.3011     80.3456   9.8156982803e+01   4.3301689456e+01    0.3302055    0.2506221 -60.16 0.0008470737    1.533    0.348
       425  -8.9234     74.5259     80.4788   1.1196153517e+02   5.1816968295e+01    0.3125865    0.2148124 -66.93   0.00102043    1.795    0.443
       426  -8.3469    166.7373     79.7530   8.6473162682e+01   3.2050223636e+01    0.2537307    0.1899827 -32.93 0.0005653281    1.398    0.285
       427  -9.1615     65.3757     78.2206   1.1443657693e+02   5.3677422747e+01    0.2998841    0.2518055 -86.30 0.0008189573    1.499    0.333
       428  -9.9029     63.3934     73.6380   1.1381523014e+02   5.4925801715e+01    0.4486165    0.2703211 -66.05  0.001563365    2.183    0.542
       429  -7.5294    174.7058     78.3224   8.4439320264e+01   3.0289269911e+01    0.1576631    0.1184094 -71.81 0.0003495601    1.616    0.381
       430  -9.3912    128.0875     75.4567   9.4282202315e+01   4.2248162145e+01    0.3942937    0.2813884 -61.55 0.0006723532    1.745    0.427
       431  -7.9950    157.1827     76.2600   8.7511407933e+01   3.5060537525e+01    0.2131193    0.1786044 -71.03 0.0005786813    1.348    0.258
       432  -9.0407    140.4945     75.4626   9.1143049141e+01   3.9312190933e+01    0.2811488    0.2156064 -49.16 0.0005596146    1.382    0.276
       433  -8.2440    185.0360     74.6568   8.1440857917e+01   2.8291922244e+01    0.2125895    0.1864994  57.69 0.0004286844    1.120    0.107
       434  -9.6948     82.3987     72.7693   1.0702854652e+02   5.2106922005e+01    0.4186091    0.2733608 -64.22 0.0009415646    2.065    0.516
       435  -7.9546    151.4576     73.5049   8.7969906477e+01   3.6971605819e+01    0.1540358    0.1478565  83.22 0.0002870579    1.060    0.056
       436  -8.8467    115.7021     72.7197   9.6789008035e+01   4.5550569556e+01     0.295323    0.1950266 -48.42 0.0006872071    1.616    0.381
       437  -9.3550     95.2422     71.3532   1.0243587818e+02   5.0036117360e+01    0.3932629    0.2379421 -56.84  0.001044741    2.052    0.513
       438  -8.4382     42.7443     72.8435   1.2108538521e+02   5.7684485014e+01    0.2281136    0.1684216 -74.01 0.0007489054    1.584    0.369
       439  -9.3083     28.7718     70.4234   1.2571159106e+02   5.9571154492e+01    0.4151258    0.1946164 -27.46   0.00178848    3.052    0.672
       440  -7.7201    175.4562     72.5290   8.2648266594e+01   3.1075881477e+01    0.1517933     0.146737  77.25 9.658703e-05    1.002    0.002
       441  -9.2511    105.8363     71.6113   9.9285959967e+01   4.7865173334e+01     0.313692    0.2112466 -50.43  0.000659527    1.607    0.378
       442  -9.5370     51.5709     69.9338   1.1701928035e+02   5.7271756519e+01    0.4538059    0.2611915 -71.12  0.001325996    2.645    0.622
       443  -9.1760     16.5368     69.6787   1.3018315204e+02   6.0687694134e+01    0.3902544    0.1943615 -72.53  0.001967484    2.118    0.528
       444  -7.7548    157.1981     69.9650   8.5634040039e+01   3.6142526375e+01    0.2035763    0.1217316 -36.06 0.0004389126    1.726    0.421
       445  -8.9892    146.9694     68.3220   8.7415033430e+01   3.8982860171e+01    0.3163261    0.2263125 -37.07 0.0006253569    1.445    0.308
       446  -7.3862    203.2792     67.2760   7.6335973966e+01   2.4880694797e+01    0.1396978    0.1136936  26.44 0.0006906778    1.499    0.333
       447  -9.1173    138.5525     66.2036   8.8737666178e+01   4.1414654110e+01    0.3548168     0.225758 -57.96  0.001192327    2.018    0.505
       448  -8.9081    121.6088     66.1119   9.3035765774e+01   4.5434450259e+01    0.3184246    0.2372172 -63.13 0.0008241582    1.700    0.412
       449  -8.3518    163.3062     73.5816   8.5404830453e+01   3.3984178922e+01    0.2762856     0.177745 -47.31 0.0009152921    1.641    0.391
       450  -7.9193    163.5098     65.5156   8.2976233540e+01   3.5278045178e+01    0.1524871    0.1461966  64.39 0.0001139461    1.006    0.006
       451  -9.1356    110.1203     63.8419   9.5490934062e+01   4.8392593572e+01    0.3023096    0.2308033 -56.57 0.0006347119    1.541    0.351
       452  -8.7325     37.2323     64.1799   1.2083444640e+02   6.0086211132e+01    0.2946481    0.2067307 -75.24  0.001002703    1.823    0.452
       453  -9.7654    240.9437     62.9091   7.0059124017e+01   1.6578702283e+01    0.2495924    0.2262707  59.65 0.0003949879    1.214    0.176
       454  -7.4275    130.6917     64.6901   9.0199814557e+01   4.3565703414e+01    0.1543732     0.116579  17.67 0.0002811216    1.619    0.382
       455  -8.2613    158.1527     62.0911   8.3048507959e+01   3.7198428455e+01    0.2084489    0.1761577 -69.65 0.0003801177    1.308    0.235
       456  -9.4416     97.6260     60.0297   9.7938839291e+01   5.1681403183e+01    0.4292767    0.2692059 -34.10  0.001530063    1.615    0.381
       457  -9.6615     73.3581     59.6050   1.0585127284e+02   5.6198646546e+01    0.4005111    0.2567967 -56.96  0.001009624    1.909    0.476
       458  -7.7177    164.4944     59.5649   8.0995837717e+01   3.5973556598e+01    0.1514734     0.143141  68.80 6.932354e-05    1.011    0.011
       459  -8.1339     88.8902     59.3989   1.0050094735e+02   5.3497249772e+01    0.1888825    0.1714394 -47.38 0.0005072957    1.197    0.164
       460  -9.8472     23.4374     56.5575   1.2425672775e+02   6.2914488744e+01    0.4199991    0.2717958  89.46   0.00194966    2.685    0.628
       461  -9.7587      7.4668     57.1183   1.3095921485e+02   6.3899690470e+01    0.3172105    0.1911733 -77.61  0.001086214    1.869    0.465
       462  -8.3629    130.8448     58.0403   8.7989738424e+01   4.4644697095e+01    0.2280779    0.1989271 -75.17 0.0006050544    1.338    0.253
       463  -8.8865     64.6447     63.3890   1.1022649989e+02   5.6826162283e+01     0.437343    0.2660373  -2.42  0.001864183    2.739    0.635
       464  -9.1990    119.3364     55.6295   9.0151068951e+01   4.7744615124e+01    0.4558657    0.2398802 -48.66  0.001746523    2.274    0.560
       465  -9.5613     54.3515     55.7340   1.1158013742e+02   5.9765892196e+01    0.3381149    0.2174856 -58.11  0.001116711    1.803    0.446
       466  -8.8823     44.1923     55.6230   1.1553591752e+02   6.1056112053e+01    0.2952208    0.1889463 -63.79  0.001018098    1.930    0.482
       467  -9.1069    139.9452     55.7200   8.5043931079e+01   4.2796599728e+01    0.3388035    0.2229572 -25.81  0.001187466    1.688    0.408
       468  -9.5062     92.3820     50.6854   9.6291031035e+01   5.4346146643e+01    0.3762769    0.2406211 -47.96  0.001136931    1.774    0.436
       469  -8.6411    105.7142     53.2570   9.3140740851e+01   5.1166409494e+01    0.3167701    0.1771939 -49.50  0.001022772    2.163    0.538
       470  -7.9102    129.6367     48.8319   8.5197770181e+01   4.6383842361e+01    0.2021404    0.1338766 -43.02 0.0004403561    1.627    0.385
       471  -8.7710    120.9396     47.6090   8.6956332299e+01   4.8639577035e+01    0.2521746    0.2077074 -40.61 0.0003650288    1.296    0.228
       472  -8.4528    112.1329     46.7788   8.9011782549e+01   5.0789056989e+01    0.2408137    0.1913769 -44.71 0.0006674496    1.382    0.276
       473  -9.0117     82.0204     46.5708   9.8183904928e+01   5.7010614377e+01     0.258961    0.1953422 -36.19 0.0005908967    1.319    0.242
       474  -8.1457    150.3073     45.6470   7.9521122692e+01   4.1692848353e+01    0.1549343    0.1124304 -68.88 0.0007042623    1.716    0.417
       475  -8.7606     44.9710     44.7881   1.1156012821e+02   6.3018721657e+01    0.2188367    0.1579801 -41.64  0.000571274    1.258    0.205
       476  -8.8922     16.5756     44.5756   1.2378154508e+02   6.5829482283e+01    0.2262372    0.1774195 -82.42 0.0007952726    1.735    0.424
       477  -8.7191    132.9893     43.5934   8.2613857828e+01   4.6335172658e+01    0.2637171    0.1998334 -53.75 0.0006576459    1.528    0.345
       478  -8.4342     92.4151     43.4029   9.3584329271e+01   5.5519683604e+01    0.2759014    0.1260789 -21.20 0.0009570036    3.416    0.707
       479  -9.4126     69.5709     41.6243   1.0070291855e+02   6.0012138379e+01    0.3344333    0.2493372 -58.99   0.00104128    1.878    0.467
       480  -8.7627     58.1219     42.3723   1.0534669786e+02   6.1679219491e+01    0.3068931    0.1968542 -56.70  0.001111349    2.117    0.528
       481  -9.7975      5.2510     41.9297   1.2811732508e+02   6.7075751840e+01    0.3511752    0.2061616 -78.40  0.001752272    2.330    0.571
       482  -8.9424    105.9590     41.0377   8.8641255565e+01   5.3025122170e+01    0.3525306    0.1833729 -40.15 0.0007278128    2.053    0.513
       483  -8.3185    140.3034     41.6386   8.0312899973e+01   4.4791037067e+01    0.2296682    0.1375848 -36.52 0.0008450411    1.754    0.430
       484  -9.6134    137.6457     37.8659   7.9616402735e+01   4.5969748509e+01    0.2667344    0.2295265  47.35 0.0003159382    1.084    0.077
       485  -7.9061    155.5465     39.5419   7.6535644656e+01   4.1184945633e+01    0.1475625    0.1357583  55.41 0.0008070492    1.038    0.036
       486  -8.6035     95.3602     38.0411   9.0623988971e+01   5.5729785505e+01    0.2268442    0.1969618  85.86 0.0009380737    1.547    0.354
       487  -8.2145     81.0276     37.0415   9.4847996078e+01   5.8709699058e+01    0.1957427    0.1677615 -71.16 0.0005735746    1.680    0.405
       488  -9.5357     26.0355     35.3696   1.1645700537e+02   6.6771019066e+01    0.2862198    0.2053823 -58.82 0.0008646292    1.624    0.384
       489  -7.8955    133.3860     36.1987   7.9980213087e+01   4.7251343202e+01    0.1962754    0.1307714 -42.27 0.0003951403    1.642    0.391
       490  -8.1466    125.7935     35.7554   8.1565737568e+01   4.9169191118e+01    0.1837273    0.1657457 -76.70 0.0003614287    1.280    0.219
       491  -8.4701    111.7362     34.8574   8.4753626231e+01   5.2600143367e+01    0.2516037    0.1850917 -47.70 0.0006626798    1.595    0.373
       492  -9.0413    119.1030     32.9205   8.2156364983e+01   5.1142187891e+01    0.3943416    0.1946642 -29.64  0.001588951    2.143    0.533
       493  -8.2665     88.4849     34.0949   9.1221734467e+01   5.7700122705e+01    0.2005202    0.1297135 -30.87  0.001022003    1.562    0.360
       494  -8.9430     48.5276     33.3795   1.0572281961e+02   6.4544591247e+01    0.2452756     0.204509 -47.81 0.0008118117    1.436    0.304
       495  -8.2142    147.9662     33.4653   7.6025681219e+01   4.3923240426e+01    0.2036815     0.123465 -87.91 0.0008081721    2.429    0.588
       496  -8.5828     60.7801     32.5371   1.0040134322e+02   6.2889601465e+01    0.2187035    0.1958097 -57.49 0.0006987887    1.526    0.345
       497  -8.5156     36.8557     40.8134   1.1357886887e+02   6.4685319909e+01    0.2066849    0.1657412 -46.68 0.0006888173    1.269    0.212
       498  -8.8563     72.0814     31.2425   9.5621252612e+01   6.1200419235e+01    0.2633869    0.1686793 -41.88 0.0007440386    1.717    0.418
       499  -9.0245     12.8694     30.2106   1.2087939111e+02   6.8796311050e+01    0.2971598    0.1535184 -60.59  0.001625197    2.142    0.533
       500  -8.4472    101.5235     29.3013   8.5411990817e+01   5.5619806335e+01    0.2378088    0.1291143 -34.18 0.0006977607    1.927    0.481
       501  -8.8114     81.4099     27.5020   9.0834274338e+01   6.0004262092e+01     0.256478    0.2146709 -57.15 0.0009903709    1.629    0.386
       502  -8.7722      3.7526     27.8659   1.2460668900e+02   6.9817624560e+01    0.1866463    0.1410682 -68.82 0.0007952182    1.610    0.379
       503  -8.6773     91.8107     26.5681   8.7151823776e+01   5.8043822322e+01    0.2452035    0.1846144 -35.62 0.0008073554    1.446    0.308
       504  -7.4628    145.7047     26.3061   7.4088217739e+01   4.5367746487e+01    0.1423069    0.1069133 -70.14  0.000250122    1.584    0.369
       505  -7.9684     34.2116     23.1422   1.0779143397e+02   6.7990181180e+01    0.1452246    0.1357079 -22.65 0.0004714684    1.343    0.256
       506  -9.0566     63.4732     21.1448   9.4453781350e+01   6.4101775306e+01    0.2844611     0.204273 -47.07 0.0009893709    1.828    0.453
       507  -8.7197     48.2572     21.6582   1.0083421176e+02   6.6399274013e+01    0.2013141    0.1791126 -37.54 0.0006863556    1.407    0.289
       508  -7.7809    120.7095     21.3125   7.7489111925e+01   5.2156246230e+01    0.1338939    0.1067379 -69.04 0.0003786019    1.587    0.370
       509  -8.9836    218.7906    246.7293   1.1159445621e+02  -6.3397519226e+00     0.365988    0.1525538 -33.60  0.001897939    2.832    0.647
       510  -8.1572     19.4879     21.5051   1.1426563894e+02   6.9770594441e+01    0.1143558   0.09163419 -24.13 0.0003642902    1.053    0.050
       511  -8.7290     87.8684     17.6414   8.4617777577e+01   5.9944109287e+01    0.2373598    0.1826857 -29.07 0.0005980876    1.394    0.282
       512  -8.1483     38.7787     18.5952   1.0364737127e+02   6.8127469348e+01    0.1473949    0.1074237  36.10 0.0004663669    1.577    0.366
       513  -7.5769    112.9712     16.9689   7.7633196305e+01   5.4464491212e+01    0.1640816    0.1447567  40.54 0.0003604377    1.003    0.003
       514  -8.1074     30.2019     16.2045   1.0660859935e+02   6.9517909439e+01    0.1445473    0.1296983 -29.56  0.000719844    1.373    0.272
       515  -8.2098      7.4873     15.5120   1.1808211284e+02   7.1731786635e+01    0.1719506   0.09785467 -58.15 0.0008147958    2.092    0.522
       516  -9.2499    175.8371    247.9501   1.1948907905e+02   2.4051761021e-01     0.296607     0.211713  63.76  0.001428797    1.905    0.475
       517  -8.0678     17.0209     14.0547   1.1233281147e+02   7.1194626915e+01    0.1461567    0.1372269 -61.65 0.0005815028    1.666    0.400
       518  -7.7255     83.5217     11.4629   8.3249524248e+01   6.1512872149e+01    0.1286411    0.1129118  25.23 0.0007265405    1.048    0.046
       519  -8.8477    156.1643    248.5714   1.2320660452e+02   3.3382050619e+00    0.2241791    0.1670818  70.66 0.0005002082    1.744    0.427
       520  -8.1610    112.9940    248.9080   1.3127213173e+02   1.0151864686e+01    0.1844619    0.1157886  65.89 0.0007469021    1.653    0.395
       521  -7.9023     27.9867     10.4606   1.0497787038e+02   7.0607833075e+01    0.1270126   0.09918447  52.07 0.0004244412    2.221    0.550
       522  -8.9779    103.9551    247.0782   1.3276085693e+02   1.1826688550e+01     0.377515    0.1907739 -82.53  0.001813643    3.277    0.695
       523  -9.0764    243.2117    246.5234   1.0738849483e+02  -9.8609654567e+00    0.2999933    0.1608241 -20.24  0.001619721    2.019    0.505
       524 -10.0873    224.1018    244.3297   1.1030508616e+02  -6.8592826619e+00    0.3837459    0.2289809 -42.37  0.001854213    2.323    0.569
       525  -8.6161    132.2635    248.0083   1.2759214980e+02   7.2706517792e+00    0.2198198    0.1318573  56.91 0.0006671013    1.593    0.372
       526  -9.3516    233.1608    246.2197   1.0903711429e+02  -8.4009871180e+00    0.3438029    0.2124753  -9.25   0.00187446    1.763    0.433
       527  -9.2128    147.2234    246.0138   1.2455623520e+02   5.1620781781e+00    0.2815749       0.1841  76.71  0.001199914    2.456    0.593
