#   1 NUMBER                 Running object number                                     
#   2 MAG_AUTO               Kron-like elliptical aperture magnitude                    [mag]
#   3 X_IMAGE                Object position along x                                    [pixel]
#   4 Y_IMAGE                Object position along y                                    [pixel]
#   5 X_WORLD                Barycenter position along world x axis                     [deg]
#   6 Y_WORLD                Barycenter position along world y axis                     [deg]
#   7 A_WORLD                Profile RMS along major axis (world units)                 [deg]
#   8 B_WORLD                Profile RMS along minor axis (world units)                 [deg]
#   9 THETA_WORLD            Position angle (CCW/world-x)                               [deg]
#  10 FWHM_WORLD             FWHM assuming a gaussian core                              [deg]
#  11 ELONGATION             A_IMAGE/B_IMAGE                                           
#  12 ELLIPTICITY            1 - B_IMAGE/A_IMAGE                                       
         1 -11.8420      6.9941    142.9260   1.3505495700e+02   4.4583163459e+01     2.715006    0.8717642 -79.55  0.009083879    4.073    0.755
         2 -12.5615    162.7969     54.5052   7.0652772420e+01   3.7334686678e+01     1.672369     1.136109  32.62  0.006502546    1.975    0.494
         3 -12.6049    176.0907     39.6006   6.4781155024e+01   3.6312466640e+01    0.8873535    0.7442669  89.74  0.003168833    1.071    0.067
         4 -12.1308    180.5889     32.4795   6.2453300122e+01   3.6181838443e+01    0.5520364    0.4862946  16.91  0.001421349    1.581    0.367
         5 -13.2644    194.6788      7.8602   5.5331017156e+01   3.5795081795e+01      1.17162    0.8079258  62.02  0.005178693    1.422    0.297
         6  -9.7887    105.1357    198.7820   1.1812483995e+02   1.8273216859e+01    0.3078874    0.2335429  75.40 0.0008026703    1.475    0.322
         7 -10.3628    188.0034    246.8285   1.0769802662e+02  -5.7083878362e+00    0.4332066    0.1815914 -46.09 0.0008536875    2.591    0.614
         8  -9.2143    140.8407    249.4585   1.1788136802e+02   1.3194406571e+00    0.2555348    0.1918537 -69.12  0.001431118    1.637    0.389
         9  -9.9452    126.3092    248.9723   1.2087142859e+02   3.7601938908e+00    0.2827117    0.2391885 -85.72 0.0007188211    1.338    0.253
        10 -18.5242     45.5777    239.7649   1.3651367612e+02   1.7625414570e+01     5.015132     4.469139  57.98   0.01763468    1.241    0.194
        11 -10.6287    101.0248    194.3114   1.1838456419e+02   2.0046292953e+01     0.478029    0.3076896  56.25 0.0009027747    1.665    0.399
        12  -9.9561      2.6722    177.2119   1.3986443235e+02   3.6658466787e+01    0.1838383    0.1581253 -69.59 0.0003183366    1.198    0.165
        13  -9.0356    235.0555    177.1664   8.5648029031e+01  -5.0676445339e-01    0.1996391    0.1746095 -35.27 0.0004188663    1.048    0.046
        14  -8.9522    163.3436    203.2530   1.0530831946e+02   6.8237541954e+00    0.2799387      0.22468  87.46   0.00109249    1.677    0.404
        15 -10.5667    202.7539    202.0653   9.6685788533e+01   1.0687548151e-01    0.3625917    0.2419388  29.65  0.001822865    1.567    0.362
        16  -9.8302    142.9946    172.8689   1.0405473888e+02   1.7549770480e+01    0.4670248    0.3026031  88.77  0.001689737    2.843    0.648
        17  -8.4641    152.3562    212.3309   1.0942341265e+02   6.8574119882e+00    0.2568767    0.1890873  79.21 0.0007563561    1.959    0.489
        18  -9.8277    201.2100    169.8760   9.0512185124e+01   6.8682891641e+00    0.6932216    0.3397043 -61.29  0.002279088    3.581    0.721
        19 -11.0217    204.2363    165.5459   8.9001836104e+01   7.1950761441e+00    0.4485643    0.2916693 -50.25 0.0002790861    1.496    0.331
        20  -9.1511    236.0044    172.6876   8.4590468453e+01   1.7900886503e-01     0.223579    0.1706571 -38.96 0.0004050379    1.134    0.118
        21  -9.8678    137.4650    172.8229   1.0538905425e+02   1.8635605009e+01    0.3029543    0.2418287  77.86 0.0008252726    1.512    0.339
        22  -9.2202    249.3158    200.2708   8.7634466070e+01  -6.8204794729e+00    0.1892673    0.1685116  -0.66  0.000354289    1.156    0.135
        23 -10.2426     28.8772    171.7120   1.3302617125e+02   3.5617989033e+01    0.4565817    0.2380782  25.23  0.002197925    2.370    0.578
        24  -9.7362     35.7440    168.1183   1.3083169803e+02   3.5790139877e+01    0.3694322    0.2613165  10.04  0.001421537    1.966    0.491
        25 -10.5004    194.0365    167.8866   9.1546352660e+01   8.6442473408e+00    0.4359467    0.3409205 -53.99 0.0007673929    1.292    0.226
        26  -9.5172    190.0857    161.6158   9.1021237789e+01   1.0745318130e+01    0.3810644    0.2852656 -58.41  0.001004695    1.415    0.293
        27  -9.9265    189.7548    155.9559   8.9860932604e+01   1.2022865285e+01    0.4564088    0.4281029  50.65  0.001479063    1.140    0.123
        28  -9.3360    157.3110    200.0405   1.0606187161e+02   8.6217108275e+00    0.2110496    0.1902361 -56.60  0.001141049    1.151    0.131
        29  -9.0563    141.1129    198.9844   1.0959389921e+02   1.1834649850e+01    0.2801119     0.214375 -65.24 0.0005432842    1.428    0.300
        30 -10.5652     26.5337    151.9369   1.3101352108e+02   4.0753604781e+01    0.3019734    0.2039136 -48.06  0.001016575    1.446    0.309
        31  -8.9955     17.5938    168.8318   1.3546722514e+02   3.7414363749e+01    0.2749497    0.1992528  87.81 0.0009536346    1.264    0.209
        32 -10.4176     26.2732    166.3887   1.3301180341e+02   3.7197544835e+01    0.7831196    0.2705738  26.32  0.002354957    3.469    0.712
        33  -8.7686    249.3183    249.6742   9.6496249000e+01  -1.4596995608e+01   0.09749568   0.09564199 -40.44 0.0004431268    1.676    0.403
        34 -11.6659     23.8853    157.8895   1.3252736142e+02   3.9530189684e+01    0.8160046    0.4427903  25.61  0.003643014    2.227    0.551
        35  -8.9408    236.3033    167.9475   8.3590214140e+01   1.0232750369e+00    0.1956975    0.1519779 -38.37  0.000402673    1.111    0.100
        36  -8.9060    156.9687    168.0493   9.9721598967e+01   1.5914218256e+01    0.2282806    0.2213867 -58.47 0.0003243438    1.020    0.020
        37 -13.9833     13.3192    245.2074   1.4303750390e+02   2.0249766147e+01    0.5383377    0.2325116 -67.46  0.002741622    2.132    0.531
        38  -9.5399    130.7690    214.6339   1.1471786489e+02   1.0172484634e+01     0.255888    0.2167595 -82.04 0.0003756842    1.304    0.233
        39 -10.1303     99.3362    159.2550   1.1240428672e+02   2.9048664655e+01    0.2727404    0.2687952  10.81 0.0004404635    1.105    0.095
        40 -10.1503      1.7339    193.5107   1.4149779686e+02   3.2886577960e+01    0.2011017    0.1320699 -67.46 0.0008561312    1.338    0.253
        41 -11.1576    103.7804    152.3489   1.0978247918e+02   2.9988164591e+01    0.7162624    0.5764214 -22.21  0.001919513    1.505    0.336
        42 -12.0849     89.0802    153.3130   1.1399262640e+02   3.2277996218e+01    0.4000946    0.3157351 -29.47 0.0009740802    1.473    0.321
        43 -10.3203    133.9672    147.2621   1.0073152000e+02   2.5441899910e+01     1.057294    0.3132944 -55.44  0.002683318    4.522    0.779
        44  -8.3902    224.0340    147.9499   8.1611542625e+01   7.0435854121e+00    0.1919365    0.1597127 -10.20  0.001041351    1.431    0.301
        45 -10.0019    182.4690    207.9817   1.0202583413e+02   2.4285636599e+00    0.5382614    0.3085915 -21.95  0.002148072    2.597    0.615
        46 -11.2588     33.1913    142.2040   1.2770918436e+02   4.2513545849e+01    0.6424612    0.4178149  -2.66  0.003074025    2.228    0.551
        47  -7.8302    152.2918    145.2988   9.5779172560e+01   2.2124636246e+01    0.1543055     0.125425  -9.30 0.0003354559    1.563    0.360
        48 -10.9695    106.5199    206.8853   1.1910038547e+02   1.6116596882e+01    0.6004806    0.3248154 -57.94  0.002515987    1.856    0.461
        49 -10.4802    112.4854    138.7191   1.0440293662e+02   3.1720492801e+01    0.5655502    0.2991905 -39.71  0.002163284    2.071    0.517
        50 -11.1721    101.9770    138.1270   1.0715709464e+02   3.3814470802e+01    0.3123893    0.2891182 -64.70   0.00035446    1.059    0.056
        51 -10.8189     36.8377    135.1006   1.2547140668e+02   4.3891641377e+01    0.3309054    0.2460853  24.15  0.001857307    1.577    0.366
        52 -10.0967     11.7968    153.5300   1.3511261453e+02   4.1649425701e+01    0.3547616    0.3122369 -30.35  0.001633991    1.376    0.273
        53  -9.3584    117.9004    129.8149   1.0083117359e+02   3.2787950965e+01    0.2778161    0.2466533   1.72 0.0007213534    1.288    0.223
        54  -9.1139    160.1030    128.2883   8.9944516228e+01   2.4282619639e+01    0.3220044    0.2267882 -54.80  0.001453895    1.432    0.302
        55  -9.7464    106.3856    125.5288   1.0295455718e+02   3.6012671433e+01    0.2896575    0.2453158 -22.54 0.0005379105    1.301    0.231
        56  -9.7353    134.7397    122.4747   9.4614362472e+01   3.1024838880e+01    0.3838852    0.2390903 -49.77  0.001635195    1.586    0.369
        57  -8.6346    112.5038    118.9922   9.9627219910e+01   3.6346915616e+01    0.2219836    0.2064979  38.10 0.0003273727    1.107    0.097
        58  -9.2084    167.9221    113.6321   8.4652354983e+01   2.5679772136e+01    0.4025149    0.2683645 -77.43  0.001640664    2.189    0.543
        59 -10.1535     15.8602    160.1421   1.3487586566e+02   3.9696476324e+01    0.3880875    0.2741377 -44.44  0.001089692    1.530    0.347
        60 -10.1947    103.1331    202.1634   1.1915370794e+02   1.7802025495e+01    0.3417247     0.262111 -56.50  0.000771128    1.310    0.237
        61  -9.7446     86.2022    108.4758   1.0456666952e+02   4.3533318039e+01    0.3976204    0.2980484  83.00  0.001407932    2.013    0.503
        62 -11.0915     60.7140    109.0892   1.1270915015e+02   4.7272634180e+01    0.3445145     0.284445 -14.71  0.001923435    1.288    0.223
        63  -8.9267    134.5814    106.8521   9.0656172076e+01   3.4446445785e+01    0.3749042    0.1373123 -51.99  0.001152178    3.279    0.695
        64  -8.7630     42.3007    107.3730   1.1829570799e+02   4.9910035177e+01    0.1475416   0.08800431 -33.24 0.0007029686    1.750    0.429
        65 -10.0460     66.1199    105.1473   1.1000468051e+02   4.7413258630e+01    0.2253271      0.18364 -24.32  0.001232949    1.233    0.189
        66  -8.5468    166.3801     99.9451   8.1583579013e+01   2.8769502575e+01    0.2039448    0.1789312 -48.23 0.0003673215    1.126    0.112
        67  -8.0257    129.0363     98.0271   8.9709082239e+01   3.7451480552e+01    0.1755265    0.1714292 -43.24 0.0003072038    1.025    0.024
        68  -7.7597    113.3290     95.2819   9.3114527693e+01   4.1282448543e+01    0.1487685    0.1161644   5.08 0.0002855201    1.604    0.377
        69  -9.3657    222.6452     93.0610   7.0126616066e+01   1.7697724159e+01    0.2113821    0.1853221  70.82 0.0007113691    1.220    0.180
        70  -8.2612    149.4792     81.0547   8.0288261870e+01   3.6130691268e+01    0.2101995    0.1433907 -40.60 0.0004684797    1.506    0.336
        71  -8.4556    109.9019     80.0806   8.9735351747e+01   4.4900896038e+01    0.1946083    0.1873137 -88.33 -0.0009232552    1.161    0.139
        72 -10.0796    247.2278    182.1833   8.4536021404e+01  -3.3383921020e+00    0.3176978    0.2406821 -66.01   0.00102584    1.829    0.453
        73  -9.5733    139.8812    243.0200   1.1714511090e+02   2.7099042727e+00    0.3088499    0.2866216  -3.82  0.001918185    1.184    0.156
        74 -10.0111    246.3167    243.1467   9.5912941154e+01  -1.3284675377e+01    0.2018346    0.1548091  22.54 0.0003142265    1.321    0.243
        75 -10.3380    123.5701     58.2912   7.9786482215e+01   4.5645604889e+01    0.2450728    0.2212588  43.74 0.0002379343    1.035    0.034
        76  -9.7710    168.0182    232.7484   1.0951265964e+02   2.6565281652e-02    0.2542682    0.1940169 -46.05 0.0005796471    1.399    0.285
        77  -8.8661    219.2040     44.6308   6.0371352221e+01   2.6075243283e+01     0.231234     0.168904 -41.59  0.001333236    1.469    0.319
        78  -8.9783    193.0030     36.7252   6.1802114027e+01   3.2857001614e+01    0.1800039    0.1465356  83.17 0.0004192805    1.064    0.060
