#   1 NUMBER                 Running object number                                     
#   2 MAG_AUTO               Kron-like elliptical aperture magnitude                    [mag]
#   3 X_IMAGE                Object position along x                                    [pixel]
#   4 Y_IMAGE                Object position along y                                    [pixel]
#   5 X_WORLD                Barycenter position along world x axis                     [deg]
#   6 Y_WORLD                Barycenter position along world y axis                     [deg]
#   7 A_WORLD                Profile RMS along major axis (world units)                 [deg]
#   8 B_WORLD                Profile RMS along minor axis (world units)                 [deg]
#   9 THETA_WORLD            Position angle (CCW/world-x)                               [deg]
#  10 FWHM_WORLD             FWHM assuming a gaussian core                              [deg]
#  11 ELONGATION             A_IMAGE/B_IMAGE                                           
#  12 ELLIPTICITY            1 - B_IMAGE/A_IMAGE                                       
         1 -12.5177    248.5705    133.7018   8.4450323076e+01   3.8102582268e+00     1.176208    0.6350959 -34.80  0.005336435    1.754    0.430
         2 -14.2506    204.8640     14.8732   6.2969262445e+01   3.2579010315e+01     1.978216     1.274719  32.72  0.009867636    2.434    0.589
         3 -12.3083      2.0780      4.8637   1.1326767346e+02   7.2047999715e+01    0.5473998    0.3302645  -9.67  0.004035525    1.396    0.284
         4 -11.9390      2.0060     13.9359   1.1702140516e+02   7.0788408730e+01     0.480806     0.139624 -44.18  0.002507953    2.572    0.611
         5 -11.4632    189.8817     15.8993   6.4982709010e+01   3.6090781789e+01    0.2890816    0.2243041 -37.04 0.0009777477    1.440    0.305
         6 -11.1966    249.3995    241.8637   1.0566730278e+02  -1.3410618664e+01    0.2923482    0.1536696 -38.82  0.001625095    2.136    0.532
         7 -10.0088    188.8008    250.4569   1.1813585029e+02  -5.0694287188e+00    0.2461453    0.1028168  44.68 0.0008370166    2.084    0.520
         8  -9.9355    183.9986    250.4050   1.1903305664e+02  -4.2565842000e+00    0.1817104     0.135705  37.03  0.001120722    1.111    0.100
         9 -10.7620    169.6955    248.6163   1.2148633823e+02  -1.5506239479e+00    0.3188658    0.2244941  11.61 0.0008665551    1.948    0.487
        10 -11.8234    128.7627    234.5488   1.2749871416e+02   7.9932327235e+00     0.549443     0.382543  68.88  0.003054864    1.498    0.333
        11 -11.4765    122.5103    232.9243   1.2852277471e+02   9.3778594899e+00    0.4119703    0.3981712 -81.32  0.002281824    1.248    0.199
        12 -12.0527    150.1219    248.9284   1.2526913963e+02   1.7605351132e+00    0.5647264    0.5462132 -51.99  0.003615896    1.263    0.208
        13 -11.0673    143.2444    249.0894   1.2660328240e+02   2.9110519399e+00    0.4733377    0.2898317 -81.00  0.002225677    2.647    0.622
        14 -11.6238    135.5507    241.0447   1.2702840780e+02   5.6316769189e+00    0.4171711    0.3097982  35.89  0.001349497    1.357    0.263
        15 -11.8033    135.2751    236.4784   1.2647155693e+02   6.5048730988e+00    0.5271746    0.3777366  17.17  0.001577975    2.096    0.523
        16 -11.6306    134.0073    232.5722   1.2618969865e+02   7.4476836261e+00    0.5028536    0.3069402 -39.73 0.0004562434    2.275    0.561
        17 -11.2097    133.6391    249.2094   1.2844709247e+02   4.5236845523e+00     0.675367    0.2635931  52.26  0.002885674    2.449    0.592
        18 -11.8549    116.7953    239.3996   1.3046208005e+02   9.1267054257e+00     0.610653     0.518916 -44.85  0.002397896    1.559    0.359
        19 -10.1099    126.8426    248.8914   1.2969711600e+02   5.7235922116e+00    0.2657134    0.2304473  73.44 0.0008443932    1.137    0.120
        20  -9.9591    122.7861    249.8744   1.3058160414e+02   6.2279489181e+00    0.3123119    0.2063517  54.50  0.001835792    1.258    0.205
        21 -10.8470    121.7452    244.8796   1.3017868745e+02   7.2916104042e+00    0.4443333    0.2264276  59.19  0.001386762    2.018    0.505
        22 -11.6457    126.3882    240.5027   1.2873945133e+02   7.3016958875e+00     0.478981    0.4004021  64.26  0.002083715    1.062    0.059
        23 -10.8262    114.7646    250.2524   1.3213084142e+02   7.4833750141e+00    0.5251948    0.2913507  39.82  0.002779837    1.682    0.406
        24 -11.7258    109.6311    246.9079   1.3271344511e+02   8.9232098479e+00    0.5783644    0.4116556 -66.72  0.003104356    1.565    0.361
        25 -11.3828     99.2754    247.5305   1.3471611830e+02   1.0468748434e+01    0.6300718    0.3329332  47.70  0.002404503    1.559    0.358
        26 -11.3052     81.1139    246.1240   1.3791111837e+02   1.3521860874e+01    0.6283467    0.3177915  80.20  0.003021664    2.517    0.603
        27 -11.3953     90.4667    239.1826   1.3547625895e+02   1.3425289707e+01    0.6507072    0.3162563 -85.54  0.002477935    2.984    0.665
        28 -11.2110     84.2141    239.2840   1.3666134411e+02   1.4365269216e+01     0.570555    0.3271875 -62.45  0.003212919    1.880    0.468
        29 -11.7619     97.9987    239.9278   1.3413107466e+02   1.2098648348e+01    0.6851954    0.3693685  60.34  0.002711008    1.732    0.423
        30 -10.5718    104.3099    237.9122   1.3269600467e+02   1.1469292642e+01    0.3086687    0.1730351  53.02  0.001311306    1.512    0.339
        31 -11.1707     98.6145    231.8633   1.3309761302e+02   1.3566768805e+01    0.4177165    0.3050868 -81.77   0.00054797    1.381    0.276
        32 -10.1168     89.0281    250.5724   1.3690709917e+02   1.1498568424e+01    0.3455345    0.1040751  40.48  0.001404754    3.054    0.673
        33 -10.5467     88.9981    247.4040   1.3659785598e+02   1.2090504999e+01     0.433521     0.201707  45.00   0.00199663    1.815    0.449
        34 -11.1199    112.8565    230.0264   1.3006667389e+02   1.1579967836e+01    0.3916959    0.3409321  25.50   0.00170728    1.488    0.328
        35 -11.4128    105.6984    229.1393   1.3137752658e+02   1.2949812228e+01    0.6313841    0.3100729  50.50  0.002452368    1.766    0.434
        36 -11.4659     32.8317    201.8537   1.4290223018e+02   2.9080612713e+01    0.3248623    0.1780145  45.58 0.0002738879    1.778    0.438
        37 -14.3914     28.2401    151.0400   1.3853818365e+02   4.1107089755e+01     4.082438     1.494322 -45.50   0.01573102    3.806    0.737
        38 -10.8515     77.5030    220.9478   1.3600937236e+02   1.9072050966e+01    0.3558125    0.2069987  61.42 0.0004782082    1.562    0.360
        39 -10.9425     70.7771    220.3513   1.3726836780e+02   2.0185792711e+01    0.4687514    0.2696078 -66.28  0.002173532    1.710    0.415
        40 -11.2245     68.0070    214.5414   1.3719770195e+02   2.1813494550e+01    0.3023234    0.1924475 -76.83  0.001720961    1.460    0.315
        41 -10.7645     80.4285    227.4356   1.3614115517e+02   1.7294574630e+01    0.3158307    0.2749101 -21.13 0.0008172623    1.952    0.488
        42 -10.3022     78.6933    224.7082   1.3618503689e+02   1.8114124615e+01    0.2445007    0.1754314 -55.27 0.0007623312    1.698    0.411
        43 -11.2270    156.4731    231.8610   1.2160356662e+02   3.5816891718e+00    0.2625039    0.2366434  21.75 0.0007161178    1.224    0.183
        44  -9.2329     62.8050    233.1709   1.4004727554e+02   1.8688050729e+01    0.1449972    0.1270162  69.11 0.0002994968    1.263    0.208
        45  -9.9350    247.6414    232.6756   1.0438479394e+02  -1.1957494210e+01    0.1297762   0.08071956   6.39 0.0007043987    1.776    0.437
        46  -8.9126     92.4545    232.5162   1.3436937605e+02   1.4418505476e+01    0.1284975    0.1048418  68.41 6.605851e-05    1.022    0.021
        47 -10.4644    142.1986    230.2336   1.2422157436e+02   6.4330188706e+00    0.3212532    0.2434033  -6.66  0.001308903    2.189    0.543
        48 -11.3621    164.9021    241.5933   1.2138873266e+02   4.1604323679e-01    0.4037166    0.2255902  52.99  0.001778899    1.773    0.436
        49  -9.0560    190.9524    228.0222   1.1416149588e+02  -1.9462826794e+00     0.155597    0.1394265  28.15 0.0003329831    1.029    0.028
        50  -9.3220    179.6289    228.2491   1.1642890541e+02   3.9547692180e-02    0.2002671    0.1516815  74.47 0.0008303713    1.822    0.451
        51 -10.0268    197.6417    226.6562   1.1262596956e+02  -2.9063272110e+00    0.2635436    0.2138514  71.05  0.001511157    1.681    0.405
        52 -10.4696    165.6796    226.3302   1.1890499322e+02   2.8999293371e+00    0.3108222     0.232172 -79.25   0.00140521    1.845    0.458
        53 -10.9014    132.4673    224.3695   1.2534889096e+02   9.2796773804e+00    0.3265665    0.2424266 -46.11  0.001550573    1.619    0.383
        54 -10.1775    129.2704    221.0338   1.2552501325e+02   1.0502159291e+01    0.2925864    0.1997121  73.01  0.001013189    1.671    0.401
        55  -9.4226     93.8364    217.0825   1.3227527301e+02   1.7348083166e+01    0.2627926    0.1667814 -89.78 0.0008845612    1.726    0.421
        56 -11.4822     99.4711    223.5861   1.3193751656e+02   1.5089250245e+01    0.5011389    0.3011934  51.85  0.001038003    1.446    0.308
        57 -10.4525     92.2549    225.8327   1.3364525480e+02   1.5791953994e+01    0.3678552    0.1848243  57.70   0.00106356    1.881    0.468
        58  -9.9165    147.1029    225.1578   1.2248286771e+02   6.4963866012e+00    0.1921737    0.1712532  28.71 0.0002971037    1.227    0.185
        59 -10.7723    117.3290    224.3238   1.2842420933e+02   1.1942693534e+01    0.2367334    0.2092213  66.27 0.0002812392    1.062    0.058
        60 -10.9105    160.5123    223.5370   1.1950612339e+02   4.3480864908e+00    0.3725492    0.2349467  31.20 0.0005652732    1.682    0.406
        61 -11.5623    141.8964    221.7390   1.2303209650e+02   8.0906361039e+00     0.394759    0.3298304  34.14 0.0003492601    1.251    0.201
        62 -11.2860    137.4798    214.5445   1.2285226046e+02   1.0307440548e+01    0.5687334    0.3785194  37.81  0.001351992    1.482    0.325
        63 -10.0835    104.9076    218.8800   1.3023859984e+02   1.5156897650e+01    0.3100611    0.2018611  84.23 0.0003427157    1.750    0.429
        64  -9.9436     35.2318    219.6414   1.4395488936e+02   2.5016387583e+01    0.3483036    0.1486341 -64.74  0.001824187    2.202    0.546
        65  -9.9295     30.8096    218.2279   1.4465144088e+02   2.5827398414e+01    0.3740056    0.1083225  59.01  0.001433323    3.925    0.745
        66  -9.9495    246.6327    218.6506   1.0204597337e+02  -9.8622313230e+00    0.2019797    0.1330041   3.18 0.0009340968    1.669    0.401
        67 -10.5273    110.6749    221.1151   1.2935194685e+02   1.3726594076e+01    0.4046868    0.2448695 -55.61  0.001551283    1.821    0.451
        68  -8.9276    119.2870    217.3248   1.2706039704e+02   1.3012252336e+01    0.1229879    0.1094929  -8.23 0.0002030717    1.606    0.377
        69  -9.7811     88.2978    213.1310   1.3292210630e+02   1.9066763657e+01    0.2652508    0.1659162  84.52  0.000744373    1.741    0.426
        70 -10.2588    102.2297    212.1506   1.2990440658e+02   1.7013029465e+01    0.3757326     0.192752  60.22  0.001672069    2.082    0.520
        71 -10.4769     73.4392    209.7561   1.3556940326e+02   2.2057264567e+01    0.3426764    0.2935674  18.90  0.002095927    1.740    0.425
        72  -9.2597     33.7412    211.3985   1.4355344275e+02   2.6923422563e+01    0.1348509    0.1110258  41.47 0.0004670001    1.541    0.351
        73  -9.1477    134.8125    208.2427   1.2243240680e+02   1.2075877400e+01    0.2502796    0.1856809 -23.57  0.001150113    2.068    0.516
        74 -10.2203    109.0392    207.5404   1.2782970613e+02   1.6840072686e+01    0.3069711     0.189961 -67.64 0.0009090551    1.697    0.411
        75  -9.0530    119.7935    208.6252   1.2569495514e+02   1.4724951879e+01    0.1984779    0.1142455  52.38 0.0002892316    1.609    0.379
        76 -12.0215     93.5546    203.3470   1.3055571102e+02   2.0345520352e+01    0.5999017    0.4905571  83.36  0.003551497    1.096    0.087
        77  -8.7647     32.7832    206.9921   1.4336098684e+02   2.7975312739e+01    0.1504313   0.08033588 -76.64 0.0004346877    1.583    0.368
        78 -11.1691    172.9259    240.1844   1.1962003009e+02  -7.5659483305e-01    0.3211591     0.239675  76.81  0.001113011    1.880    0.468
        79 -11.0940    247.5464    205.2945   9.9387434235e+01  -8.0382824496e+00    0.5212778    0.2198551  29.24  0.002133082    2.944    0.660
        80  -9.5997    175.1797    205.3835   1.1341866455e+02   4.9691587066e+00    0.2438659    0.1998134  26.58 0.0001622732    1.249    0.199
        81  -9.2689    178.2916    204.6864   1.1264799928e+02   4.5026551344e+00    0.2034592    0.1758527 -75.78 0.0002470678    1.389    0.280
        82  -9.5354    125.9376    205.7117   1.2393693679e+02   1.4231790214e+01     0.204497    0.1651587  54.43 0.0004763054    1.117    0.105
        83 -10.7487    102.6713    202.6094   1.2849350954e+02   1.8994835386e+01    0.4438266    0.2678288  60.47  0.001701979    1.652    0.395
        84 -10.4521     98.7980    196.8290   1.2850715975e+02   2.0924423251e+01    0.4968739    0.2559199  53.03  0.001189219    1.880    0.468
        85  -9.7605    102.5712    195.5383   1.2748667236e+02   2.0575455759e+01      0.18766    0.1661337  87.30 0.0001230295    1.054    0.051
        86  -9.3172    166.9828    203.2755   1.1475567433e+02   6.9549809456e+00    0.1986094    0.1658868  46.20  0.001089448    1.105    0.095
        87  -9.4666    133.0728    202.8773   1.2194785995e+02   1.3513924692e+01    0.2193681    0.1791568  74.74  0.000466832    1.237    0.192
        88  -9.1444     76.9327    203.2820   1.3407630989e+02   2.2956917788e+01    0.2212938   0.06745246  54.48 0.0007015173    4.108    0.757
        89  -9.7230     64.0491    202.1350   1.3663316916e+02   2.5073114787e+01    0.2423709    0.1743223  35.42 0.0005833193    1.665    0.399
        90  -9.9546    197.0390    200.7093   1.0808131478e+02   1.6480281375e+00    0.2043933    0.1744587  34.73 0.0007431142    1.096    0.088
        91 -10.1186    115.1333    200.3121   1.2544692624e+02   1.7333513566e+01    0.2370046    0.1907432 -77.97 0.0002407409    1.246    0.197
        92 -10.4214    120.1121    199.4229   1.2421990968e+02   1.6633502174e+01    0.4556383    0.2340401  58.76  0.001341018    2.203    0.546
        93  -8.4802    179.7028    200.7166   1.1162891690e+02   4.9803386295e+00    0.1383023    0.1091934   8.07 -0.0001541599    1.544    0.352
        94  -9.0471    169.6053    200.2648   1.1366073032e+02   7.0331042898e+00    0.1801108     0.137363 -36.35   0.00030536    1.469    0.319
        95 -10.1387     43.9111    199.3176   1.4046048178e+02   2.8330513123e+01    0.2759224    0.2173463  51.01  0.001159916    1.345    0.256
        96  -8.5225    149.7647    198.9729   1.1767430895e+02   1.1154698116e+01    0.1703956    0.1215159 -52.07 0.0002807473    1.503    0.334
        97  -9.4986     83.5252    193.3186   1.3136993947e+02   2.4183039767e+01    0.3238844    0.2476499 -15.54  0.001613842    2.415    0.586
        98  -8.3141     86.2589    199.2931   1.3157942055e+02   2.2410848082e+01    0.2046322    0.1106318 -55.92 0.0002182683    1.920    0.479
        99  -9.5897     85.9953    195.7114   1.3115463477e+02   2.3255447487e+01    0.2202136    0.1689324 -88.16 0.0002960569    1.207    0.172
       100 -10.6853     57.3979    193.5492   1.3704869917e+02   2.7900543447e+01    0.3436947    0.3144163  89.75  0.002294504    1.228    0.186
       101  -9.6231     57.7188    199.3158   1.3763083814e+02   2.6563884441e+01    0.2109127    0.1507327  78.81 0.0001560809    1.217    0.179
       102 -10.1083     53.0907    198.0087   1.3844709439e+02   2.7464988607e+01    0.3677687    0.1909219  45.14  0.001447099    1.852    0.460
       103  -9.7885    134.1152    197.8615   1.2089564080e+02   1.4380199838e+01     0.252131     0.189872  88.45 0.0003457549    1.540    0.351
       104  -9.1036    133.5093    194.4418   1.2045270436e+02   1.5227939654e+01    0.2249667    0.2079317  65.94   0.00070846    1.028    0.027
       105 -11.6543     65.5402    194.9792   1.3548320331e+02   2.6465870336e+01     0.396516    0.2918577 -52.28  0.001411778    1.615    0.381
       106 -10.2597    112.9923    193.6864   1.2488980054e+02   1.9172105658e+01    0.4896821    0.2589691 -62.62  0.001208445    1.984    0.496
       107  -8.9929    107.6539    196.3169   1.2648095655e+02   1.9527136036e+01    0.1512857   0.09894627  72.75 0.0007048406    1.723    0.420
       108 -10.3442     38.7040    192.8936   1.4088157766e+02   3.0379963703e+01     0.417782    0.1652514 -62.04 0.0008768594    2.259    0.557
       109  -9.6993     41.0211    187.8181   1.3987986650e+02   3.1249248699e+01    0.2676626    0.1727639 -89.77  0.001554031    1.345    0.257
       110  -9.3514     31.0381    195.1621   1.4265165531e+02   3.0748010811e+01    0.2334895    0.1304556  58.88  0.001064597    1.655    0.396
       111  -9.7998     20.3921    192.3748   1.4451858765e+02   3.2490567000e+01    0.4017539    0.1553393 -86.17  0.001799948    2.626    0.619
       112  -9.5055    159.1285    193.8912   1.1473704299e+02   1.0368256635e+01    0.2912575    0.2025257  66.34  0.001360674    1.716    0.417
       113 -10.4371    119.8447    192.8034   1.2321911738e+02   1.8131579112e+01    0.3682183    0.3234363 -45.82  0.001270348    1.327    0.246
       114  -9.4677    118.0152    190.0292   1.2317464819e+02   1.9081932313e+01    0.2167373    0.1904843  78.88 0.0003170583    1.056    0.053
       115  -9.6377     72.9656    193.0476   1.3364274001e+02   2.5839419584e+01    0.1964645    0.1664761  84.57   0.00120203    1.028    0.027
       116 -10.2061    191.3304    191.4528   1.0746222714e+02   4.4660474743e+00    0.2603586    0.2495351  13.44 0.0006900516    1.028    0.027
       117  -9.2502    135.2676    190.1052   1.1931309458e+02   1.5832171570e+01    0.1964124    0.1783904  88.39 0.0003492969    1.083    0.077
       118 -10.1230     32.5813    189.4997   1.4180479949e+02   3.1834513804e+01    0.3316224    0.2349862  28.48  0.002041812    1.910    0.476
       119 -11.8479    249.8226    187.5120   9.5522491201e+01  -5.6377749386e+00    0.7867781    0.2387984 -35.49  0.002848584    3.253    0.693
       120 -10.5985    236.4625    145.9791   8.9163834692e+01   3.9871923021e+00     0.338804    0.2122662  43.49 0.0007405528    1.724    0.420
       121 -12.8141    248.1606    101.4068   7.7384992381e+01   9.6020741789e+00    0.8945367    0.5167556 -38.09   0.00424458    1.602    0.376
       122 -13.9447    244.7316    158.2088   9.0373685265e+01   2.0196748533e-01     2.733984    0.8667845 -45.85  0.009239457    3.346    0.701
       123 -11.7670    247.9359    142.5858   8.6483918061e+01   2.3546840315e+00    0.6775537    0.5342459 -12.67   0.00351334    1.426    0.299
       124 -10.7609    193.7207    245.3310   1.1642261910e+02  -5.1336138299e+00    0.2361847    0.2158176 -36.88 0.0002440124    1.308    0.235
       125  -8.6879    149.3500    185.2991   1.1529505067e+02   1.4114380482e+01    0.1470733    0.1190153   4.67 0.0007036637    1.688    0.408
       126  -9.8424     29.9959    183.1555   1.4171909884e+02   3.3540700177e+01    0.3482212    0.2337002  69.69  0.001672219    1.351    0.260
       127 -10.7324     25.0282    184.1883   1.4285165840e+02   3.3830013922e+01    0.2813081    0.1556723  43.33    0.0016266    1.868    0.465
       128 -11.1462    141.5392    182.9694   1.1661524178e+02   1.6170319342e+01     0.488769    0.3231588  43.47 0.0008763604    1.458    0.314
       129  -9.1716     36.4995    184.0472   1.4043953676e+02   3.2624370495e+01    0.1823626    0.1470186  58.39 0.0004928447    1.269    0.212
       130  -9.0210     86.0009    183.4962   1.2942282938e+02   2.6048813526e+01    0.1851823    0.1289997   8.51 0.0008098087    2.773    0.639
       131  -9.2234     65.9899    181.7928   1.3372138230e+02   2.9425925942e+01    0.1801105    0.1563227  77.89 0.0003530915    1.080    0.074
       132 -10.1681    126.8652    180.0411   1.1943229940e+02   1.9675716051e+01    0.3439032    0.2652702  37.27  0.001138636    1.374    0.272
       133 -13.2054    248.4845    114.3311   8.0203434120e+01   7.2687343757e+00       1.4629    0.9194507 -24.65  0.006790392    1.924    0.480
       134  -9.2890    175.7246    179.6936   1.0841134502e+02   9.9309537777e+00     0.144294    0.1173461  -1.09 0.0001773369    1.547    0.354
       135  -9.8517    109.2433    178.3940   1.2323624277e+02   2.3314196237e+01    0.2543358    0.2164056 -74.87 0.0003872019    1.130    0.115
       136  -9.1741     47.9900    179.6094   1.3746131578e+02   3.2289814930e+01    0.1721807    0.1180197  43.94 0.0005396662    1.548    0.354
       137 -10.0855     20.2380    179.0814   1.4336543882e+02   3.5454601402e+01    0.1950992     0.158193 -46.74   0.00129384    1.642    0.391
       138  -9.9105    115.0437    176.7905   1.2160128305e+02   2.2633805825e+01    0.3238334    0.1948089 -67.89   0.00095875    1.815    0.449
       139 -11.6106     79.9396    175.6151   1.2964831833e+02   2.8834000139e+01    0.4976069     0.277002  47.49  0.001411984    1.774    0.436
       140 -11.6885     67.6411    173.5539   1.3221611650e+02   3.1123767471e+01    0.5000689    0.3150125 -54.73  0.001149036    1.605    0.377
       141  -9.8404    121.9276    175.6448   1.1978338276e+02   2.1615006271e+01    0.2469716    0.2006701 -74.14 0.0004519418    1.240    0.193
       142  -9.7761    107.5409    173.1633   1.2273343177e+02   2.4835023463e+01    0.2864621    0.1988507  43.38 0.0008634113    1.450    0.310
       143  -9.2358     95.5400    172.7340   1.2551200124e+02   2.7013407263e+01    0.2203192    0.1530708  76.23 0.0006074847    1.599    0.375
       144  -9.3340     91.1112    172.8065   1.2657621604e+02   2.7729875545e+01    0.2666546    0.1874694 -50.36  0.000665615    1.521    0.343
       145 -10.6446     89.9319    160.4537   1.2477329236e+02   3.0862517487e+01    0.2977849    0.1954903 -69.78 0.0003048971    1.495    0.331
       146 -10.0368     93.5025    169.4135   1.2544334780e+02   2.8138502660e+01    0.2439565     0.217088 -40.88 3.880432e-05    1.349    0.259
       147 -12.5254     87.1710    166.7439   1.2652430235e+02   2.9805759201e+01    0.8159425    0.5290883 -55.71  0.004044847    1.498    0.332
       148  -8.6093    167.2249    170.0549   1.0829494607e+02   1.3715904634e+01    0.2006652    0.1255198 -45.96  0.000869128    1.641    0.391
       149 -10.9632     29.0891    171.3838   1.4069893714e+02   3.6314280870e+01    0.3952778    0.2813565 -74.44  0.002492662    1.162    0.139
       150  -8.5538     52.6734    170.7394   1.3530292826e+02   3.3776254585e+01     0.118798    0.0978691 -41.62 0.0002933097    1.560    0.359
       151 -10.8343     43.7453    168.6687   1.3709287903e+02   3.5339129091e+01    0.4103656    0.3541411  71.74  0.001741932    1.160    0.138
       152  -8.7118     36.6903    170.7182   1.3893713816e+02   3.5659146801e+01    0.1168834   0.08884438 -49.28  0.000208117    1.565    0.361
       153  -9.4029    126.3535    167.6019   1.1722827235e+02   2.2619582979e+01    0.2299975    0.1697391  77.31  0.000723192    1.580    0.367
       154  -8.6984    107.4300    168.4585   1.2192471811e+02   2.5958954786e+01    0.1477282      0.13343  87.43 8.944129e-05    1.017    0.017
       155  -9.3231     58.7457    167.7167   1.3347943203e+02   3.3710914971e+01    0.1863919    0.1356618  79.12  0.001020904    1.332    0.249
       156 -10.3185     68.8523    166.8510   1.3095436047e+02   3.2540871436e+01    0.2217491    0.1863358 -81.01 0.0004266763    1.036    0.035
       157  -8.9307     77.2576    165.3875   1.2870501027e+02   3.1666036605e+01    0.1391072    0.1006169 -41.99 0.0006968472    1.683    0.406
       158  -9.2993     53.9142    164.7653   1.3421235498e+02   3.5029069498e+01    0.1799481    0.1488774 -86.26 0.0003678089    1.021    0.021
       159 -11.3632     76.4786    186.5423   1.3200714429e+02   2.6808943844e+01    0.3873751    0.2329502 -81.01  0.001195201    1.709    0.415
       160  -8.9547     40.6455    161.9634   1.3697015095e+02   3.7262336508e+01    0.1771424    0.1391514 -78.26  0.001098297    1.050    0.048
       161  -9.2560     36.7799    162.5926   1.3795088864e+02   3.7539139992e+01    0.1622106    0.1066904  53.93 0.0005255312    1.568    0.362
       162  -8.5865    154.5003    161.5462   1.0938188317e+02   1.8257892173e+01    0.1562337    0.1450552  79.41 0.0001042113    1.078    0.072
       163 -10.9050     95.9800    157.7184   1.2277712104e+02   3.0511105003e+01    0.4635247    0.1978066 -59.26  0.001207074    2.273    0.560
       164 -10.9623     73.4615    157.7733   1.2840629727e+02   3.4050280340e+01    0.4596169    0.3547928 -83.43  0.002534053    1.223    0.182
       165  -9.6366     78.9529    158.9545   1.2723827478e+02   3.2950656525e+01    0.2197191    0.1547803  78.88  0.000445282    1.565    0.361
       166  -8.9952     52.4783    158.4795   1.3367567417e+02   3.6698278068e+01    0.1335992    0.1126149 -78.08 0.0003005167    1.036    0.035
       167  -9.3121    228.2332    155.2766   9.2665134363e+01   3.9184648007e+00    0.1925185    0.1610953 -59.76 0.0005137228    1.339    0.253
       168  -8.5383    175.7185    155.2488   1.0322999031e+02   1.5055438243e+01    0.1464739     0.120013  84.41            0    1.461    0.316
       169 -11.8222     53.0032    146.4834   1.3174844720e+02   3.9492441079e+01    0.6575174    0.2982664  25.68  0.002776456    3.064    0.674
       170 -10.6205     60.1978    151.0767   1.3064733203e+02   3.7487819000e+01    0.5641647    0.2941485 -82.87  0.001665087    2.426    0.588
       171 -10.3916     56.0394    150.4979   1.3160538563e+02   3.8158389438e+01    0.2934856    0.2666621  76.76  0.001040028    1.134    0.118
       172 -10.2577    113.8904    150.8474   1.1694073515e+02   2.8941305072e+01    0.3799577    0.2523992 -58.31 0.0006636457    1.472    0.321
       173 -11.1718     99.7657    151.2847   1.2060429595e+02   3.1401457696e+01    0.4830389    0.4365502  36.07   0.00229314    1.242    0.195
       174  -9.6769    102.9827    146.2584   1.1877920059e+02   3.2037179653e+01    0.3629297    0.2233105 -29.75  0.001431137    2.561    0.610
       175 -12.1987     60.5987    223.2406   1.3952688471e+02   2.1018489280e+01    0.8268273    0.6655141  47.48  0.003013839    1.381    0.276
       176  -9.2876     49.3979    150.7731   1.3331327093e+02   3.8902710644e+01    0.1882508    0.1037194 -57.86 0.0009135873    1.599    0.375
       177 -12.8081     67.5471    144.2116   1.2761289245e+02   3.8149560286e+01     0.732946    0.5254577  76.89  0.003537672    1.569    0.363
       178 -11.9593     72.4405    139.4778   1.2546711408e+02   3.8597460160e+01    0.6538692    0.4321283  48.78  0.003314881    1.625    0.385
       179 -10.9892    133.4454    142.2429   1.1018578139e+02   2.7081918725e+01    0.8955059    0.2973068 -51.68  0.002774348    3.088    0.676
       180  -9.9417    138.7943    138.7740   1.0807061671e+02   2.6756605513e+01    0.2510006    0.2176728  32.24 0.0006392038    1.263    0.208
       181 -14.5979      9.8202    133.0330   1.4083449161e+02   4.6812400107e+01     4.486476    0.8185008 -63.74   0.01706865    3.289    0.696
       182  -9.1759    158.9984    145.2161   1.0473145674e+02   2.0915920566e+01    0.2129374    0.1969838  63.88            0    1.074    0.069
       183 -11.6675    244.9967    241.0076   1.0629416735e+02  -1.2662305191e+01    0.2396911    0.1926872  -8.78  0.001651046    1.158    0.136
       184 -11.3497     60.0155    136.6444   1.2826995750e+02   4.0966418247e+01    0.5075188    0.2771831 -77.43  0.001607425    2.116    0.527
       185 -10.9213    165.3546    234.9276   1.2030481356e+02   1.4587102478e+00    0.2617181    0.2295222  60.17   0.00105384    1.161    0.139
       186 -10.3520    111.1121    136.1140   1.1450504084e+02   3.2956605594e+01    0.3797295    0.3076845   2.03  0.001216253    1.699    0.411
       187 -12.1273     45.4338    131.5748   1.3131746466e+02   4.3911089745e+01    0.4708917    0.3439491 -87.03  0.002015105    1.390    0.281
       188 -12.6838      9.8042    186.6249   1.4612749126e+02   3.4770006358e+01    0.8759257    0.5962471  36.18 0.0006364595    1.797    0.443
       189 -11.4839     33.3159    127.6606   1.3395489964e+02   4.6076568609e+01    0.2875157    0.1892786  88.90  0.001501301    1.654    0.395
       190 -11.5769     30.3063    126.6889   1.3461602827e+02   4.6584896201e+01    0.2239413    0.1866301 -86.07 0.0006524786    1.150    0.130
       191 -11.7988     71.2057    187.5103   1.3331074083e+02   2.7361806942e+01    0.3158968    0.2805984 -50.69 0.0005473481    1.405    0.288
       192 -11.9135     67.4585    128.4990   1.2471698061e+02   4.1919018749e+01      0.41513    0.3775372  54.37  0.001572791    1.201    0.167
       193  -9.9098    136.8541    133.9602   1.0742394021e+02   2.8270793465e+01    0.2629302    0.2201056  15.09  0.001255912    1.489    0.328
       194  -9.1514    109.7706    128.9710   1.1323975991e+02   3.4889368524e+01    0.2070665    0.1869646 -56.82            0    1.063    0.059
       195  -9.3493    122.7318    128.0231   1.0960355506e+02   3.2571811209e+01    0.2121362    0.1917428 -58.75 0.0002051199    1.073    0.068
       196 -10.5298    209.8560    125.8447   8.9393639807e+01   1.3465666333e+01    0.3187524    0.2431308 -36.40 0.0005329866    1.299    0.230
       197 -12.5101     27.8871    225.8562   1.4575017737e+02   2.4596911967e+01    0.8372738    0.4251399  65.49   0.00190039    1.672    0.402
       198  -8.5110     54.6670    188.7285   1.3707516379e+02   2.9353712083e+01    0.1151098   0.09829403 -43.33 0.0002342922    1.593    0.372
       199 -10.2908     58.6739    125.0335   1.2649190990e+02   4.3893245332e+01    0.3348664    0.1794821  21.68  0.001030242    2.605    0.616
       200 -11.4166     38.1983    121.5956   1.3160899391e+02   4.7008336621e+01    0.2825085     0.217579  57.26   0.00171606    1.493    0.330
       201  -9.2831     86.3732    116.6149   1.1682220382e+02   4.1885636595e+01    0.3204882    0.1734382 -66.24  0.001105211    2.239    0.553
       202 -14.4571      8.1864    207.9063   1.4799230580e+02   3.0377517772e+01     2.630881     1.228084 -81.26   0.01533784    1.696    0.410
       203 -12.7246     40.1594    228.6153   1.4377909029e+02   2.2578565513e+01      0.36887    0.2751509 -72.19 0.0008250451    1.420    0.296
       204  -9.8207    231.9584    116.5138   8.3307385921e+01   1.0351449919e+01    0.2061737    0.1455531  56.77 0.0004495691    1.530    0.346
       205 -10.8424    168.0454    113.2616   9.4861246865e+01   2.5762812513e+01    0.3689193    0.3021907 -86.18 0.0008744463    1.410    0.291
       206 -10.5860     54.6705    120.7745   1.2679972789e+02   4.5385821465e+01    0.2616129    0.2005654  19.56  0.001092662    1.614    0.380
       207  -9.2592    203.5102    111.5241   8.7141271959e+01   1.7716105868e+01     0.152066    0.1463162 -61.38 0.0001049031    1.027    0.027
       208 -10.0102     77.9554    233.1532   1.3721300096e+02   1.6512144325e+01    0.3317824    0.1733591 -79.75  0.001006294    2.064    0.515
       209 -10.8204     31.5310    111.0052   1.3164847127e+02   5.0075617094e+01    0.2044456    0.1907871  26.10 0.0005200643    1.304    0.233
       210 -10.4284     84.7087    229.5637   1.3554224687e+02   1.6212461467e+01    0.2567536    0.2491032  40.95 0.0007596728    1.451    0.311
       211 -14.4717     46.6398    218.9388   1.4177415429e+02   2.3762025433e+01     1.538908     1.217777 -55.05   0.01016728    1.696    0.410
       212 -10.5801    144.2975    240.4780   1.2524653000e+02   4.2137392018e+00    0.2963495    0.1033744  46.83  0.001189401    2.461    0.594
       213 -10.9780    249.5450    151.0345   8.8033046987e+01   5.6134786625e-01    0.5418443    0.2792704 -41.52  0.002467993    1.764    0.433
       214  -8.3460     77.6671    103.2757   1.1616116383e+02   4.6285996510e+01    0.1360135    0.1089251  78.96 0.0003156756    1.600    0.375
       215 -14.0124      5.8371    245.4129   1.5060132221e+02   2.3186737880e+01     1.191435    0.5796782  83.16  0.004202412    1.609    0.378
       216  -9.6428     30.9670     90.4673   1.2777537073e+02   5.4679225027e+01    0.1574506    0.1230743  20.10 0.0004095097    1.524    0.344
       217  -9.7951     24.1093     87.9845   1.2946402650e+02   5.5783553641e+01     0.184191    0.1479036 -52.43 0.0004071002    1.009    0.009
       218 -12.0363    249.1075    171.7441   9.2452500298e+01  -2.9205439992e+00    0.6244739    0.4374762  25.15  0.003347534    1.587    0.370
       219 -14.4996     30.8491    245.9560   1.4663236398e+02   2.0302405745e+01      2.57705     1.064907  37.73   0.01381088    2.657    0.624
       220 -12.8220     13.7522    238.8114   1.4898373240e+02   2.3603984897e+01    0.6124213    0.3070129  64.59  0.001344788    1.555    0.357
       221 -10.6875    221.7736    245.3452   1.1119804375e+02  -9.7077759594e+00    0.3561837    0.1737692  20.74  0.001568452    2.794    0.642
       222 -10.3710    200.2093    245.9252   1.1529224807e+02  -6.3043351789e+00    0.2232632    0.1594461  55.38 0.0009811008    1.661    0.398
