#   1 NUMBER                 Running object number                                     
#   2 MAG_AUTO               Kron-like elliptical aperture magnitude                    [mag]
#   3 X_IMAGE                Object position along x                                    [pixel]
#   4 Y_IMAGE                Object position along y                                    [pixel]
#   5 X_WORLD                Barycenter position along world x axis                     [deg]
#   6 Y_WORLD                Barycenter position along world y axis                     [deg]
#   7 A_WORLD                Profile RMS along major axis (world units)                 [deg]
#   8 B_WORLD                Profile RMS along minor axis (world units)                 [deg]
#   9 THETA_WORLD            Position angle (CCW/world-x)                               [deg]
#  10 FWHM_WORLD             FWHM assuming a gaussian core                              [deg]
#  11 ELONGATION             A_IMAGE/B_IMAGE                                           
#  12 ELLIPTICITY            1 - B_IMAGE/A_IMAGE                                       
         1 -10.5936     45.9157     24.3570   6.5140430885e+01   6.7488007932e+01    0.2044525    0.1685388 -35.69   0.00058753    1.265    0.209
         2 -10.2709     14.3103     18.7453   7.9710318134e+01   7.2494239279e+01    0.2811963    0.2110568  -3.80  0.001748223    1.246    0.197
         3  -9.0712     66.3992     18.8020   5.3914472786e+01   6.4619473359e+01    0.1730943    0.1187831 -12.67 0.0005430287    1.601    0.375
         4  -9.9308    127.0000     11.9912   3.5612475902e+01   5.1576643849e+01     0.210165   0.07730018 -24.63 -1.451953e-05    2.997    0.666
         5 -11.0889     93.1557      8.2563   4.1011937140e+01   6.0044866757e+01     0.218849    0.1900861 -47.97 0.0006627864    1.305    0.234
         6 -10.0194    125.1903      6.6239   3.3993692085e+01   5.2534977818e+01    0.1887533     0.105327  58.44 0.0001151428    1.580    0.367
         7  -9.1183     24.7943      4.1721   6.5400891430e+01   7.3539223779e+01    0.1582595    0.1149404  -0.37 0.0003543676    1.271    0.213
         8  -9.5035      6.0254      3.2672   7.7250866801e+01   7.5851449939e+01    0.1551185    0.1230849  -2.81 0.0004976683    1.108    0.098
         9  -9.7045    114.6627      2.6811   3.4306447450e+01   5.5453119205e+01    0.1403151   0.08624199  40.04 0.0007049374    1.706    0.414
        10  -9.9236    219.9544    245.3806   7.3403748928e+01  -5.2703396426e+00    0.2103529    0.1550973 -45.56  0.001447577    1.994    0.499
        11 -10.1663    163.2226    250.2500   8.4303844810e+01   1.3942568874e+00    0.1526931    0.1205677  42.70 0.0007792676    1.322    0.244
        12 -11.3308    157.3642    246.8436   8.4987039693e+01   2.6898177076e+00    0.4241775    0.2719156 -14.57   0.00241481    2.146    0.534
        13 -16.8545     95.4432    185.0748   9.0053810853e+01   2.3509820541e+01      9.81416     7.078586 -27.15   0.04895734    1.963    0.491
        14 -10.7601    197.9616    218.3774   7.3170403901e+01   1.2272017374e+00    0.3677944    0.2169158 -18.38  0.001979188    1.978    0.494
        15  -9.5306    139.9010    217.1324   8.4513452961e+01   1.0087970493e+01    0.3101605    0.1864559  57.76  0.001509605    2.182    0.542
        16 -10.0686    221.9688    216.7909   6.8636537757e+01  -1.8297436602e+00    0.3684278    0.1732371  18.13  0.001714036    2.773    0.639
        17 -13.4941      4.7572    195.2231   1.1273105462e+02   3.2165747638e+01     1.050387    0.3457016 -70.41   0.00484691    2.707    0.631
        18 -10.1750    117.2240    215.7876   8.9204139043e+01   1.3790067869e+01    0.3033687    0.2238015   2.73  0.001650226    1.837    0.456
        19 -13.9718      7.6988    208.8835   1.1276166715e+02   2.8951311988e+01    0.6929728    0.5488496 -59.44  0.003817044    1.589    0.371
        20 -15.3208     31.9293    212.3811   1.0776726308e+02   2.5800533696e+01     2.457092     1.248942  70.45   0.01295936    1.897    0.473
        21 -10.4027    166.4418    213.4679   7.8482254201e+01   6.6517850623e+00     0.346025    0.1975896 -46.98  0.001808892    1.960    0.490
        22  -9.7814    185.3983    213.4531   7.4746670001e+01   3.7968041791e+00    0.2743879    0.1663239  16.06  0.001436461    1.835    0.455
        23  -9.6622    176.8510    214.0925   7.6508806390e+01   4.9704366788e+00    0.1760114    0.1586278  29.11 0.0003401163    1.162    0.139
        24 -10.4587    104.0594    213.4771   9.1812873930e+01   1.6207222731e+01     0.218531    0.1910545 -77.54 0.0003353069    1.259    0.206
        25 -10.0073    216.1802    212.7990   6.8983493725e+01  -4.9714313682e-01    0.1669646    0.1508136  -9.09   0.00060041    1.242    0.195
        26 -10.0720    196.6535    212.9818   7.2541645709e+01   2.2219161760e+00    0.2418912    0.1552715  15.67  0.001122516    1.589    0.371
        27  -9.3779    200.8224    212.1496   7.1633903714e+01   1.7473690935e+00     0.213075    0.1316805  14.03 0.0006488326    1.739    0.425
        28 -12.1706    129.4905    207.3346   8.5354300403e+01   1.3520946162e+01    0.6440791    0.4600635 -14.66  0.002190222    1.977    0.494
        29 -14.1114     26.6079    233.1685   1.1011765727e+02   2.2133908506e+01    0.9455943     0.629194  87.89  0.003709655    1.404    0.288
        30  -9.3992    207.4904    210.5010   7.0146584172e+01   1.0429163785e+00    0.2076483    0.1026301 -27.91  0.001024121    2.192    0.544
        31  -9.8468    221.7646    209.4330   6.7452112397e+01  -7.8085498387e-01    0.1657438   0.09937898  21.44 0.0007885037    1.625    0.385
        32 -11.0569    113.5257    207.5076   8.8926317727e+01   1.5968156519e+01    0.2075067    0.1905234  68.72 0.0007291136    1.118    0.106
        33 -14.2916     30.4430    248.4376   1.1016919135e+02   1.8836053291e+01     1.191431    0.5315824  25.15  0.006104263    2.750    0.636
        34 -11.1458    101.1843    207.7982   9.1749756636e+01   1.7776364076e+01    0.4384042    0.2021433  36.35  0.001061796    1.928    0.481
        35 -10.9745     62.2806    204.9174   1.0035002379e+02   2.3817334604e+01     0.262016    0.2211116  56.05 0.0007262958    1.047    0.045
        36 -11.7007    234.6592    202.9297   6.4176295332e+01  -1.6011307338e+00    0.3765141    0.2454674  -1.32  0.001088955    1.551    0.355
        37  -9.9130    190.8470    203.7265   7.2098673404e+01   4.5264604393e+00    0.2067384    0.1573126 -17.33 0.0003670736    1.303    0.233
        38  -9.5253    182.8940    203.9067   7.3665815237e+01   5.7138761952e+00     0.183071    0.1524938  -3.95 0.0004077239    1.146    0.127
        39 -14.3982     14.9478    228.0308   1.1218025542e+02   2.4332106286e+01     1.184561    0.5380285 -76.48   0.00668447    2.136    0.532
        40  -9.8183    161.3857    201.1153   7.7546114841e+01   9.5864056319e+00    0.2592448    0.1833726  25.27 0.0007072946    1.366    0.268
        41 -10.5322    157.1972    198.9682   7.8072134085e+01   1.0651493946e+01    0.2497955    0.1919652  15.61  0.000390445    1.348    0.258
        42  -9.8003    184.0326    198.0193   7.2442891081e+01   6.5158533720e+00    0.1883197    0.1666636   7.41  0.001196432    1.003    0.003
        43 -10.3252    149.5552    197.1889   7.9412999715e+01   1.2228754580e+01    0.2388499    0.2207462 -73.42 0.0005571443    1.276    0.216
        44 -11.6036    241.7310    202.8345   6.3012868342e+01  -2.5104205846e+00    0.4297495    0.2562061 -24.61  0.002186731    1.481    0.325
        45 -11.3139    212.4584    194.7089   6.6540817134e+01   2.7030205452e+00    0.4606438    0.4367616  52.49  0.002716149    1.458    0.314
        46 -10.0384    230.6923    195.9944   6.3626461741e+01  -9.0541418242e-02    0.1978221     0.158209  13.66 0.0006011212    1.163    0.140
        47 -10.1314    189.9940    196.1581   7.0961724728e+01   5.8911371704e+00    0.3286989    0.1689493 -34.64  0.001589058    2.013    0.503
        48 -10.9679    247.3142    190.4332   5.9968502375e+01  -1.5466137897e+00    0.2080777    0.1874401 -13.17  0.000310404    1.280    0.218
        49 -10.8240    242.1783    190.4253   6.0773070635e+01  -8.6362209538e-01    0.2496226    0.1770879 -11.62 0.0008316266    1.252    0.201
        50  -9.3532    234.2062    190.4037   6.2053918763e+01   2.2716933922e-01    0.1507163    0.1107835  40.78 0.0006911376    1.621    0.383
        51 -11.1096     30.2811    186.2059   1.0623454968e+02   3.1777530360e+01    0.2910424    0.2433168  30.61  0.000666943    1.372    0.271
        52 -10.3662     29.6147    181.2820   1.0599727711e+02   3.2991514637e+01    0.7044893    0.1933709  26.36  0.002540636    4.015    0.751
        53  -9.4086    227.7336    186.6602   6.2451350968e+01   1.6910686539e+00     0.125586   0.08306318  -8.17   0.00020964    1.597    0.374
        54  -9.4000      2.1461    186.6056   1.1288301787e+02   3.4306208220e+01    0.1415059    0.1113303  -5.98 0.0006563687    1.913    0.477
        55  -9.2263    181.2253    185.3721   7.0758805958e+01   9.1478176393e+00    0.1865375    0.1187846  46.44 0.0009407566    1.700    0.412
        56 -11.1846    158.1525    183.3509   7.5189133759e+01   1.3421485610e+01    0.3646807    0.2220768 -40.00  0.001462208    1.726    0.421
        57  -9.0658      7.8191    170.9456   1.1062858557e+02   3.7451086618e+01    0.1637831    0.1242345  69.14            0    1.110    0.099
        58 -12.1844      9.2583    158.2558   1.0937969486e+02   4.0366662249e+01    0.9650264    0.3865882  64.72   0.00411523    2.667    0.625
        59 -11.6211     36.5522    153.3790   1.0145307142e+02   3.9022587062e+01     0.445654     0.225536 -84.53  0.001993212    2.030    0.507
        60 -12.4876      5.6610    128.9230   1.0796847436e+02   4.7858576260e+01      1.10061    0.5268703 -44.83  0.005119437    2.396    0.583
        61 -12.6687     24.7566    155.7101   1.0498069787e+02   3.9635002841e+01     1.035654    0.7634094 -34.27  0.005846093    1.789    0.441
        62 -13.8750     28.3585    144.9220   1.0284053542e+02   4.1977046141e+01     1.275946    0.7615849  50.81  0.006575377    1.662    0.398
        63 -11.3131     40.6405    173.1254   1.0246994082e+02   3.3734672979e+01    0.4911734    0.2273989  53.74  0.001449018    2.120    0.528
        64 -11.8702     23.7545    165.5796   1.0615445392e+02   3.7317221768e+01     1.072338     0.546878   1.60  0.004230823    4.086    0.755
        65 -12.5702      8.9154    146.1210   1.0852181835e+02   4.3358723676e+01    0.9325038    0.5788611  39.43  0.004192278    1.639    0.390
        66 -12.1157     11.2076    139.2089   1.0726205957e+02   4.4895936062e+01    0.8065188    0.4337018  26.73  0.004096341    2.052    0.513
        67 -11.7849     10.6688    166.5612   1.0961511545e+02   3.8254391104e+01    0.7366315    0.3221124  22.14  0.003476524    2.689    0.628
        68 -10.5358      4.8249    165.7607   1.1104453544e+02   3.8917952087e+01    0.1660209    0.1539868  49.24 0.0003433557    1.261    0.207
        69 -12.1789     10.4199    177.1156   1.1038788286e+02   3.5785974565e+01    0.5142143    0.2487078 -84.01 0.0006945364    1.822    0.451
        70 -11.7089     18.5472    173.3569   1.0812038306e+02   3.5943784923e+01     1.070892    0.7606891   9.17  0.006196153    1.941    0.485
        71  -9.8825    211.8218    178.4423   6.3681862650e+01   5.3641579224e+00    0.3188942     0.184014 -25.13  0.001606429    1.811    0.448
        72  -9.4703    203.5101    183.6904   6.6168031699e+01   5.8199995171e+00    0.2221977    0.1124316  38.19   0.00106783    1.983    0.496
        73 -10.5779    190.9442    183.0123   6.8415075825e+01   7.9572788243e+00    0.2079952    0.1785169  19.60 0.0003376374    1.105    0.095
        74  -9.4553     18.4698    180.9629   1.0869531492e+02   3.4165587727e+01     0.180235    0.1073628 -81.43 0.0007993433    1.494    0.331
        75  -8.9797    181.2941    180.2640   6.9804442634e+01   1.0045327659e+01    0.1317885   0.09891079   1.47 0.0002030381    1.506    0.336
        76  -9.3157    202.0944    179.1780   6.5588314446e+01   6.7930676250e+00    0.1620741    0.1524297 -42.39  0.000599538    1.267    0.210
        77 -11.7337    238.0622    174.1053   5.8445714708e+01   2.0692062476e+00    0.4409251    0.2681964   0.80  0.002281864    2.166    0.538
        78 -10.3496     52.4239    176.2396   9.9764599086e+01   3.1597620175e+01    0.4345028    0.1327236  40.90  0.001657678    2.787    0.641
        79 -15.0354      5.5610    227.2132   1.1399686388e+02   2.5388438008e+01    0.8896133    0.4796766 -68.84  0.005152908    1.990    0.498
        80  -9.3952      2.6401    174.4412   1.1210991454e+02   3.7050503399e+01     0.233487    0.1217629  19.77  0.001226555    2.367    0.577
        81 -10.6898    165.9682    172.0281   7.1415923488e+01   1.4236844173e+01    0.2083533    0.1966732  -1.22 0.0003167379    1.017    0.017
        82 -10.1771    206.7963    176.2871   6.4178731387e+01   6.5157533702e+00    0.2259972    0.1793593 -12.71 0.0002655826    1.200    0.167
        83 -12.9732    145.5583    167.6983   7.5102120415e+01   1.8779083032e+01    0.6240884    0.3327575 -56.68  0.002623714    2.178    0.541
        84 -12.4019    151.6371    166.1373   7.3420097882e+01   1.7994356466e+01    0.4475824    0.3353361 -54.73  0.001359481    1.435    0.303
        85 -11.1370    152.6364    161.2002   7.2224147887e+01   1.8824426516e+01    0.2577876     0.181657 -35.88 0.0005995148    1.499    0.333
        86  -9.4863    211.7517    169.0252   6.1892452423e+01   6.9153343755e+00    0.1802127    0.1558931 -25.12 0.0004275884    1.082    0.076
        87 -11.3692    170.3761    169.1393   6.9926083245e+01   1.4006056796e+01    0.2665652    0.2029385  43.08 0.0006051142    1.332    0.249
        88 -12.1231     38.4412    162.6673   1.0196197823e+02   3.6518799258e+01    0.7387755    0.3379804 -66.66  0.003366385    1.982    0.495
        89 -10.4483    234.6955    166.0353   5.7450283382e+01   3.7868209701e+00    0.2180724    0.1468263  20.55 0.0007892618    1.653    0.395
        90  -9.3669    201.7803    166.1759   6.3139745703e+01   9.0532677065e+00    0.1794603    0.1426479   5.27  0.000269761    1.314    0.239
        91  -9.4535    215.5220    165.5241   6.0546175455e+01   6.8790957143e+00      0.13053    0.1144626 -15.08 0.0001229335    1.008    0.008
        92 -10.8177    241.5807    168.6381   5.6863716013e+01   2.3720111869e+00    0.1877037    0.1271676  -7.32 0.0005640076    1.571    0.364
        93  -9.2162    190.0000    162.8936   6.4718884836e+01   1.1673979119e+01    0.2216838   0.07460068 -42.10 0.0007928076    2.876    0.652
        94 -10.6253    226.5117    161.9644   5.7986230109e+01   5.6897218403e+00    0.2877169    0.1821703  34.18 0.0005047047    1.701    0.412
        95 -11.0991    207.1324    158.2857   6.0586347307e+01   9.4984241187e+00    0.2849205    0.1945725 -33.19 0.0003821952    1.357    0.263
        96 -10.3570    214.8907    182.2324   6.3846165666e+01   4.2818255850e+00    0.2330555    0.1865914 -13.40 0.0006921336    1.126    0.112
        97 -11.6079    173.0905    155.1930   6.6551625286e+01   1.6202515548e+01     0.419549    0.2352994 -42.54  0.001888777    1.752    0.429
        98 -11.0682    246.9547    155.6392   5.3556735088e+01   3.5233105146e+00    0.3204052    0.2509209 -76.75  0.001120766    2.263    0.558
        99 -14.6511      4.2620    247.3264   1.1498577390e+02   2.1672032502e+01     0.795685    0.4182694  62.61  0.005284598    1.427    0.299
       100 -10.6645    227.1458    154.0791   5.6318203497e+01   6.8505016182e+00    0.4040355    0.2544922  -8.39  0.001306335    2.097    0.523
       101  -9.8874    226.9255    149.7076   5.5472245203e+01   7.5927159381e+00    0.2076258    0.1562192 -26.91 0.0003295974    1.180    0.152
       102 -10.3589     49.2112    154.6746   9.8046728501e+01   3.7256030310e+01     0.235597     0.184826  17.76  0.001291479    1.550    0.355
       103 -10.4440    238.3010    153.5889   5.4459120026e+01   5.1532277310e+00    0.3700723    0.2422657  76.60  0.001567783    4.150    0.759
       104 -15.2716     16.1892    244.0901   1.1265768542e+02   2.1115996052e+01    0.7778816       0.5008  67.72  0.003078328    1.224    0.183
       105 -14.2624      9.3414    237.4162   1.1367601663e+02   2.3046018050e+01    0.5686826     0.338455 -59.58  0.003288899    2.176    0.540
       106  -9.7334    201.1170    243.6130   7.6421596207e+01  -2.7079904198e+00    0.2575963     0.122961 -42.16  0.001427858    2.426    0.588
       107  -9.4618    211.6209    150.5609   5.8212958693e+01   1.0046448954e+01    0.2709058    0.1318651  45.84  0.001221296    2.261    0.558
       108  -9.0096    233.4374    244.4421   7.1018654250e+01  -6.7439238242e+00    0.1076943   0.08178834   4.46  6.54476e-05    1.042    0.040
       109 -10.6010    153.4447    243.1009   8.5267034928e+01   3.7968960605e+00    0.3250848    0.2139812  12.55  0.001342576    1.694    0.410
       110  -9.1120    196.6429    243.6769   7.7231099150e+01  -2.1399750995e+00    0.1216322   0.07517748   3.83 0.0007045135    1.768    0.434
       111  -9.4685    234.4401    149.4422   5.4229596428e+01   6.4119326305e+00    0.1281231    0.1081029 -22.21  3.96149e-06    1.016    0.015
       112 -10.0162    173.1909    243.5717   8.1539614152e+01   9.9714022291e-01    0.1701071   0.09432048  23.45 0.0004478947    1.687    0.407
       113 -13.4434     89.1976    242.4744   9.8107950429e+01   1.2820129337e+01     1.292628     1.079947   8.96  0.008704431    1.520    0.342
       114  -9.5369    144.8250    239.8597   8.6550097199e+01   5.5175806854e+00    0.1849715    0.1426905  19.54 0.0006772567    1.221    0.181
       115 -10.4841    231.3232    237.8205   7.0373117028e+01  -5.7097404046e+00    0.2246255     0.179195   5.82 0.0007543085    1.119    0.106
       116 -11.8177    227.4207    234.8521   7.0569795170e+01  -4.8774634252e+00    0.5241508    0.2334357 -37.38  0.001102016    2.308    0.567
       117 -10.5871    217.1909    238.5283   7.2862304465e+01  -4.0826609332e+00    0.1836928    0.1415484 -19.56  0.000607603    1.270    0.213
       118 -10.0779    246.4759    142.4903   5.1038771398e+01   5.5869587264e+00    0.1258203    0.1043942 -29.96 3.647059e-05    1.045    0.043
       119 -10.5853    160.9235    238.9197   8.3260967646e+01   3.3851687603e+00    0.1859653    0.1542475  26.63 0.0008859317    1.037    0.036
       120 -10.1518    124.7759    235.8283   9.0103560681e+01   9.0490860232e+00    0.3039003    0.1915462  61.33  0.001642908    2.003    0.501
       121 -10.6275    122.9779    231.6817   8.9975704644e+01   1.0027164215e+01    0.2601597    0.2063505  85.55  0.001619986    1.611    0.379
       122 -11.6232     43.8400    179.3735   1.0227827015e+02   3.1881031474e+01     0.565676    0.4359298 -52.27  0.003311382    1.504    0.335
       123 -11.3972     41.2174    139.8690   9.8407653534e+01   4.1914374993e+01    0.2610641    0.2037706  63.99 0.0007813068    1.262    0.207
       124 -11.2782    142.1335    138.7903   6.9952779345e+01   2.5608856519e+01    0.2638355    0.2203799 -33.04 0.0004929547    1.259    0.206
       125 -11.2342    245.4305    235.5083   6.7734952357e+01  -7.0675951290e+00     0.288554    0.1624939   2.40  0.001787076    1.807    0.447
       126 -11.0795     40.4424    135.1281   9.7985225029e+01   4.3205276687e+01    0.2822092    0.1720963  48.42 0.0007426679    1.676    0.403
       127 -11.5045     47.4177    137.7948   9.6239003806e+01   4.1726487804e+01    0.3172262    0.2290571 -60.47 0.0006993689    1.309    0.236
       128 -11.3307     44.9953    135.0034   9.6566354546e+01   4.2721455155e+01     0.252005    0.2315973  82.89   0.00128562    1.048    0.046
       129 -11.6799    248.2288    230.8172   6.6565236001e+01  -6.8333329465e+00    0.4763907    0.1907864 -23.61  0.002413559    2.717    0.632
       130 -10.8840     58.4208    137.0874   9.2788167858e+01   4.0522054619e+01    0.2912471    0.2030413  44.11  0.001472625    1.448    0.309
       131 -12.8315    133.1643    133.4813   7.0957890464e+01   2.8570635549e+01    0.5235012    0.3264905  44.04  0.001894562    1.611    0.379
       132 -10.0462     61.5477    132.2728   9.1016424154e+01   4.1321450143e+01    0.4239222    0.2431525 -78.53  0.001821216    1.972    0.493
       133  -9.1678    233.3494    133.8062   5.1198111905e+01   9.0857108704e+00    0.1892418    0.1069606 -29.24 0.0009195973    1.673    0.402
       134 -13.3225     31.0414    127.8348   9.9909755559e+01   4.6042747197e+01    0.7346985    0.6247517 -16.14  0.004344068    1.462    0.316
       135 -12.1943     18.8547    122.1799   1.0308632807e+02   4.8572830013e+01     0.650903    0.2491898 -70.51  0.002180302    2.191    0.543
       136 -10.7225    168.3065    235.6587   8.1383178322e+01   2.8391791939e+00     0.377985    0.1729553  41.70  0.001405723    2.049    0.512
       137 -10.7415    243.2268    130.1228   4.8996077064e+01   8.0166000231e+00    0.3143742    0.1999608  70.42  0.001569464    2.703    0.630
       138 -11.8761    156.4503    130.2648   6.4680029883e+01   2.4518894394e+01    0.4947387    0.3265953  28.60  0.001865637    1.851    0.460
       139  -9.9077    168.2321    230.9785   8.0737060666e+01   3.5649424391e+00    0.2590518    0.1822641  -1.10  0.001533224    1.631    0.387
       140 -11.2151    112.8820    235.3134   9.2496414201e+01   1.0834540105e+01    0.3182461    0.1956663  46.01  0.001820299    1.414    0.293
       141 -11.1136     72.1365    130.0694   8.7355069517e+01   4.0355154471e+01    0.2821659    0.1996049 -69.62  0.001370483    1.396    0.284
       142 -12.3003     98.3732    129.1651   7.9357483259e+01   3.6235761307e+01    0.5192094     0.378961   0.34  0.001407532    2.083    0.520
       143 -10.3914     51.5824    128.5849   9.3497987824e+01   4.3564186089e+01    0.3115709   0.07760359 -52.55  0.000958483    3.658    0.727
       144  -9.8254    136.4852    234.4967   8.7547296201e+01   7.5882864798e+00    0.2331321    0.1240049 -52.79  0.001231287    2.238    0.553
       145 -10.7197    177.3615    234.0733   7.9422647746e+01   1.8040372199e+00    0.4051276    0.1530906  32.26  0.001851677    2.365    0.577
       146  -9.5913    234.9733    125.4935   4.9214735602e+01   1.0141324179e+01    0.1760444    0.1303804  46.35  0.001024611    1.568    0.362
       147 -11.2755     20.8450    127.8334   1.0313741749e+02   4.6976288804e+01     0.513549    0.2923994  -9.00  0.002311649    2.848    0.649
       148  -8.9129    146.5771    234.4616   8.5503196492e+01   6.1349615898e+00    0.1222085    0.1031487  25.54 0.0001487104    1.034    0.033
       149 -10.7805    248.8021    122.5960   4.6683495670e+01   8.2614976392e+00    0.2968313    0.2009681  42.60  0.001746844    1.766    0.434
       150 -10.7459     93.5053    122.0980   7.9215801813e+01   3.8817336164e+01     0.294012    0.2556176 -54.91 0.0006038832    1.125    0.111
       151  -9.4855    221.8161    122.1595   5.0476608151e+01   1.3036457376e+01    0.1802165    0.1475084 -13.24 0.0003610294    1.303    0.232
       152 -10.1722    207.9840    122.0263   5.2680745220e+01   1.5669501610e+01    0.1635312    0.1536953 -32.36 0.0003049746    1.042    0.040
       153  -9.2351    228.7781    121.6099   4.9298859063e+01   1.1861462106e+01    0.1631479    0.1295131  67.05 0.0009411182    1.595    0.373
       154 -10.3753    157.8297    121.0859   6.2192354364e+01   2.6130199228e+01    0.2245131    0.2012466 -73.17 0.0003438488    1.198    0.165
       155 -11.5599    236.3769    231.2603   6.8533839434e+01  -5.5097513487e+00    0.3501297    0.1603768  32.77  0.001603125    2.041    0.510
       156  -9.7764     61.7845    121.2197   8.8904295837e+01   4.4088832139e+01    0.1935979    0.1664081 -34.85  0.001044222    1.294    0.227
       157  -9.5870     51.1839    121.6344   9.2425627729e+01   4.5384084844e+01    0.1883433    0.1385795  11.82 0.0005945538    1.707    0.414
       158 -10.7131    129.8126    120.1187   6.8660454691e+01   3.2235746567e+01     0.263093    0.2446623  35.19            0    1.120    0.107
       159 -10.5040     53.8514    118.1329   9.0907011474e+01   4.5935142445e+01    0.2239077    0.1854633  79.06 0.0008439783    1.255    0.203
       160 -11.6690     36.1236    180.2029   1.0429150952e+02   3.2553087562e+01    0.8222402    0.3554892  60.59  0.003531204    2.473    0.596
       161 -10.2614    206.7444    231.6709   7.3652803056e+01  -1.8502136547e+00    0.2078883    0.1795479  16.99 0.0006667578    1.213    0.175
       162  -9.2362     44.7037    117.7269   9.3876812016e+01   4.7159698870e+01    0.1367291    0.1016401 -36.58 0.0001933431    1.525    0.344
       163  -9.3689      6.2089    117.1731   1.0662887213e+02   5.0756385971e+01    0.1775538     0.131733  69.36 0.0006100922    1.334    0.250
       164  -9.8389    194.9288    114.1187   5.3116425436e+01   1.9679865392e+01    0.2291567    0.1665049 -89.53 0.0009773306    2.005    0.501
       165  -9.2962    125.6255    114.7131   6.8408211721e+01   3.4309784241e+01    0.1567698    0.1238441   3.20 0.0007018422    1.719    0.418
       166 -12.5357     28.3291    113.2678   9.8692499103e+01   5.0006931150e+01    0.4957664    0.3340622  32.53  0.001856714    1.617    0.382
       167  -9.9815     34.0194    110.4529   9.6270230521e+01   5.0168569387e+01    0.1868035    0.1367947  26.74 0.0003496973    1.528    0.346
       168  -9.2686    218.2998    113.6836   4.9146016677e+01   1.5117292891e+01    0.1361336   0.09968704 -63.29 0.0003493489    1.614    0.381
       169 -10.8935    208.7622    226.8681   7.2554370100e+01  -1.4621911590e+00    0.2125243    0.1734319  -2.97 0.0003270679    1.075    0.070
       170 -13.8427     45.8208    194.6497   1.0323451203e+02   2.8119545219e+01     1.557173     1.475105 -87.68   0.01055379    1.217    0.178
       171 -11.3766     39.3842    112.5189   9.4768842594e+01   4.9081744532e+01    0.2595513    0.2075955 -74.02  0.001009703    1.143    0.125
       172 -11.8069     67.0213    134.8374   8.9795175974e+01   3.9905368939e+01    0.3994964    0.2311662  37.79  0.001811978    1.749    0.428
       173 -10.7598    192.0069    228.7073   7.5878779650e+01   5.5086007317e-01    0.3893262    0.1738101 -43.00  0.001970497    2.492    0.599
       174 -10.0366     68.5160    112.4762   8.4902309743e+01   4.5308352155e+01    0.1465136    0.1377232 -71.57 -5.542149e-05    1.003    0.003
       175  -9.3608     49.3016    112.6836   9.1400027880e+01   4.7889409747e+01    0.1450514    0.1038867  72.22  0.000230676    1.618    0.382
       176  -9.4797      7.3671    111.0066   1.0555785906e+02   5.2223321990e+01    0.1782636    0.1652941 -82.22 0.0004368401    1.109    0.099
       177  -9.3766      8.3383    107.6707   1.0482606605e+02   5.2994087673e+01    0.1919855     0.117167  87.10 0.0009991169    1.610    0.379
       178 -10.4180     10.2424    104.3294   1.0373247330e+02   5.3703221010e+01    0.2731133    0.1985002  53.37 0.0009439706    1.495    0.331
       179 -10.5032    143.5139    230.2967   8.5571559023e+01   7.2672508546e+00     0.220656    0.1391156  16.44 0.0008780448    1.837    0.456
       180 -10.3782     52.3538    109.5823   8.9742951942e+01   4.8288302302e+01     0.274065    0.1289404  36.19  0.001143909    2.190    0.543
       181 -10.5452    118.5885    229.2633   9.0600038943e+01   1.1092880277e+01    0.2460511    0.1947046 -83.09 0.0009051829    1.574    0.365
       182 -10.4153    196.9093    227.8069   7.4838202894e+01   5.6430870279e-03    0.1877876    0.1629644 -77.45 0.0007624117    2.008    0.502
       183 -10.7076    112.0777    105.2592   6.9666967062e+01   3.9228471699e+01    0.3319961    0.2760288   1.30  0.001129741    1.526    0.345
       184 -10.1161     71.4952    106.4951   8.2557562432e+01   4.6329039337e+01    0.1472536    0.1389866 -56.51 0.0008104504    1.032    0.031
       185  -9.5293    150.0128    227.9871   8.3938663807e+01   6.6964987717e+00    0.1930397    0.1394263  56.07  0.001122433    1.657    0.397
       186 -10.1556    132.7224    104.3336   6.3890870576e+01   3.5070354984e+01     0.301667    0.1867039 -56.81  0.001258089    1.776    0.437
       187 -10.5442     18.3060    103.6546   1.0075179660e+02   5.3289488864e+01    0.4020313    0.2618115  67.89  0.002103407    1.738    0.425
       188  -9.4921     36.6470    103.7520   9.4145099255e+01   5.1589135191e+01    0.1360758   0.09860607 -30.78 0.0003205785    1.592    0.372
       189 -13.7260     98.7805    231.3043   9.5004883439e+01   1.3546356631e+01     1.416165    0.8980821  56.34   0.00384855    1.549    0.354
       190  -9.6055     54.1420    102.1706   8.7550280604e+01   4.9908023719e+01    0.1989584    0.1651524  69.24  0.001069638    1.331    0.248
       191  -9.1660    233.0356    100.9814   4.4197654543e+01   1.4403454899e+01    0.1619875    0.1324926 -40.40 0.0004006306    1.042    0.041
       192 -10.1973    120.3732    100.6049   6.6120799871e+01   3.8534449401e+01    0.2727147    0.2291003  55.23 0.0006819071    1.219    0.180
       193  -9.9506     64.7042     99.7058   8.3260282508e+01   4.9028456199e+01    0.3212607    0.1049338 -50.65  0.001086574    2.789    0.641
       194 -10.4385    186.3655    225.8826   7.6505304396e+01   1.7531586658e+00    0.2884018    0.1473458 -44.42   0.00152192    2.221    0.550
       195 -10.4506    170.8374    225.4960   7.9431950267e+01   4.0424528430e+00    0.2898021    0.1869857  37.84 0.0009621263    1.410    0.291
       196 -11.0171     91.8165     96.3075   7.3326368142e+01   4.5252213285e+01    0.2631487    0.2398971 -45.79 0.0002482061    1.078    0.073
       197  -9.3365    235.8265     95.2101   4.2561722928e+01   1.4787008682e+01    0.1697425    0.1454699 -16.04 0.0005171952    1.296    0.228
       198 -11.6467    243.0769    223.5106   6.6225832222e+01  -5.3508751969e+00    0.2475559    0.1656895  16.05  0.001208568    1.308    0.236
       199 -10.7983    174.8029     91.5498   5.1208605703e+01   2.8152440649e+01    0.2636526    0.1990915 -43.04 0.0003694509    1.255    0.203
       200  -9.4482    164.2794     91.3345   5.3208083149e+01   3.0586905027e+01    0.1469578    0.1198283   1.89 0.0004964737    1.611    0.379
       201 -10.8756     91.9385     90.7213   7.1731095958e+01   4.6501118062e+01    0.4228422     0.323011  60.20  0.002047559    1.480    0.324
       202  -9.5493    183.9972     90.5231   4.9265239300e+01   2.6271006930e+01    0.2057366    0.1440687  55.69 0.0004137987    1.508    0.337
       203 -10.8701     87.2246    221.3250   9.6424787098e+01   1.7065808572e+01    0.2928812    0.1796558  59.15  0.001035429    1.633    0.388
       204 -10.6821    152.7844     87.6531   5.4611261528e+01   3.3928941751e+01    0.4140503      0.19899 -47.70  0.001587297    2.103    0.524
       205 -13.2908     55.2359    212.0669   1.0260496613e+02   2.3173665465e+01     1.037179    0.7035831 -78.40    0.0041611    1.494    0.331
       206 -10.0532     18.7458     85.4493   9.7524121574e+01   5.7764437114e+01    0.3581119    0.1209784  23.31  0.001438466    3.197    0.687
       207 -13.2601     15.7625    197.8013   1.1041703173e+02   3.0601535817e+01      1.41295    0.5910113 -74.42  0.007070362    2.182    0.542
       208 -11.3091     82.3354    220.7367   9.7431872073e+01   1.7855398380e+01    0.3275604    0.2492317 -11.85 0.0007765013    2.047    0.512
       209 -11.2250     43.8915     78.5125   8.5731390531e+01   5.6934505493e+01    0.5249738    0.2671769 -77.42  0.001904326    3.357    0.702
       210 -10.8890     76.4645    222.6567   9.8902429961e+01   1.8265484721e+01    0.3649905    0.2748093 -12.05  0.001863807    2.138    0.532
       211 -10.0052     11.5418     78.0328   9.9101804810e+01   6.0074735386e+01    0.2134416    0.1689931  46.90 0.0006328854    1.465    0.317
       212 -10.1692    155.1754     77.0690   5.1123682278e+01   3.5331207497e+01    0.3006251    0.2152361  49.50 0.0008310893    1.441    0.306
       213 -10.7466     55.8864     74.0887   7.9687822416e+01   5.6355102968e+01    0.2103406      0.18963 -83.05 0.0004591465    1.254    0.203
       214  -9.4418    128.8267     73.1723   5.5920169505e+01   4.2245215744e+01    0.2033368    0.1800162   7.71 0.0004721811    1.328    0.247
       215 -10.3511    147.6641     71.4631   5.1067820121e+01   3.8115949402e+01    0.2658602    0.1376942 -37.90  0.001074592    1.924    0.480
       216 -11.2577     71.4113    219.6796   9.9719049304e+01   1.9532810600e+01    0.3957488    0.2182792  68.23 0.0009316732    2.063    0.515
       217  -9.9980     33.9436     70.9598   8.7886440879e+01   5.9827308307e+01    0.1998651    0.1831001 -47.79 0.0004411039    1.035    0.034
       218 -10.7270    230.5602    221.7777   6.7991990658e+01  -3.6009873342e+00    0.3116687    0.1026392 -38.72  0.001440439    3.026    0.670
       219 -10.6900     36.6109     74.8785   8.7781388092e+01   5.8628927605e+01     0.223248    0.1836377  -7.60  0.000646934    1.341    0.254
       220  -9.4248    179.0540     67.7958   4.4125637137e+01   3.1274301530e+01    0.1904764    0.1782614 -85.53 0.0003444144    1.053    0.050
       221  -9.5853     58.2456     67.9768   7.6874796571e+01   5.7358717531e+01    0.1858098     0.113258 -50.92 0.0006578419    1.562    0.360
       222 -10.4635     24.7807     67.4266   9.0996363583e+01   6.1544444895e+01     0.169666    0.1222423  -4.28 0.0007350214    1.596    0.373
       223  -9.3203    124.5370     65.4494   5.4556861477e+01   4.4661927047e+01    0.1477162    0.1431342  89.91 0.0001645477    1.021    0.020
       224  -9.7256     63.4343     65.4711   7.4016857427e+01   5.7082408704e+01    0.1386279    0.1318065 -35.85 3.692953e-05    1.039    0.038
       225  -9.1621     93.2759     64.3144   6.3042160114e+01   5.1791169951e+01    0.1443798    0.1147101  -1.64 0.0002862732    1.563    0.360
       226 -11.0040    233.0146    209.5381   6.5570584540e+01  -2.2889481150e+00    0.4118917    0.1986785 -25.93  0.001401041    2.060    0.515
       227 -10.1053    103.9566     59.7116   5.8201665695e+01   5.0374740580e+01    0.2373641    0.2059383 -40.39  0.000375125    1.163    0.140
       228  -9.2310    229.2800    217.6694   6.7540010240e+01  -2.8983321247e+00    0.1500124    0.0944796  18.99 0.0004674839    1.465    0.318
       229  -8.7656      1.5333     59.4221   9.9951086253e+01   6.5011007188e+01    0.1257838   0.09836771 -48.86 0.0001678326    1.080    0.074
       230  -9.1351    119.0303     56.9428   5.3147799080e+01   4.7437084419e+01    0.1734363    0.1671522  65.32 0.0003849158    1.017    0.017
       231  -9.8673     30.4647     55.5345   8.5002900375e+01   6.3645916871e+01    0.1315173    0.1137399 -35.11 2.748721e-05    1.023    0.022
       232  -9.7639    231.6654    215.3319   6.6758454213e+01  -2.8927986119e+00    0.1443329    0.1429176  40.61 0.0007062298    1.649    0.393
       233 -10.5002    156.0427     52.6719   4.3790254340e+01   3.9194093418e+01    0.2057591    0.1836653  73.75 0.0006520604    1.090    0.082
       234  -9.4598      2.1658     51.8842   9.7985790806e+01   6.6677354608e+01     0.163026    0.1488147 -76.01 0.0004513825    1.203    0.169
       235  -9.1648    224.2723     49.6743   3.3581312377e+01   2.3833455508e+01    0.1365966   0.08195268 -58.84 0.0003288777    1.579    0.367
       236  -9.8605    110.9951     49.2298   5.2564766985e+01   5.0585107437e+01    0.1964638     0.185668  51.12 0.0002976963    1.030    0.029
       237 -11.6731    110.8813     43.8100   5.0648347107e+01   5.1466078736e+01    0.4600795    0.3486852 -43.33  0.001621122    1.370    0.270
       238  -9.9816    106.9689     49.2678   5.3664495976e+01   5.1501693430e+01    0.2016609    0.1818708  54.75 0.0003998436    1.087    0.080
       239 -10.7517     43.0957     48.5067   7.6687722053e+01   6.3588621370e+01    0.3011365    0.1619299 -64.44  0.001254087    2.828    0.646
       240 -10.6208    234.4749    214.4864   6.6154004836e+01  -3.1387363313e+00    0.3701327     0.164793  38.47  0.001962337    2.353    0.575
       241  -9.4495    100.8465     42.8422   5.3008475662e+01   5.3912887847e+01     0.193453    0.1671864 -73.77 0.0004394974    1.351    0.260
       242 -10.4338     36.3943     43.2055   7.7871785639e+01   6.5507491471e+01    0.1792282    0.1189502 -57.96 0.0009493968    1.680    0.405
       243  -9.2498      8.5127     43.4989   9.2441418434e+01   6.8126689149e+01    0.1225263    0.1027494 -42.21 -6.080848e-05    1.019    0.019
       244  -9.3966    206.2867     42.0167   3.3672055885e+01   2.8791796711e+01    0.1863487    0.1507319 -49.02 0.0003755903    1.118    0.106
       245 -10.9423    122.5887    221.8026   8.8823800572e+01   1.1858671761e+01    0.4178837    0.2408168 -50.94  0.002212075    1.981    0.495
       246  -9.2735    106.6367     38.2831   4.9714312978e+01   5.3278517144e+01    0.1432037     0.109617 -81.10 0.0004798279    1.683    0.406
       247  -9.3091    115.5327    222.5046   9.0422976431e+01   1.2775408909e+01    0.1278832    0.1104766  41.13 5.788785e-05    1.008    0.008
       248  -9.8075    192.0944     34.4851   3.3362077454e+01   3.3041243285e+01    0.1895448     0.125343  74.61 0.0003638573    1.486    0.327
       249  -9.5907    108.6925     33.3006   4.7310899208e+01   5.3502905878e+01    0.1391339    0.1074747 -73.59 0.0002635378    1.597    0.374
       250 -11.2154    199.2346     28.8462   3.1121320287e+01   3.2090175906e+01    0.2276003    0.1924499 -73.21 0.0002378137    1.033    0.032
       251 -11.3716    187.4978    234.9213   7.7639546921e+01   2.7982154091e-01     0.441749    0.2118442  42.41  0.002284031    2.149    0.535
       252 -10.5877    169.6320    248.5017   8.2868043206e+01   7.7762412657e-01    0.2672707    0.1691854  16.58  0.001489682    1.552    0.356
       253  -9.4215     67.4369     24.3048   5.6110764046e+01   6.3679454937e+01    0.1714147    0.1219083 -41.43 0.0006201462    1.546    0.353
       254 -11.5931     80.0432     21.8233   5.0653664861e+01   6.1442147203e+01    0.3155445    0.1736032 -40.86 0.0009629951    2.006    0.501
       255 -10.0832     28.7070     19.8687   7.1734736898e+01   7.0678450752e+01    0.2881939    0.1449063 -37.13  0.001393137    1.854    0.461
       256  -9.2230     35.5071     21.4538   6.8863629268e+01   6.9506634455e+01    0.1234573    0.1076044  -5.39 0.0001607064    1.035    0.034
       257  -8.9291    114.7011     20.7102   4.1156943859e+01   5.3649544732e+01    0.1380455    0.0973452  34.43 0.0002403285    1.559    0.359
       258  -9.2420     50.2747     20.6521   6.1345816708e+01   6.7327861786e+01    0.1161764    0.1016204 -66.15 0.0005620302    1.630    0.387
       259  -9.6788    142.2295    249.0368   8.8190101987e+01   4.4468726772e+00    0.2357509    0.1707954 -55.70  0.001304497    1.759    0.431
       260 -10.8750    100.7295     23.9436   4.5669320999e+01   5.6574986343e+01    0.2382634    0.1764216  78.00 0.0006445583    1.547    0.353
       261 -10.7757     88.9817     17.6964   4.6185002661e+01   5.9992694449e+01    0.1893148    0.1645262  47.61 0.0008119372    1.060    0.057
       262  -9.0719     15.4324     14.4694   7.6913517569e+01   7.3112000214e+01     0.119226   0.09560565 -17.30 0.0001950765    1.026    0.025
       263  -9.5714    140.2979    244.6888   8.8045976498e+01   5.3911496066e+00    0.2058633    0.1497729  73.33  0.001218012    2.072    0.517
       264  -9.0667    105.3248    249.6428   9.5548711550e+01   9.4133192384e+00    0.1251399   0.07611668  58.92 0.0007044931    1.773    0.436
       265  -9.1347    177.6417    248.3027   8.1345236169e+01  -2.6755760381e-01    0.1104041   0.08275095  50.72 0.0007038404    1.718    0.418
       266 -10.2292    120.1294    246.3687   9.2251161269e+01   7.9323904903e+00    0.2678866     0.239076 -34.79  0.001916748    1.375    0.273
       267 -10.4344    112.9087    246.8235   9.3745458082e+01   8.8526002470e+00    0.2545777    0.1978779  89.15 0.0008331772    1.628    0.386
       268 -10.8642    115.9204    242.7560   9.2701866730e+01   9.1202375139e+00     0.397263    0.2301043  42.01   0.00213603    1.421    0.296
