#   1 NUMBER                 Running object number                                     
#   2 MAG_AUTO               Kron-like elliptical aperture magnitude                    [mag]
#   3 X_IMAGE                Object position along x                                    [pixel]
#   4 Y_IMAGE                Object position along y                                    [pixel]
#   5 X_WORLD                Barycenter position along world x axis                     [deg]
#   6 Y_WORLD                Barycenter position along world y axis                     [deg]
#   7 A_WORLD                Profile RMS along major axis (world units)                 [deg]
#   8 B_WORLD                Profile RMS along minor axis (world units)                 [deg]
#   9 THETA_WORLD            Position angle (CCW/world-x)                               [deg]
#  10 FWHM_WORLD             FWHM assuming a gaussian core                              [deg]
#  11 ELONGATION             A_IMAGE/B_IMAGE                                           
#  12 ELLIPTICITY            1 - B_IMAGE/A_IMAGE                                       
         1 -15.3021     11.1751    154.2612   1.4382333187e+02   4.1583147944e+01     10.67391     4.572434  74.46   0.04661637    3.246    0.692
         2 -13.4277    195.2133     28.9751   6.8837928731e+01   3.3048745771e+01     1.359013     1.238111 -69.90  0.007054255    1.106    0.096
         3 -13.6052    210.2234     10.5475   6.2507295775e+01   3.1533051722e+01      1.17916    0.9242823  38.94  0.007033265    1.650    0.394
         4 -11.7452      2.2611     10.5343   1.1711476463e+02   7.0815831430e+01    0.4821596    0.1429004 -40.70  0.002564236    2.438    0.590
         5 -11.0038    198.8009    246.6014   1.1710447301e+02  -5.8537907663e+00    0.2388626     0.180932  60.23  0.001257949    1.676    0.403
         6 -12.0995    246.1592    246.0056   1.0840780300e+02  -1.3247306926e+01    0.6861078    0.3469018  26.62  0.003730347    1.831    0.454
         7 -12.1190    139.8971    248.4947   1.2847145368e+02   3.9233276046e+00     0.482588    0.3409105  67.50  0.002864415    1.494    0.330
         8 -11.3503    124.9296    250.0391   1.3145348775e+02   6.1752326348e+00    0.4899798    0.1729427  40.83  0.002100378    2.495    0.599
         9 -11.4441     97.8693    247.4537   1.3613292274e+02   1.0989958697e+01    0.4614292    0.3003894  79.16  0.002752027    1.573    0.364
        10 -10.6481    100.9942    245.9845   1.3540874478e+02   1.0766004991e+01    0.2291927     0.154568 -77.64 0.0006131913    1.591    0.372
        11  -9.1844     66.9881    250.0081   1.4182515054e+02   1.5082430503e+01    0.1417554     0.105341  69.72  0.000379803    1.006    0.006
        12 -10.3761     29.4007    249.7936   1.4800551045e+02   1.9931798015e+01    0.2849679    0.1980548 -79.97   0.00183404    1.396    0.284
        13 -11.1033     33.5001    248.9803   1.4730168665e+02   1.9596943448e+01    0.3316315    0.2115903  60.71  0.002362677    1.215    0.177
        14 -11.6764     35.1120    244.1159   1.4671820971e+02   2.0304804649e+01    0.4435822    0.2633624  43.52   0.00293205    1.717    0.417
        15 -11.0884     16.1442    249.6941   1.5006169681e+02   2.1446435357e+01     0.373887    0.2032242  47.43  0.002582708    1.679    0.404
        16 -12.2558     11.6074    240.1913   1.5023556399e+02   2.3679250314e+01    0.6178845    0.2733567  73.33  0.003225036    1.908    0.476
        17 -11.6648      3.1417    246.4342   1.5185839790e+02   2.3403080636e+01    0.7503685    0.2853343  89.35  0.004285982    2.280    0.561
        18 -11.2787    172.2317    247.0062   1.2216243072e+02  -1.3919809169e+00    0.3409365    0.1330399  49.61  0.001440966    2.491    0.599
        19 -10.7894    107.0722    246.8728   1.3438957693e+02   9.6410229594e+00    0.2028103    0.1902212 -77.28  0.001440312    1.344    0.256
        20 -10.9010     21.0680    243.8121   1.4895749729e+02   2.1983270133e+01    0.3444361    0.1441813  66.41  0.001485547    2.038    0.509
        21 -10.4562     22.7777    236.6208   1.4823895628e+02   2.3144619854e+01    0.2844464    0.1891723 -54.72  0.001672075    2.221    0.550
        22  -9.6201    181.3160    244.3316   1.2004751703e+02  -2.5475197962e+00      0.12684   0.09158915  13.11 0.0004979376    1.685    0.406
        23 -11.1328    123.5825    243.1943   1.3088474935e+02   7.5905908631e+00    0.2582344    0.1536494  46.60  0.001426643    1.396    0.284
        24 -11.2946    234.5386    238.8183   1.0926084606e+02  -1.0580661343e+01    0.2995519    0.2149096 -60.22  0.001645751    2.647    0.622
        25 -10.3819    185.5231    239.0114   1.1843220533e+02  -2.4605467808e+00    0.2440261    0.1189399  46.88  0.000618054    1.858    0.462
        26 -10.9160    119.6487    237.7380   1.3096419366e+02   9.2315381269e+00    0.3570573    0.1889004 -75.75  0.001503947    2.719    0.632
        27 -11.2082    217.5010    248.1460   1.1389559058e+02  -9.1256658799e+00       0.2787    0.2582305 -76.28  0.001934515    1.640    0.390
        28 -12.7073     35.2351    231.9543   1.4584072861e+02   2.2611157098e+01     0.288912    0.2286906 -79.94 0.0007635424    1.341    0.254
        29 -13.2102      8.9262    207.3258   1.4866370157e+02   3.0375040154e+01    0.8583811    0.7193951 -70.39  0.004578278    1.475    0.322
        30 -13.9610     41.0495    223.9490   1.4420914334e+02   2.3495014046e+01    0.8198332    0.6778286  72.11   0.00249432    1.197    0.165
        31 -10.2558    172.9637    222.5006   1.1825545390e+02   2.4938966521e+00     0.322359    0.1181608  37.70  0.001216017    2.666    0.625
        32  -9.0630    152.6485    212.9533   1.2083453156e+02   8.0051587251e+00     0.178511    0.1693585 -88.57 0.0003986919    1.132    0.117
        33  -9.3892     34.7221    202.6150   1.4357160692e+02   2.8653790849e+01    0.1820567    0.1505646 -81.36 0.0007724602    1.230    0.187
        34 -10.8824    229.1949    229.3109   1.0859344095e+02  -8.4355928721e+00    0.4837996    0.3035223 -60.85   0.00218878    3.531    0.717
        35 -11.5956     61.8864    197.9486   1.3771639377e+02   2.6280225199e+01    0.3099286    0.2458222 -49.96 0.0006226817    1.619    0.382
        36  -9.8323    193.0135    195.0659   1.0931435498e+02   3.5875638248e+00    0.7329553    0.3571528 -64.24  0.001790978    7.931    0.874
        37  -9.0248     50.1371    196.3542   1.3993765526e+02   2.8160302044e+01    0.1660999    0.1316357  72.53 0.0003562245    1.095    0.087
        38 -10.9284    144.2982    230.5358   1.2519927028e+02   6.2723867800e+00    0.4165439    0.1112195  43.50  0.001455257    3.170    0.685
        39 -11.8511     67.8788    189.8607   1.3550252289e+02   2.7244781046e+01    0.2844177    0.2260116 -64.57 0.0004728028    1.294    0.227
        40 -10.8523     77.8422    177.2529   1.3161523347e+02   2.8669400042e+01    0.2403549    0.2001869 -74.86  0.000316285    1.112    0.101
        41 -13.1734     64.6853    175.2390   1.3431236555e+02   3.1004674839e+01     0.497262    0.2774472 -46.66  0.001562042    2.205    0.546
        42 -10.0498     98.1246    174.6554   1.2655010444e+02   2.6059488357e+01    0.2800532    0.2051741 -69.06 0.0002989212    1.318    0.241
        43 -11.7790     85.3406    167.9482   1.2846036889e+02   2.9684740907e+01    0.6327629    0.5876806  67.88   0.00384211    1.130    0.115
        44 -10.9289    155.5027    228.6718   1.2270479285e+02   4.5967338191e+00    0.3357051    0.1877056  23.54  0.001392579    2.856    0.650
        45  -9.9589     98.1890    151.8463   1.2251111894e+02   3.1376239054e+01    0.2810342    0.2645721 -51.00 0.0008054745    1.156    0.135
        46  -9.1507    100.9351    147.9782   1.2107159635e+02   3.1816493973e+01    0.2157822    0.1918063 -35.50 0.0003429839    1.284    0.221
        47 -12.0404     86.5614    151.2585   1.2531834209e+02   3.3421813722e+01     0.303689    0.2461923 -48.48  0.000615306    1.291    0.226
        48 -12.3509     67.5044    143.8574   1.2884499680e+02   3.7975038328e+01    0.7042163    0.4870503  75.26  0.002879491    1.683    0.406
        49  -8.4304    192.2233    143.9747   9.8655470262e+01   1.3725095248e+01    0.1929695     0.125188 -42.69 0.0003407583    1.533    0.348
        50  -9.7773    109.7027    137.0434   1.1655871989e+02   3.2814882741e+01    0.3752117    0.2388134 -28.67  0.001420353    2.284    0.562
        51 -10.8516      7.8089    226.3880   1.5005064953e+02   2.6692634202e+01    0.1988659    0.1517755  31.12  0.001479317    1.983    0.496
        52 -10.4934     96.8738    134.3966   1.1934730039e+02   3.5715070315e+01    0.2619965    0.2131384 -44.13 0.0006254317    1.255    0.203
        53 -11.0544     57.7377    132.5278   1.2941617791e+02   4.1911768973e+01    0.3911685    0.2206719 -79.92  0.001776749    2.127    0.530
        54 -10.8731     33.1470    132.4510   1.3585918183e+02   4.4613888891e+01    0.2576632    0.2009651  60.71 0.0007384301    1.415    0.293
        55  -8.5837    115.6637    129.6795   1.1335730055e+02   3.3400013859e+01    0.1531844    0.1214698 -11.39 0.0006141175    1.707    0.414
        56  -9.0199    106.7300    123.9179   1.1438384972e+02   3.6408102185e+01    0.1955021    0.1795345 -62.16 0.0003033848    1.042    0.040
        57 -10.2715    167.8574    112.8827   9.6346075837e+01   2.5753505633e+01    0.3588952    0.2866334 -80.33 0.0007830631    1.511    0.338
        58  -9.4982    203.8724    111.1138   8.8427986398e+01   1.7573889237e+01     0.244189    0.1910712  10.82  0.001121571    1.736    0.424
        59 -10.1196    243.4760     92.4866   7.7344689521e+01   1.1914114158e+01    0.1423524    0.1274729 -57.50 0.0008100482    1.004    0.004
        60  -8.9699    184.5261     77.4798   8.3456734713e+01   2.8476757372e+01    0.1501176    0.1456809  71.64 1.585258e-05    1.048    0.046
        61  -9.5117    157.5013     76.9827   8.8895854087e+01   3.5202102363e+01    0.2316186    0.1511832 -37.35 0.0008165373    1.575    0.365
        62  -9.0633     44.3644     68.2524   1.1916669526e+02   5.7512805605e+01    0.1878327    0.1451294  49.31 0.0007633643    1.752    0.429
        63  -9.9735     34.6315     63.4210   1.2124883081e+02   5.9417506527e+01    0.3212588    0.1712702  43.68  0.001434335    2.680    0.627
        64 -10.5003     16.4130     55.9613   1.2586355807e+02   6.2312948692e+01    0.1891882    0.1603146  -0.67 0.0005592641    1.315    0.240
        65  -9.4679     60.3125    227.3148   1.4101519787e+02   2.0341571914e+01    0.2533554    0.1257672  69.48  0.001289996    2.059    0.514
        66 -10.6313    162.5598    249.0104   1.2427251964e+02  -3.9932577507e-02     0.276598    0.1848087   3.19  0.001339653    2.798    0.643
        67 -10.7889     46.0183    248.3915   1.4522624174e+02   1.8166429304e+01    0.3433862    0.1426782  68.20   0.00114576    2.427    0.588
