#   1 NUMBER                 Running object number                                     
#   2 MAG_AUTO               Kron-like elliptical aperture magnitude                    [mag]
#   3 X_IMAGE                Object position along x                                    [pixel]
#   4 Y_IMAGE                Object position along y                                    [pixel]
#   5 X_WORLD                Barycenter position along world x axis                     [deg]
#   6 Y_WORLD                Barycenter position along world y axis                     [deg]
#   7 A_WORLD                Profile RMS along major axis (world units)                 [deg]
#   8 B_WORLD                Profile RMS along minor axis (world units)                 [deg]
#   9 THETA_WORLD            Position angle (CCW/world-x)                               [deg]
#  10 FWHM_WORLD             FWHM assuming a gaussian core                              [deg]
#  11 ELONGATION             A_IMAGE/B_IMAGE                                           
#  12 ELLIPTICITY            1 - B_IMAGE/A_IMAGE                                       
         1 -10.4141     45.1573     12.1834   3.4518035110e+01   7.0421102134e+01    0.2391032    0.1739638  39.62 0.0008624326    1.314    0.239
         2 -11.6016     49.8679     14.3885   3.3444886303e+01   6.9269931834e+01    0.4034818    0.3162851  25.76  0.001734896    1.166    0.142
         3 -10.1681     27.7878     11.2681   4.3957285460e+01   7.3311191850e+01    0.1941947    0.1608737 -35.89  0.001260228    1.314    0.239
         4 -10.5909     68.9954     10.0571   2.3142735180e+01   6.5945647418e+01    0.2927094     0.188378 -10.35   0.00094738    1.790    0.441
         5 -10.3550    241.3899      9.7920   3.5795176224e+02   2.4535305753e+01    0.1587437    0.1051635 -24.60 0.0009605092    1.742    0.426
         6 -11.1754    124.0540      6.6589   8.2637831154e+00   5.2894382237e+01    0.3695415    0.2299763 -81.53  0.001555804    1.805    0.446
         7 -10.7831     85.5326      7.4511   1.6694885176e+01   6.2444266827e+01     0.242662     0.219629  74.39 0.0007486944    1.156    0.135
         8 -10.8874     88.5249      5.9454   1.5193137137e+01   6.1873740663e+01    0.2420968     0.191828  59.70 0.0004051818    1.134    0.118
         9 -10.8709     16.4366      7.4403   4.9515672977e+01   7.5359749177e+01    0.3916718    0.2237532 -39.02  0.002242472    1.619    0.382
        10 -11.5373     10.5577      3.5734   5.1690156470e+01   7.6626481169e+01     0.448613    0.3046689  17.47  0.002513236    1.403    0.287
        11 -10.6071    130.6036      4.8227   6.5841773691e+00   5.1370093937e+01    0.3453735    0.2226886   4.45  0.001578804    2.149    0.535
        12 -10.7916    182.9809      3.0099   2.7975311660e-01   3.8262047919e+01    0.1936187    0.1476786  46.50 0.0005080565    1.618    0.382
        13 -12.3609    173.4676      5.4285   1.7825986205e+00   4.0366023824e+01    0.3802409    0.3298951  -0.02  0.002336888    1.506    0.336
        14 -11.2197    114.4855      1.7702   7.9604671683e+00   5.5777108467e+01    0.4163656    0.1723441  70.69  0.001103295    2.154    0.536
        15 -11.0931     78.8327      5.6314   1.7689673725e+01   6.4191446312e+01    0.3276204    0.2207043  16.68  0.001518128    1.711    0.416
        16  -9.6442     88.9963      1.2203   1.2848591449e+01   6.2180129025e+01    0.1773645    0.0977176  64.13 0.0003267862    1.607    0.378
        17  -9.6595     58.1340    129.8066   6.7435367590e+01   4.2420925989e+01    0.1954061    0.1706087 -29.09 0.0004399017    1.339    0.253
        18 -11.1883    236.4837    129.0155   2.4443076832e+01   8.9806822891e+00    0.2067964    0.1096683 -34.77  0.001038118    1.610    0.379
        19 -10.6083    134.5237    124.5183   4.3435012584e+01   2.9993907565e+01    0.1532276    0.1515528  72.03 -6.665644e-05    1.003    0.003
        20  -9.3723     13.4840    117.5052   8.0912808176e+01   5.0269400431e+01    0.1342406     0.116084 -79.71 -8.92547e-05    1.030    0.029
        21  -9.7133     91.7254    116.3859   5.3754330059e+01   4.0475903465e+01    0.2051094    0.1497031  27.89 0.0003422606    1.517    0.341
        22  -9.5886     96.1374    111.8581   5.1270285065e+01   4.0758332094e+01     0.208008    0.1828736 -27.68 0.0004707532    1.270    0.212
        23  -9.0168     79.5066    110.5332   5.6372420942e+01   4.4103246266e+01     0.151302     0.147564 -73.43 0.0008096015    1.024    0.023
        24  -9.5061     18.8034    108.3046   7.7906214901e+01   5.2259511437e+01    0.1728833    0.1254977   1.79  0.000927044    1.693    0.409
        25  -9.2867     12.9992    106.0244   7.9772457939e+01   5.3271361098e+01    0.1581536    0.1353028 -78.35 0.0009554537    1.015    0.015
        26 -10.0851      1.7832    104.9150   8.3802826396e+01   5.4226969527e+01    0.2110806    0.1464978 -54.72  0.001010753    1.365    0.267
        27 -11.9424    236.0641     95.5986   1.7329502386e+01   1.4202976261e+01    0.3245965    0.1919094 -47.80  0.001703616    1.547    0.354
        28 -10.4291    103.1393     95.8303   4.4832451984e+01   4.3154190539e+01    0.3315713    0.2082903 -56.00  0.001042755    1.680    0.405
        29 -10.7532     64.4864     96.2043   5.8237987656e+01   5.0144027711e+01    0.2912755     0.260986  13.88 0.0007900437    1.221    0.181
        30 -10.5844    132.7357     92.7125   3.5537795616e+01   3.7286635230e+01    0.2868299    0.2628585  87.56 0.0004419786    1.137    0.120
        31 -10.5184     11.9530     85.9663   7.7433505289e+01   5.8476722908e+01    0.2022044    0.1700419 -62.83 0.0003189362    1.043    0.041
        32  -9.4950      6.2036     85.4160   7.9793430462e+01   5.8949823748e+01    0.1646265    0.1158951  36.42 0.0004727133    1.586    0.370
        33 -10.8422    238.2165     81.4029   1.3936774496e+01   1.5922301113e+01    0.1655822    0.1211573  85.81 0.0009527072    1.683    0.406
        34 -11.2669     54.6272     78.7886   5.7512861194e+01   5.5890144676e+01    0.2604823     0.257069 -69.43 0.0003867564    1.055    0.052
        35 -10.1791    106.1518     76.8569   3.8181688491e+01   4.6670185175e+01    0.2131428     0.187954   2.09 0.0006360427    1.318    0.241
        36 -11.0864     38.2017     76.3433   6.3936277926e+01   5.8598081041e+01    0.4543825    0.2233942  38.54   0.00197567    2.173    0.540
        37 -10.3790    134.5393     75.4971   2.9972093471e+01   4.0297927210e+01    0.1539226    0.1492388 -88.72 0.0001418821    1.003    0.003
        38  -9.5033      3.9781     75.4924   7.9330798315e+01   6.1543417712e+01    0.1852852   0.08164395  43.34 0.0008103561    2.674    0.626
        39  -9.1733     89.9904     72.0000   4.1832476606e+01   5.1171924660e+01    0.2379514   0.08590779  43.98 0.0007757144    2.760    0.638
        40 -12.1471     63.8315     69.5275   5.0880535956e+01   5.6620635531e+01     0.322197    0.2500359  36.95  0.000120842    1.318    0.242
        41  -9.8640      7.7855     68.7874   7.6433447578e+01   6.2999156344e+01    0.1678636    0.1418073  72.01 0.0004918521    1.320    0.243
        42  -9.4226     83.0767     68.2225   4.2996843366e+01   5.3377029916e+01    0.1925239     0.122164  40.44 0.0003503684    1.582    0.368
        43  -9.5925    250.3156     65.3240   9.1660039841e+00   1.5939622545e+01    0.1137906   0.09395164   0.76 0.0006379029    1.666    0.400
        44  -9.8254    204.4757     65.5351   1.4373960134e+01   2.5266202920e+01     0.140596    0.1215364 -58.70 0.0002131577    1.037    0.036
        45 -10.2718      4.5955     63.6674   7.7056818151e+01   6.4407126769e+01    0.2304772    0.1614873 -59.48 0.0006025653    1.193    0.161
        46 -10.2241     99.3780     61.8665   3.5237402222e+01   5.1194703412e+01    0.3818138    0.2471059 -68.09  0.001532568    2.324    0.570
        47 -10.9615     43.5083     62.1620   5.7441865752e+01   6.1311073109e+01    0.2778801    0.2246128 -38.70 0.0006288657    1.163    0.140
        48  -9.0943    114.3423     61.2540   3.0586743437e+01   4.7834322248e+01    0.1527763    0.1167562  25.68 0.0002585477    1.580    0.367
        49 -11.5603     66.8554     60.1940   4.6437336024e+01   5.8135607917e+01    0.3519525    0.3146307  61.87  0.001231235    1.273    0.215
        50  -9.7285     56.9996     59.9921   5.0560645038e+01   5.9839989024e+01    0.1691241    0.1604485   0.46 0.0003397618    1.041    0.039
        51 -10.7452     22.4854     58.0500   6.6622406520e+01   6.4544421979e+01    0.2910372    0.2110977  62.41  0.001136282    1.812    0.448
        52 -11.1528     25.2252     55.9841   6.4611555840e+01   6.4776149188e+01    0.4441727    0.1978487 -66.83  0.001859309    2.428    0.588
        53 -11.0204    228.4898     57.8941   9.6955038434e+00   2.1221944750e+01    0.2222239    0.1613035 -63.10  0.001293608    1.299    0.230
        54  -9.7764    106.8826     56.4586   3.1021423714e+01   5.0472853447e+01    0.2774255    0.1873978  -9.81  0.001144712    2.229    0.551
        55 -11.5605    247.5780     53.6822   6.9202320583e+00   1.8018111772e+01    0.4254114   0.09218543 -39.69  0.001606878    3.106    0.678
        56  -9.9627     69.5127     51.5124   4.2088672515e+01   5.9410040328e+01    0.1435799    0.1353735   0.72 7.923802e-05    1.022    0.021
        57 -10.8622     34.8487     51.1022   5.8035475321e+01   6.4856728724e+01    0.3160347    0.2435282   8.32  0.001784342    1.369    0.269
        58 -10.7365     80.4230     49.6656   3.7138230425e+01   5.7597402838e+01    0.2729879     0.243233 -62.83 0.0007893946    1.276    0.217
        59 -10.3855      3.2763     59.1108   7.6867846856e+01   6.5562450296e+01    0.2197789    0.1596964 -28.01  0.001319216    1.381    0.276
        60 -11.4911     94.0291     48.5095   3.1995196546e+01   5.4847293021e+01    0.2807781     0.212647 -33.02 -0.0001388397    1.380    0.275
        61 -10.9412    248.7133     44.4806   4.8510188730e+00   1.8997204165e+01    0.2495504    0.1987028 -54.95   0.00168061    1.025    0.025
        62 -10.6809     38.4753     43.7783   5.3436762344e+01   6.5961812465e+01    0.3062572    0.2134018  45.33  0.001621347    1.700    0.412
        63 -10.5521     32.8226     43.8285   5.6478568158e+01   6.6656961015e+01    0.2503178    0.1625402  30.77 0.0007546528    1.607    0.378
        64 -10.3854    118.9385     42.7921   2.2819371676e+01   4.9805581509e+01     0.292688    0.2029691 -35.46 0.0004537991    1.507    0.336
        65 -11.0419     52.1493     46.2852   4.7618501169e+01   6.3464859009e+01    0.4069404    0.2540014  30.28  0.001801208    1.643    0.392
        66 -10.6553    225.4007     40.6061   5.9910553828e+00   2.4193971414e+01    0.2735394   0.05962842 -43.57 0.0009585786    3.334    0.700
        67  -9.1635    185.7314     41.6420   1.0560794852e+01   3.3095518896e+01    0.1317615    0.1091528  20.84 0.0004917475    1.640    0.390
        68 -10.4856    159.0318     39.3640   1.3716972766e+01   4.0063861703e+01    0.2505825    0.1976986 -48.05 0.0003173556    1.241    0.195
        69  -9.7969     96.0260     38.2329   2.7287083010e+01   5.6071716863e+01    0.1995385    0.1742633  51.17 0.0003173353    1.088    0.081
        70  -9.8869     18.1964     38.4157   6.2875390640e+01   6.9305761352e+01    0.1663038    0.1128624  32.81 0.0005589533    1.649    0.394
        71  -9.3783     27.6893     37.3620   5.6848112187e+01   6.8586259750e+01    0.1240174    0.1029367  74.11 0.0007040715    1.748    0.428
        72 -11.1019     40.4886     35.9037   4.9095910098e+01   6.7249731093e+01    0.4690365    0.1809121  36.62  0.001925324    2.615    0.618
        73 -10.1205    119.1614     35.1285   1.9940244646e+01   5.0866975898e+01    0.2119994    0.1893016  34.50 0.0004180045    1.190    0.159
        74 -10.2005    226.3227     32.9841   4.1428363173e+00   2.4964034580e+01    0.2280947   0.04067559 -47.07 0.0007050782    4.342    0.770
        75 -10.1204     51.5056     33.4440   4.2379272106e+01   6.5984752857e+01    0.1369163    0.1205708   0.86 -0.0002723667    1.059    0.055
        76 -10.0867     17.8323     31.3735   6.0438934968e+01   7.0806207145e+01    0.1885132    0.1599066 -50.67 0.0004650386    1.207    0.172
        77 -10.6042      4.1318     31.4095   6.9405942366e+01   7.1807069218e+01    0.2942429    0.1607362  38.72  0.001446632    2.305    0.566
        78  -9.5345    233.4890     31.4883   3.2192182861e+00   2.3648869776e+01     0.126589    0.1007818 -57.88 0.0008104737    1.004    0.004
        79 -10.0830     92.6407     31.1578   2.5370440574e+01   5.7913575179e+01    0.2216213    0.1855127  65.02 0.0003846838    1.220    0.180
        80  -9.7242     59.4729     29.5123   3.6834251605e+01   6.5228013192e+01    0.1365378     0.123497  10.24 0.0008099059    1.012    0.012
        81 -10.9511    153.3079     27.6800   1.0945462195e+01   4.3053483516e+01     0.240013    0.2233489  70.80 0.0002518912    1.105    0.095
        82  -9.9728    104.0028     28.3052   2.0991745343e+01   5.5575573808e+01    0.2017058    0.1662345  58.62 0.0002901496    1.130    0.115
        83  -9.8910    160.9131     27.2617   9.7104223850e+00   4.1153475336e+01    0.2031025    0.1663243  78.35 0.0006399269    1.131    0.116
        84 -10.1710    120.1579     26.2897   1.6402793947e+01   5.1779398574e+01    0.4018423    0.1615768  45.31  0.001027602    2.706    0.630
        85 -10.4724     46.9795     26.8841   4.1480640773e+01   6.7868595022e+01    0.1944606    0.1756532   0.43 0.0004337372    1.029    0.028
        86  -9.6100    128.8516     24.1476   1.3871742497e+01   4.9807375473e+01    0.1870687    0.1587003  40.47 0.0003057452    1.263    0.208
        87 -11.2040     97.8643     22.5618   2.0209631842e+01   5.7809273796e+01    0.3746947    0.2407055  69.31  0.001796816    1.631    0.387
        88 -10.4630     38.3359     22.8523   4.4048422219e+01   6.9911072306e+01    0.1976606    0.1671049  31.30 0.0003512985    1.235    0.190
        89  -9.1931     72.7084     22.2810   2.7976552618e+01   6.3630706183e+01    0.1261436    0.1083336 -80.20 0.0002272167    1.530    0.346
        90  -9.5931     66.5359     20.9174   2.9652154309e+01   6.5117650767e+01    0.1841431    0.1311023 -26.56 0.0003462989    1.463    0.316
        91  -9.0785    213.3131    211.6529   4.3913916327e+01   7.2103732117e-02    0.1018873   0.09811658  68.66 0.0007046659    1.715    0.417
        92  -9.3919    180.6040    210.1900   4.9824563734e+01   4.9456419011e+00    0.1699183    0.1108224 -26.35 0.0009447908    1.634    0.388
        93 -11.4844     55.9152     19.9026   3.3614671802e+01   6.7366652182e+01    0.3888245    0.2618958  49.66  0.001047296    1.532    0.347
        94 -11.4047     50.1495     19.5485   3.6126543156e+01   6.8481919089e+01    0.4411971    0.2109933  40.92  0.001663668    1.987    0.497
        95 -10.1327     84.7910     20.1290   2.2883417067e+01   6.1211656091e+01    0.1939232    0.1827433 -85.54 0.0004026412    1.202    0.168
        96  -9.2661    109.4790     19.5189   1.6090452618e+01   5.5296672150e+01    0.1414027    0.1282219  58.42  4.86272e-05    1.020    0.020
        97 -10.5107     14.8972     18.1601   5.6536962928e+01   7.3653420123e+01    0.2005163    0.1639456 -21.89 0.0004794511    1.021    0.021
        98  -9.5339      5.4913     19.4567   6.3993665611e+01   7.4180267422e+01    0.1199605   0.09983251 -29.25 0.0001781555    1.028    0.027
        99  -9.5706     23.6157     16.7575   4.9805087949e+01   7.2954390074e+01    0.1601613    0.1130033 -50.89  0.000367822    1.619    0.382
       100  -9.9055     86.0658     15.7195   2.0452599316e+01   6.1441057156e+01    0.1984859    0.1570029  52.69 0.0005596323    1.146    0.128
       101  -9.5966     19.9567     15.9709   5.1860190103e+01   7.3519645600e+01    0.1482222    0.1233205  -3.90 0.0003659812    1.065    0.061
       102 -10.0347    127.2678     14.4977   1.0636794134e+01   5.1296415830e+01    0.3962558     0.112907  64.34  0.001363911    2.906    0.656
       103  -9.7595     35.1628     13.8018   4.0920061284e+01   7.1841980612e+01    0.1770325    0.1319129   1.57 0.0004169116    1.323    0.244
       104  -9.4539    120.6045     12.7393   1.1159475903e+01   5.3195016553e+01    0.1496302   0.09064062  44.23 0.0006969589    1.708    0.415
       105 -10.8509    243.9507    179.9597   3.3262658233e+01   3.3146077611e-01    0.1668194     0.142096 -49.89   0.00102182    1.694    0.410
       106 -10.5955    224.1809    173.1582   3.5201717808e+01   4.1309047367e+00     0.163292    0.1436991 -37.58 0.0007290941    1.336    0.251
       107 -10.0664     21.4952    169.9813   8.3121655789e+01   3.6338579484e+01    0.1969648    0.1583121  43.15 0.0006625631    1.228    0.186
       108  -9.3266     32.2801     10.3324   4.0587737214e+01   7.2800560780e+01    0.1278594   0.08637973  -2.10 0.0007002586    1.608    0.378
       109 -10.0188      6.2170    160.5169   8.6604482171e+01   3.9939725230e+01    0.3059076     0.127456 -49.59  0.001297226    3.063    0.674
       110  -9.2849     10.6918    148.2743   8.4539082865e+01   4.2618329026e+01    0.1352038   0.08072426  60.27 0.0002903941    1.549    0.354
       111 -10.4489    240.4782    147.4961   2.7616784794e+01   5.5217886397e+00    0.1255706    0.1044458 -23.42 0.0008100924    1.030    0.029
       112  -9.1752     39.7358    147.3684   7.5783167033e+01   4.0128335070e+01    0.1487574   0.09290823  69.22 0.0006986029    1.654    0.395
       113  -9.8450     25.5118    146.4482   7.9989418078e+01   4.1816152028e+01    0.2510762    0.1302919  25.33 0.0008579118    2.067    0.516
       114  -9.5861     74.9897    143.9963   6.4546131766e+01   3.6335254722e+01    0.1733806    0.1613635  65.85 0.0009510227    1.023    0.023
       115  -9.8755      6.9795    142.5050   8.5213587153e+01   4.4341321425e+01    0.2095403    0.1468975 -85.36 0.0006036928    1.224    0.183
       116 -10.1908     28.6587    138.1433   7.8152805497e+01   4.3648981653e+01    0.2106435    0.1715892  52.63 0.0003447891    1.199    0.166
       117 -10.2547    246.4748    137.5187   2.4755538872e+01   6.0821125242e+00    0.1253218    0.1025779 -24.98 0.0001288414    1.003    0.003
       118  -9.8584     17.7389    132.1519   8.1002090980e+01   4.6161334586e+01    0.2037753    0.1562844  69.36 0.0005119079    1.219    0.180
