#   1 NUMBER                 Running object number                                     
#   2 MAG_AUTO               Kron-like elliptical aperture magnitude                    [mag]
#   3 X_IMAGE                Object position along x                                    [pixel]
#   4 Y_IMAGE                Object position along y                                    [pixel]
#   5 X_WORLD                Barycenter position along world x axis                     [deg]
#   6 Y_WORLD                Barycenter position along world y axis                     [deg]
#   7 A_WORLD                Profile RMS along major axis (world units)                 [deg]
#   8 B_WORLD                Profile RMS along minor axis (world units)                 [deg]
#   9 THETA_WORLD            Position angle (CCW/world-x)                               [deg]
#  10 FWHM_WORLD             FWHM assuming a gaussian core                              [deg]
#  11 ELONGATION             A_IMAGE/B_IMAGE                                           
#  12 ELLIPTICITY            1 - B_IMAGE/A_IMAGE                                       
         1 -11.3515    215.3826     22.1634   4.4812921570e+01   2.7510703367e+01    0.7367073    0.3715761  32.95  0.001734322    2.568    0.611
         2 -11.6674    227.9715      8.5525   3.9581872599e+01   2.5646015318e+01     0.754776    0.6321083 -38.70   0.00286357    1.097    0.089
         3  -9.8560    182.9352    247.0453   9.7253530263e+01   6.5159302978e+00    0.4198755    0.1908378  30.43  0.002673972    1.969    0.492
         4  -9.7250    142.5921    249.2996   1.0357301969e+02   1.1640161106e+01    0.3899599    0.1386105  34.80  0.002126765    2.595    0.615
         5 -11.8043     28.3408    198.6475   1.1918393193e+02   3.2398066442e+01    0.6996543    0.2441545  52.92  0.004235299    1.997    0.499
         6 -11.6561     60.1834    184.4810   1.1236342015e+02   3.1355950763e+01    0.4751014    0.4072661  66.34  0.003142296    1.190    0.160
         7 -11.7829     32.3502    213.9447   1.1915159091e+02   2.9556117386e+01    0.4425461    0.3634907  41.64   0.00223915    1.482    0.325
         8 -14.4714     45.9874    202.8129   1.1622553025e+02   2.9896695291e+01     3.313579     1.137387  45.73   0.01949415    2.020    0.505
         9 -13.2907     94.8935    213.1822   1.0826373744e+02   2.2435655167e+01     1.235986    0.8357369  85.50  0.008070774    1.688    0.408
        10 -11.9233     67.8314    247.6395   1.1501748414e+02   2.0996722288e+01    0.6845628    0.3098607 -62.00  0.004919125    2.988    0.665
        11 -12.7690     58.0846    245.6830   1.1642375492e+02   2.2322018212e+01    0.6518278    0.4041867  54.47  0.003766154    1.065    0.061
        12 -13.3236     81.6485    231.9428   1.1190063923e+02   2.1467519041e+01     1.151154    0.4771082  47.00  0.007224116    1.657    0.397
        13 -14.0436     83.1612    221.3800   1.1092251451e+02   2.2748179547e+01     1.545563    0.9395132  68.68  0.009734144    1.573    0.364
        14 -10.1627     36.3300    241.5003   1.1960131991e+02   2.5149704066e+01    0.2009055    0.1654404 -85.25  0.001526238    1.586    0.369
        15 -11.5588     35.5527    249.6512   1.2001142457e+02   2.4133746771e+01    0.5096067    0.3060176  46.69  0.003577718    1.229    0.186
        16  -9.9401     26.2920    250.4305   1.2141283206e+02   2.4930006435e+01    0.3129607   0.08740108  40.37  0.002019884    2.291    0.563
        17 -10.4335     29.9479    246.8197   1.2075611015e+02   2.5058791824e+01    0.2280255    0.1592682  58.50  0.001250559    1.124    0.111
        18 -12.8152     11.3819    207.9206   1.2249008131e+02   3.2484604474e+01    0.8675908    0.5771184  51.97  0.006217074    1.186    0.157
        19 -12.4571     19.7958    226.0049   1.2166345953e+02   2.8951230124e+01    0.6060992    0.3551413  62.90  0.003361424    1.168    0.144
        20 -11.7094      4.8453    248.5773   1.2450536777e+02   2.7128124109e+01    0.3548541    0.1668345  49.12  0.001874813    1.320    0.243
        21 -13.5867      7.8464    239.3016   1.2386979526e+02   2.8132150644e+01    0.9911947    0.4272307  63.32  0.006114596    1.575    0.365
        22 -12.2902      2.8689    224.9773   1.2431863892e+02   3.0618294497e+01    0.6047405    0.3092661  83.68  0.004919691    1.683    0.406
        23 -11.7160    246.5754    216.9076   8.4183105862e+01   4.0199475724e-01      0.53589    0.4181843  25.26  0.004501702    1.259    0.206
        24 -10.8925    238.9139    239.7881   8.8332533744e+01  -2.7178721481e-01    0.7229626    0.1875689  33.08   0.00353195    3.238    0.691
        25 -11.7189    246.3848    232.8842   8.6405749860e+01  -7.4311790889e-01    0.7873678    0.3817935  39.52  0.005535159    1.603    0.376
        26 -11.5279    128.5675    211.6400   1.0224803081e+02   1.8040622761e+01    0.4839267    0.2497109 -44.13  0.002950647    2.763    0.638
        27 -12.9946    139.4389    227.8702   1.0207045381e+02   1.4465460000e+01     1.949934    0.7685664  40.75   0.01136852    1.860    0.462
        28 -11.8441    154.3409    227.4951   9.9611655651e+01   1.2427112861e+01    0.5185171    0.4693856 -78.81  0.004537039    1.544    0.352
        29 -10.5265     59.4104    228.6638   1.1534872766e+02   2.4500046539e+01    0.2863232    0.1467956 -78.14  0.002084364    2.222    0.550
        30 -10.2433     34.4059    229.3828   1.1944206555e+02   2.7043832327e+01    0.1876393     0.107878  59.63 0.0008141192    1.193    0.162
        31 -12.1702    116.7330    221.0700   1.0519714605e+02   1.8435389411e+01    0.6273412    0.5059181   5.18   0.00477949    1.931    0.482
        32  -9.6635     47.2565    226.6596   1.1723967125e+02   2.6111488470e+01    0.1935569    0.1544803  -2.81  0.001470289    2.730    0.634
        33 -11.6826    113.3351    216.7744   1.0538151773e+02   1.9472315508e+01    0.5009086    0.3415978  39.09  0.003594272    1.266    0.210
        34  -8.4037    208.3223    216.3495   8.9733022345e+01   5.8136973402e+00     0.110832   0.06416466  19.34 0.0007048805    1.745    0.427
        35 -10.6768    248.8893    190.6316   7.9852383759e+01   2.1882356279e+00    0.4462275    0.1979818 -19.76  0.002580054    2.388    0.581
        36 -11.6367    247.5192    203.2376   8.2031139579e+01   1.3426693038e+00    0.9758761    0.3839839  30.42  0.005440951    2.147    0.534
        37 -10.8219    216.6571    227.6260   8.9964232129e+01   3.6338612612e+00     0.421703    0.1823661 -22.17  0.002502294    3.181    0.686
        38 -10.4781    134.6736    199.4346   9.9823337368e+01   1.8809949801e+01    0.3029468    0.2872599 -51.19  0.002361326    1.356    0.263
        39  -9.8319    114.9209    200.6805   1.0352080912e+02   2.1522465300e+01    0.2710935    0.1574331  53.44  0.001731594    1.454    0.312
        40 -10.6907     73.3788    193.1229   1.1051577738e+02   2.8289914946e+01    0.3059089    0.2459165 -67.74   0.00236829    1.522    0.343
        41 -11.2439     25.0281    232.6844   1.2104941921e+02   2.7487955169e+01    0.2094488    0.1301481  59.79 0.0005538657    1.060    0.057
        42 -11.2618    130.4482    181.9368   9.8445175872e+01   2.2005032516e+01    0.6459419    0.4754213  -4.84  0.003813851    2.333    0.571
        43 -12.1383    247.6289    178.4575   7.8005819171e+01   3.4369759171e+00    0.9209535    0.5407202  25.97  0.005935189    1.390    0.280
        44  -9.9300      1.6379    181.9835   1.2344498604e+02   3.7638195508e+01    0.2846677   0.08676548 -81.68  0.001580986    2.891    0.654
        45  -9.5650      2.1592    175.9932   1.2316534561e+02   3.8652601997e+01    0.2463089    0.1065477 -88.52  0.001585309    1.963    0.490
        46 -10.3491     66.6012    178.1145   1.1057794065e+02   3.1692939672e+01    0.2689866    0.2221529 -45.82 0.0007753207    1.784    0.439
        47 -11.5806     72.7543    175.8217   1.0913340601e+02   3.1324666990e+01     0.574752    0.2640152 -72.27    0.0031735    2.374    0.579
        48  -9.6568    114.8509    175.4709   1.0064153795e+02   2.5445541661e+01    0.2178738    0.2039871  79.57  0.001182769    1.182    0.154
        49 -12.5163    246.1573    157.5276   7.4458686651e+01   5.6330225946e+00      1.00064    0.5455878   3.26  0.005376538    2.070    0.517
        50 -10.2128     76.1702    167.5082   1.0761683015e+02   3.2377377012e+01    0.2602064    0.1894385  44.62  0.001042017    1.272    0.214
        51 -11.6011     63.3546    164.2639   1.1000292765e+02   3.4617664223e+01    0.3958992    0.2726797 -43.27  0.001414515    2.243    0.554
        52 -11.0925     83.3230    161.5478   1.0545365781e+02   3.2506458966e+01    0.5096602    0.3411826 -70.75  0.002092656    1.564    0.361
        53 -10.4137     13.8361    162.0109   1.2029911305e+02   4.0244757381e+01    0.3079885     0.112519  81.30  0.001605756    2.571    0.611
        54 -10.1437     73.4194    155.5919   1.0693260594e+02   3.4975999947e+01    0.2083605    0.1478577 -77.96   0.00108712    1.397    0.284
        55 -11.0986      9.9061    154.0547   1.2075702596e+02   4.2101352901e+01    0.3612633    0.1401906  69.44  0.001988094    2.200    0.545
        56 -11.3872     70.5139    145.4741   1.0642263210e+02   3.7344481299e+01    0.3814537    0.3550625  32.05  0.001790301    1.380    0.275
        57 -11.6961     67.4996    142.5207   1.0677242921e+02   3.8334376763e+01    0.4718696     0.310916  50.79  0.001846346    1.352    0.260
        58 -12.5066      2.6330    124.7398   1.2099014716e+02   4.8585599124e+01     2.202749    0.3655058 -84.07  0.007173473    5.774    0.827
        59 -11.1891     58.6364    132.4876   1.0770104959e+02   4.1530778386e+01     0.409682    0.2110358 -87.42  0.002036952    2.171    0.539
        60 -10.4200     85.5701    144.1272   1.0277585165e+02   3.5520661346e+01    0.3027966    0.2491461  68.64 0.0004728249    1.057    0.054
        61 -10.7009    248.0634    133.2927   6.9370152906e+01   7.7650974649e+00    0.3842921    0.1953194  14.56  0.001770781    2.495    0.599
        62  -8.6385    109.0120    133.2402   9.5662591462e+01   3.3980716291e+01    0.1765877    0.1025171  43.61 0.0008835659    1.614    0.380
        63  -8.8779     96.0539    129.6497   9.8118719142e+01   3.6819833825e+01    0.2036438    0.1786111 -31.93 0.0005012373    1.480    0.324
        64 -11.2299     12.0153    123.6733   1.1858103050e+02   4.8112810914e+01    0.5007516    0.3052427  66.36  0.003288808    1.357    0.263
        65 -10.8626     83.2640    110.6271   9.8025427201e+01   4.2816209737e+01    0.5793506    0.1570392 -56.76  0.002026591    3.463    0.711
        66  -7.8073    106.3387    120.7590   9.4035223728e+01   3.6915346518e+01    0.1347979   0.09564622  68.99 0.0002696085    1.553    0.356
        67 -10.6830      8.6005    116.3869   1.1897552676e+02   4.9934123137e+01    0.3265558    0.3128762  85.05  0.002279174    1.354    0.261
        68  -8.9831     52.5194     90.4597   1.0317743513e+02   5.1591574148e+01    0.1299373    0.1112955 -82.78   0.00011565    1.005    0.005
        69 -10.0366     59.4872     76.4062   9.8049291267e+01   5.3943436723e+01    0.3482301    0.1149956 -58.82  0.001328064    2.626    0.619
        70  -9.5555     32.7366     53.8368   1.0253212263e+02   6.2283710434e+01    0.3086936   0.09900679 -66.61  0.001188468    2.775    0.640
        71  -8.7731     58.3183     43.6744   8.9073280404e+01   6.1482237684e+01     0.135269    0.1034308 -87.75 0.0007045551    1.676    0.403
        72  -8.8095     41.3078     42.6458   9.5788445592e+01   6.3936086410e+01    0.1317191   0.09585896  87.18 0.0007042649    1.720    0.419
        73 -12.2925     80.3712    247.1120   1.1304763834e+02   1.9636575081e+01     1.006711    0.2988455  47.19  0.006018193    2.163    0.538
        74  -8.7860     33.0000     38.9743   9.8312233233e+01   6.5668523643e+01    0.2232614    0.0617961 -60.43 0.0008075916    2.978    0.664
        75 -10.0510    200.6031     34.4182   5.0360983061e+01   2.9978205177e+01    0.2955596    0.2589775  12.81  0.001089753    1.175    0.149
        76 -11.2618    209.4366     30.1816   4.7940191216e+01   2.8181709946e+01    0.8060485    0.5724708  69.23  0.003971569    1.514    0.339
        77  -9.6370    224.1632    248.0879   9.1404255127e+01   1.0188919898e+00    0.2713368    0.1480681  30.84  0.002089456    1.251    0.201
        78  -9.5563     13.5776     24.6369   1.0347415110e+02   7.0575750070e+01    0.2680297   0.04357625 -53.95 0.0009559995    3.463    0.711
