#   1 NUMBER                 Running object number                                     
#   2 MAG_AUTO               Kron-like elliptical aperture magnitude                    [mag]
#   3 X_IMAGE                Object position along x                                    [pixel]
#   4 Y_IMAGE                Object position along y                                    [pixel]
#   5 X_WORLD                Barycenter position along world x axis                     [deg]
#   6 Y_WORLD                Barycenter position along world y axis                     [deg]
#   7 A_WORLD                Profile RMS along major axis (world units)                 [deg]
#   8 B_WORLD                Profile RMS along minor axis (world units)                 [deg]
#   9 THETA_WORLD            Position angle (CCW/world-x)                               [deg]
#  10 FWHM_WORLD             FWHM assuming a gaussian core                              [deg]
#  11 ELONGATION             A_IMAGE/B_IMAGE                                           
#  12 ELLIPTICITY            1 - B_IMAGE/A_IMAGE                                       
         1 -14.4344    158.8137     53.5204   8.0972562446e+01   3.8780999928e+01     1.438975     1.281878  -5.92  0.005067118    1.283    0.220
         2 -14.5878    170.9112     37.6545   7.4157922025e+01   3.8013811382e+01     1.109781    0.9982116  11.35  0.004061433    1.322    0.244
         3 -14.4261    187.3319      6.5880   6.3477298076e+01   3.7507517680e+01     1.012576    0.8122787  76.95  0.004667999    1.052    0.050
         4 -11.3885     91.6953      4.3651   7.9813984376e+01   5.9534173201e+01    0.2615143    0.1515052  68.29   0.00132824    2.335    0.572
         5 -11.6654    210.6866      2.4177   5.9966975183e+01   3.2334680205e+01    0.2497305    0.1078323  78.23  0.001136214    2.113    0.527
         6 -11.0397    175.7538    234.1158   1.1880727721e+02  -9.3594818403e-02    0.2336251    0.1618995 -42.41  0.001310722    1.680    0.405
         7 -19.1010     74.2811    242.0690   1.3927840852e+02   1.5423635692e+01      6.96468     5.932918  77.03   0.04566313    1.180    0.153
         8 -11.1293     10.2385    215.5105   1.4851018097e+02   2.8587921359e+01    0.2836797    0.1289892 -53.75  0.001475065    3.130    0.681
         9 -11.2355    175.0673    193.3967   1.1192544925e+02   7.3754158472e+00    0.2698679        0.211 -60.10 0.0007364905    1.467    0.318
        10 -10.4936    180.0218    192.5143   1.1071443334e+02   6.5633777174e+00     0.262365    0.2078295 -69.86 0.0008655519    1.580    0.367
        11 -11.9041    175.5457    186.4367   1.1048606900e+02   8.6501684451e+00    0.6098095    0.3667735 -68.69  0.002381133    2.760    0.638
        12 -12.7540    167.5325    188.8706   1.1267334622e+02   9.7762849769e+00    0.5861012    0.4507321  -7.50  0.002842976    1.787    0.440
        13 -11.5509    163.4931    188.4728   1.1347061558e+02   1.0666861984e+01    0.2658401    0.2238789 -51.51 0.0006522823    1.260    0.206
        14 -13.1776    153.5240    185.8945   1.1516576356e+02   1.3195730347e+01    0.7108209    0.4076768 -66.32  0.002859741    2.420    0.587
        15 -19.2968     53.4902     90.6034   1.2117320798e+02   5.2078016981e+01     18.71281     1.309974 -55.22   0.03260682   13.369    0.925
        16 -12.4537    163.2443    203.5161   1.1627062132e+02   7.7211010156e+00    0.5714288    0.2636569 -50.38  0.001235144    2.400    0.583
        17 -12.2115    205.5881    179.7982   1.0292403853e+02   3.8797451402e+00    0.5041828    0.3439482 -76.10  0.002088623    2.721    0.633
        18 -11.0734    209.7359    176.4901   1.0141308606e+02   3.6689356031e+00     0.524921    0.3526302 -14.32  0.001522315    1.957    0.489
        19 -12.5506    145.8378    189.2694   1.1748602971e+02   1.4004674763e+01    0.3161378     0.267888  35.73  0.001025093    1.217    0.178
        20 -10.4521    171.0087    176.8466   1.0955725828e+02   1.1521061878e+01    0.2301861    0.1996813  72.05 0.0005168469    1.261    0.207
        21 -12.5419    195.7986    170.9595   1.0306846662e+02   7.5551829119e+00    0.6358286    0.3906597 -45.52  0.002260992    1.672    0.402
        22 -11.4555    193.7192    165.1056   1.0224767927e+02   9.1446179730e+00     0.388914    0.3364556 -30.83  0.001249802    1.181    0.153
        23  -9.9912    203.0233    172.0324   1.0182049303e+02   5.8614289336e+00    0.2228783    0.1838219 -87.65 0.0006403805    1.630    0.387
        24 -12.3711    160.6623    198.2991   1.1589166372e+02   9.2476198582e+00    0.4387574    0.2381431 -45.97  0.001670147    2.001    0.500
        25  99.0000     27.9296    206.6417   1.4467828906e+02   2.8570442940e+01    0.2773746    0.1001163 -72.32  0.001341439    2.332    0.571
        26 -11.7911    230.2398    166.9087   9.5465185965e+01   1.3860441290e+00    0.4264844    0.1777685 -49.50  0.001539215    2.976    0.664
        27 -10.4705    201.0215    165.0304   1.0073021077e+02   7.6265653811e+00    0.3913789    0.1945134 -56.55  0.001390512    2.900    0.655
        28 -10.8348     25.1291    165.6295   1.4139489229e+02   3.7887844396e+01    0.2163215    0.1908494  -5.35 0.0009736946    1.690    0.408
        29 -10.2322    222.7608    162.3695   9.5889077751e+01   3.6778247097e+00    0.2714437    0.1691687 -50.14  0.001020408    1.756    0.431
        30 -10.8701     33.0313    206.4463   1.4370145684e+02   2.8040552642e+01    0.1602859    0.1106736  40.85 0.0004008272    1.642    0.391
        31 -12.1896     24.7694    156.7187   1.4048525452e+02   3.9953397331e+01    0.5386004    0.3424209  53.11  0.002070038    1.661    0.398
        32 -11.1981     28.0183    151.2935   1.3908228789e+02   4.0890794008e+01    0.3668486    0.2012341  60.74  0.001930626    2.063    0.515
        33 -11.7960    120.9208    157.1499   1.1715353093e+02   2.6050567677e+01    0.2721757    0.2275515 -41.38 0.0006760446    1.309    0.236
        34 -13.9813    133.9678    145.8636   1.1156707263e+02   2.6066394353e+01      1.58645    0.4359235 -53.70  0.004234199    4.308    0.768
        35 -12.4702    135.0963    120.3151   1.0525084058e+02   3.1621583903e+01    0.4559986    0.2995452 -41.13  0.001380955    1.551    0.355
        36 -11.3853    161.1384    153.1545   1.0673800470e+02   1.8661903167e+01    0.2370531    0.2189025   5.20 0.0008171169    1.221    0.181
        37 -11.4686    156.7929    202.3243   1.1742753575e+02   9.1996130928e+00     0.288529    0.2158876  88.04 0.0008521514    1.768    0.434
        38 -10.9299     16.5981    150.2045   1.4162814022e+02   4.2168133617e+01    0.2119676    0.1920312  78.83  0.000939487    1.225    0.184
        39 -13.0942    144.3236    145.7493   1.0902530611e+02   2.3925685020e+01    0.5863116    0.4213198 -76.97  0.002556875    1.786    0.440
        40 -12.4132    142.8273    140.1690   1.0811498602e+02   2.5505023736e+01    0.4517931    0.3202452 -68.90  0.001981636    1.677    0.404
        41 -11.7318    174.2399    148.5456   1.0274948964e+02   1.6782045838e+01    0.3899018    0.3289353 -68.83   0.00131899    1.306    0.234
        42 -11.9627    151.3512    139.7560   1.0597082112e+02   2.3753814446e+01    0.4438826      0.29938  11.95  0.001672033    2.603    0.616
        43 -10.6609     22.8733    140.8671   1.3901022884e+02   4.3760018422e+01    0.1654222     0.124314  80.62 0.0003888185    1.303    0.233
        44 -12.4153      5.1766    139.3906   1.4310263146e+02   4.5492782874e+01    0.4734612    0.4190311 -72.13    0.0023254    1.206    0.171
        45 -13.1736      3.0044    126.4986   1.4215857272e+02   4.8514896874e+01     1.197037    0.3470583 -68.88   0.00534847    2.489    0.598
        46 -11.8188    160.4965    127.9676   1.0099206360e+02   2.4301480412e+01    0.4446725    0.3381215 -56.80  0.002055766    1.371    0.271
        47 -10.6510     21.2803    235.5009   1.4793757550e+02   2.3471952795e+01    0.1139374   0.09546728  62.05 0.0008810645    1.386    0.279
        48 -12.2404      2.4418    112.4001   1.4051606434e+02   5.1665021497e+01     0.334823    0.2226985 -63.96  0.001507955    1.136    0.120
        49 -13.1640    135.8182    128.0892   1.0698789360e+02   2.9728478150e+01      1.18789    0.2714997 -50.38  0.002908444    4.910    0.796
        50 -11.2709    113.6276    118.5230   1.1041182485e+02   3.6420471872e+01    0.2721809    0.2517236  89.22 0.0005491768    1.132    0.117
        51 -12.0950      9.2896    111.3591   1.3850484244e+02   5.1465988677e+01    0.3915751    0.2166885   2.03  0.002163391    2.763    0.638
        52 -10.8856    198.9417    222.4035   1.1233352587e+02  -2.3183103468e+00    0.1894096    0.1853685 -38.07 0.0003894327    1.217    0.178
        53 -10.9201    168.2025    113.1599   9.5500797669e+01   2.5651305186e+01    0.4436736    0.2998152 -83.37  0.001390347    2.341    0.573
        54 -11.3736    134.5698    105.7640   1.0160704259e+02   3.4900851785e+01    0.5427944    0.1462188 -46.39  0.001518505    3.752    0.733
        55 -13.0523    139.2566    200.6793   1.2090625976e+02   1.2883821058e+01    0.4447202    0.3984409 -49.31  0.001482753    1.246    0.197
        56 -10.9371    205.3292    110.2801   8.7146222719e+01   1.7433280556e+01    0.3526336    0.2638603  43.49  0.001062068    1.435    0.303
        57 -11.9753    117.9875    108.0508   1.0657173128e+02   3.7892764329e+01    0.4881201    0.2448018 -35.54  0.001813248    2.365    0.577
        58  -9.8324    170.3207    136.6680   1.0085437967e+02   2.0196425357e+01    0.1630093    0.1249799 -85.79 0.0006017684    1.697    0.411
        59  -9.9737    124.3237     81.4322   9.7419249860e+01   4.2047668009e+01    0.2688342    0.1414118  42.97 0.0007854992    1.916    0.478
        60 -10.5224     93.0988     79.1130   1.0558181614e+02   4.8630820686e+01    0.2088776    0.1978315 -26.81 0.0005198407    1.049    0.046
        61 -10.7882    196.9222    246.5791   1.1669612428e+02  -5.6781852635e+00    0.2566247    0.1777745 -33.20  0.001533982    1.680    0.405
        62 -11.0549     13.4018    244.5695   1.4974595384e+02   2.2612136548e+01      0.29629    0.0466597 -66.74  0.001183441    4.897    0.796
        63 -11.1797     14.2494     58.9931   1.2670477100e+02   6.2078181629e+01    0.2970853    0.1671141 -26.42  0.001768165    1.771    0.435
        64 -12.8115    174.8230     30.7238   7.1585426251e+01   3.7920009008e+01    0.3831728    0.3316706  39.77 0.0009216114    1.269    0.212
        65  -9.7397    228.0000    232.4430   1.0857230293e+02  -8.7775802955e+00    0.2461666   0.06899323 -38.56 0.0009244242    3.852    0.740
        66 -13.1147    135.8377    196.7152   1.2098501383e+02   1.4356611543e+01    0.5841497    0.4070298 -14.41  0.002495482    2.710    0.631
        67 -10.6835    130.9191     28.7517   7.9151805362e+01   4.8728008260e+01    0.2939874     0.173293  65.98  0.001016336    1.793    0.442
        68 -10.9555      5.3215    199.0615   1.4827460140e+02   3.2442128964e+01    0.1228301    0.0755486  85.93 0.0001706332    1.234    0.189
        69 -12.2495    154.0740    195.7451   1.1684990386e+02   1.1048852530e+01    0.4084815    0.2955758 -82.99  0.001575778    1.858    0.462
