#   1 NUMBER                 Running object number                                     
#   2 MAG_AUTO               Kron-like elliptical aperture magnitude                    [mag]
#   3 X_IMAGE                Object position along x                                    [pixel]
#   4 Y_IMAGE                Object position along y                                    [pixel]
#   5 X_WORLD                Barycenter position along world x axis                     [deg]
#   6 Y_WORLD                Barycenter position along world y axis                     [deg]
#   7 A_WORLD                Profile RMS along major axis (world units)                 [deg]
#   8 B_WORLD                Profile RMS along minor axis (world units)                 [deg]
#   9 THETA_WORLD            Position angle (CCW/world-x)                               [deg]
#  10 FWHM_WORLD             FWHM assuming a gaussian core                              [deg]
#  11 ELONGATION             A_IMAGE/B_IMAGE                                           
#  12 ELLIPTICITY            1 - B_IMAGE/A_IMAGE                                       
         1 -10.6921     30.6090     23.0260   8.7109381096e+01   6.8380022536e+01    0.4652678    0.2510814 -29.03  0.001928482    1.595    0.373
         2 -11.3335    111.4990     19.1337   5.5855983250e+01   5.4682222428e+01    0.5391822    0.3383754  61.84  0.002689506    1.633    0.388
         3 -11.2120    101.5485     16.1183   5.7172004760e+01   5.7235071595e+01    0.4626699    0.3288269   7.83  0.001692584    1.474    0.322
         4 -11.0783    149.8406     18.5381   4.7787156295e+01   4.5490270327e+01    0.4201456    0.3619847  35.45  0.000607132    1.177    0.150
         5 -10.1140    154.5312     18.0834   4.6858689878e+01   4.4363135098e+01    0.4893091    0.2271948 -10.99   0.00188469    3.120    0.679
         6 -10.9155     38.7947     17.6417   8.0663092258e+01   6.8246509596e+01    0.4165116    0.2142455  33.11 0.0007115217    1.996    0.499
         7 -10.3199     84.9793     14.4686   6.1194677733e+01   6.0913595003e+01    0.3498631     0.203982 -39.27  0.001446852    2.074    0.518
         8  -8.9848     57.3932      7.2535   6.7388539993e+01   6.6814491264e+01    0.2100471    0.1104259 -29.98 0.0006508317    1.908    0.476
         9 -10.5691     57.5511     13.3061   7.0336932867e+01   6.6086882966e+01    0.4908883    0.3234585  16.88  0.001807708    1.410    0.291
        10 -10.8267     10.2142     14.7967   9.4118578039e+01   7.1593623937e+01    0.4361436     0.314394 -45.14  0.003010841    1.427    0.299
        11  -9.8661     16.8188      3.4929   8.4839068186e+01   7.2751934822e+01    0.2594793    0.2007573 -36.20  0.001317306    1.540    0.350
        12 -10.9466     12.2044      6.8911   8.9244050597e+01   7.2684687327e+01    0.4357248     0.336026 -32.01  0.003179017    1.312    0.238
        13  -9.8254      7.3198      3.6373   9.0461586599e+01   7.3578334625e+01     0.221528    0.1907965 -10.82  0.001373831    1.376    0.273
        14 -10.0108     21.8263     15.3714   8.8070446726e+01   7.0499861240e+01    0.3298517    0.2068236  20.97  0.002091678    1.634    0.388
        15 -10.0951     19.6528     10.8540   8.7054432265e+01   7.1404882065e+01    0.2174901    0.1676072  12.68 0.0004158767    1.344    0.256
        16  -9.5196    187.6577      8.5068   3.9544369905e+01   3.7045016337e+01    0.3815056    0.1934395 -19.63  0.001180974    2.374    0.579
        17 -10.8830    181.4160     13.2859   4.1598873449e+01   3.8114759882e+01    0.4867715    0.2984992  46.86  0.001494613    1.726    0.421
        18 -10.0579    185.6950     13.3541   4.1100040862e+01   3.7046441359e+01    0.2627951    0.1988552 -63.36  0.001342319    1.330    0.248
        19  -9.0493    144.1630     14.3448   4.7365800894e+01   4.7325287051e+01    0.2168856    0.1811803  14.11 0.0007142276    1.317    0.241
        20 -11.4771    122.2451     11.3620   5.0448594156e+01   5.2946243846e+01    0.4844142    0.3208963  44.76  0.001254795    1.342    0.255
        21  -9.4531    127.8261      4.9886   4.7010211623e+01   5.2167540642e+01    0.2704941    0.1780828  36.33  0.001436032    1.481    0.325
        22  -9.7000     79.0514     13.8221   6.2782583182e+01   6.2160913775e+01    0.2887488    0.2524976  20.28  0.000968039    1.095    0.087
        23 -10.3201    210.5411      9.7900   3.7536976868e+01   3.1392040405e+01    0.3766093    0.2814872 -66.12   0.00224196    1.237    0.192
        24  -9.5909    156.5847     10.1939   4.4026933362e+01   4.4622848484e+01    0.2983875    0.1967161  37.96   0.00153386    1.626    0.385
        25  -8.7734    153.1439      9.1573   4.4211392708e+01   4.5577749771e+01    0.1918215     0.156526  66.22            0    1.097    0.089
        26  -8.8943    129.5655     10.2758   4.8595428598e+01   5.1288625388e+01    0.1668126    0.1275567   6.63 0.0005709257    1.450    0.310
        27  -9.8931     47.6961      8.8234   7.2211966712e+01   6.8181576571e+01    0.3256337    0.2003763   9.22  0.001409609    1.605    0.377
        28  -9.0548    216.2741      8.0178   3.6583256717e+01   3.0231303237e+01    0.1770249    0.1531665 -60.22 0.0007426607    1.095    0.086
        29  -8.4397     40.2396      8.6386   7.5480903995e+01   6.9283008332e+01    0.1057285   0.08783046 -34.79 0.0003814746    1.595    0.373
        30 -10.3033     25.3904      6.5749   8.1786449284e+01   7.1419056770e+01    0.3444213    0.1674595 -35.69  0.001235894    1.838    0.456
        31  -9.0448     22.5204      3.5325   8.1696332463e+01   7.2150805212e+01    0.1693669    0.1202943  -2.21 0.0007748887    1.120    0.107
        32  -9.3782     79.1301      6.4702   5.9372515940e+01   6.2895818671e+01    0.3441463     0.176085  32.51  0.001692694    1.840    0.457
        33  -9.4683      1.9263      5.5425   9.4666359065e+01   7.3678526219e+01    0.3304951    0.1084182 -44.00    0.0016972    2.265    0.558
        34  -9.1237    107.9611      5.8524   5.1408834142e+01   5.6766534281e+01     0.252293    0.1767515 -36.78  0.001395466    1.665    0.399
        35  -9.3466    103.5158      1.8081   5.0778172446e+01   5.8105888221e+01    0.3355033    0.1973899  80.24  0.001477683    2.418    0.586
        36  -8.8170    102.5397      8.2951   5.3688107345e+01   5.7776228378e+01    0.1765415    0.1197683   4.01 0.0009445801    1.583    0.368
        37 -10.6847     38.3454      4.6148   7.4243820928e+01   7.0042803542e+01    0.2746947    0.1883728 -12.10 0.0001088475    1.218    0.179
        38  -9.4853     84.4776      1.2558   5.5383510763e+01   6.2273157767e+01    0.2016889   0.09818199  55.15  1.48745e-05    1.883    0.469
        39  -9.1300    175.0228      3.1107   3.9478332864e+01   4.0665863173e+01    0.1867065    0.1688953  86.77 0.0003453068    1.034    0.033
        40 -10.2896     89.6535      2.7630   5.4635872996e+01   6.1062666606e+01    0.4198176    0.2828928  82.93  0.001762062    2.359    0.576
        41  -8.5423    242.1978      1.3462   3.3066046989e+01   2.5117106055e+01    0.1634855   0.09581058 -86.44 0.0004912631    1.600    0.375
        42  -9.3531    189.2260      1.3549   3.7454954792e+01   3.7330791718e+01    0.1822731    0.1089518  86.07 0.0005160688    1.599    0.374
        43  -9.6728     49.3160    112.2786   1.0614956317e+02   4.7479537552e+01    0.3174584    0.2124447  12.96  0.001627792    1.916    0.478
        44  -8.7636     98.3806    117.3437   9.2247876082e+01   3.9239689957e+01    0.2203736    0.1699813 -18.05 0.0006810575    1.587    0.370
        45  -9.2247     28.2267    109.2849   1.1222036253e+02   5.0225288703e+01    0.2997372    0.1433131 -78.59  0.001320774    2.246    0.555
        46 -10.0767     20.3629    109.7934   1.1473454290e+02   5.0709888687e+01    0.4608251    0.1015052  39.30  0.001583353    5.011    0.800
        47  -8.7292    100.2242    108.7997   8.9558399373e+01   4.0928141617e+01    0.2062869    0.1750676 -14.19 0.0005813491    1.310    0.236
        48 -10.6013      6.4937    107.6273   1.1865037367e+02   5.2119733844e+01    0.3651551    0.2123113  84.91 0.0008409587    1.830    0.454
        49 -10.1993      8.8112    103.4142   1.1737941950e+02   5.2983987716e+01    0.3613926    0.2247077 -50.89   0.00189979    1.405    0.288
        50  -8.5466     45.4283    106.1983   1.0619233601e+02   4.9374723229e+01    0.1836382    0.1193103 -72.89 0.0003775406    1.532    0.347
        51  -8.4600     34.7233    106.3466   1.0966063424e+02   5.0377820896e+01    0.1310009   0.09435312  81.88 0.0003956289    1.632    0.387
        52  -8.5349    123.2236    104.7212   8.1814986225e+01   3.7386941512e+01    0.2556215    0.1199693 -36.11 0.0007941618    2.375    0.579
        53 -10.5586     79.7631    103.5390   9.4520165836e+01   4.5588163838e+01      0.36339    0.2752982 -21.57  0.001059386    1.524    0.344
        54  -9.6693     16.1279    104.1730   1.1520383875e+02   5.2349559329e+01    0.1958109    0.1686903  42.37  0.001312374    1.405    0.288
        55  -9.8972    108.6620    103.0482   8.5518720308e+01   4.0679208644e+01    0.3144428    0.2213393  31.13 0.0007061406    1.542    0.352
        56  -8.4153     89.8479    102.3450   9.1035576363e+01   4.4242789646e+01    0.1852785    0.1406875  20.22 0.0008949235    1.508    0.337
        57  -9.4168     45.3184    101.9071   1.0535633018e+02   5.0422400406e+01    0.2121817    0.1857617  51.40  0.000522512    1.330    0.248
        58 -10.6539     53.6238     98.8536   1.0193457580e+02   5.0238947595e+01      0.48098    0.2860785 -48.61  0.002373316    1.461    0.316
        59  -9.2681      1.3168    100.6561   1.1933251392e+02   5.4033027149e+01    0.2024738   0.09056719 -75.38 0.0004285345    1.820    0.450
        60 -10.6525     69.4604     97.3518   9.6299358216e+01   4.8563792155e+01    0.3716291    0.2470373 -62.67  0.000934337    1.540    0.351
        61  -9.1404     18.6986     97.6932   1.1334752567e+02   5.3717911750e+01    0.1842273    0.1582887   0.54 0.0005821387    1.426    0.299
        62  -9.4291     16.2428     95.3603   1.1376789072e+02   5.4433438995e+01    0.2197892    0.1744169  82.56  0.000502456    1.395    0.283
        63  -8.1555     29.2563     97.7218   1.0985821352e+02   5.2919043393e+01    0.1191409    0.0926437  84.45            0    1.467    0.318
        64  -8.4776    148.0370     96.2312   7.2869391805e+01   3.3733544919e+01     0.200857    0.1320102  46.33 0.0003247506    1.544    0.352
        65  -9.5971     78.7714     95.3820   9.2721379658e+01   4.7650201530e+01    0.3009644    0.2265783 -35.37  0.001394581    1.289    0.224
        66  -8.8130    132.4342     93.7510   7.6160719579e+01   3.7770618341e+01    0.2121752    0.1485637 -28.68 0.0002893788    1.524    0.344
        67  -9.9178     88.9659     92.4422   8.8605763632e+01   4.6663431870e+01    0.4332748    0.2961248 -35.16  0.002043261    1.453    0.312
        68  -9.1243     85.9904     87.8113   8.8238754684e+01   4.8203855585e+01    0.2293011    0.2084962  88.77  0.001243966    1.345    0.257
        69  -8.9042      1.3801     94.0126   1.1842427382e+02   5.5579936130e+01    0.2526151   0.08933826 -69.45 0.0004184044    2.103    0.524
        70  -9.3069      1.7241     90.4145   1.1780068656e+02   5.6398889565e+01    0.2601967    0.1615739 -11.05  0.001548708    2.076    0.518
        71  -8.8763      5.3560     87.3167   1.1611265338e+02   5.6940083891e+01    0.3019574   0.07400972 -49.66 0.0008838298    2.914    0.657
        72  -9.2745     37.6186     93.3288   1.0614760271e+02   5.3231184058e+01    0.2203057    0.1718498   8.83 0.0006673287    1.525    0.344
        73  -8.6480      9.4328     93.1661   1.1566811523e+02   5.5361450121e+01    0.1634206    0.1003678 -80.91 0.0004050703    1.542    0.351
        74  -8.5628     73.5130     92.5833   9.3708255945e+01   4.9091383905e+01    0.1450074    0.1298138 -34.29 0.0002651813    1.038    0.036
        75  -9.2953     52.0627     91.2723   1.0068705595e+02   5.2212936611e+01     0.297365    0.1544564 -46.46  0.001335277    1.676    0.403
        76  -9.3212     43.2181     91.0504   1.0370844820e+02   5.3222950444e+01    0.2531374    0.1653685  58.94  0.001248284    2.163    0.538
        77  -8.4890     31.6540     90.6896   1.0765649540e+02   5.4385983739e+01     0.139894   0.08227687 -36.88 0.0007045333    1.706    0.414
        78  -8.7269    153.8117     89.6102   6.9544773087e+01   3.3703524660e+01    0.2096473    0.1518769  62.78 0.0002466355    1.580    0.367
        79  -9.4280     72.1235     89.5051   9.3340110477e+01   5.0002125199e+01    0.1971531    0.1438085  28.79 0.0006597592    1.501    0.334
        80  -9.1450     57.1593     89.1615   9.8391806828e+01   5.2098223996e+01    0.1805291    0.1626939 -86.18 0.0005248204    1.299    0.230
        81  -9.5280     47.8917     88.9762   1.0158779417e+02   5.3216844726e+01    0.2034109    0.1708544 -49.03 0.0003156633    1.017    0.017
        82  -8.7859    139.5434     88.5580   7.2754710024e+01   3.7231434812e+01    0.1566507    0.1505848  -3.55 8.113792e-05    1.022    0.022
        83 -11.5904    131.8464     86.5927   7.4176384623e+01   3.9367926083e+01    0.3158613    0.2747541 -20.45 0.0003080365    1.166    0.143
        84 -11.2294    120.9102     87.5101   7.7462454260e+01   4.1570882307e+01    0.5186987    0.3646238  46.36  0.001585196    1.473    0.321
        85 -10.6934    124.8410     85.6416   7.5791359246e+01   4.1107670915e+01    0.3892546    0.3265356 -36.66  0.001337494    1.164    0.141
        86  -9.2114    109.5181     88.4734   8.1065255254e+01   4.3721643117e+01    0.1531253    0.1458302 -23.77 0.0005888426    1.019    0.019
        87  -9.7121    174.2799     84.5994   6.3545637618e+01   2.9738811255e+01    0.2579029    0.1932361  -7.69 0.0005341998    1.668    0.401
        88  -8.6995     81.6653     84.9626   8.8835000870e+01   4.9549987914e+01    0.2044739    0.1707424 -39.13 0.0002653227    1.095    0.087
        89  -9.0113     95.5227     83.9759   8.4013657698e+01   4.7367172259e+01     0.230111    0.1414303 -45.64 0.0008596103    1.553    0.356
        90 -10.2969     75.9458     82.9875   9.0187930308e+01   5.0893105495e+01    0.2704895     0.236366 -49.21 0.0004957567    1.133    0.117
        91  -9.7037     45.9840     83.9837   1.0104187409e+02   5.4579520782e+01    0.2058987    0.1693452 -44.86 0.0003233036    1.031    0.030
        92  -9.2403     33.8788     84.0943   1.0543887972e+02   5.5733863702e+01     0.189878     0.165786 -85.18 0.0004758177    1.310    0.237
        93  -8.8026     71.0247     83.2845   9.1968492435e+01   5.1567810128e+01    0.1959541    0.1827314 -11.00  0.001140656    1.089    0.082
        94 -10.5316      6.1026     79.2185   1.1449506579e+02   5.8763974867e+01    0.4242647    0.2427159  86.93  0.001143057    2.249    0.555
        95  -9.3124     22.4666     80.8753   1.0888052003e+02   5.7390644858e+01    0.2613926    0.1913069 -35.71  0.001600162    1.297    0.229
        96  -8.3171    137.6655     81.2617   7.1016615524e+01   3.9097054659e+01    0.1517718    0.1252499 -88.34  0.000234602    1.578    0.366
        97 -10.7369     97.5117     77.8951   8.1482579207e+01   4.8277894511e+01    0.5188738    0.3712305 -29.54  0.001893869    1.400    0.285
        98 -11.7519    104.2596     78.9910   7.9721980026e+01   4.6749917557e+01    0.5380266     0.450065  29.01  0.001594766    1.222    0.182
        99 -10.1313    109.7952     72.6421   7.5985631242e+01   4.6898471687e+01     0.425652    0.2652769  10.86  0.001615882    2.611    0.617
       100  -9.9962     99.4672     72.4588   7.9098620402e+01   4.9006004432e+01     0.236369    0.2192818 -15.27 6.630085e-05    1.012    0.012
       101  -9.9897     97.1013     68.8000   7.8629590561e+01   5.0182840945e+01    0.3488748    0.2082935 -40.14 0.0006605151    1.609    0.379
       102  -9.9832     55.6308     80.0675   9.6520987149e+01   5.4363503180e+01    0.3319729    0.2082145 -42.81  0.001679964    1.396    0.284
       103  -9.1843     36.5202     77.7813   1.0296893382e+02   5.6941919263e+01    0.2759705    0.1200161 -63.58  0.001172288    2.281    0.562
       104  -8.6073    143.5468     80.4649   6.9288144566e+01   3.7880625373e+01    0.1539012    0.1515284 -40.07 0.0002177494    1.052    0.050
       105  -9.4344     43.8646     78.6300   1.0045103265e+02   5.6024808703e+01    0.2353153     0.148698 -45.56 0.0004899305    1.331    0.249
       106 -10.8942     51.6325     76.5167   9.7000281006e+01   5.5637877401e+01    0.8457775    0.4316454 -10.00  0.002703497    4.350    0.770
       107  -9.7953     58.4936     71.4602   9.2972395312e+01   5.5895239955e+01    0.2404392    0.2059048 -28.35 0.0007162885    1.037    0.036
       108  -8.2768     28.3195     78.2582   1.0614442149e+02   5.7544534680e+01    0.1299313   0.08136329 -34.42  0.000275814    1.543    0.352
       109 -11.6972     77.8229     74.9024   8.7078729121e+01   5.2347201754e+01    0.5510778      0.31155  28.78  0.002457739    1.976    0.494
       110 -10.8705    152.3373     73.4423   6.5024002690e+01   3.7075432932e+01    0.3726013    0.3051474  47.71 0.0006046891    1.216    0.178
       111  -9.8521     45.6015     73.0739   9.8301604735e+01   5.7082265499e+01    0.2714084    0.1885459 -36.37 0.0006036339    1.282    0.220
       112 -11.3653    138.9005     71.8892   6.7759878634e+01   4.0564266251e+01    0.5424235    0.5010902  79.77  0.002849526    1.218    0.179
       113 -10.6446    140.2929     68.8280   6.6435349878e+01   4.0783341221e+01    0.4747061    0.2714111  60.75  0.001529876    2.035    0.509
       114 -10.0778    129.7593     75.5552   7.1292397547e+01   4.1997529629e+01    0.3477898    0.2424998  27.46  0.001525685    1.641    0.391
       115  -8.4565      9.6405     73.2653   1.1207689502e+02   5.9930541025e+01    0.1113256   0.08792304  68.91 0.0002177537    1.637    0.389
       116  -8.7367      1.7831     73.0003   1.1496326444e+02   6.0374179392e+01    0.1652782    0.1252598 -56.14 0.0004466078    1.020    0.019
       117  -9.0440    125.2255     72.0143   7.1372078626e+01   4.3686104223e+01    0.2042475    0.1245495 -36.67 0.0005076958    1.624    0.384
       118 -11.4716     65.7866     71.1562   9.0186082235e+01   5.4965033406e+01    0.3511823    0.2656909  44.96 0.0004817273    1.595    0.373
       119 -10.0101     59.8098     66.5208   9.0937129486e+01   5.6768104792e+01    0.2678973    0.1918784 -42.92  0.001448552    1.238    0.192
       120  -8.4825     29.7625     72.4079   1.0419629151e+02   5.8748014719e+01    0.1568056    0.1154816 -11.25 0.0003525727    1.501    0.334
       121  -8.8915     17.8937     69.9051   1.0819802440e+02   6.0190905280e+01     0.328613    0.1087486 -47.39  0.001443689    2.269    0.559
       122 -10.1225    166.1611     69.8223   6.0902111368e+01   3.4322559945e+01    0.2373158    0.2091653 -71.98  0.001037015    1.250    0.200
       123  -8.8815     51.7464     69.5635   9.4944759908e+01   5.7147206807e+01    0.1595896     0.129563  35.49 0.0002975775    1.445    0.308
       124  -8.3539    193.2874     68.3263   5.5362033196e+01   2.7890842138e+01    0.1477495    0.1164207  15.64 0.0003899398    1.610    0.379
       125  -9.3689    121.1457     68.1024   7.1205277300e+01   4.5319672423e+01    0.2506361    0.2046832   2.50  0.001239207    1.345    0.257
       126 -10.6908     89.5282     67.3974   8.0628440302e+01   5.1874358149e+01    0.3320219    0.2845416 -78.03  0.000744214    1.614    0.380
       127 -11.9079    151.8734     65.2027   6.2560692182e+01   3.8616244543e+01    0.6643769    0.5073997  78.60   0.00311387    1.609    0.378
       128 -11.1873    110.0967     62.6757   7.2526879635e+01   4.8702890315e+01    0.5635046    0.4295535 -52.97  0.002766306    1.539    0.350
       129 -10.1199     44.1816     62.8696   9.5863443763e+01   5.9439927909e+01    0.2753013    0.2575032  89.06  0.001759529    1.419    0.295
       130  -8.9867     32.9105     64.4672   1.0085589807e+02   6.0221768699e+01    0.1767265    0.1254807  15.55  0.001032849    1.596    0.374
       131 -10.9215    172.5273     61.6623   5.7195406886e+01   3.4081684829e+01    0.5493368    0.3532584 -54.91  0.001934075    1.787    0.441
       132  -9.1630     71.8020     62.6077   8.5177639566e+01   5.5821321745e+01    0.3150831    0.2099438  63.94 0.0009114527    2.826    0.646
       133 -10.0805     66.5128     62.6095   8.7129766304e+01   5.6624469439e+01    0.3350373    0.2409895 -53.30 0.0004867747    1.515    0.340
       134  -9.6510      2.4506     62.5037   1.1267725075e+02   6.2672489761e+01       0.2117    0.1453789 -56.29 0.0004693218    1.095    0.087
       135  -9.6680      4.4655     59.5008   1.1121615120e+02   6.3234090554e+01    0.2402074    0.1509247 -46.65 0.0008188646    1.221    0.181
       136 -10.4403      7.9127     57.0233   1.0921406324e+02   6.3596944626e+01    0.2148651    0.1600662 -38.61 0.0002844029    1.137    0.121
       137  -9.0847    120.8299     60.8560   6.8841448749e+01   4.6681321142e+01    0.2362112    0.1944228  13.83  0.000655159    1.285    0.222
       138  -9.1702    162.4865     60.5208   5.8830235395e+01   3.6764002461e+01    0.1484683    0.1469129  65.17 0.0002708015    1.010    0.010
       139  -8.3984     38.8095     71.3616   1.0043174303e+02   5.8161383126e+01    0.1694873    0.1169341  -2.84  0.000408578    1.691    0.409
       140 -10.3909     94.3861     58.7892   7.6025087207e+01   5.2591017029e+01    0.3419571    0.2412149 -17.66  0.001072408    1.519    0.342
       141  -9.2485     96.2892     55.3607   7.4173039374e+01   5.2830825067e+01     0.269969    0.1969978 -29.55 0.0006123746    1.324    0.245
       142  -9.5859     88.7370     60.3615   7.8451148246e+01   5.3367366844e+01    0.3640211    0.1726842  43.32  0.001494222    2.209    0.547
       143 -10.2649     59.7731     57.7522   8.8029095236e+01   5.8555123642e+01     0.381947    0.3088598  14.73  0.001634972    1.270    0.213
       144  -9.6220     50.8048     59.5819   9.2174686447e+01   5.9355736210e+01     0.218065    0.1585706 -38.95 0.0003472286    1.176    0.150
       145 -10.3891    150.7716     57.8036   6.0453676525e+01   4.0097314868e+01    0.3058049    0.2774348   0.84 0.0003124497    1.158    0.136
       146 -10.9223    146.5281     55.6214   6.0688685091e+01   4.1483881524e+01    0.4971678    0.2866241  27.42  0.001857529    2.448    0.592
       147 -10.7362    199.9862     56.2561   5.0968742916e+01   2.8120782674e+01    0.4290977    0.3050509  16.90   0.00123552    2.035    0.508
       148 -10.7135    202.5707     50.9050   4.9140875399e+01   2.8269768062e+01    0.5187899    0.3513043 -66.34  0.002305662    1.668    0.401
       149 -10.4687    207.3166     49.9758   4.8223969712e+01   2.7255618327e+01     0.311285    0.3041563 -66.03  0.000901114    1.080    0.074
       150 -10.0327    159.4857     57.3576   5.8463683871e+01   3.8009967104e+01     0.306782    0.2410458  21.18  0.001156647    1.482    0.325
       151  -9.7507    162.9024     53.1489   5.6469131595e+01   3.7801833540e+01    0.2783235    0.2229038 -22.62 0.0007825624    1.326    0.246
       152  -9.4973     34.2975     57.4940   9.8243215359e+01   6.1573631310e+01    0.2339589    0.1812849 -59.39 0.0006770903    1.373    0.272
       153  -9.3772     69.0495     55.7746   8.3792077841e+01   5.7576110564e+01    0.3837232    0.1800004 -49.56  0.001596183    2.320    0.569
       154  -8.8497    105.4116     56.0308   7.1581299478e+01   5.0859440691e+01    0.2274685    0.1773956  40.18  0.000594524    1.272    0.214
       155  -9.4335     78.9479     55.5389   8.0095538200e+01   5.6002804413e+01    0.4222223    0.2432955 -12.04  0.001523103    2.652    0.623
       156  -9.6304     82.3654     51.2021   7.7284278307e+01   5.6183849724e+01    0.3123901    0.2155116 -46.68  0.001571199    1.611    0.379
       157 -10.1625     84.3979     47.2528   7.5077525946e+01   5.6492598303e+01    0.4203434    0.2360725 -29.30  0.001932634    1.769    0.435
       158  -8.7789     26.1939     56.3459   1.0130510855e+02   6.2525673173e+01    0.1458453    0.1135935  24.39 0.0003845615    1.525    0.344
       159 -10.7665    173.8614     51.5286   5.3926274419e+01   3.5293552489e+01    0.5928466    0.1967756 -32.32  0.001994576    2.987    0.665
       160  -9.1038     85.5100     54.1636   7.7301682342e+01   5.5090976965e+01    0.2373692    0.1831245   5.97 0.0007781712    1.353    0.261
       161  -8.5148     57.2586     54.3178   8.7809584695e+01   5.9571789813e+01    0.1373444   0.09101797 -20.68 0.0001348733    1.540    0.351
       162  -9.6594     43.1628     52.1432   9.2794467755e+01   6.1746246773e+01    0.3141371    0.2038886  36.00  0.001726796    1.834    0.455
       163  -8.7867     35.8468     52.4821   9.6000780196e+01   6.2451576281e+01    0.2722986    0.1427153 -64.43  0.001201431    2.692    0.628
       164  -8.4854     29.4764     52.4429   9.8719852984e+01   6.3056219680e+01    0.1289367    0.1010759 -34.17 0.0004187274    1.024    0.024
       165 -10.4140     18.2243     51.0150   1.0318847452e+02   6.4237512705e+01    0.2741222    0.2065704  -1.66 0.0004716743    1.429    0.300
       166 -10.3657    126.4302     50.4180   6.3734327529e+01   4.7111702842e+01    0.3191649    0.2406063  28.59 0.0005109566    1.379    0.275
       167  -9.8503    121.9400     48.8246   6.4332757907e+01   4.8397562220e+01    0.3107122    0.2679591 -86.07  0.001281553    1.490    0.329
       168 -10.8630    106.8335     50.8636   6.9280831040e+01   5.1425194950e+01    0.3224105    0.2555091  55.39 0.0003796378    1.408    0.290
       169  -8.6371    112.9778     49.4783   6.7003257814e+01   5.0315035686e+01    0.3344377    0.1405095  50.38  0.001263091    2.354    0.575
       170  -8.8351    212.1466     49.8427   4.7533221251e+01   2.6120535690e+01    0.2234181    0.1789423 -67.11   0.00122064    1.241    0.194
       171  -8.8575     55.2894     50.3460   8.7164870677e+01   6.0598615074e+01    0.1939359    0.1169441 -29.70 0.0005608927    1.554    0.357
       172 -10.9888     58.9494     47.5566   8.4658017602e+01   6.0610669683e+01    0.3331963    0.2497336   5.14  0.000400237    1.344    0.256
       173  -9.2527     49.0357     49.9053   8.9560686275e+01   6.1490043075e+01    0.2060074    0.1492445 -19.39  0.000467014    1.285    0.222
       174 -10.3960     46.0513     47.0831   8.9785305480e+01   6.2391920394e+01    0.2036701    0.1720179 -19.34 0.0003016822    1.046    0.044
       175  -9.9460     95.7649     48.5705   7.1821192701e+01   5.4087948142e+01    0.3372417     0.227436  33.89 0.0009538431    1.466    0.318
       176  -9.9179      5.9859     48.0434   1.0778497540e+02   6.5589604877e+01    0.1756367    0.1332935 -43.55 0.0003350579    1.021    0.021
       177  -8.9364    101.2952     47.6029   6.9733325809e+01   5.3117409444e+01    0.1429505    0.1138313 -65.60   0.00070023    1.800    0.445
       178  -9.4545     33.9905     46.6664   9.4845264177e+01   6.3790269553e+01    0.1765294    0.1518451  36.14 0.0009783257    1.520    0.342
       179  -9.3088    186.4798     46.4773   5.0335698630e+01   3.2855786803e+01    0.1436634    0.1355279 -79.40 5.828831e-05    1.023    0.023
       180 -10.4292    167.1613     43.6954   5.2752494015e+01   3.8091095964e+01     0.367468    0.3054178  39.95  0.001329861    1.245    0.197
       181 -10.5504    142.9849     43.2109   5.7357284080e+01   4.4197652145e+01    0.4537511    0.3044943  24.72  0.001407181    1.809    0.447
       182  -9.6091    109.3266     44.3385   6.6141255605e+01   5.1912576112e+01    0.2903669    0.2521035  56.44   0.00129983    1.275    0.216
       183  -8.2832      1.2295     44.7080   1.0905060749e+02   6.6503592647e+01   0.09957919   0.08118317 -76.32 0.0001563192    1.455    0.313
       184  -8.9573    217.8017     42.8135   4.5014609435e+01   2.5750451664e+01    0.1920445    0.1431877 -63.57 0.0002347201    1.316    0.240
       185 -10.0604     55.4523     41.8894   8.3882177093e+01   6.2120912570e+01    0.3659289    0.2558877  12.18   0.00141847    1.467    0.318
       186  -8.8256     19.1914     43.1718   1.0034439764e+02   6.5756221009e+01    0.1522262    0.1368643 -57.64 0.0005992206    1.355    0.262
       187  -8.5980      8.8216     42.8840   1.0505448712e+02   6.6492156660e+01    0.1888745    0.1220388 -35.21 0.0008798939    1.244    0.196
       188 -10.3237    204.7621     41.4281   4.6309075130e+01   2.9044404632e+01    0.3530753    0.2131754 -53.64 0.0005719101    1.695    0.410
       189 -10.4911    135.9085     52.9198   6.2252253687e+01   4.4480763039e+01     0.422546    0.2752721  12.53  0.001756269    2.188    0.543
       190  -9.7617     69.3213     36.6346   7.6263736909e+01   6.0871150248e+01    0.2851691     0.213638 -18.21  0.001024759    1.215    0.177
       191 -10.5431     63.5929     41.0577   8.0280992375e+01   6.1066732164e+01    0.2828648    0.2075288 -23.86 0.0004958053    1.218    0.179
       192 -10.1546     64.1219     36.7614   7.8318075493e+01   6.1695470323e+01    0.3507722    0.1888221  43.61  0.001686017    2.109    0.526
       193 -10.7400    149.8728     39.5385   5.4702075018e+01   4.2993714851e+01    0.5265527    0.2697318 -48.38  0.001607796    2.339    0.573
       194  -8.8834    104.6934     41.0408   6.6229111219e+01   5.3408882505e+01    0.1934342    0.1695564 -10.00 0.0002159271    1.104    0.094
       195  -9.2850     28.0043     40.9690   9.5534388623e+01   6.5457997087e+01    0.1975978    0.1145598 -27.96  0.000411183    1.564    0.361
       196  -9.8209    196.1914     39.3235   4.6902274967e+01   3.1415456287e+01    0.4291832    0.1665108 -54.25    0.0014072    3.631    0.725
       197  -8.7532    112.4983     40.4781   6.3811139962e+01   5.1780276785e+01    0.1439772    0.1321793  19.29 0.0008102604    1.011    0.011
       198  -8.4314     98.3101     40.6571   6.7989761338e+01   5.4812057250e+01    0.1357119    0.1138066 -67.94 0.0007045116    1.698    0.411
       199 -10.6073     32.4173     38.5213   9.2609815484e+01   6.5496731088e+01    0.2435934    0.1711899 -40.02 0.0006850436    1.219    0.180
       200 -10.4422     33.8155     34.8122   9.0531988285e+01   6.6028087001e+01    0.2362291    0.1889287 -20.61 0.0003995617    1.026    0.025
       201 -10.4824    127.5089     36.6608   5.8582225862e+01   4.8838880162e+01     0.400499    0.2540402  56.72  0.001237447    1.532    0.347
       202  -9.4848     75.0216     37.7665   7.4617988766e+01   5.9718065324e+01    0.2244271    0.1813675 -41.07 0.0006064893    1.418    0.295
       203  -9.8070     82.2938     35.5457   7.1135099141e+01   5.8737005443e+01    0.2954173     0.223234 -44.10 0.0009952452    1.577    0.366
       204 -10.8423     78.3207     31.9255   7.1003201073e+01   6.0004314677e+01    0.4530332    0.2673513 -12.23  0.001308821    1.963    0.491
       205  -9.9513     48.6315     37.2992   8.4908896864e+01   6.3843470762e+01    0.2585103    0.1983397 -67.96  0.001390528    2.306    0.566
       206 -10.0053    161.5511     37.8447   5.1941800922e+01   4.0287967452e+01    0.2774701     0.221098  54.90 0.0004863722    1.191    0.160
       207  -9.1239    249.6553     37.2978   4.0309655599e+01   1.9364511847e+01    0.1368512   0.08133944 -63.26 0.0004676264    1.673    0.402
       208  -9.1282    110.3767     36.2363   6.2785948157e+01   5.2848664607e+01    0.2149348    0.1789822  19.54 0.0007465255    1.151    0.131
       209  -9.7237    106.9549     35.0756   6.3285314441e+01   5.3763962681e+01    0.2245681    0.1992751  54.03 0.0003102788    1.227    0.185
       210  -8.6084     27.5146     36.5475   9.4145003725e+01   6.6334765607e+01    0.1261483   0.09652962 -26.50  0.000808426    1.027    0.026
       211  -9.2408    191.5001     34.5045   4.6223469638e+01   3.3194119635e+01    0.2489829    0.2210525  26.71  0.001427311    1.313    0.238
       212 -10.0222    194.3885     32.7752   4.5354673534e+01   3.2695998949e+01    0.2977197    0.2247797 -26.71  0.001600059    1.425    0.298
       213 -10.3724    238.5694     22.3206   3.7953091959e+01   2.3599546782e+01    0.4026422    0.2414593  72.00  0.001886057    1.656    0.396
       214 -10.7678    237.3853     31.7968   4.0226884117e+01   2.2711849774e+01    0.4728228    0.3335334 -82.67   0.00191653    1.415    0.293
       215  -9.7342    237.4987     26.9401   3.9099901024e+01   2.3283844760e+01     0.284411    0.2036383 -32.77 0.0008495937    1.413    0.292
       216  -9.5532    114.8673     32.5185   6.0177887983e+01   5.2330382987e+01    0.2497361    0.2291197  50.87 0.0006606943    1.140    0.123
       217  -9.9021    110.6205     29.5778   6.0157853814e+01   5.3667810379e+01    0.3493582    0.2553545  60.66  0.001034725    1.472    0.321
       218 -10.5211     47.3784     28.5893   8.1777304052e+01   6.5454850213e+01    0.4540043    0.2541823  -0.90  0.002125649    2.411    0.585
       219  -9.3624     43.2376     29.0395   8.3816392703e+01   6.5923092459e+01    0.2730547    0.1475246 -25.55 0.0005156199    1.763    0.433
       220  -9.4277      9.2328     32.0298   1.0140118737e+02   6.8592304331e+01    0.4381753   0.09907205  28.30  0.001754145    4.743    0.789
       221  -9.7020    150.2714     32.8625   5.2426810297e+01   4.3753643278e+01    0.4078657    0.2005649 -21.13  0.001389652    2.383    0.580
       222  -8.4347     59.3587     31.7131   7.8079869128e+01   6.3238540534e+01    0.1139796    0.1077766  85.47 0.0007023188    1.681    0.405
       223  -8.3232     21.3949     31.2206   9.5062394972e+01   6.7853164528e+01    0.1219248   0.07295363 -16.57 0.0003623453    1.633    0.387
       224  -9.6230    229.9825     29.7076   4.0464557658e+01   2.4625228926e+01    0.2408456    0.1495472 -49.69 0.0002443979    1.454    0.312
       225  -9.8899    226.7584     23.2044   3.9239543110e+01   2.6139373473e+01    0.3944677    0.2374776 -66.87   0.00204571    1.686    0.407
       226  -8.7870     65.6170     30.3580   7.5015645603e+01   6.2449541251e+01    0.1757113    0.1538089 -52.55 0.0007255003    1.621    0.383
       227  -8.3657    201.4520     29.4313   4.3550581595e+01   3.1374390019e+01    0.1373625    0.1214668 -75.96 4.638064e-05    1.049    0.046
       228 -10.5134    180.9394     28.7290   4.6073507520e+01   3.6535706604e+01    0.6210579    0.2437408  54.25  0.002451767    2.366    0.577
       229  -9.2757    184.4730     24.9942   4.4515410363e+01   3.6088410247e+01    0.2352954    0.1797812  44.31 0.0007340998    1.411    0.291
       230  -8.7750    158.4653     29.0086   4.9692563360e+01   4.2163571070e+01    0.2008934    0.1404831 -27.39 0.0004873635    1.524    0.344
       231  -9.0698    125.9636     29.2926   5.6273586425e+01   5.0143015483e+01    0.2451869    0.1372174  33.40 0.0008388344    1.980    0.495
       232  -9.4187     16.4688     27.8338   9.6212140575e+01   6.8864376877e+01    0.3045755    0.1462408 -35.32  0.001668107    1.672    0.402
       233  -9.3966     14.7578     24.2857   9.5687485771e+01   6.9628000502e+01    0.2040698    0.1169911 -33.42 0.0006184012    1.356    0.262
       234  -9.2892    215.9837     28.0019   4.1506263737e+01   2.8065530592e+01    0.2069366    0.1601502  30.41  0.001139864    1.716    0.417
       235  -9.5055     54.6182     27.5659   7.8216645018e+01   6.4590571971e+01    0.3061653    0.1626785  -9.83  0.001324319    2.661    0.624
       236 -10.3083    120.5880     25.7006   5.6194135365e+01   5.1841309564e+01    0.3519078    0.2977539  69.67  0.001209276    1.297    0.229
       237  -9.9227     81.3906     26.4525   6.7609097946e+01   6.0184360596e+01    0.2824427    0.2530248 -38.22  0.001201788    1.380    0.276
       238  -9.5402    105.9965    248.5085   1.1138025787e+02   9.6539178140e+00    0.2175474    0.1423911 -19.98  0.001043067    3.589    0.721
       239 -10.0501     29.6088     17.7621   8.5192445155e+01   6.9321121232e+01    0.2714351    0.1710564  -3.28  0.001206978    1.541    0.351
       240  -8.3747     58.3035     24.3165   7.5232074692e+01   6.4507340803e+01    0.1339605   0.08684429   1.57 0.0001964476    1.622    0.384
       241  -9.6022    179.0004     22.4138   4.4521273177e+01   3.7748636563e+01    0.2998785    0.2061071 -26.92  0.001559207    1.571    0.364
       242 -10.3578    163.9025     22.2765   4.6688983619e+01   4.1560628650e+01    0.4039387     0.237493  52.61  0.000699515    1.586    0.369
       243  -9.6519    206.5221     26.0401   4.2062458683e+01   3.0552682914e+01    0.2499727    0.1718053  55.20 0.0007995827    1.507    0.336
       244  -9.6095      7.9761     22.5107   9.8560459839e+01   7.0423345836e+01    0.2292321    0.1678128  -7.46  0.000918308    1.293    0.227
       245  -9.7242      2.2670     21.7231   1.0133229943e+02   7.0907718184e+01    0.2217087    0.1669013 -40.54  0.001004448    1.140    0.123
       246  -9.2826    218.0749     21.8970   3.9778569075e+01   2.8296175704e+01    0.1924755    0.1734643 -80.45 0.0003893075    1.050    0.047
       247  -9.8057    142.0606     20.7469   4.9912925619e+01   4.7194207494e+01    0.3184223    0.2652194 -15.90  0.001485159    1.307    0.235
       248  -9.6093     50.9810     20.5509   7.6553754911e+01   6.6154778247e+01    0.2842155    0.2602602 -57.41  0.001854427    1.763    0.433
       249  -9.1745    222.3736     20.4566   3.9005623171e+01   2.7464067466e+01     0.221388    0.1660641  55.35 0.0006337205    1.472    0.321
       250  -9.0814    132.0045     20.2980   5.1713705866e+01   4.9710179856e+01    0.2950076    0.1496965 -51.12  0.001184774    2.768    0.639
       251 -12.3930     76.2302    218.9609   1.1421338597e+02   1.9317300425e+01    0.9223044    0.5571357  46.21  0.002902249    1.434    0.303
       252 -11.7154     69.0896    217.3973   1.1550781063e+02   2.0588771056e+01    0.5416078    0.3479403  74.56  0.002266547    1.538    0.350
       253  -8.7329     19.1932     21.6011   9.2260156209e+01   6.9728216429e+01    0.1578678   0.09430821  -1.01 0.0004436081    1.716    0.417
       254  -9.2900     91.7193    214.6105   1.1054151905e+02   1.7998820450e+01    0.2371583    0.1150435  34.43 0.0007485072    2.060    0.514
       255  -9.5950      1.3932    185.2585   1.2669334900e+02   3.4607458947e+01    0.3258173   0.08247577 -76.23  0.001339655    3.073    0.675
       256  -9.0545     63.9431     19.5605   7.0806770045e+01   6.4235430709e+01     0.191478     0.150428 -12.22 0.0004494422    1.147    0.128
       257 -10.1408    119.8196     18.9840   5.3842195250e+01   5.2766310123e+01    0.2523169    0.1874534  54.38 0.0004753829    1.236    0.191
       258  -9.4309     12.8465    174.3786   1.2358340926e+02   3.6062987179e+01     0.137632    0.1151983   6.99 0.0009464926    1.745    0.427
       259  -9.6837      6.7393    168.4146   1.2447220540e+02   3.7896204784e+01    0.1292591    0.1162243   1.86 0.0005453374    1.604    0.377
       260 -10.2080      1.6083    162.5243   1.2517938048e+02   3.9606002472e+01    0.3101391    0.0986571 -69.24  0.001453584    2.373    0.579
       261  -9.4783     55.4535     17.9550   7.3437960749e+01   6.5830924798e+01    0.2271297      0.14608 -13.70 0.0003917167    1.458    0.314
       262  -9.7382      8.2135    163.5913   1.2378363804e+02   3.8874045093e+01    0.1356555    0.1171262  -0.14 0.0009537183    1.675    0.403
       263  -8.9830     23.2326    162.5816   1.2024412468e+02   3.7857231227e+01    0.1366767    0.1228444   9.17 0.0004203839    1.515    0.340
       264 -10.4269     18.9088    158.6863   1.2089944116e+02   3.9140755172e+01    0.2377512    0.1482927 -83.56  0.001247904    1.328    0.247
       265 -10.9994      3.0680    152.6367   1.2410671421e+02   4.1757151715e+01    0.3499901    0.2523355 -40.86  0.002283329    1.766    0.434
       266 -10.3047     10.9867    151.5094   1.2213624266e+02   4.1447395974e+01    0.2677752     0.123031  22.65  0.001074871    2.764    0.638
       267  -9.4884     35.9082    141.3633   1.1469928699e+02   4.1733225760e+01     0.245766    0.2014371  12.59  0.001147546    1.576    0.366
       268 -10.2498     21.7979    141.9557   1.1848467827e+02   4.2853902516e+01    0.1973546    0.1770765  59.19 0.0003903697    1.244    0.196
       269 -10.9220      6.6051    140.3310   1.2219517265e+02   4.4376198412e+01    0.3553434    0.1791184 -53.46  0.001328983    1.907    0.476
       270 -12.9302    226.9295    136.3538   6.6715993633e+01   8.5728809286e+00     1.895988    0.7212498  47.43  0.007118157    2.864    0.651
       271 -13.5167    234.9251    128.2137   6.3455500143e+01   8.4132383753e+00     1.727601     1.172555 -25.48  0.008714207    1.393    0.282
       272  -9.6508     29.7064    138.0903   1.1594038954e+02   4.3104864867e+01    0.2350817    0.1860194  17.78  0.000863409    1.608    0.378
       273  -9.2972     15.5053    131.4413   1.1896353060e+02   4.5859504181e+01    0.1254375     0.100465 -80.53 6.610478e-05    1.030    0.029
       274  -9.3124      5.0475    131.0232   1.2170125903e+02   4.6668063241e+01    0.1864939    0.1179345  73.47 0.0004354427    1.585    0.369
       275  -9.0573     32.9238    127.6278   1.1363996992e+02   4.5358928853e+01    0.2332139    0.1472366 -59.79 0.0006346207    1.339    0.253
       276  -9.5747     86.7396     17.8067   6.2122325904e+01   6.0188946085e+01    0.2935912    0.1672987  28.76  0.001431682    1.767    0.434
       277  -9.2688     12.6020    128.2116   1.1938335232e+02   4.6837624925e+01     0.184246   0.08707466 -63.22 0.0009427511    1.656    0.396
       278  -9.7217     48.1849    125.5184   1.0889051631e+02   4.4354357012e+01    0.3159783    0.2488148 -32.59  0.001489507    1.453    0.312
       279  -9.1741     28.2327    125.9704   1.1474261014e+02   4.6175310585e+01    0.2534416    0.1545283 -80.67  0.001346315    1.513    0.339
       280  -9.1836     30.8004    124.0143   1.1372639396e+02   4.6429461511e+01    0.1898839    0.1254654 -55.01  0.000436788    1.340    0.254
       281  -8.6520     93.2174     10.3608   5.6990267568e+01   5.9619352255e+01    0.1734865    0.1191442  63.12 0.0004200355    1.636    0.389
       282  -9.0297     38.4950    124.9907   1.1163926742e+02   4.5480807168e+01    0.1993385    0.1134907 -67.33 0.0003327188    1.489    0.328
       283  -8.9230     23.4708    125.1040   1.1597927200e+02   4.6777707282e+01     0.195526    0.1049113 -70.14 0.0006563422    1.515    0.340
       284  -8.3188     19.5038    125.4968   1.1715010751e+02   4.6990376216e+01    0.1282337    0.1026083 -71.03 -0.0001455299    1.029    0.028
       285  -9.4717     12.8016    122.8872   1.1870939451e+02   4.8096137932e+01    0.2506901    0.1758033  61.33 0.0009360728    1.563    0.360
       286  -9.5437      9.0234    123.2129   1.1980017098e+02   4.8266936906e+01    0.3081641    0.1017434 -56.37  0.001255444    2.380    0.580
       287  -8.4480     78.3715    123.2024   9.9500681203e+01   4.1053450477e+01    0.1891675     0.131162 -66.73  0.000194796    1.443    0.307
       288  -8.2993     93.6960    122.6681   9.4873484163e+01   3.8765214290e+01     0.154098    0.1142246 -23.83 0.0007036815    1.657    0.397
       289 -13.0463    220.9452    117.2744   6.3258856312e+01   1.3138835370e+01     2.686217     1.661551  -7.19   0.01076417    2.513    0.602
       290  -8.6683     69.7774    118.0444   1.0098993605e+02   4.3541303374e+01    0.2007871    0.1089036 -58.97 0.0008764357    1.678    0.404
       291  -9.7122     57.8156    117.7636   1.0458630848e+02   4.5155308715e+01    0.2375216    0.2101556 -56.37 0.0006808428    1.037    0.036
       292 -10.9067     24.7073    116.2691   1.1438193179e+02   4.8818581605e+01    0.4240422     0.206849  27.43  0.001172206    2.393    0.582
       293 -11.6021     11.6448    114.4624   1.1799841128e+02   5.0185316595e+01     0.302771    0.2428691 -17.59  0.001992252    1.576    0.365
       294  -9.5629     38.4907    114.7874   1.0996875258e+02   4.7977303789e+01    0.2491331    0.1861323  72.85 0.0007975263    1.542    0.351
       295  -8.6574      2.3912    114.2627   1.2065418508e+02   5.0779536320e+01     0.184232    0.1386479 -25.51 0.0006178489    1.657    0.396
       296  -8.7156      1.2537    111.6244   1.2068170438e+02   5.1461601935e+01    0.2033439    0.1021856 -80.40   0.00107412    1.674    0.403
