#   1 NUMBER                 Running object number                                     
#   2 MAG_AUTO               Kron-like elliptical aperture magnitude                    [mag]
#   3 X_IMAGE                Object position along x                                    [pixel]
#   4 Y_IMAGE                Object position along y                                    [pixel]
#   5 X_WORLD                Barycenter position along world x axis                     [deg]
#   6 Y_WORLD                Barycenter position along world y axis                     [deg]
#   7 A_WORLD                Profile RMS along major axis (world units)                 [deg]
#   8 B_WORLD                Profile RMS along minor axis (world units)                 [deg]
#   9 THETA_WORLD            Position angle (CCW/world-x)                               [deg]
#  10 FWHM_WORLD             FWHM assuming a gaussian core                              [deg]
#  11 ELONGATION             A_IMAGE/B_IMAGE                                           
#  12 ELLIPTICITY            1 - B_IMAGE/A_IMAGE                                       
         1 -12.3582    182.0972     30.2773   7.0852661050e+01   3.6157405412e+01    0.8177812    0.7755445 -81.26  0.003501986    1.085    0.078
         2 -12.3526    188.8821     19.5525   6.7066999566e+01   3.5748867070e+01    0.6669388    0.6283159  15.08  0.001478533    1.305    0.234
         3 -11.3004    163.0925    243.6616   1.2330842408e+02   7.2676202612e-01     0.350759    0.2026529  33.31  0.001635475    1.704    0.413
         4 -10.5156     89.2969    244.0643   1.3717060504e+02   1.2854401085e+01    0.3044569     0.196886 -89.85  0.001821598    1.596    0.373
         5 -11.5030     98.3311    249.7900   1.3613048631e+02   1.0430153314e+01    0.8121528    0.3110073  42.37  0.002435476    2.272    0.560
         6 -11.8614     96.1373    244.3358   1.3595683716e+02   1.1757821717e+01    0.6395854    0.2412264  40.38  0.002279693    2.491    0.599
         7 -13.8770    110.8445    228.2191   1.3131719373e+02   1.2442788698e+01     4.470475    0.7006961  43.72   0.01307364    4.999    0.800
         8  -9.7924     71.5184    229.7253   1.3898174011e+02   1.8222408104e+01    0.2744783    0.1661984  76.10 0.0008353092    1.585    0.369
         9  -9.9622     82.6094    229.9563   1.3693715468e+02   1.6557835702e+01    0.2284307    0.1531761  55.61 0.0005951842    1.264    0.209
        10 -12.4870    120.3313    248.8779   1.3202383076e+02   7.0876593640e+00     1.412522    0.3737447  41.87  0.001656382    3.237    0.691
        11  -9.9874      2.7264    237.4590   1.5125991625e+02   2.4991934243e+01    0.1592243    0.1512869  47.82  0.000740193    1.785    0.440
        12 -11.0914    103.6106    237.6184   1.3383330221e+02   1.1829556069e+01    0.3224699    0.2258613 -86.76 0.0007728464    1.504    0.335
        13 -12.3944     85.3824    223.2518   1.3567458033e+02   1.7477525506e+01     1.126773    0.4396732  54.67  0.004867571    2.513    0.602
        14 -12.4932     65.9470    212.2842   1.3824662362e+02   2.2574240837e+01     1.214818    0.5330347  48.90   0.00156131    2.047    0.512
        15 -13.6564    136.0474    248.6359   1.2907892372e+02   4.5233822615e+00     2.274928     0.751331  42.31  0.009504572    2.541    0.606
        16 -10.0390     85.0853    234.6215   1.3696724743e+02   1.5276221464e+01    0.2405354    0.1605559 -82.86  0.001212979    1.484    0.326
        17  -8.6565     49.9280    211.9286   1.4129685591e+02   2.4777136337e+01    0.1648225    0.1432745 -87.98  0.001153445    1.236    0.191
        18 -10.5594    110.5555    207.4378   1.2859283562e+02   1.6677110376e+01    0.3473834    0.1660333 -57.89  0.001562558    2.171    0.539
        19 -12.1277     74.9049    198.4930   1.3484979579e+02   2.4267190372e+01    0.7998386    0.7179203 -67.06  0.003739611    1.288    0.224
        20  -8.9516     57.9647    201.2947   1.3864402381e+02   2.6008498878e+01    0.1723866     0.143065  72.44 0.0003771544    1.102    0.092
        21  -8.2519    191.6635    192.3429   1.0894646871e+02   4.4210845548e+00    0.1430747    0.1140947  84.32 0.0007049965    1.766    0.434
        22  -9.9139    102.6567    207.6011   1.3026043050e+02   1.7969865782e+01    0.2606905    0.1244813  37.79  0.001146657    2.199    0.545
        23 -10.5994     84.2100    182.4230   1.3067473233e+02   2.6472944301e+01    0.4085683    0.2710419 -45.32  0.002075016    1.832    0.454
        24 -10.3029     87.6902    176.6553   1.2902122895e+02   2.7253926284e+01    0.3473247    0.2398129 -45.13 0.0009703119    1.708    0.414
        25  -8.5242    200.5053    181.4629   1.0498283488e+02   4.7051042602e+00    0.1418941    0.1366698  21.02 6.676809e-05    1.039    0.037
        26  -9.0230    109.6974    172.3424   1.2321638458e+02   2.4561098692e+01    0.1517431    0.1069431  80.93 0.0003663652    1.679    0.404
        27  -9.5593    101.7684    170.5963   1.2476683477e+02   2.6344376920e+01    0.2032529    0.1264659  52.51 0.0009508695    1.618    0.382
        28 -10.3566     94.0908    166.9392   1.2595158143e+02   2.8481324030e+01    0.3266866    0.2765104  73.69 0.0005198864    1.139    0.122
        29 -13.0578     59.1645    150.0793   1.3164433136e+02   3.7569003440e+01     1.153175    0.4636841 -64.45  0.004840202    2.217    0.549
        30 -13.2272     68.3430    144.2475   1.2836782102e+02   3.7736522562e+01     1.400987    0.7908305 -81.69  0.005957534    2.249    0.555
        31  -8.6430    163.6262    155.8659   1.0739997411e+02   1.7569637858e+01    0.2217081    0.1427915 -57.51 0.0009407375    1.722    0.419
        32 -10.4785     52.3542    154.6435   1.3399940316e+02   3.7339284053e+01    0.2245854    0.1655713  34.66 0.0009687822    1.602    0.376
        33  -9.2360    134.0000    143.9864   1.1170694962e+02   2.6454242297e+01    0.2582107   0.08628298 -49.11 0.0008037646    2.952    0.661
        34 -10.3856    109.4165    142.6058   1.1753390294e+02   3.1544865602e+01    0.4961812     0.232901 -37.68  0.001718211    2.987    0.665
        35 -10.5754     98.1702    143.2981   1.2054511268e+02   3.3369846362e+01    0.2752799    0.2631399 -19.99 0.0004392473    1.212    0.175
        36 -10.8580     98.9389    158.9971   1.2338116391e+02   2.9534457440e+01    0.5861816    0.3277625 -40.59  0.002463169    2.237    0.553
        37  -9.8629    115.8431    132.2076   1.1359578788e+02   3.2765184659e+01    0.2705645    0.2206126 -38.42 0.0007729098    1.289    0.224
        38 -10.2057    104.7157    129.3519   1.1585030771e+02   3.5495023123e+01    0.4292863    0.3224326 -83.48 0.0009815647    1.619    0.382
        39 -10.2754     68.5638    233.9119   1.3992816463e+02   1.7816628738e+01    0.3270279    0.2049807  62.44  0.001010513    1.332    0.250
        40  -9.1534    110.9780    120.5030   1.1211215359e+02   3.6377049239e+01    0.2183346     0.149806  42.16 0.0004093061    1.527    0.345
        41 -11.8960     82.7948    162.0291   1.2782239386e+02   3.1426754654e+01    0.4931756    0.4049318 -77.22  0.001191748    1.107    0.097
        42  -8.8134    169.0622    113.8503   9.6106028136e+01   2.5312033616e+01    0.2444225    0.2116922 -81.91 0.0006678459    1.282    0.220
        43  -9.0889    115.4991    111.0037   1.0852638726e+02   3.7638310198e+01    0.2166199    0.1273877 -26.63 0.0008098559    2.477    0.596
        44 -11.2956    171.3325     40.1524   7.5312436741e+01   3.7554154388e+01    0.3769907    0.3064192  61.85 0.0008708194    1.136    0.120
        45 -19.2925     23.6548    127.9981   1.3727354849e+02   4.6478567774e+01     18.32295     1.106167 -66.65   0.03121918   15.492    0.935
