#   1 NUMBER                 Running object number                                     
#   2 MAG_AUTO               Kron-like elliptical aperture magnitude                    [mag]
#   3 X_IMAGE                Object position along x                                    [pixel]
#   4 Y_IMAGE                Object position along y                                    [pixel]
#   5 X_WORLD                Barycenter position along world x axis                     [deg]
#   6 Y_WORLD                Barycenter position along world y axis                     [deg]
#   7 A_WORLD                Profile RMS along major axis (world units)                 [deg]
#   8 B_WORLD                Profile RMS along minor axis (world units)                 [deg]
#   9 THETA_WORLD            Position angle (CCW/world-x)                               [deg]
#  10 FWHM_WORLD             FWHM assuming a gaussian core                              [deg]
#  11 ELONGATION             A_IMAGE/B_IMAGE                                           
#  12 ELLIPTICITY            1 - B_IMAGE/A_IMAGE                                       
         1 -13.0161     72.3356      7.6794   6.2630194186e+00   6.5615889043e+01    0.3713472     0.272007 -22.55 0.0009774952    1.509    0.338
         2 -12.6566     82.5715      6.9841   3.2818918759e+00   6.3201335834e+01    0.4130125    0.2227127  76.55 0.0005585696    1.901    0.474
         3 -11.7877     36.7239      4.8080   1.8466300239e+01   7.3796635809e+01    0.2142935    0.1830925  53.00 0.0002765227    1.208    0.173
         4 -10.7972     92.2740      8.3695   1.8131672645e+00   6.0667099875e+01    0.1374853   0.09494221  34.11 0.0007003445    1.677    0.404
         5 -11.0410     25.2478      2.0211   2.3368530654e+01   7.6294489139e+01    0.1701641    0.1487669  -1.54 0.0004876105    1.101    0.092
         6 -10.6579    110.6710      1.7311   3.5585871515e+02   5.6630376074e+01    0.1336535    0.0891708  48.78 0.0002342741    1.580    0.367
         7 -12.1226    178.3393    246.2510   4.2480529980e+01   1.4809023305e+00    0.2502367    0.2255504 -63.44  0.001036002    1.878    0.468
         8 -12.5223    238.4738    250.4500   3.3065529261e+01  -4.8237666710e+00    0.1635743    0.1004826  17.03  0.001267039    1.430    0.301
         9 -12.4947    139.9135    248.8517   5.0164804318e+01   5.3668927418e+00    0.2923674    0.2752245  34.77  0.001400765    1.339    0.253
        10 -11.7413     51.0834    249.2796   6.9067812721e+01   1.5283801305e+01    0.3628375    0.1793025  37.10  0.001797262    1.518    0.341
        11 -11.0601     35.9984    250.5676   7.2400531858e+01   1.6569708453e+01      0.16532    0.1179082  35.83 0.0003923834    1.126    0.112
        12 -12.7948     30.0612    247.4416   7.3531988035e+01   1.7729170732e+01    0.3630474    0.2306348  46.89  0.001734737    1.215    0.177
        13 -12.0162     36.2040    247.1850   7.2187842774e+01   1.7179874020e+01    0.2509583    0.1627711  38.35 0.0009358558    1.187    0.158
        14 -14.2967     31.9523    239.7794   7.2752636096e+01   1.9015425320e+01     1.291592    0.5524712  17.62  0.005967961    2.694    0.629
        15 -14.1177     24.6148    212.3376   7.3052112897e+01   2.5436948337e+01     1.211983    0.4735335 -59.31  0.005393551    2.907    0.656
        16 -13.4178     29.3313    216.1555   7.2109842335e+01   2.4144406116e+01    0.5262037    0.4965015 -85.62  0.003160857    1.237    0.192
        17 -13.9294     14.8235    228.8586   7.6127945585e+01   2.2812538440e+01     0.948672    0.5019778  75.52  0.005305118    1.840    0.457
        18 -13.4898     14.1333    243.9578   7.6829641156e+01   1.9867448333e+01    0.6409401    0.2105417  32.63  0.002919132    2.144    0.534
        19 -13.2928     17.8619    237.7598   7.5790777681e+01   2.0741430213e+01    0.3904696    0.2522619  73.91  0.001701186    1.476    0.322
        20 -14.3207     10.4028    239.4665   7.7487560521e+01   2.1069126134e+01    0.5726445    0.4185338 -31.31  0.002763566    2.072    0.517
        21 -15.1549      4.6461    247.0108   7.8937801273e+01   2.0107198198e+01    0.9654668    0.3513456  31.77  0.003020284    2.003    0.501
        22 -13.2793      2.9646    239.0163   7.9085094030e+01   2.1791850839e+01    0.2494435    0.2128923  24.40 0.0009131274    1.330    0.248
        23 -14.5129      6.3954    234.4330   7.8208077790e+01   2.2413327806e+01    0.5768564    0.3272753  31.32  0.002301395    1.479    0.324
        24 -11.2364     99.5849    246.8388   5.8334545464e+01   1.0350462568e+01    0.2034047    0.1383694  19.24 0.0004981149    1.325    0.245
        25 -10.6086    246.1653    245.1823   3.1206910427e+01  -4.8977865128e+00    0.1182746   0.09034428 -10.56 0.0002400729    1.275    0.215
        26 -10.8908    132.0050    245.0350   5.1325200994e+01   6.8689031922e+00    0.1730624    0.1280073  49.06  0.001039876    1.620    0.383
        27 -11.3632    205.7988    243.8391   3.7345209185e+01  -1.0370773494e+00    0.1365045    0.1122286  14.80 0.0006722115    1.361    0.265
        28 -10.9355    153.1906    243.7972   4.6926167451e+01   4.6127733075e+00     0.156313     0.113106  -1.36 0.0003609852    1.296    0.228
        29 -11.5237    143.5593    242.7688   4.8711115824e+01   5.8780191090e+00    0.2350394    0.1769942 -34.51  0.001596916    1.449    0.310
        30 -11.2051    127.7478    242.9746   5.1967486640e+01   7.6970010540e+00     0.201836     0.134118  42.13 0.0004000923    1.525    0.344
        31 -11.1009     54.4285    242.8550   6.7923487530e+01   1.6127795625e+01     0.294904     0.125505  19.77  0.001343511    2.525    0.604
        32 -10.9626    222.5261    242.5286   3.4433213942e+01  -2.4910727715e+00    0.1043101   0.07605095  -4.25 -7.623048e-05    1.035    0.034
        33 -11.3465    184.7256    241.0377   4.0629394824e+01   1.5058543876e+00    0.2386211    0.1468529 -48.77  0.001331241    2.168    0.539
        34 -11.6685    117.5063    241.4055   5.3943221356e+01   9.1673882657e+00    0.2194935    0.1853066  44.77  0.001051479    1.275    0.216
        35 -11.1921    217.6906    241.3115   3.5037344066e+01  -1.8855253915e+00    0.0871354   0.07873829  11.36 0.0002838715    1.624    0.384
        36 -11.0369    102.0146    238.5217   5.6980890367e+01   1.1510563036e+01    0.1690676    0.1616119 -49.07 0.0006815485    1.258    0.205
        37 -11.4984    207.3976    236.4705   3.6050941763e+01  -2.6203838151e-01    0.2039683   0.09026153  27.47  0.001180424    2.068    0.517
        38 -11.0972    137.7853    236.1688   4.9078068473e+01   7.6045934594e+00    0.1769539    0.1439144  33.92 0.0006691756    1.234    0.189
        39 -11.8712    165.6685    234.2744   4.3263674674e+01   4.5994133682e+00    0.2347113    0.1672117  29.12  0.000926547    1.323    0.244
        40 -10.6793     47.4257    235.2606   6.9005744568e+01   1.8334006685e+01    0.1558323    0.1043082  73.98 0.0006878601    1.579    0.367
        41 -11.6579    158.4676    233.4962   4.4560725120e+01   5.5597988143e+00    0.1964683    0.1652808   1.78 0.0005398314    1.063    0.060
        42 -11.2453    101.3572    233.9369   5.6648803852e+01   1.2410313814e+01    0.2267965    0.1382855  37.14 0.0006136652    1.392    0.282
        43 -14.0303     37.2165    228.6698   7.0954897076e+01   2.0714474002e+01    0.7108937    0.3680385 -44.01  0.003453794    2.872    0.652
        44 -13.0287    105.9095    226.4592   5.4810573594e+01   1.3221249846e+01    0.3726904    0.3252531 -68.67  0.002473728    1.384    0.277
        45 -11.5061     71.5078    233.4739   6.3357146788e+01   1.6031419918e+01    0.3476742     0.171217  14.44  0.001571705    2.548    0.608
        46 -11.4368     73.0140    229.4483   6.2662589294e+01   1.6640331609e+01    0.2208675    0.1746874  71.06 0.0007162167    1.376    0.273
        47 -12.0340     24.5171    232.6040   7.4081313350e+01   2.1156349911e+01    0.3115934    0.1968403  21.29  0.001416168    1.588    0.370
        48 -10.8743    181.6078    231.7184   3.9911145913e+01   3.1502077986e+00    0.1420028    0.1046871 -43.28 0.0009532165    1.628    0.386
        49 -11.0068    216.5158    231.0306   3.3764152032e+01  -4.8868970646e-01    0.1483457   0.08906138 -31.26 0.0004183673    1.501    0.334
        50 -10.9590    136.1047    206.1166   4.5393873993e+01   1.3047762259e+01    0.1901212    0.1597383  38.67            0    1.228    0.186
        51 -12.5067    145.4962    215.8885   4.4777959519e+01   1.0042264422e+01    0.3333856    0.3022325  22.02  0.002266065    1.149    0.130
        52 -12.6267    152.5157    229.8555   4.5258597083e+01   6.8410434508e+00    0.3135007    0.2914447  62.59   0.00223382    1.520    0.342
        53 -13.0864    147.8252    223.9401   4.5413872029e+01   8.3803196182e+00    0.3524993    0.3095992 -85.23 0.0006990107    1.707    0.414
        54 -11.7366    142.2010    212.1824   4.4948372931e+01   1.1124720431e+01    0.2898579    0.2043817  16.26 0.0007901101    1.339    0.253
        55 -12.2841    140.1526    207.7335   4.4744598188e+01   1.2199432430e+01    0.2950229     0.256262 -85.01  0.001328131    1.604    0.376
        56 -10.5576    123.6902    231.7002   5.1504875854e+01   1.0070056664e+01    0.1219626   0.08623148  -5.53 0.0002807237    1.601    0.375
        57 -11.8393    194.5613    228.0045   3.7046325915e+01   2.2303683846e+00    0.2251716    0.1664794 -23.36 0.0007735908    1.234    0.190
        58 -11.7068    138.3428    227.9856   4.7925481266e+01   8.8873208042e+00    0.2202221    0.1986322 -43.92 0.0005839223    1.324    0.244
        59 -13.3681     13.9651    217.0162   7.5853267830e+01   2.5390550243e+01    0.9421479    0.4826495  35.08   0.00513001    1.582    0.368
        60 -12.5064     80.6234    227.0573   6.0674911603e+01   1.6210503704e+01    0.3038019    0.2478752  58.39   0.00101795    1.247    0.198
        61 -12.9931    115.7955    225.6231   5.2500201304e+01   1.2131698723e+01    0.3286798    0.2953193 -86.58  0.002058434    1.412    0.292
        62 -11.8899     29.7223    226.7959   7.2597462188e+01   2.1846500495e+01    0.2611663    0.1432514  39.24   0.00133039    1.432    0.302
        63 -12.0417     33.6612    223.6729   7.1500064858e+01   2.2109201228e+01    0.2079123    0.1756467 -18.17  0.001152029    1.570    0.363
        64 -13.2119     13.5436    194.7570   7.4951493418e+01   3.0466800070e+01    0.3146451     0.261346  71.39 0.0004224738    1.079    0.073
        65 -13.2037     10.4877    190.3740   7.5544374788e+01   3.1768168553e+01    0.8417159    0.3424426  10.23  0.002744251    3.466    0.711
        66 -12.2131      4.4865    207.0780   7.7761087334e+01   2.8388339764e+01    0.2239933    0.1483818  83.48 0.0003810932    1.408    0.290
        67 -14.2849      3.7945    201.2442   7.7724261209e+01   2.9767490537e+01     1.013996    0.5823659 -85.47  0.005600363    1.686    0.407
        68 -13.0854      3.5970    221.7046   7.8452340091e+01   2.5271885647e+01    0.5516853    0.2086704 -66.75  0.002605965    2.923    0.658
        69 -13.6003      1.6983    217.3856   7.8762351919e+01   2.6348519287e+01    0.6391068    0.3094777 -58.85  0.002954858    2.558    0.609
        70 -13.2752    160.7595    223.0327   4.2669162056e+01   6.9226102644e+00    0.4022588    0.3126246  15.16  0.002120106    1.102    0.093
        71 -11.5746     92.0862    224.6951   5.7776650987e+01   1.5275760927e+01    0.2083275     0.180813 -46.20 0.0006060001    1.331    0.249
        72 -12.8015    173.8519    220.6893   3.9780602226e+01   5.6938354262e+00    0.3970693    0.2395041 -57.13  0.002137918    2.569    0.611
        73 -11.7579    110.9926    233.2834   5.4448840630e+01   1.1353862894e+01    0.1820739    0.1428454  39.85 0.0002407622    1.204    0.169
        74 -11.7290     52.8291    223.3863   6.6921051081e+01   2.0155069115e+01    0.2262498    0.1776932 -69.16  0.001081662    1.449    0.310
        75 -13.2027    125.0259    221.8952   4.9998715368e+01   1.1629863845e+01    0.3828236    0.2864735  25.99  0.001411716    1.157    0.136
        76 -13.5414    127.6334    214.1626   4.8403720213e+01   1.2698662263e+01    0.4814991    0.3345103  57.31  0.001697411    1.905    0.475
        77 -10.9219     61.0154    223.5157   6.4979574629e+01   1.9213117285e+01    0.1924511    0.1092192  28.93 0.0005910143    1.530    0.346
        78 -11.9853    239.6755    220.3375   2.8573320816e+01  -1.4311173473e+00    0.1726626    0.1388563 -15.92 0.0009050816    1.281    0.219
        79 -12.5969     14.0608    210.1082   7.5535001143e+01   2.6899478029e+01    0.2703378    0.2142221  72.81 0.0004197641    1.149    0.130
        80 -11.5115    190.2664    220.0254   3.6635967436e+01   3.8517140031e+00    0.1591659    0.1252768 -12.94 0.0003999731    1.087    0.080
        81 -10.9940     77.0894    219.8200   6.0809440628e+01   1.8081349477e+01    0.2040016    0.1478978  48.45 0.0009486033    1.266    0.210
        82 -13.1493     49.3425    216.8814   6.7274750103e+01   2.1908752845e+01    0.5032926    0.2333128 -68.74  0.002284865    2.328    0.570
        83 -13.9561    193.9674    212.0430   3.4753870706e+01   4.5920375736e+00    0.3615308    0.2502819 -29.24  0.001059882    1.315    0.239
        84 -11.2091    122.0008    217.4693   5.0097952593e+01   1.2829013060e+01    0.1897449    0.1498675  27.09  0.001165212    1.109    0.098
        85 -11.9996    119.8400    213.8493   5.0110642772e+01   1.3790610120e+01    0.2675605    0.1899219  57.31  0.001283134    1.759    0.432
        86 -11.6243     92.5818    217.1844   5.6845758332e+01   1.6690323815e+01    0.3201084    0.1541293  33.58  0.001029503    1.749    0.428
        87 -10.4205    226.2821    216.3746   3.0014070763e+01   4.0407775132e-01     0.115661   0.06547678 -12.19 0.0007013117    1.708    0.414
        88 -12.4932    108.1404    214.2849   5.2852002084e+01   1.5252014442e+01    0.3441394    0.2349663 -67.83  0.001270145    1.814    0.449
        89 -12.3902    250.6210    215.6898   2.6282690522e+01  -1.9034067145e+00    0.1930171   0.07769898 -35.53 0.0004253905    2.054    0.513
        90 -11.4560     83.8045    214.3442   5.8635100051e+01   1.8375519650e+01    0.3424886    0.2103706  55.99  0.001764648    1.766    0.434
        91 -11.4747    156.0704    213.5426   4.2243555232e+01   9.0714067181e+00     0.354138      0.21662  39.71  0.001678404    1.705    0.413
        92 -10.8181    115.2934    214.2827   5.1202453809e+01   1.4310024363e+01    0.1253118   0.09377519  -7.43 0.0006954192    1.536    0.349
        93 -11.1970     72.8874    212.1933   6.1077014639e+01   2.0178931936e+01    0.1972155    0.1516473  46.29 0.0003023242    1.159    0.137
        94 -11.5651     41.8974    211.6246   6.8726855821e+01   2.3854169802e+01    0.2854264    0.2209883 -21.66  0.001658134    1.748    0.428
        95 -11.6161    161.1986    216.6093   4.1656546224e+01   7.9060245013e+00    0.1984408    0.1556043 -33.29 0.0002564602    1.302    0.232
        96 -13.5199    180.1243    207.9157   3.6651030986e+01   6.9159234055e+00     0.361566    0.2421468 -23.93  0.001185052    1.417    0.295
        97 -11.0484    172.5605    211.3119   3.8624209423e+01   7.3283475990e+00    0.1671492    0.1026476 -29.82 0.0009493536    1.603    0.376
        98 -11.5395    187.1179    209.7511   3.5636451219e+01   5.7623369621e+00    0.1655721    0.1486625   5.33 0.0005815447    1.225    0.183
        99 -11.0907     97.0490    209.2241   5.4853836915e+01   1.7723730706e+01     0.353225    0.1728966 -76.35   0.00141766    3.363    0.703
       100 -11.9464     53.7269    209.4645   6.5597914964e+01   2.3031628261e+01    0.3597301      0.18806  57.71  0.001693012    1.955    0.488
       101 -12.4670    161.0739    207.7000   4.0346384198e+01   9.4064481258e+00      0.26993    0.2401554 -70.85  0.001009192    1.603    0.376
       102 -12.9499     37.2141    207.4321   6.9608999129e+01   2.5278795000e+01    0.3970171    0.3463166   4.22  0.001056869    1.375    0.273
       103 -12.0124     35.6846    203.6835   6.9739922393e+01   2.6286291329e+01    0.1927018    0.1848441  62.97 0.0009615218    1.160    0.138
       104 -11.0115    103.5666    205.2701   5.2790809850e+01   1.7663938915e+01    0.1648384    0.1244851 -43.37 0.0002893477    1.462    0.316
       105 -11.0211     20.9701    204.1620   7.3523675180e+01   2.7616508023e+01    0.2266898    0.1661129  86.46  0.001246176    1.326    0.246
       106 -12.6313    145.7320    202.0200   4.2680374175e+01   1.2478191047e+01    0.4200693    0.3106763  59.64  0.002102928    1.929    0.482
       107 -11.3734     86.5783    193.1984   5.5474111269e+01   2.2559329353e+01     0.255558    0.1774112  30.63 0.0006356973    1.331    0.249
       108 -12.9116     91.3859    198.5719   5.4930559664e+01   2.0724948139e+01    0.8484259    0.3103619 -55.15  0.002984527    2.821    0.646
       109 -13.1450     84.2552    199.6585   5.6864082578e+01   2.1440611930e+01    0.6164425    0.4399407 -41.42  0.003116575    1.631    0.387
       110 -11.8843    135.9661    199.4215   4.4426204088e+01   1.4326623837e+01    0.3516127    0.1980844 -72.24  0.001400668    3.624    0.724
       111 -10.7408    212.6761    200.3638   2.9671014231e+01   4.0954058541e+00    0.1005195   0.09241039 -61.90 0.0007040115    1.789    0.441
       112 -11.4638    121.3305    200.3369   4.7904550754e+01   1.6209191442e+01    0.1706354    0.1325362 -65.29 0.0006470561    1.541    0.351
       113 -12.8507    122.5533    196.3364   4.7032827711e+01   1.6836109799e+01    0.3474472    0.3064371  61.00  0.001446735    1.310    0.236
       114 -10.6646    182.7281    198.6577   3.4675707091e+01   8.0645109880e+00    0.1263215   0.08271123 -12.59 0.0003123938    1.613    0.380
       115 -11.7868    176.9565    198.5043   3.5748041895e+01   8.8480725074e+00    0.1828489    0.1128403  29.26 0.0008813405    1.569    0.362
       116 -12.3942    150.3125    197.2392   4.0950744973e+01   1.2713962396e+01     0.359222    0.1546648 -43.74  0.001602202    2.347    0.574
       117 -10.3521     53.5484    198.4274   6.4677140713e+01   2.5539930091e+01    0.1320993      0.11942  46.43 4.781494e-05    1.055    0.052
       118 -13.1919     26.0053    183.4077   7.0912877793e+01   3.2070063536e+01     0.442327    0.2715997  39.91  0.002306986    1.431    0.301
       119 -13.1950     22.6392    196.5538   7.2667011705e+01   2.9224200167e+01    0.4855602    0.2755133  23.05   0.00233405    1.764    0.433
       120 -11.4172     21.9867    192.0341   7.2570464621e+01   3.0356462492e+01    0.2847721    0.1633883  70.60  0.001148304    1.666    0.400
       121 -11.9340     24.9384    188.7875   7.1571043372e+01   3.0859163354e+01    0.3342649    0.1608234  39.54  0.001586084    1.747    0.427
       122 -12.4560     20.0348    187.9587   7.2850610864e+01   3.1516799364e+01    0.5022897    0.1640588  39.85   0.00206783    2.371    0.578
       123 -11.8894    172.9796    197.2663   3.6317080338e+01   9.5858574499e+00    0.1756894    0.1511445  -2.69  0.001152096    1.013    0.013
       124 -12.8000     35.7223    195.9251   6.9175245571e+01   2.8081586677e+01    0.5425448    0.2580727  41.33  0.002564944    1.755    0.430
       125 -11.2065    115.4560    204.0542   4.9802901068e+01   1.6285960753e+01    0.1837111    0.1314248 -54.83 0.0004862487    1.546    0.353
       126 -12.6778    193.1042    193.9874   3.1991836393e+01   7.4656505000e+00     0.250065    0.1899349 -29.31 0.0007515476    1.195    0.163
       127 -11.3727    188.9070    191.9532   3.2411610414e+01   8.3384734526e+00    0.1802051    0.1557647  -4.56 0.0004677624    1.066    0.062
       128 -11.2912    164.1881    191.8550   3.7176857419e+01   1.1731504884e+01    0.1808703    0.1737177  37.04 0.0008293648    1.281    0.219
       129 -12.4509    133.3691    190.8154   4.3675777207e+01   1.6372664762e+01    0.3406104    0.2298319 -27.21  0.001753156    1.692    0.409
       130 -11.5831    111.5115    191.5272   4.8966601383e+01   1.9416174723e+01    0.2369898    0.1476857  48.28 0.0007248443    1.697    0.411
       131 -12.4397    110.3234    188.0552   4.8744041223e+01   2.0328658982e+01    0.2630267    0.2428863  73.11  0.000759004    1.201    0.167
       132 -10.7710     52.5738    192.5019   6.4384477537e+01   2.7035068005e+01     0.135453    0.1208482  55.16 0.0001185798    1.016    0.015
       133 -10.6199     50.2667    190.3529   6.4804587039e+01   2.7811801724e+01    0.1868646     0.112564  40.29  0.000378546    1.454    0.312
       134 -10.7879    141.3678    191.4672   4.1974885527e+01   1.5076821112e+01    0.1282709    0.1196335  -1.24 -1.276931e-05    1.047    0.044
       135 -13.0776    119.2037    189.0099   4.6720272257e+01   1.8822695377e+01    0.3680063    0.3579104  25.67  0.002100539    1.069    0.064
       136 -10.9329    175.1575    188.6081   3.4441904734e+01   1.0761718433e+01    0.1798712     0.110565  18.77 0.0009425299    1.745    0.427
       137 -11.4216    153.0000    187.9950   3.8864869867e+01   1.4038663505e+01    0.2136472   0.07267177 -48.16 0.0008091609    2.989    0.665
       138 -10.4523    104.2887    188.2975   5.0286602093e+01   2.1154655273e+01     0.135434    0.1048261 -15.38  0.000214309    1.555    0.357
       139 -12.0440    226.4438    186.5809   2.5175165090e+01   4.4559122059e+00    0.2062403    0.1789945 -22.91 0.0006521674    1.265    0.210
       140 -10.8744    186.8314    186.8149   3.1915214576e+01   9.4563519223e+00     0.153774     0.145076 -33.68 0.0004501939    1.304    0.233
       141 -11.5086    165.4875    186.2984   3.5971246250e+01   1.2537442208e+01     0.270671    0.2165748  72.95  0.001027578    2.040    0.510
       142 -12.7990    128.0279    186.0717   4.4156131368e+01   1.8119691645e+01    0.3443772    0.2401695  39.93  0.001782383    1.403    0.287
       143 -12.3884      2.4062    184.5345   7.7448742763e+01   3.3818463711e+01    0.2911749    0.2266891  62.60 0.0006519128    1.064    0.060
       144 -13.2415      1.8514    176.7949   7.7282460023e+01   3.5758175963e+01    0.8940979    0.1808021 -84.04  0.002710844    4.800    0.792
       145 -11.6192    156.1720    184.4866   3.7593630932e+01   1.4228060668e+01    0.2382787    0.1635469 -69.67  0.001157535    2.342    0.573
       146 -12.2746     32.9452    183.8257   6.9009500798e+01   3.1279685623e+01    0.3433382    0.1635322  56.07  0.001030559    2.028    0.507
       147 -12.3448    105.1386    183.0424   4.9291055690e+01   2.2185164566e+01    0.2887111    0.1991421 -55.91 0.0006219755    1.531    0.347
       148 -10.2031     54.5250    184.5880   6.3068083507e+01   2.8697454707e+01    0.1371972    0.1248438  50.67 0.0003068676    1.037    0.036
       149 -10.4962    205.5005    183.5000   2.8028126758e+01   7.5057583384e+00    0.1210641   0.09987361 -16.05  3.35046e-05    1.025    0.024
       150 -12.2478     94.6251    180.6880   5.1664777458e+01   2.4261043408e+01    0.4231524    0.2553248 -62.44  0.001993685    1.784    0.439
       151 -12.4317    120.5043    180.5061   4.5056039225e+01   2.0422019910e+01    0.2559829    0.2176556  53.37 0.0005426286    1.269    0.212
       152 -12.2816    115.1644    178.6179   4.6066728880e+01   2.1646842793e+01    0.2867645     0.210265  13.58 0.0006267819    1.519    0.342
       153 -11.7139    118.3192    177.6905   4.5130569388e+01   2.1363136804e+01    0.2160195    0.1809386 -88.83 0.0005468904    1.472    0.321
       154 -12.6720      7.7052    176.0101   7.5603576961e+01   3.5508947411e+01    0.3402327    0.2189291 -47.24 0.0001542681    1.905    0.475
       155 -10.8560     59.1727    180.3808   6.1317092149e+01   2.9154948074e+01    0.1945274    0.1619141  44.54 0.0001693705    1.099    0.090
       156 -11.4932     55.9903    177.7869   6.1926662409e+01   3.0185431001e+01    0.2069037    0.1857882  57.36  0.001198519    1.008    0.008
       157 -11.0823    161.0435    179.5350   3.5706047046e+01   1.4425790051e+01    0.1833856    0.1246019  32.99 0.0003047756    1.464    0.317
       158 -11.9725    110.5445    179.5196   4.7372368025e+01   2.2153497477e+01    0.2971386     0.131522  33.25  0.001012569    2.133    0.531
       159 -12.2311     15.7259    183.8189   7.3786170418e+01   3.2909972245e+01    0.3078497    0.1954936 -58.91 0.0009837981    1.743    0.426
       160 -12.7509    137.6750    176.4271   4.0285065600e+01   1.8616709124e+01    0.4121634    0.2833871  64.49  0.001838512    2.189    0.543
       161 -13.9590    128.5173    175.4660   4.2270879510e+01   2.0250396502e+01    0.5558272    0.4756584 -55.18  0.001916764    1.247    0.198
       162 -11.9793     63.4256    176.6168   5.9677162007e+01   2.9540655433e+01    0.3029304    0.2406247  -3.10 0.0007844793    1.566    0.361
       163 -12.8935     30.6113    175.9058   6.9040331755e+01   3.3488486013e+01    0.4253826    0.2215345 -63.96  0.001055846    1.926    0.481
       164 -10.8526    216.2738    175.9957   2.4931829852e+01   7.2668902184e+00    0.1691209    0.1269646 -25.09 0.0003147621    1.091    0.083
       165 -12.7349    106.6863    175.4537   4.7708827961e+01   2.3648625213e+01    0.3115683    0.2381685  49.91 0.0009149615    1.341    0.254
       166 -11.2329     36.2386    175.4805   6.7376153778e+01   3.3017270145e+01    0.2550217     0.183296 -82.84  0.001357472    1.367    0.269
       167 -12.0668     14.2817    171.1154   7.3441280517e+01   3.6209411136e+01    0.2579251    0.1991568 -73.22 0.0005547626    1.303    0.233
       168 -12.0650     23.6651    167.6305   7.0425248450e+01   3.6272311829e+01    0.4740905    0.2587687  59.56  0.002209636    1.751    0.429
       169 -12.7144      6.1109    159.1288   7.5171194090e+01   3.9943187595e+01    0.3961117    0.2270151  10.15  0.001454083    2.089    0.521
       170 -13.6541     20.1662    174.0370   7.1921650330e+01   3.4955055286e+01     0.516359    0.4506234   4.77  0.002741099    1.373    0.272
       171 -13.4854     15.5661    166.7252   7.2780741995e+01   3.7225777933e+01    0.6360337    0.4279492  52.62  0.001702449    1.327    0.247
       172 -11.5858     12.1602    161.1908   7.3445891704e+01   3.8941587856e+01    0.2833044    0.1745967  32.89 0.0006847553    1.550    0.355
       173 -10.7722    153.6743    175.6829   3.6581310915e+01   1.6276864550e+01    0.1403467   0.09974962  -9.25 0.0007044788    1.673    0.402
       174 -12.2569    144.9588    173.4686   3.8101976258e+01   1.8072165000e+01    0.3221646    0.2031064  56.99  0.001467257    2.251    0.556
       175 -13.3924     90.7840    171.2925   5.1287315895e+01   2.7021009628e+01    0.4975689    0.3831775 -64.16  0.001752498    1.359    0.264
       176 -13.2035     78.3163    172.5183   5.4929953878e+01   2.8535551227e+01    0.6377639    0.2875726  49.79  0.002447921    2.416    0.586
       177 -11.1153     50.4749    174.0506   6.3102165479e+01   3.1782362840e+01    0.2041819    0.1358929 -77.13  0.000374118    1.527    0.345
       178 -11.6197    149.0793    173.3015   3.7154575618e+01   1.7457294074e+01     0.188985    0.1701174  20.07 0.0004005815    1.086    0.079
       179 -12.6367    155.2609    171.1068   3.5407488824e+01   1.6915129358e+01    0.5099068    0.2440727  49.46  0.002069662    2.772    0.639
       180 -12.7101    153.1726    165.4606   3.4804931987e+01   1.8354999490e+01    0.4312294    0.3045618  72.45     0.001983    2.461    0.594
       181 -12.5230    197.2113    170.4280   2.7114280218e+01   1.0727074356e+01    0.3895922    0.1961982  37.15  0.001627477    2.153    0.535
       182 -10.9671     53.5814    170.1427   6.1755899272e+01   3.2395370484e+01    0.3458323   0.09534839 -59.06  0.001151542    3.307    0.698
       183 -10.7729     59.0740    170.4694   6.0182934685e+01   3.1628188239e+01    0.2107741    0.1366091  28.40 0.0004489857    1.521    0.342
       184 -12.8081    120.5567    168.2836   4.2964668575e+01   2.3066867370e+01    0.4009264    0.2351016  26.30  0.001788893    1.834    0.455
       185 -11.9274     38.6105    168.6271   6.6039237965e+01   3.4509974110e+01     0.322945    0.1088712  44.80 0.0006828354    2.662    0.624
       186 -12.3395     31.2510    168.3156   6.8211678893e+01   3.5359774263e+01    0.3593494    0.2180628  46.47   0.00139577    1.495    0.331
       187 -12.3701    127.5430    166.5309   4.0923687910e+01   2.2316116263e+01     0.255874    0.2396486   1.72 0.0008638861    1.056    0.053
       188 -11.4244     64.4845    166.4810   5.8084829113e+01   3.1932043245e+01    0.2329314    0.1212045  40.65  0.000789144    1.772    0.436
       189 -12.1292    168.9653    165.6963   3.1538898258e+01   1.5787278533e+01    0.3593529    0.1589562  30.35  0.001473831    2.658    0.624
       190 -12.2779    103.0597    165.6280   4.7038822303e+01   2.6470480960e+01    0.2402444    0.2095033 -84.28  0.001299164    1.261    0.207
       191 -11.4425    218.0221    164.7770   2.2628023509e+01   8.7557872877e+00    0.1969749    0.1432452 -31.02  0.000426397    1.140    0.122
       192 -12.7403     83.1208    166.0200   5.2615671188e+01   2.9430244776e+01    0.4452148    0.2494129  68.21  0.001294132    2.699    0.630
       193 -12.8214    109.8475    164.9596   4.5122877008e+01   2.5541800428e+01    0.3816553    0.2377439  29.91 0.0008731159    1.621    0.383
       194 -12.4491    112.7581    161.0044   4.3654571842e+01   2.5975923839e+01    0.2729957    0.2459682 -72.99 0.0009588046    1.189    0.159
       195 -13.1351     93.3129    163.2049   4.9296623475e+01   2.8573267474e+01    0.4730963    0.2720641  47.90  0.001238666    1.787    0.440
       196 -11.7693      7.5263    163.2321   7.4974082094e+01   3.8772566103e+01    0.2260953    0.1741668  34.55 0.0004537005    1.287    0.223
       197 -12.1575      3.6123    168.3239   7.6398405451e+01   3.7757503102e+01    0.4781367    0.1736206  30.49  0.002036616    2.379    0.580
       198 -11.8283     75.6950    160.9901   5.3995275532e+01   3.1763539483e+01    0.2042867    0.1892855 -86.38 0.0003889874    1.078    0.072
       199 -10.8776     48.8554    160.8623   6.2086065876e+01   3.5355296580e+01    0.2103345    0.1940329 -44.48 0.0004493277    1.222    0.181
       200 -12.7742     37.4804    160.6561   6.5580737292e+01   3.6703542791e+01     0.529117    0.2088464  34.67  0.001598698    2.233    0.552
       201 -11.8895    170.7441    159.9796   3.0081240423e+01   1.6571541693e+01    0.1980702    0.1704273 -30.66  0.001180485    1.071    0.066
       202 -13.5198     60.0492    157.3464   5.8181260021e+01   3.4862458899e+01    0.6864959    0.3406474 -38.70  0.001845816    2.881    0.653
       203 -11.9480     25.3073    159.7378   6.9278476883e+01   3.8175728949e+01    0.3074991    0.2186181  32.93 0.0007015231    1.376    0.273
       204 -12.6414    104.3664    157.6751   4.5290323839e+01   2.8131355174e+01     0.466629    0.2906451  74.76  0.001808154    2.693    0.629
       205 -10.9588    151.5698    158.5331   3.3820500661e+01   2.0003085405e+01    0.2598412    0.1244169  49.02  0.001036265    2.555    0.609
       206 -12.6679    133.1674    155.6181   3.7493247128e+01   2.3738521586e+01    0.4529944    0.2494013 -42.80  0.001091847    1.831    0.454
       207 -13.0435    118.7394    156.9404   4.1347391861e+01   2.5905681050e+01    0.3843927    0.2785183 -10.03  0.001777256    1.873    0.466
       208 -10.8125    212.6684    156.3425   2.1892977846e+01   1.0820357406e+01    0.1174993    0.0941093 -62.85 0.0001110921    1.752    0.429
       209 -10.9334    190.4794    155.9827   2.5563687971e+01   1.4177437559e+01    0.1735392    0.1081548 -60.22 0.0006938115    2.395    0.582
       210 -11.6408    141.2807    155.9373   3.5635341066e+01   2.2279973252e+01    0.1961645    0.1757011 -38.24 0.0003002436    1.089    0.082
       211 -12.2497     42.7616    155.4414   6.3348832313e+01   3.7493507705e+01    0.2642567    0.2402749  72.92 0.0004237088    1.006    0.006
       212 -13.5362      4.2683    150.3547   7.5241267161e+01   4.2380383401e+01    0.6858356    0.4738935 -31.18  0.003306101    1.840    0.456
       213 -12.9438     11.7982    143.9506   7.2345996781e+01   4.3546529855e+01    0.5544716    0.2922612 -88.23  0.002047061    1.785    0.440
       214 -10.3733    195.2683    154.3109   2.4390865753e+01   1.3728786723e+01    0.1282205   0.09070484 -13.65 0.0002200456    1.543    0.352
       215 -11.7648    172.5112    153.4926   2.8447140323e+01   1.7498325091e+01    0.2600038     0.115259 -34.22  0.001038472    2.445    0.591
       216 -12.7648     81.1391    152.6678   5.1044283750e+01   3.3055605123e+01    0.3909328    0.2561552 -62.42  0.001503949    1.541    0.351
       217 -13.6541     74.7190    150.7606   5.2667573149e+01   3.4509605007e+01    0.5483549    0.3505306  45.60  0.001585914    1.531    0.347
       218 -12.3105     84.3087    149.9781   4.9634306303e+01   3.3244517213e+01    0.2994177    0.2526045  -5.12 0.0009632527    1.426    0.299
       219 -11.8208     54.3029    153.9576   5.9508701600e+01   3.6493557043e+01     0.207397    0.1889369 -83.68 0.0006676321    1.074    0.069
       220 -11.4974     67.4780    153.5120   5.5331077039e+01   3.4845666393e+01    0.1465258     0.141558  74.05 6.653198e-05    1.038    0.037
       221 -10.6201    250.4889    157.5430   1.6696771974e+01   5.6867325361e+00    0.1140667   0.08484204 -25.05 0.0008089266    1.020    0.019
       222 -12.2689     27.7207    150.4092   6.7648312138e+01   4.0425918401e+01    0.3766885    0.2650577 -15.86  0.001224748    1.903    0.474
       223 -10.8051    225.5293    150.5209   1.8831209082e+01   9.9259939686e+00    0.1216166     0.097586 -28.98 3.012523e-05    1.034    0.033
       224 -12.0877    135.9978    150.0601   3.5701383026e+01   2.4449171566e+01    0.2147439    0.2095833 -39.04 0.0004106931    1.037    0.036
       225 -12.3979    109.3887    149.3844   4.2365019089e+01   2.9250106476e+01    0.3535284    0.2689362  48.93  0.001041242    1.346    0.257
       226 -12.2961     95.8796    148.9628   4.6060241329e+01   3.1631763411e+01    0.2598571    0.2165389  39.05 0.0005979902    1.182    0.154
       227 -10.9420     20.2559    148.2344   6.9892473701e+01   4.1698815216e+01    0.1962372    0.1404037  58.84 0.0002967966    1.307    0.235
       228 -12.0520    181.7010    144.9141   2.4940557262e+01   1.7560808893e+01    0.3314366    0.2502245 -76.27 0.0009578235    2.049    0.512
       229 -11.4216    171.0721    145.3112   2.7059422115e+01   1.9284103913e+01    0.1866498     0.175879  22.72 0.0006789179    1.133    0.117
       230 -10.4388    121.5388    145.4821   3.8360605840e+01   2.8029086881e+01    0.1453715    0.1441594 -66.14  4.88968e-05    1.020    0.019
       231 -12.7693    103.0888    143.1638   4.2880708911e+01   3.1825866772e+01    0.4968506    0.3374689  84.76  0.001231838    2.179    0.541
       232 -13.8400     51.1298    141.9460   5.8846437409e+01   4.0097167230e+01    0.5835996     0.454044  45.53  0.002022314    1.247    0.198
       233 -11.1190    196.2003    143.1168   2.1994016693e+01   1.5507358414e+01    0.1896435    0.1554915 -20.72 0.0003303652    1.145    0.127
       234 -11.4363     37.8402    143.0633   6.3468968664e+01   4.1366194605e+01     0.224107    0.1802644  68.50 0.0003993355    1.193    0.162
       235 -11.1431    164.9188    141.0258   2.7392410819e+01   2.1180607846e+01    0.2078678    0.1944207 -32.67  0.000582501    1.030    0.029
       236 -10.5054    150.5521    141.5238   3.0556692098e+01   2.3652958490e+01    0.1436941    0.1332063 -24.07 0.0001427222    1.048    0.046
       237 -13.0683     72.8371    139.1812   5.1260559414e+01   3.7797778648e+01    0.3308517    0.3042469  79.72  0.000375174    1.064    0.060
       238 -13.3941     68.6407    137.1149   5.2250255064e+01   3.8973069828e+01    0.3934201     0.342919  34.53 0.0007228198    1.171    0.146
       239 -12.2274      1.6467    138.3826   7.5384019924e+01   4.5751004361e+01    0.4056857    0.1512509 -78.96  0.001254342    2.362    0.577
       240 -11.1801    206.3517    139.1521   1.9519673063e+01   1.4568607560e+01    0.1716445    0.1487196  -8.48 0.0006122178    1.171    0.146
       241 -12.3354     19.6497    138.4185   6.9192160011e+01   4.4412498861e+01    0.3424288    0.2375993 -33.19 0.0005793908    1.766    0.434
       242 -11.7617    132.5552    137.7744   3.3947314483e+01   2.7755010452e+01    0.5057895    0.2059425 -42.74  0.001031849    2.517    0.603
       243 -10.8984    134.0257    133.6980   3.2687368116e+01   2.8376879844e+01    0.3489607    0.2306725 -72.08 0.0009449316    2.150    0.535
       244 -12.2748     84.6650    144.8997   4.8614581598e+01   3.4473329402e+01    0.3406544    0.2382339  -9.37  0.001445627    2.143    0.533
       245 -12.1946     41.5133    137.5396   6.1490853487e+01   4.2455903111e+01    0.3533024    0.2652542  51.06  0.001780659    1.300    0.231
       246 -11.7346     45.0254    133.9619   5.9754963632e+01   4.3017687687e+01    0.2632194    0.2345191  -4.27  0.001398468    1.311    0.237
       247 -10.9272     32.0412    136.3504   6.4638075926e+01   4.3812925102e+01    0.1965431    0.1839376  41.76 0.0005590951    1.123    0.109
       248 -13.3453    126.3907    134.1699   3.4695523670e+01   2.9709637544e+01    0.5170559    0.3845792  45.24  0.001372312    1.380    0.276
       249 -13.0346    121.9937    128.2002   3.4483160248e+01   3.1899784948e+01    0.4452031    0.3796949 -59.33  0.002298182    1.175    0.149
       250 -10.7832    196.4904    134.4618   2.0157880305e+01   1.6954952770e+01     0.132071    0.1143182 -34.96 4.364243e-05    1.033    0.031
       251 -11.5259     12.7578    134.2515   7.1222434784e+01   4.6107468517e+01    0.3243968    0.1116652  37.84  0.001080513    2.600    0.615
       252 -10.7078      7.2875    134.6604   7.3181108718e+01   4.6390237759e+01    0.1511978   0.08878609  61.20 0.0002729247    1.639    0.390
       253 -13.5615     81.6502    130.7247   4.6808931786e+01   3.8593897035e+01    0.7281324    0.4929209  -5.91  0.002468176    2.398    0.583
       254 -12.8393     19.5535    131.8311   6.8566956749e+01   4.6225548457e+01    0.4079904    0.2656253  47.35 0.0005391611    1.495    0.331
       255 -12.2211    108.0024    132.3056   3.9213457837e+01   3.3567567546e+01    0.2187814    0.1945202  42.06 0.0005778166    1.135    0.119
       256 -12.1353     60.1781    139.6967   5.5482765298e+01   3.9502228965e+01    0.2729732    0.2102472 -60.45 0.0004995626    1.283    0.220
       257 -13.3962     56.9888    127.5684   5.4497883733e+01   4.3204053165e+01    0.6270484    0.3933775 -22.97  0.002495592    2.427    0.588
       258 -10.9458    167.4543    128.9895   2.4251945499e+01   2.3060919364e+01    0.2076695    0.1289195 -43.34 1.812779e-05    1.480    0.324
       259 -12.0607    100.9990    128.6797   4.0428448026e+01   3.5728466885e+01    0.2187413    0.1968825  45.56 0.0003831988    1.117    0.105
       260 -11.1703    176.4791    127.0168   2.2077509950e+01   2.1778008164e+01    0.2008515    0.1828959  40.82 0.0004665599    1.216    0.177
       261 -12.3030     50.0577    130.4219   5.7431442589e+01   4.3356047599e+01    0.3544747    0.2250276  17.03  0.001178176    1.853    0.460
       262 -10.7535     41.4868    127.5462   6.0050299218e+01   4.5195015434e+01    0.1484549    0.1390485  89.05 3.515784e-05    1.014    0.014
       263 -10.8174     35.5465    126.5222   6.2074346775e+01   4.6146389304e+01    0.1475325    0.1367143 -86.59 0.0001743339    1.021    0.020
       264 -14.3233     75.9269    119.7016   4.6363996441e+01   4.2401035911e+01    0.8152989    0.6035669 -53.67  0.003858176    1.330    0.248
       265 -12.8796     82.6250    118.2985   4.3810686172e+01   4.1620706696e+01    0.4951329    0.3821421 -79.88   0.00168787    1.434    0.303
       266 -12.8152     74.1688    114.0833   4.5711102375e+01   4.4154971261e+01    0.3556126    0.3288889 -81.64 0.0003555557    1.059    0.056
       267 -12.5783     77.5442    113.4370   4.4396919307e+01   4.3748557425e+01    0.3853113    0.2556877 -70.13 1.542893e-05    1.645    0.392
       268 -13.2957      4.2385    121.9062   7.3290424662e+01   5.0071390619e+01    0.4719397    0.2619064 -79.71  0.002219348    1.603    0.376
       269 -11.3026    194.0284    121.9937   1.7896324584e+01   1.9539223185e+01    0.1637497    0.1434196 -36.60 0.0004872809    1.013    0.013
       270 -13.8305     14.5681    119.7082   6.9143147141e+01   4.9970236533e+01     0.588585    0.4909977   6.98  0.002690155    1.378    0.275
       271 -11.6498    105.0449    121.2964   3.7553799140e+01   3.6765911985e+01    0.2219404    0.1961367  49.09 0.0006059375    1.144    0.126
       272 -11.3110     28.4535    120.9062   6.3949022679e+01   4.8430430382e+01    0.3258193    0.1714679  40.71  0.000562671    1.871    0.466
       273 -12.2411     95.5603    119.4991   3.9967244375e+01   3.8987388149e+01    0.4101899    0.2822661 -35.65 0.0005253148    1.690    0.408
       274 -12.6780     93.4988    116.4703   3.9888157118e+01   4.0119134655e+01     0.610992    0.3245004  26.11  0.002216957    2.539    0.606
       275 -10.9699    211.3821    118.7902   1.4528664761e+01   1.7110449338e+01     0.181917    0.1053948 -31.45 0.0004074071    1.581    0.368
       276 -11.7727    121.9853    118.0012   3.2066397790e+01   3.4223892575e+01    0.2228034    0.2156571 -65.73            0    1.004    0.004
       277 -12.4755    201.7067    114.2750   1.4990356805e+01   1.9509975218e+01    0.2364232    0.2003831 -46.44 0.0003405588    1.088    0.080
       278 -11.1976    169.5506    115.0355   2.0638099183e+01   2.5336365761e+01    0.2150207    0.1286122 -42.12 0.0003361659    1.518    0.341
       279  -9.9397    143.6694    114.9868   2.6012618054e+01   3.0501115993e+01    0.2491816    0.1135839 -61.81 0.0007047108    4.289    0.767
       280 -10.9728     68.4645    115.4623   4.8023841264e+01   4.4728185022e+01    0.1539809     0.147146 -88.66 0.0001420372    1.005    0.005
       281 -11.1886    117.2904    114.3655   3.2420704584e+01   3.5992864419e+01    0.1573296     0.121891 -16.17 0.0007025767    1.705    0.414
       282 -13.3714     62.4809    111.2235   4.9260348708e+01   4.6786820761e+01    0.6641089    0.3386492 -56.78  0.001823193    1.861    0.463
       283 -13.3032     10.1491    111.8710   7.0045513329e+01   5.2452136934e+01    0.4991645    0.2105196  49.63 0.0008718564    2.497    0.600
       284 -10.5834     27.2815    125.6540   6.5021151937e+01   4.7230946065e+01    0.1561143   0.09953596  64.92  0.000701332    1.640    0.390
       285 -12.0929    205.9356    110.7806   1.3594280721e+01   1.9350493119e+01    0.2293411    0.1615164 -40.54 0.0004222398    1.190    0.160
       286 -10.5502    101.3038    109.7318   3.5820368029e+01   4.0265577871e+01    0.1537961    0.1205565  78.51 0.0002591899    1.530    0.346
       287 -10.8002    139.4474    107.2348   2.5034969731e+01   3.2988329608e+01    0.2160663    0.1365986 -55.82 0.0009408601    1.651    0.394
       288 -11.7379      1.6527    109.0698   7.3221615348e+01   5.3737567166e+01    0.2311983    0.1556603  76.51 0.0007587216    1.421    0.296
       289 -11.9645     62.0731    101.3248   4.7123587052e+01   4.9456370825e+01    0.2551817    0.2096779  88.31 0.0005495609    1.323    0.244
       290 -11.4353     13.0230    104.2515   6.7965408216e+01   5.4351799979e+01     0.192014    0.1841921 -83.76 0.0004328189    1.065    0.061
       291 -12.2234     68.4921    109.6626   4.6707761047e+01   4.6245702712e+01    0.3493355    0.2686934 -33.23 0.0008091832    1.504    0.335
       292 -11.1943    104.8391    102.1346   3.2765202941e+01   4.1345489584e+01    0.2378269    0.2071095  84.00 0.0004949102    1.240    0.194
       293 -11.0131     78.8564    102.3182   4.1206327475e+01   4.6345444291e+01    0.3166682    0.1288659  44.19  0.001083982    2.511    0.602
       294 -11.6629     55.9529    101.2195   4.9485154485e+01   5.0424911827e+01    0.2661229    0.2175753 -78.38 0.0004933552    1.248    0.198
       295 -11.7501     57.9164     97.5248   4.7818089251e+01   5.1097650741e+01     0.264277     0.255798  -2.24 0.0008334959    1.114    0.103
       296 -12.8007      5.3961    100.1322   7.0760499538e+01   5.5977281917e+01    0.5256388    0.2781005  23.84  0.002427663    1.994    0.498
       297 -12.1032      6.1714     94.8291   6.9800680702e+01   5.7380286773e+01    0.4637177    0.3139813  -1.52  0.002362461    1.728    0.421
       298 -10.2734     85.3209    100.3373   3.8459376037e+01   4.5638404122e+01    0.1598158     0.124059 -17.39 0.0007050137    1.710    0.415
       299 -11.9889     94.2940     98.5083   3.5013566909e+01   4.4331168134e+01    0.3383493    0.2744506  71.66 0.0007891757    1.381    0.276
       300 -11.4316     64.5223     98.4834   4.5477400456e+01   4.9798394901e+01    0.1542677    0.1464432  89.98 8.924669e-05    1.039    0.038
       301 -10.8672    104.0192     96.7379   3.1521021527e+01   4.2757596430e+01    0.2083274    0.1994115  51.46 0.0002056111    1.077    0.071
       302 -11.1318     98.4175     96.7522   3.3227603077e+01   4.3910584202e+01    0.2100108    0.1463467 -41.56 0.0004126624    1.490    0.329
       303 -11.4527    178.0467     96.0701   1.4543918694e+01   2.7125638552e+01    0.2287761    0.1577826 -65.90 0.0007057016    1.693    0.409
       304 -12.2491     82.3252     94.0901   3.7771342327e+01   4.7731627015e+01    0.3470936    0.2687978 -27.21  0.000694083    1.566    0.361
       305 -11.9785    120.8081     91.0462   2.5217417401e+01   4.0405326657e+01      0.46554    0.2910069 -30.89  0.001932089    1.961    0.490
       306 -10.8677     57.9899     91.6749   4.6297691780e+01   5.2600448170e+01    0.2046196    0.1905059  33.14 0.0003152835    1.117    0.105
       307 -11.0999     25.2523     91.9478   6.0631866671e+01   5.6700148252e+01    0.3956484     0.169395  31.49  0.001574624    2.308    0.567
       308 -12.9557     73.6097     89.8746   3.9712057931e+01   5.0388241397e+01    0.4286521    0.3210103 -52.82  0.001296277    1.306    0.234
       309 -10.0629    140.6725     90.6998   2.0350385622e+01   3.6085363784e+01    0.1462446    0.1206393   6.69 0.0002934971    1.639    0.390
       310 -12.5405      2.7754     87.0562   7.0425277959e+01   5.9672777147e+01    0.5268007    0.1996074 -88.82  0.001905373    2.904    0.656
       311 -12.0833     54.5700     85.4281   4.6033477661e+01   5.4729067266e+01     0.508168    0.4372211  -5.58  0.002624744    1.343    0.255
       312 -11.3632      6.9593     86.9407   6.8405156104e+01   5.9473285612e+01    0.2102163    0.1901467 -81.44 0.0005381926    1.037    0.036
       313 -12.0287    164.7870     85.1128   1.4046865746e+01   3.1844533482e+01    0.2250809    0.1830742 -63.14 0.0006003879    1.204    0.170
       314 -10.4006    134.9948     85.5115   2.0166402790e+01   3.8372993439e+01    0.2013169    0.1311223  83.62 0.0005802829    2.276    0.561
       315 -12.6685     94.7605     83.4723   3.0468782897e+01   4.7700278637e+01    0.2949727    0.2790282 -67.63 0.0003193078    1.032    0.031
       316 -10.8735     10.4742     81.9653   6.5931090894e+01   6.0589359683e+01    0.2130353    0.1254122 -70.70 0.0003486532    1.525    0.344
       317 -11.1914     65.7373     81.6078   4.0314947193e+01   5.3818553542e+01     0.299261    0.1501805  32.76  0.001146051    2.176    0.540
       318 -12.5303      4.9816     79.9768   6.8381945436e+01   6.1453857867e+01    0.3566937    0.1834066  71.59  0.001280939    2.365    0.577
       319 -12.3428    108.7504     78.6744   2.4767519167e+01   4.5679438812e+01    0.4276679    0.2566602  51.81  0.001017702    1.690    0.408
       320 -11.4754      9.7339     77.4302   6.5543061775e+01   6.1845354717e+01     0.267369    0.2063075  87.47   0.00140543    1.320    0.242
       321 -11.0628    105.0702     73.0306   2.4006092957e+01   4.7665719156e+01    0.2494038    0.1849121 -82.12 0.0006978092    1.708    0.415
       322 -10.4314    191.2950     72.2851   6.6641379362e+00   2.8372812173e+01    0.1209902    0.1049076   4.34  0.000168585    1.543    0.352
       323 -11.6900     69.4417     72.5056   3.5936974379e+01   5.5282197029e+01    0.2347113    0.2082649  16.85 4.728457e-05    1.246    0.198
       324 -11.7568     71.9737     68.8707   3.3704152850e+01   5.5611270591e+01    0.3675843    0.2728599   2.80  0.001639039    1.960    0.490
       325 -11.6704     52.5981     71.6403   4.2789452586e+01   5.8445274662e+01    0.3447772    0.2387936 -31.53  0.001106329    1.679    0.405
       326 -11.6997     89.4437     79.5704   3.0978911163e+01   4.9686762692e+01     0.322767    0.2828376  -8.41  0.001627601    1.379    0.275
       327 -11.6237    154.3089     67.9219   1.1185529946e+01   3.7171857530e+01    0.2322981    0.2045286  61.58 0.0002918317    1.214    0.176
       328 -12.0846     61.1737     67.2651   3.7551122789e+01   5.8004485968e+01    0.3786002    0.2462837  56.46  0.001547981    1.818    0.450
       329 -10.6623    124.7904     66.8111   1.6863800803e+01   4.4286193258e+01    0.2030087    0.1659119 -74.74  0.000306582    1.282    0.220
       330 -12.9970     48.0967     65.3688   4.2811295233e+01   6.0648961488e+01    0.5073102    0.3834013 -89.42  0.001462818    1.738    0.425
       331 -13.7195     17.9402     61.5332   5.7612901533e+01   6.5324265037e+01     0.385417    0.3564858  -2.42 0.0009745553    1.123    0.110
       332 -12.2193     12.6972     59.9663   6.0278600087e+01   6.6150620566e+01    0.2836318     0.243829  18.67 0.0007602695    1.241    0.194
       333 -11.3585     27.6490     60.4174   5.1776614460e+01   6.4614426865e+01    0.2172338    0.1970045  52.23  0.000494512    1.210    0.173
       334 -12.3919     32.9161     57.6657   4.7967095363e+01   6.4635371892e+01    0.4418247    0.3030569  73.13  0.001045179    2.148    0.534
       335 -12.8486     37.4601     54.0163   4.4191154408e+01   6.4864764334e+01     0.562263     0.243792 -53.53  0.002265371    2.210    0.548
       336 -11.2384    135.6425     59.3182   1.2125692690e+01   4.3011730082e+01    0.1583358    0.1068894 -72.93 0.0002572793    1.756    0.430
       337 -11.1890     96.9266     56.4703   2.0641666670e+01   5.2741818202e+01    0.2210685    0.2004008 -49.79 0.0004297326    1.110    0.100
       338 -10.8983    179.7316     56.0655   4.0290960717e+00   3.3301744950e+01    0.1864063    0.1539037 -49.09 0.0003025857    1.079    0.074
       339 -11.4437    110.6982     55.3166   1.6435191076e+01   4.9696672998e+01    0.3037602     0.198116 -77.15  0.001270237    2.141    0.533
       340 -13.2389    109.1775     50.8768   1.5232781395e+01   5.0821590698e+01    0.6837613    0.2821474  53.47  0.001580789    2.335    0.572
       341 -11.2152    195.2981     52.4842   1.2484659022e+00   3.0471393056e+01    0.2207433    0.1528957 -41.68 0.0006995553    1.245    0.197
       342 -10.5419    146.7801     52.9903   8.0794096248e+00   4.1363440971e+01    0.1835622    0.1116942 -37.39 0.0003166115    1.593    0.372
       343 -10.8099    122.3233     52.3178   1.2635269911e+01   4.7392666728e+01    0.1455976    0.1157162  24.38 0.0007043927    1.669    0.401
       344 -11.2396    151.5083     51.0407   6.6973986195e+00   4.0534086595e+01     0.213674    0.1335228 -36.35 0.0005226545    1.560    0.359
       345 -13.0727     30.2665     49.5510   4.6572067105e+01   6.6853377315e+01    0.3593672    0.2657256  -4.81  0.001867548    1.558    0.358
       346 -11.7802     16.2563     50.0517   5.5319435744e+01   6.8280232182e+01    0.2240704    0.1889921  28.52 0.0002950891    1.261    0.207
       347 -12.5070     97.5738     47.3319   1.7006691680e+01   5.4198837511e+01    0.5604661    0.3376541 -78.78  0.002082858    2.944    0.660
       348 -10.5930      2.3468     47.2948   6.3704897102e+01   6.9954877627e+01    0.2361739    0.1331137 -28.16  0.001160393    1.823    0.451
       349 -11.0354      3.4897     44.4444   6.2182717997e+01   7.0577672132e+01    0.2295467    0.1797805  78.23 0.0009185554    1.514    0.339
       350 -11.4403    142.2423     45.9867   6.6735606461e+00   4.3519857233e+01    0.1967383    0.1754099 -57.49 0.0003118616    1.069    0.064
       351 -10.5835    182.2287     45.6282   9.5652954845e-01   3.4238584749e+01    0.1648832    0.1191839  62.71 0.0002810429    1.519    0.342
       352 -11.6547     49.4705     43.9235   3.3807935892e+01   6.5088048949e+01    0.2431777    0.1959916  33.50 0.0004984773    1.231    0.188
       353 -11.3104     90.5021     43.4757   1.7544230845e+01   5.6513064446e+01    0.3660256    0.1628896  45.24  0.001392801    2.364    0.577
       354 -12.4821     93.8400     40.3607   1.5304278124e+01   5.6224201640e+01    0.3176112     0.243378  44.52 0.0005302193    1.342    0.255
       355 -13.2231     32.4703     40.3815   4.1529250766e+01   6.8553704119e+01     0.756593     0.338227  40.75  0.003183601    2.336    0.572
       356 -10.7656    120.9441     39.5147   8.4567090152e+00   4.9710645767e+01    0.2055594    0.1353931  65.20 -2.359591e-06    1.463    0.316
       357 -12.3542     80.3413     37.7606   1.8350130962e+01   5.9805208034e+01    0.4906117    0.2420979 -40.26  0.002068124    2.078    0.519
       358 -12.5640     77.5401     30.5382   1.6030069808e+01   6.1562389498e+01    0.3198896    0.2838029 -81.85 0.0005380783    1.229    0.186
       359 -11.0651     72.6362     31.0464   1.7943449731e+01   6.2608329241e+01    0.2163546    0.1813591  55.52 0.0005249514    1.140    0.123
       360 -10.7087     13.9606     40.0000   5.3432380657e+01   7.0827899716e+01    0.2036058   0.07375534  21.49 0.0004636378    2.854    0.650
       361 -12.0259     10.0335     36.9551   5.5124550211e+01   7.1861165348e+01    0.2015459    0.1780075  -6.38 0.0003358063    1.111    0.100
       362 -11.6261      4.9205     36.4681   5.8754874965e+01   7.2357479226e+01    0.2979809     0.174549 -79.32   0.00146351    2.044    0.511
       363 -12.2123     18.3066     34.5620   4.8203462085e+01   7.1587434981e+01    0.6416005    0.1784084  40.97  0.002049437    4.606    0.783
       364 -11.1788     86.5726     34.0204   1.4757944404e+01   5.8928224860e+01    0.2199624    0.1634595  57.32  0.001118667    1.277    0.217
       365 -12.0880     42.3170     34.0026   3.2878786207e+01   6.8253197936e+01    0.2886217    0.2207465  30.12 0.0008108091    1.293    0.227
       366 -12.3322     30.7659     31.6245   3.8465944737e+01   7.0569532751e+01    0.2348118    0.1670311  40.50 0.0009714913    1.458    0.314
       367 -11.3353      1.9740     30.6838   5.9076577290e+01   7.3860866493e+01    0.1735092    0.1497476 -14.41 0.0003493647    1.110    0.099
       368 -11.7828    137.9885     29.8288   2.1057087784e+00   4.6786633152e+01    0.2198845    0.1898779 -49.51 0.0003528153    1.140    0.123
       369 -11.0458     96.7916     30.6250   1.0500622629e+01   5.6946342789e+01     0.200939    0.1297731  74.27 0.0006021856    1.638    0.390
       370 -11.3832     67.6136     28.3725   1.8485551476e+01   6.4135685534e+01     0.268453    0.1274634 -39.92  0.001136984    2.193    0.544
       371 -11.8513     60.9704     29.3386   2.1589393572e+01   6.5430837590e+01    0.1978744    0.1701212  45.40 0.0004720984    1.106    0.096
       372 -10.7745     52.3366     29.6711   2.5584999735e+01   6.7149643401e+01    0.1365631     0.110117 -87.51 0.0007051964    1.729    0.422
       373 -10.7425    116.5187     26.4326   4.5224636424e+00   5.2581974411e+01    0.1397152     0.127014  86.06 5.722081e-05    1.018    0.018
       374 -11.3903     45.5687     25.7997   2.6870116461e+01   6.9098418710e+01    0.1864614    0.1265858 -50.55  0.000948727    1.706    0.414
       375 -12.7879     86.5970     23.9853   1.0296096109e+01   6.0317659498e+01    0.5545427    0.2318792  57.04  0.001924264    2.146    0.534
       376 -10.4828      1.4843     25.4895   5.7544144362e+01   7.5039722610e+01     0.124176    0.1111722 -31.33 2.748413e-05    1.040    0.039
       377 -10.8691     98.4902     24.5400   7.5368642732e+00   5.7328540862e+01    0.1397077    0.1286695  78.51 5.935924e-05    1.004    0.004
       378 -10.7618     19.3307     23.6830   4.2185282311e+01   7.3682512273e+01    0.1762099    0.1484994  71.59   0.00071857    1.680    0.405
       379 -11.0880    113.2133     23.2084   3.9138752631e+00   5.3807407429e+01    0.1970173    0.1818217  59.54 0.0004458086    1.134    0.118
       380 -11.6725     70.7246     20.9876   1.3684771687e+01   6.4465044112e+01    0.2279314    0.1903092  55.90 0.0005971513    1.117    0.105
       381 -11.1317     98.9964     20.2905   5.6249412034e+00   5.7718893014e+01    0.1999007    0.1680312  75.21 0.0005551836    1.104    0.094
       382 -10.6118    141.4306     18.7981   3.5797634503e+02   4.7245575251e+01    0.1597459    0.1326955 -14.64 0.0002922346    1.474    0.322
       383 -10.5691     81.2911     19.3333   9.6050206481e+00   6.2180638259e+01    0.1401883    0.1006214  29.60 0.0003919019    1.632    0.387
       384 -11.0337    132.7057     16.9633   3.5849751169e+02   4.9616703907e+01    0.1825137    0.1658431 -68.30 0.0004035267    1.073    0.068
       385 -10.6118    125.4225    249.5144   5.3177348119e+01   6.9237217666e+00     0.116332   0.09417246  20.80 0.0001877207    1.019    0.018
       386 -11.5590    114.2028    247.8523   5.5330738886e+01   8.4868470133e+00    0.2692361    0.1673755 -51.68  0.001299608    1.919    0.479
       387 -12.4435    162.4838    247.4959   4.5594552169e+01   3.0311477518e+00    0.2066119     0.166711  12.88 0.0001706001    1.085    0.078
       388 -11.2414     68.2512    247.1566   6.5173805256e+01   1.3837567164e+01    0.2673587    0.1490133  68.26  0.001433766    2.280    0.561
       389 -11.2356     58.2297    248.0633   6.7431863054e+01   1.4755411372e+01    0.2055302    0.1350066  32.80 0.0006687036    1.215    0.177
