#   1 NUMBER                 Running object number                                     
#   2 MAG_AUTO               Kron-like elliptical aperture magnitude                    [mag]
#   3 X_IMAGE                Object position along x                                    [pixel]
#   4 Y_IMAGE                Object position along y                                    [pixel]
#   5 X_WORLD                Barycenter position along world x axis                     [deg]
#   6 Y_WORLD                Barycenter position along world y axis                     [deg]
#   7 A_WORLD                Profile RMS along major axis (world units)                 [deg]
#   8 B_WORLD                Profile RMS along minor axis (world units)                 [deg]
#   9 THETA_WORLD            Position angle (CCW/world-x)                               [deg]
#  10 FWHM_WORLD             FWHM assuming a gaussian core                              [deg]
#  11 ELONGATION             A_IMAGE/B_IMAGE                                           
#  12 ELLIPTICITY            1 - B_IMAGE/A_IMAGE                                       
         1 -11.8960     62.4341     71.7306   1.0709259077e+02   5.4979941369e+01     1.012452    0.1226089 -46.01  0.002479555    6.902    0.855
         2 -10.1222     12.5154     21.4722   1.0983228960e+02   6.8829567929e+01    0.1101958   0.08098554 -15.42 0.0001632227    1.005    0.005
         3  -9.8151    147.3183    239.6671   1.1960060314e+02   2.9243777540e+00    0.1357888   0.09829555  68.30 0.0003233744    1.693    0.409
         4  -9.9384    145.3114    233.6384   1.1911956252e+02   4.4043228684e+00    0.1394221    0.1009642  71.85 0.0007041131    1.749    0.428
         5 -10.3803     84.4775    227.5269   1.3113520915e+02   1.5720101398e+01    0.1341643    0.1120101  70.04 5.821039e-05    1.021    0.020
         6 -10.4737    162.8135    224.7229   1.1400536167e+02   3.0434070035e+00    0.2728468    0.1989349 -27.58  0.001421371    1.649    0.394
         7 -10.2979    149.4675    223.9546   1.1672703987e+02   5.5591018080e+00    0.1878844     0.123024 -83.06  0.000809428    2.542    0.607
         8  -9.8683    126.4447    220.5441   1.2118465346e+02   1.0314377065e+01    0.1399206    0.1251803  59.99 0.0001529032    1.027    0.027
         9 -10.0650     83.2957    219.6751   1.3043848489e+02   1.7605948392e+01     0.140881   0.09082295  71.69  0.000332319    1.624    0.384
        10 -10.0428     74.5100    219.5410   1.3229470149e+02   1.8949467012e+01    0.1350772    0.1113552  73.59  4.62025e-05    1.037    0.035
        11  -9.6681    112.3177    216.6854   1.2371367376e+02   1.3571426084e+01    0.1460208   0.09992148  70.56 0.0007037577    1.649    0.394
        12 -10.1000    132.0000    213.9639   1.1893808204e+02   1.0723036976e+01    0.2207941   0.08122647 -54.01 0.0007962873    2.900    0.655
        13 -10.0957    143.6662    216.5169   1.1677840413e+02   8.0961424419e+00    0.2369654    0.1328876 -52.48  0.001072346    1.921    0.479
        14 -10.4098    116.4646    210.4835   1.2186257627e+02   1.4215409678e+01    0.3254994    0.1964447  72.53  0.001366709    2.345    0.574
        15 -10.1098    177.5043    210.5259   1.0841210267e+02   3.1388991135e+00    0.1402181    0.1316608  26.11 0.0002197085    1.021    0.021
        16  -9.7327    148.4797    209.9911   1.1462321664e+02   8.5733408297e+00    0.1967583    0.1275989 -81.34 0.0008005899    2.515    0.602
        17 -11.5379    186.3308    204.6909   1.0546620307e+02   2.6599601046e+00    0.2945542    0.2386297  77.32  0.001522047    1.714    0.417
        18 -11.8380    162.9039    194.3064   1.0857035236e+02   9.1651600348e+00     0.463911    0.3557202 -87.67  0.001958538    1.793    0.442
        19 -12.2798    165.0122    202.1903   1.0958225211e+02   7.1173683240e+00    0.6705818    0.3489006 -53.53  0.002805657    2.144    0.534
        20 -12.2387    177.8013    198.2805   1.0606406008e+02   5.5081863799e+00    0.3623371    0.3066165  85.73  0.001731249    1.521    0.343
        21 -10.9708    149.2452    198.1145   1.1235117757e+02   1.0954006166e+01    0.4293111    0.2653918 -75.22  0.001707906    2.575    0.612
        22 -11.4102    124.8138    197.7005   1.1788585894e+02   1.5588815306e+01    0.3803549    0.3062939  83.58  0.001348495    1.372    0.271
        23 -10.5229     88.6173    198.5698   1.2643509486e+02   2.1577497868e+01    0.3757699    0.1800162 -80.18  0.001324878    3.291    0.696
        24 -10.5181    113.0655    197.8741   1.2064652853e+02   1.7647741981e+01     0.326118    0.2010611  74.17  0.001351401    2.288    0.563
        25  -9.9520    193.6766    196.3399   1.0232841357e+02   2.9302017279e+00    0.1408817    0.1159471  86.80 0.0007050925    1.723    0.420
        26 -11.8352    171.9765    196.1681   1.0692334733e+02   7.0415533129e+00    0.4116237    0.2407141  36.59  0.001825444    1.701    0.412
        27 -11.2081    173.3846    191.7299   1.0575703524e+02   7.6909292195e+00    0.2978896    0.2397355  80.22 0.0008284436    1.635    0.388
        28 -11.3506    186.4393    193.8146   1.0335274716e+02   4.7779206112e+00    0.2747474    0.2357963  79.43  0.001028563    1.487    0.328
        29 -10.2383     66.1899    193.8307   1.3095816240e+02   2.6050361133e+01    0.3027121    0.1040916 -71.47   0.00102066    3.457    0.711
        30 -10.5589    199.8388    191.6161   1.0012633326e+02   2.7089968295e+00    0.2009569    0.1320789  50.28 0.0009460637    1.701    0.412
        31 -10.9388    139.0984    188.9819   1.1300348845e+02   1.4900569793e+01    0.4200048    0.2479264 -63.60  0.001758887    2.000    0.500
        32 -10.1258    210.6748    189.3488   9.7490963543e+01   1.1626298203e+00    0.1383485    0.1145385 -84.26  0.000704923    1.751    0.429
        33 -10.4319    129.4835    188.1817   1.1511619745e+02   1.6899449391e+01    0.3535055    0.2405286 -83.27   0.00139644    1.990    0.498
        34 -10.9343     86.9000    188.6112   1.2535902206e+02   2.4207007252e+01    0.2981221    0.1826624 -83.76  0.001186193    1.943    0.485
        35 -10.3661    192.7413    188.1673   1.0090518652e+02   4.7142476579e+00    0.2304794    0.1876664 -65.98  0.001184096    1.504    0.335
        36 -10.9512    156.2349    187.0228   1.0867219348e+02   1.2025892015e+01    0.3681275    0.2379954 -65.23  0.001495373    1.932    0.482
        37 -11.4456    120.4558    184.8450   1.1666440985e+02   1.9347829676e+01    0.7594185    0.2697087 -62.13  0.002253401    3.919    0.745
        38  -9.8355    218.0070    188.0000   9.5785081379e+01   1.0279921193e-01    0.2208717   0.07848133  41.82 0.0007379504    2.920    0.658
        39 -10.4575    165.5003    186.8089   1.0653623762e+02   1.0260843975e+01    0.2947195    0.2391265  74.10  0.001061934    1.505    0.336
        40 -10.8819     94.7013    184.9870   1.2291252582e+02   2.3815319893e+01     0.607792    0.2273114 -63.44  0.002114097    2.912    0.657
        41  -9.7164     34.3228    187.0025   1.3738429853e+02   3.1666492174e+01    0.2164868   0.08725871  87.18 0.0007045234    4.250    0.765
        42 -10.4627    109.2435    185.6994   1.1951522037e+02   2.1162932080e+01    0.3479548    0.2140729  88.85  0.001374226    2.475    0.596
        43 -11.4831    204.4944    184.9920   9.7848401871e+01   3.1310512516e+00    0.2718982    0.2071616  58.55    0.0011059    1.611    0.379
        44 -10.2504    183.3079    184.4574   1.0215624245e+02   7.2773689049e+00    0.2526335    0.1820233 -65.99  0.001065852    1.790    0.441
        45 -11.0969    174.7509    183.7572   1.0387422351e+02   9.0961494867e+00    0.3721435    0.2631641  62.10  0.001703303    1.754    0.430
        46 -10.8348     83.3964    182.1678   1.2520901883e+02   2.6309011670e+01    0.2092722    0.1288547 -76.37 0.0007844666    1.738    0.425
        47 -11.7475    147.7973    179.7673   1.0919779889e+02   1.5297148604e+01    0.4909792    0.3219109 -63.30  0.002150212    1.758    0.431
        48 -11.1236    192.6155    178.1808   9.8893697756e+01   6.7520363674e+00    0.3012268    0.2354034  74.38  0.001045346    1.745    0.427
        49 -10.8203    137.9118    178.6980   1.1132454741e+02   1.7477196829e+01    0.3004639    0.2259144 -62.79 0.0009466995    1.402    0.287
        50  -9.4302    205.6686    178.3163   9.6243765747e+01   4.2156773407e+00    0.1419894    0.1170405 -86.95 0.0006292444    1.685    0.406
        51  -9.9869    129.7058    177.5744   1.1307855923e+02   1.9320100267e+01    0.2684987    0.1893959 -79.90  0.001182665    1.797    0.443
        52 -10.8723    183.3354    176.2946   1.0047362509e+02   8.9694312716e+00    0.2892082    0.2690414  89.04  0.001323834    1.215    0.177
        53 -10.6374     76.2126    175.4057   1.2591651140e+02   2.9051435164e+01    0.2586732    0.1624121  56.98 0.0009428191    1.695    0.410
        54 -11.3731     12.5444    175.2836   1.4105013073e+02   3.6580181099e+01    0.3180499   0.09332406 -70.39  0.001316565    2.630    0.620
        55 -10.4342    159.6806    175.3381   1.0554523174e+02   1.3922195216e+01     0.243981    0.1861448  83.34  0.001103435    1.760    0.432
        56 -10.1749    105.7945    175.2072   1.1851094294e+02   2.4283576994e+01    0.2640064    0.1549677  75.34 0.0009564934    2.828    0.646
        57 -10.7176      2.2984    171.7942   1.4299447896e+02   3.8240547693e+01    0.3963675   0.09770114 -80.98  0.001224282    5.062    0.802
        58 -10.8497    177.3418    171.1437   1.0069620681e+02   1.1265007608e+01    0.3999695    0.2607689 -73.89  0.001563407    2.507    0.601
        59 -10.1360    142.4645    172.0319   1.0890762913e+02   1.8121601664e+01    0.2401242    0.1507753 -51.91  0.001033738    1.602    0.376
        60 -10.1382    134.5063    170.6142   1.1054179044e+02   2.0023031820e+01     0.328956    0.1509078 -52.17  0.001216709    2.188    0.543
        61 -10.6068    168.3657    169.0560   1.0225269115e+02   1.3547268654e+01    0.3337721    0.2388714 -68.41  0.001338248    1.751    0.429
        62 -10.6539    150.1257    169.3545   1.0653309559e+02   1.7199556753e+01    0.3470195    0.2571774 -69.03  0.001502186    1.572    0.364
        63 -11.1221    121.4510    168.7337   1.1338351899e+02   2.2984707009e+01     0.530294    0.3079268 -71.56  0.002037845    2.324    0.570
        64  -9.8834     88.3994    168.1879   1.2164688677e+02   2.8934372461e+01    0.2163099    0.1338441 -73.42 0.0009488438    1.758    0.431
        65  -9.7498    185.5391    167.4821   9.8136474612e+01   1.0380549896e+01     0.148899    0.1456553 -49.50 0.0002809836    1.043    0.041
        66  -9.8294    111.5108    167.0126   1.1554442310e+02   2.5245506346e+01    0.2203249     0.132433 -81.66  0.000810502    2.569    0.611
        67 -10.5579    192.6945    165.7221   9.6243728339e+01   9.3007837459e+00    0.3107498    0.1797532 -62.73  0.001176626    2.539    0.606
        68 -11.6859    139.4096    164.2673   1.0804110148e+02   2.0536991395e+01    0.6285292    0.3530982 -66.02  0.002341205    2.382    0.580
        69 -10.4333     99.1013    165.7025   1.1845819262e+02   2.7762711049e+01    0.3396501    0.2277441  78.88  0.001465169    1.980    0.495
        70 -10.3389    159.8589    164.0923   1.0313729963e+02   1.6400747827e+01    0.3447387     0.230444 -69.78   0.00142314    1.995    0.499
        71 -10.5466     79.2669    163.2068   1.2312918972e+02   3.1595680197e+01    0.4867953    0.2507241 -86.71  0.001578302    3.777    0.735
        72 -11.3774    213.4878    164.1368   9.1720866241e+01   5.5117150167e+00    0.2833839    0.1982054  65.38   0.00116096    1.963    0.491
        73 -12.1533    205.3659    162.3032   9.2920496028e+01   7.4647618380e+00    0.4363457    0.2475592 -44.51  0.001609142    1.685    0.407
        74 -10.9249    177.6534    159.8807   9.8196844729e+01   1.3629246480e+01    0.4806052    0.2920733 -58.14  0.001978881    1.915    0.478
        75 -10.2796    151.8250    160.5520   1.0425799840e+02   1.8865389575e+01    0.3222354    0.2083131 -66.25  0.001316481    1.935    0.483
        76 -10.5119     92.4903    159.9888   1.1910123416e+02   3.0285092311e+01    0.3498542    0.2336743  88.07  0.001515994    1.979    0.495
        77 -11.7207    196.7431    157.3132   9.3575606066e+01   1.0220668641e+01    0.4553601    0.3151147 -62.78  0.001701351    1.766    0.434
        78  -9.8778    128.3943    158.6389   1.0958175088e+02   2.4057909895e+01     0.303263    0.1427504 -65.04 0.0009525219    3.197    0.687
        79 -10.3979    188.5365    157.2842   9.5277276869e+01   1.1918703223e+01    0.2916208    0.1444429 -48.63  0.001123261    2.027    0.507
        80 -11.5542    167.9865    156.6714   9.9647076950e+01   1.6360622413e+01     0.559473    0.2497504 -53.81  0.001935268    2.543    0.607
        81 -10.5735    157.9458    155.8267   1.0177566299e+02   1.8664990177e+01    0.3762111    0.2170296 -64.10  0.001398209    2.341    0.573
        82 -11.7133    205.0686    155.1814   9.1430838050e+01   8.9632107391e+00    0.3364789    0.2070629 -47.17  0.001055641    1.574    0.365
        83 -10.8441    119.3954    154.8987   1.1107980301e+02   2.6703434094e+01    0.4446371    0.2663514 -72.60  0.001698825    2.308    0.567
        84 -10.6277     49.6324    154.7586   1.2948730186e+02   3.7712877639e+01    0.4432766    0.2515684  79.09  0.001900504    2.464    0.594
        85 -10.4525    144.8526    154.5781   1.0462694922e+02   2.1685677261e+01    0.3188239    0.2104919 -67.54  0.001189559    1.875    0.467
        86 -10.8264     81.4529    153.5631   1.2081931532e+02   3.3646427388e+01    0.4737951    0.2755084 -74.14  0.001996251    2.011    0.503
        87 -10.4012     67.4337    153.2684   1.2452169174e+02   3.5781703832e+01    0.3506896    0.2140961  87.61  0.001473525    2.235    0.553
        88 -11.7458    190.5651    149.9530   9.3216232331e+01   1.3039618299e+01    0.4682775    0.3336672 -64.28  0.002115759    1.682    0.405
        89 -10.1687    182.4170    150.7421   9.5122116229e+01   1.4596418111e+01    0.3045354    0.1445898 -49.17   0.00112931    2.129    0.530
        90 -10.6561    105.2208    157.3948   1.1526934968e+02   2.8725193348e+01    0.3927736    0.2634618 -80.91  0.001664172    1.908    0.476
        91 -10.0237     98.4183    150.1779   1.1560826734e+02   3.1692876965e+01    0.3608486    0.1463193 -63.73  0.001148413    3.146    0.682
        92 -10.8611     28.4578    149.2967   1.3422329945e+02   4.1311251508e+01    0.4253767    0.1879247  88.67  0.001495353    3.877    0.742
        93 -11.9401    200.4681    148.5832   9.0885258147e+01   1.1251716413e+01    0.3451922    0.2766168 -48.55  0.001709154    1.205    0.170
        94 -10.8182     39.1769    146.8448   1.3104666050e+02   4.0827407177e+01    0.4857161    0.2447979  88.05  0.001894676    3.060    0.673
        95  -9.9672    234.3163    147.6534   8.4391451605e+01   4.7145787290e+00    0.1433315    0.1070058 -69.94 0.0007048097    1.722    0.419
        96 -11.6097    148.9911    144.2861   1.0129353021e+02   2.3191643836e+01    0.7318754    0.4215974 -66.78  0.002631419    2.537    0.606
        97 -11.1586    107.0024    144.2301   1.1205205536e+02   3.1612266546e+01    0.7592764    0.4528821 -75.15  0.002877722    2.449    0.592
        98 -11.0324    133.3260    152.6498   1.0705192758e+02   2.4496322658e+01    0.4619914     0.288352 -72.74  0.001773614    2.275    0.560
        99 -11.4062     55.7214    144.2917   1.2614135386e+02   3.9542830703e+01    0.7341082    0.3388073 -75.56  0.002759778    2.803    0.643
       100 -10.6698     12.8675    145.7787   1.3777918949e+02   4.3502320814e+01    0.2542251    0.1371527  82.15  0.001248606    2.163    0.538
       101  -9.6411    209.3179    144.6468   8.8274087425e+01   1.0222565427e+01    0.1535674    0.1155375 -75.43 0.0003028424    1.744    0.426
       102 -10.7810    165.8037    143.5278   9.7157463730e+01   1.9743677856e+01    0.3905592     0.213767 -50.61  0.001537113    1.850    0.459
       103 -11.1717    124.6429    141.7554   1.0683178418e+02   2.8823307810e+01    0.6982493    0.3286995 -63.14  0.002252512    3.055    0.673
       104 -10.7838     87.7805    142.4493   1.1691555296e+02   3.5380180116e+01    0.6170095    0.1913317 -57.67  0.001934396    3.204    0.688
       105 -10.5304    182.1699    141.3139   9.3018475447e+01   1.6668456200e+01    0.3079545     0.199541 -67.82  0.001231403    2.123    0.529
       106 -11.0018      2.3170    141.1376   1.3991188318e+02   4.5356259762e+01    0.3245127   0.09825645 -81.24  0.001092334    4.237    0.764
       107 -10.5866    172.6331    138.1963   9.4370528593e+01   1.9423280829e+01    0.3926599    0.2328657 -63.80   0.00148047    2.290    0.563
       108 -10.3626     68.3863    137.7854   1.2140621549e+02   3.9463337589e+01    0.4413131    0.1418752 -65.58   0.00126555    4.242    0.764
       109 -11.2799     22.6438    135.9961   1.3390438348e+02   4.5024679838e+01    0.6740348     0.260776 -77.77  0.002594477    3.044    0.671
       110 -11.4025    197.7787    136.2927   8.8633874594e+01   1.4344873485e+01    0.5738586    0.1930786 -47.20  0.001835105    2.958    0.662
       111 -10.0525    162.5061    136.0201   9.6148918833e+01   2.2126425776e+01     0.248411     0.152895 -47.72  0.001031417    1.599    0.374
       112 -11.0647     38.8790    135.5871   1.2934804973e+02   4.3589062046e+01    0.2832972    0.1644176 -83.09  0.001331711    1.984    0.496
       113  -9.8820    188.0000    135.0603   9.0333660383e+01   1.6721045333e+01    0.2615703   0.08514218 -43.27 0.0008044852    2.957    0.662
       114 -10.6831    179.7581    133.1355   9.1618832708e+01   1.8940743864e+01    0.4100449     0.197144 -52.59  0.001485866    2.271    0.560
       115 -10.3588    112.6838    133.0117   1.0798799221e+02   3.3239662848e+01    0.2909991    0.2195352  71.35  0.001326637    1.646    0.392
       116 -11.5600     83.2182    129.6000   1.1546573119e+02   3.9237441259e+01    0.9487605    0.3174163 -58.68  0.003037042    3.194    0.687
       117 -10.6133    143.0427    131.0451   9.9612806131e+01   2.7486655676e+01    0.4685097    0.2496484 -57.11  0.001742254    2.155    0.536
       118 -11.1364    131.7501    129.6248   1.0212581768e+02   3.0207010503e+01    0.7244563    0.2988674 -52.05  0.002451891    2.529    0.605
       119 -10.5474    204.9708    130.0340   8.5796337320e+01   1.4070038779e+01    0.2488532     0.182935 -76.33  0.001140254    1.753    0.429
       120 -10.3002    192.9745    129.7974   8.8085353470e+01   1.6723452615e+01    0.2920289    0.2156381 -45.82   0.00139104    1.293    0.227
       121 -10.9282    168.7600    129.3096   9.3113552325e+01   2.2206860664e+01    0.3926514     0.205506 -57.62  0.001415876    2.355    0.575
       122 -10.7890    152.8137    128.0218   9.6492504468e+01   2.6033749336e+01    0.6451378     0.210452 -49.36  0.001917663    3.223    0.690
       123 -11.5931     98.5405    125.6996   1.1019183342e+02   3.7586664357e+01    0.9682122    0.3953819 -59.77  0.003174529    3.030    0.670
       124 -10.6312     72.8467    128.8479   1.1830656137e+02   4.0998010780e+01    0.4116324     0.205798 -67.95  0.001594308    2.417    0.586
       125 -12.2475     12.4399    126.3740   1.3533875058e+02   4.8095488753e+01    0.8239038     0.218391 -68.64  0.003096335    3.112    0.679
       126  -9.8735    212.3071    129.6492   8.4340715892e+01   1.2586049376e+01    0.1541251    0.1124742 -72.54 0.0003985541    1.710    0.415
       127  -9.5751    186.6508    129.3155   8.9261002364e+01   1.8218278155e+01    0.1604903    0.1210525 -83.52 0.0007047316    1.727    0.421
       128 -10.7023    117.4113    124.5810   1.0468410876e+02   3.4292300472e+01    0.5427489    0.3082436 -66.80  0.001982616    2.531    0.605
       129 -11.3658     59.0932    123.5804   1.2125773895e+02   4.4143798490e+01    0.6565703    0.3447095 -79.97  0.002387577    3.297    0.697
       130 -10.6559    179.8798    123.6565   8.9321466633e+01   2.0911638184e+01    0.4626081    0.2564833 -42.94  0.001880849    1.756    0.431
       131 -11.6925     43.0234    120.5757   1.2547197887e+02   4.6743380606e+01    0.9735634    0.4209149 -77.19  0.003165263    4.270    0.766
       132 -11.8113     27.7674    121.6288   1.3020136552e+02   4.7981013214e+01    0.7177335    0.3549604  81.22  0.002431379    4.822    0.793
       133 -10.1874    188.8452    123.5511   8.7440095911e+01   1.8921407194e+01    0.3281389    0.1947336 -57.78  0.001330551    1.927    0.481
       134  -9.4516    192.6548    136.6791   8.9753855475e+01   1.5370365869e+01    0.1560623    0.1224786   1.93  0.000704972    1.731    0.422
       135 -10.0695    172.4461    120.7430   9.0206352648e+01   2.3202434031e+01    0.3109406     0.145845 -48.34  0.001134833    2.141    0.533
       136 -10.1932    158.4133    120.7921   9.3379401958e+01   2.6365714887e+01    0.3170711    0.1475887 -48.94  0.001140261    2.182    0.542
       137 -11.1454    141.5563    117.5356   9.6615798648e+01   3.0822886887e+01     0.826349    0.3019383 -51.95  0.002531794    3.164    0.684
       138 -10.9818     70.8045    119.1964   1.1680359181e+02   4.3594430016e+01    0.3781808    0.1918823 -65.82  0.001506638    2.323    0.570
       139 -10.4055    130.3380    117.7007   9.9518214541e+01   3.3202934386e+01    0.4694763    0.2351963 -60.28  0.001597202    2.765    0.638
       140 -12.1272      2.5297    115.0884   1.3654152480e+02   5.1339635234e+01    0.7765383    0.2453028 -76.48  0.002865178    3.692    0.729
       141 -10.1239    185.6831    115.4812   8.6134023436e+01   2.1278085303e+01    0.2818163    0.1372902 -42.13  0.001077774    1.994    0.498
       142 -10.8307    193.2966    114.8236   8.4465567736e+01   1.9685548336e+01    0.3233392    0.1222888 -47.72  0.001085611    2.648    0.622
       143 -11.2793    108.6766    112.0964   1.0395149769e+02   3.8841949091e+01    0.7788193    0.2921631 -51.84   0.00260185    2.787    0.641
       144 -11.5874     92.4392    110.3828   1.0820608478e+02   4.2201387224e+01    0.9365616    0.3214546 -53.99   0.00304218    3.114    0.679
       145 -11.3196     78.7060    111.6640   1.1264887504e+02   4.4166551126e+01     0.671859    0.3577561 -69.69  0.002477235    2.941    0.660
       146 -10.0809    174.7294    111.3853   8.7391707707e+01   2.4616252429e+01     0.303294    0.1797766 -52.91  0.001249118    1.767    0.434
       147 -10.5301    121.7867    111.2829   1.0012393512e+02   3.6407962481e+01    0.3930217    0.1824418 -52.15  0.001427664    2.296    0.564
       148 -11.7158     14.1528    109.6873   1.3225839089e+02   5.1817346255e+01    0.4777219    0.2414522 -73.50  0.002402107    1.913    0.477
       149  -9.6903    159.3118    111.6700   9.0863127750e+01   2.8097037851e+01    0.1612041    0.1227646 -81.94 0.0003894825    1.671    0.401
       150 -11.1717     66.1366    109.5454   1.1600972451e+02   4.6494908970e+01    0.5149902    0.2492993 -64.46  0.002028124    2.506    0.601
       151 -10.1237    189.4059    107.6960   8.3495289560e+01   2.1978585986e+01    0.3089974    0.1362704 -46.37   0.00113822    2.208    0.547
       152 -11.9038     45.0677    100.9686   1.2073577020e+02   5.1041827483e+01    0.9295751    0.5220681 -78.82  0.003854818    2.965    0.663
       153 -12.6196     21.9747    100.1128   1.2806643583e+02   5.3392224601e+01     1.010078    0.4666373 -78.74   0.00399129    3.448    0.710
       154 -10.2260    139.4936    102.7979   9.3270156601e+01   3.4419229919e+01    0.5058552    0.1521232 -41.91  0.001504119    3.380    0.704
       155 -10.3854    149.8567    101.3264   9.0362451927e+01   3.2385448531e+01    0.5935233    0.1728005 -49.71  0.001582393    4.314    0.768
       156 -11.5320      6.4322    102.3344   1.3340442688e+02   5.3971857712e+01    0.3148853    0.1779622 -76.57  0.001730605    1.754    0.430
       157 -10.4470    128.4040    101.5663   9.5770016616e+01   3.7097828580e+01    0.3803612    0.2165819 -56.29  0.001507723    2.073    0.518
       158 -11.3704    108.8020     97.8503   1.0010444866e+02   4.1907957529e+01    0.8025342    0.4967731 -67.15  0.003184116    2.472    0.595
       159 -10.8720     81.8712     99.0667   1.0846852342e+02   4.6479791361e+01    0.5523793    0.2023867 -53.52  0.001931347    2.878    0.653
       160 -11.6069     63.3534     94.2010   1.1309632403e+02   5.0290724674e+01    0.7971846    0.3363475 -59.50  0.003007608    2.863    0.651
       161 -10.9621     94.9032     95.0270   1.0338483393e+02   4.5115819604e+01    0.6528004      0.20257 -45.43   0.00214278    3.095    0.677
       162 -12.7046      5.1335     89.8094   1.3161828547e+02   5.6783159677e+01    0.6435887    0.2577088 -62.37  0.003219839    1.941    0.485
       163 -11.2677     34.6307     87.3424   1.2105642556e+02   5.5082246756e+01     0.765882    0.2154458 -54.93  0.002954487    2.859    0.650
       164 -11.2329     86.4830     85.9597   1.0339495258e+02   4.8456960285e+01    0.5900696    0.3122373 -58.38  0.002368129    2.544    0.607
       165 -11.4160     48.2243     82.7805   1.1518722364e+02   5.4604749925e+01    0.7234031    0.3300945 -57.88  0.003165863    2.334    0.572
       166 -11.1408     24.2414     80.4933   1.2306167605e+02   5.7439146076e+01    0.3677021    0.2520694  88.13  0.001955849    2.423    0.587
       167 -11.0552     24.6661     74.1489   1.2135379719e+02   5.8701165472e+01      0.49881     0.166693 -35.13  0.001897372    3.547    0.718
       168 -10.4716     74.4883     80.0204   1.0550310686e+02   5.1597397339e+01     0.317108    0.1308888 -52.46  0.001209243    2.742    0.635
       169 -10.1811    138.4743     90.7617   9.0234330036e+01   3.7062328712e+01    0.4462214    0.1456548 -43.27  0.001422836    3.081    0.675
       170 -10.1904    119.3137     79.8679   9.2040854879e+01   4.3317736385e+01    0.2989712    0.1261619 -47.46  0.001085634    2.614    0.617
       171 -10.2091    160.4856    239.5163   1.1685665137e+02   7.0737939701e-01    0.1336296    0.1177374  39.41 0.0001566535    1.029    0.028
       172 -11.2693     82.0682     71.1994   1.0036991747e+02   5.2043740886e+01    0.6506615    0.2307697 -49.35  0.002288782    3.358    0.702
       173  -9.4204    115.6548     72.3373   9.0777892845e+01   4.5447347842e+01    0.1459787    0.1158165 -85.03 0.0007048729    1.775    0.437
       174 -10.5238    105.5010     71.0273   9.3200792275e+01   4.7753173059e+01    0.3222087    0.1322819 -45.78  0.001211805    2.655    0.623
       175 -10.6562     94.8296     70.2663   9.6100938438e+01   4.9944533899e+01    0.4656174    0.1818731 -49.44  0.001653115    3.224    0.690
       176 -11.3114    104.4553     81.9397   9.6799689364e+01   4.5952084379e+01    0.5961595    0.2858605 -51.12  0.002330273    2.429    0.588
       177 -10.8108    124.3172     88.8417   9.3306456621e+01   4.0545294514e+01    0.6662486    0.2585852 -42.00   0.00235824    2.594    0.615
       178 -11.0817     51.1284     68.1692   1.1001158567e+02   5.7144009628e+01    0.6402102    0.2269205 -55.71  0.002237382    4.015    0.751
       179 -10.9779     16.3759     69.4217   1.2323571608e+02   6.0286272581e+01    0.3358768    0.1002914 -57.32  0.001414829    2.816    0.645
       180 -10.0570    110.1803     63.5147   8.9552717009e+01   4.8085910975e+01    0.2584144    0.1631465 -58.44  0.001140592    2.274    0.560
       181 -10.4230     37.1473     63.7537   1.1384942998e+02   5.9563133123e+01    0.2333102    0.1427516 -61.63  0.001220465    2.112    0.527
       182 -10.2089    100.1407     59.5796   9.1133721661e+01   5.0742277178e+01    0.3661781    0.1422656 -45.69  0.001362089    3.042    0.671
       183  -9.9988    100.4612     54.6632   8.9444213339e+01   5.1452878526e+01    0.2806051    0.1566208 -15.96  0.001166054    2.620    0.618
       184 -10.7389     73.0437     57.8913   9.9060384076e+01   5.5856301273e+01    0.5693678    0.1906691 -46.16  0.002098922    3.385    0.705
       185 -10.4877     24.8119     59.2222   1.1725718213e+02   6.1578878805e+01    0.1765209    0.1290586  71.21 0.0009541422    2.819    0.645
       186 -11.9154      7.3843     56.8091   1.2346998754e+02   6.3315777534e+01    0.3563862    0.1874592 -67.60  0.001883769    2.444    0.591
       187  -9.9933    119.3896     56.1545   8.4812310355e+01   4.7306018401e+01    0.1984996     0.126766 -46.73 0.0009503744    1.777    0.437
       188 -10.4945    127.8890     73.4084   8.7900877635e+01   4.2627112975e+01    0.5894269    0.1929799 -37.14  0.001944584    3.264    0.694
       189 -10.5402     53.7203     52.5780   1.0408760585e+02   5.9580017993e+01    0.4311712     0.168495 -52.88  0.001564704    4.208    0.762
       190 -10.3677     31.0063     51.5213   1.1246593629e+02   6.2392384853e+01    0.2148843    0.1611745 -55.99   0.00111502    1.636    0.389
       191 -10.0021     81.8475     45.8541   9.2079125884e+01   5.6252071208e+01    0.3204545   0.08530166 -38.99  0.001112261    3.857    0.741
       192  -9.7079    105.3444     52.6664   8.7419315319e+01   5.0778202117e+01    0.1340497    0.1097367 -83.39 0.0007050082    1.762    0.433
       193 -10.1318     43.7858     54.2897   1.0838200860e+02   6.0534681513e+01    0.3015856    0.1386289 -50.18  0.001431762    2.326    0.570
       194 -11.7105      4.9387     41.1331   1.2003627591e+02   6.6280792288e+01    0.3707822    0.1531671 -60.10  0.001787335    3.031    0.670
       195 -10.0821     69.3123     41.6495   9.4712222145e+01   5.8976552270e+01    0.1140988    0.1034368 -77.45 0.0007045736    1.722    0.419
       196 -10.6747     92.0223     48.7780   8.9952874383e+01   5.3965474441e+01    0.4893567    0.1519304 -41.80  0.001748379    3.606    0.723
       197 -10.6383     16.6779     44.8620   1.1620015579e+02   6.4811478816e+01    0.2132307    0.1459745 -75.43  0.001158826    2.962    0.662
       198  -9.4180    110.3202     25.3089   7.7076845403e+01   5.3263125724e+01    0.1348476    0.0865256  29.33 0.0003937926    1.642    0.391
