#   1 NUMBER                 Running object number                                     
#   2 MAG_AUTO               Kron-like elliptical aperture magnitude                    [mag]
#   3 X_IMAGE                Object position along x                                    [pixel]
#   4 Y_IMAGE                Object position along y                                    [pixel]
#   5 X_WORLD                Barycenter position along world x axis                     [deg]
#   6 Y_WORLD                Barycenter position along world y axis                     [deg]
#   7 A_WORLD                Profile RMS along major axis (world units)                 [deg]
#   8 B_WORLD                Profile RMS along minor axis (world units)                 [deg]
#   9 THETA_WORLD            Position angle (CCW/world-x)                               [deg]
#  10 FWHM_WORLD             FWHM assuming a gaussian core                              [deg]
#  11 ELONGATION             A_IMAGE/B_IMAGE                                           
#  12 ELLIPTICITY            1 - B_IMAGE/A_IMAGE                                       
         1  -9.8044    170.8707     17.9209   5.9472475146e+01   4.0427608063e+01    0.3831514    0.3645757  38.56  0.001208932    1.020    0.020
         2 -10.7485    179.3016     20.1154   5.8922398819e+01   3.7935864665e+01    0.8230274     0.524824 -37.38  0.003784242    1.578    0.366
         3  -8.8412    120.0310      8.2099   6.5349339316e+01   5.4492918862e+01    0.2525685    0.2041462 -12.15   0.00102577    1.210    0.173
         4  -9.1944    165.3674    204.8024   1.0641067307e+02   1.2203904511e+01    0.2441826    0.2066182  -3.96   0.00171541    1.489    0.328
         5  -8.1923    115.5420    249.4112   1.1954725657e+02   1.3779524860e+01    0.1132705   0.09656493 -49.60 0.0005073996    1.747    0.427
         6 -13.6397     42.3266    248.6613   1.3056285570e+02   2.2771682607e+01    0.6693179    0.3011645  40.95  0.002733117    1.907    0.476
         7 -18.0984     67.8136    228.5426   1.2554155934e+02   2.2827105317e+01     3.596095     2.637137  79.61   0.01052766    1.233    0.189
         8  -8.6359    109.6581    244.9682   1.2010201289e+02   1.5146999053e+01    0.1504849    0.1396522  77.63 0.0007927825    1.382    0.277
         9 -10.0611    204.1253    201.8286   9.9291607897e+01   6.1016305697e+00    0.4644782    0.1691056  39.40   0.00216246    2.266    0.559
        10  -9.7289    186.4586    185.9454   9.9832405614e+01   1.1162455110e+01    0.4993679    0.2612402  60.51  0.002198897    2.945    0.660
        11 -10.2617    194.8642    198.7321   1.0038714762e+02   8.0390898530e+00    0.2869497    0.2523131  88.90  0.001971383    1.667    0.400
        12 -10.5722    192.5695    193.2696   9.9929603567e+01   9.1236006029e+00    0.4739207    0.2731693 -50.33  0.002562271    2.479    0.597
        13  -7.9152    128.5970    245.3146   1.1714914658e+02   1.2499121777e+01    0.1019306   0.09393153  57.94 0.0003682816    1.310    0.237
        14  -8.0972    128.5326    196.5517   1.1197316280e+02   1.9393860828e+01    0.2235405     0.166139 -68.82  0.001480282    1.589    0.371
        15  -8.3755    114.2324    242.1797   1.1914730818e+02   1.4893732740e+01    0.2482346     0.161799  45.17  0.001351144    1.202    0.168
        16  -8.7847    174.8337    202.3770   1.0440893124e+02   1.0954648207e+01    0.1792919   0.09091821  36.66 0.0009485501    1.738    0.425
        17  -8.4099    132.4207    190.7182   1.1050296198e+02   1.9699170127e+01    0.1798777    0.1451187  67.17  0.001205676    1.207    0.172
        18  -9.1189    153.5897    185.9222   1.0585728430e+02   1.6920124039e+01    0.2778751    0.2034387 -73.79  0.001340502    1.871    0.466
        19  -8.9490    124.5235    186.1976   1.1140596038e+02   2.1704809384e+01    0.3001905    0.2150403  22.62  0.000703745    1.906    0.475
        20  -8.4948    168.9517    189.5471   1.0356355675e+02   1.3728858706e+01    0.1898513    0.1762707 -65.88 0.0003829463    1.329    0.248
        21  -8.8744    143.0823    183.4688   1.0748350834e+02   1.9096176400e+01    0.3074504    0.2081684  85.03  0.001652514    2.214    0.548
        22 -10.3468    188.4319    177.0077   9.7979482982e+01   1.2042476738e+01    0.3993881    0.2705231  34.43  0.001973546    1.309    0.236
        23  -9.4461    161.2498    175.9996   1.0287201290e+02   1.7112624585e+01    0.3183004    0.2392415 -71.12  0.001073772    1.812    0.448
        24  -8.4517    118.0003    240.7796   1.1842609638e+02   1.4559577122e+01    0.1516438    0.1225769  68.42 0.0006451631    1.219    0.180
        25  -7.3319    221.2660    175.3552   9.1923627601e+01   6.3142655149e+00    0.1275736   0.08444924  12.42  0.000450619    1.629    0.386
        26  -9.1563    180.4191    177.2453   9.9485269099e+01   1.3465679679e+01    0.2781228    0.1246434 -42.97   0.00130022    2.623    0.619
        27  -9.4402    135.9962    174.3327   1.0751289306e+02   2.1802894444e+01    0.3533626     0.319976 -31.73  0.001130131    1.366    0.268
        28  -9.0849    142.2640    170.9469   1.0575493043e+02   2.1293702897e+01    0.2870859    0.1562693  56.24  0.001068929    1.908    0.476
        29  -9.2613    244.6825    166.9952   8.6507646087e+01   3.1528325928e+00    0.2896113    0.1596566  45.39 0.0009568468    1.730    0.422
        30 -13.7381     58.3295    210.4539   1.2588165680e+02   2.6794290906e+01    0.3135551    0.2216624  82.47  0.001368176    1.238    0.192
        31  -8.6354    136.2245    238.6764   1.1530426202e+02   1.2250899355e+01    0.2467263    0.1694163  27.39  0.001277648    1.751    0.429
        32  -7.9334    134.6968    235.3330   1.1522076051e+02   1.2901032067e+01     0.166105    0.1079215  54.43 0.0004373022    1.255    0.203
        33  -8.9168    138.3712    161.7493   1.0505862273e+02   2.3561163286e+01    0.3900777    0.2240614  69.36   0.00168253    2.732    0.634
        34  -9.2021    245.2533    161.9546   8.5438603152e+01   3.6256926098e+00    0.2192279    0.1693229  28.46 0.0002357868    1.125    0.111
        35  -9.2197    245.4838    157.1261   8.4445802965e+01   4.1421487977e+00    0.2459543    0.2023101   0.94 0.0002807026    1.096    0.088
        36  -8.5509    166.7217    159.4856   9.8973803645e+01   1.8730867290e+01    0.2051171     0.193044  19.03 0.0002372787    1.106    0.096
        37  -9.1102    145.7575    156.3429   1.0262435611e+02   2.3178283123e+01      0.35603    0.1846706  64.31  0.001248842    3.108    0.678
        38 -10.0306    213.4486    155.0585   8.9395742048e+01   1.0379361483e+01    0.2312332     0.198296  30.02 0.0003346852    1.058    0.055
        39  -9.0316    189.0686    154.7303   9.3771658130e+01   1.5166002370e+01    0.2404685    0.2367996 -74.41  0.001255834    1.218    0.179
        40  -8.0699      4.1045    236.1271   1.3559923105e+02   2.8309673120e+01    0.1231178    0.1075555   1.97  0.001051189    2.497    0.599
        41  -8.9283    138.2457    150.2076   1.0310360357e+02   2.5649610135e+01    0.2501263    0.1995852  62.07 0.0006451627    1.242    0.195
        42  -8.9669    137.8266    153.6357   1.0379652301e+02   2.5104100169e+01     0.277371    0.2390198  44.19 0.0006219609    1.098    0.089
        43 -10.3379    134.4876    148.9232   1.0367314081e+02   2.6568110342e+01    0.7377898    0.3034134 -56.55  0.002943939    3.004    0.667
        44  -9.1536    151.5900    149.5326   1.0018695521e+02   2.3284470342e+01    0.3061008    0.1760048  68.23  0.001060389    2.841    0.648
        45  -8.5402     17.5381    148.3111   1.2916853018e+02   4.2357035348e+01    0.2410685     0.171271   7.79  0.001632827    2.415    0.586
        46  -8.2475    128.3536    146.8755   1.0462967793e+02   2.8050611509e+01    0.2199116    0.1639697  57.80 0.0005818683    1.293    0.227
        47 -10.3390    192.5490    228.8566   1.0504824412e+02   4.9012148239e+00    0.2952934    0.2160104 -38.83  0.001884887    1.819    0.450
        48  -8.0507     11.0162    145.5722   1.3034646247e+02   4.3435370218e+01    0.1618701     0.107582 -88.61 9.668538e-05    1.164    0.141
        49  -9.2640    160.2134    141.5530   9.6852801331e+01   2.3009232158e+01    0.5254366    0.3441963  62.74  0.002543826    1.815    0.449
        50  -8.7843    122.0804    142.9429   1.0530767662e+02   2.9907796446e+01    0.2536573      0.17755  55.82 0.0006276038    1.382    0.276
        51 -11.9265    239.0935    244.2837   9.9903317583e+01  -3.4812296806e+00    0.1993441    0.1500753  30.85 0.0001900702    1.182    0.154
        52 -11.8762    182.2789    199.5541   1.0269340250e+02   1.0071262896e+01     1.328385    0.6184525 -57.35  0.005388726    4.841    0.793
        53  -8.8485    232.5645    137.2820   8.2408714275e+01   9.0221555972e+00    0.2328313    0.1894411  22.05 0.0002981133    1.097    0.088
        54 -11.1303    184.2397    215.9801   1.0469974817e+02   7.6893472882e+00    0.6595921    0.2498475 -44.47  0.003274644    3.494    0.714
        55  -8.2688    161.0125    136.9307   9.5742769257e+01   2.3658360858e+01    0.2050495    0.1950285  42.78 0.0004624467    1.023    0.023
        56  -7.1780    218.2578    136.5749   8.4686309618e+01   1.1975122157e+01    0.1316082    0.1048918 -59.18 0.0002538938    1.774    0.436
        57  -8.7462    129.1465    134.7517   1.0221155550e+02   3.0223309587e+01    0.3184891    0.1938613  64.21  0.001462569    2.043    0.511
        58  -7.3434    165.4755    132.4313   9.3864226693e+01   2.3539259877e+01    0.1399044    0.1298534  39.95 7.780251e-05    1.009    0.008
        59  -8.6125    152.9519    129.9498   9.5981967727e+01   2.6531135433e+01    0.2278417    0.1709408  78.38  0.001128501    1.753    0.430
        60  -7.9894    160.3500    126.8344   9.3721125762e+01   2.5584485106e+01    0.2012324    0.1322618 -30.18 0.0005876615    1.763    0.433
        61 -11.0747    182.3909    207.7236   1.0386337222e+02   9.0057483781e+00    0.4772852    0.3426644 -54.57  0.003105132    1.956    0.489
        62 -10.9164    151.5918    220.6248   1.1080936122e+02   1.2288121175e+01     0.381762    0.3164554 -29.10  0.001599278    1.654    0.395
        63  -7.4679     25.6715    124.2574   1.2529346976e+02   4.6597334540e+01    0.1135698   0.06926874  67.75 0.0001838321    1.559    0.359
        64  -8.6002    109.9643    122.8812   1.0434988073e+02   3.6019403197e+01    0.1984354    0.1888672  87.32 0.0004826236    1.034    0.033
        65  -9.5008    165.3636    227.3614   1.0930346592e+02   9.2952888246e+00    0.2743284    0.2110324  79.91  0.001102888    1.827    0.453
        66 -10.1104    177.8239    225.1395   1.0697165647e+02   7.6203758956e+00    0.3379797    0.2096041 -45.78  0.002071007    2.160    0.537
        67  -9.4228    177.3298    219.0671   1.0627071649e+02   8.4252638303e+00     0.188968    0.1480634  27.10   0.00056862    1.224    0.183
        68  -7.6832    188.4384    113.0487   8.4760257125e+01   2.1901559860e+01    0.2057694    0.1418767 -31.32 0.0002814112    1.490    0.329
        69  -7.9913      5.5377    228.2442   1.3514881364e+02   2.9364283675e+01    0.1388755   0.08959735  37.70  0.001175091    1.796    0.443
        70 -10.3132    185.0403    228.1506   1.0617308267e+02   6.1460208631e+00    0.2797065    0.2151795 -25.16  0.002082165    1.685    0.406
        71 -10.4315     60.2306    109.3516   1.1452396471e+02   4.6259509760e+01    0.4513074    0.3507701 -46.29   0.00210136    1.428    0.300
        72 -10.7976     66.4829    109.0143   1.1279897724e+02   4.5554106095e+01    0.4769879    0.3940014 -71.27  0.003035737    1.075    0.069
        73 -10.0907    157.3686    228.0884   1.1071238637e+02   1.0436601275e+01    0.4420997     0.352374 -33.01  0.002821289    1.718    0.418
        74  -7.4860    249.4850    111.4671   7.3894680176e+01   8.9662781627e+00    0.1363421    0.1191284   1.49 0.0001715436    1.008    0.008
        75  -9.3814     73.4463    104.2292   1.1004336307e+02   4.5676097481e+01    0.3121676     0.213378  48.40  0.001378818    1.539    0.350
        76  -8.7495     26.8030     98.4320   1.2199721906e+02   5.2064322071e+01    0.2749962    0.1808337  27.55  0.001749525    1.891    0.471
        77  -8.6370    173.6570     90.5420   8.1918897198e+01   2.9056489027e+01    0.2404959    0.2327047   0.93 0.0002495442    1.016    0.016
        78  -7.2993    136.4300     90.4225   9.0251230126e+01   3.7466178511e+01    0.1428538    0.1418577 -10.17 9.302087e-05    1.010    0.010
        79  -8.6273     20.3269     88.7254   1.2252167946e+02   5.4699396605e+01    0.2232741    0.1572318 -44.89  0.001454009    1.566    0.362
        80  -7.9661      1.5012     86.9038   1.2775552608e+02   5.6311296286e+01     0.165702   0.08358072 -75.42 0.0004253118    1.488    0.328
        81  -9.5860    229.6844     82.0913   6.9620937040e+01   1.7126472145e+01    0.2773255    0.2221537  41.78 0.0004717252    1.259    0.206
        82  -9.4332    234.6161     78.0439   6.7828574998e+01   1.6540847801e+01      0.38955     0.285725  11.70  0.001025815    1.514    0.339
        83 -10.1751    167.2860    218.3229   1.0786586315e+02   1.0118156112e+01    0.4211518    0.1860477  37.81  0.001741635    1.935    0.483
        84 -10.3676    158.0064    218.7347   1.0949194454e+02   1.1533621828e+01    0.4632813    0.2331496  38.84  0.002315018    1.650    0.394
        85  -8.4931    116.1475     72.9872   9.0469402515e+01   4.5070655644e+01    0.2073047    0.1998596 -33.47 0.0003315931    1.008    0.008
        86 -10.7044    151.2470     64.0427   7.8954212786e+01   3.8928575181e+01    0.5440327    0.3963037 -33.25  0.001403742    1.358    0.264
        87  -8.1052    173.0875     64.1873   7.4372733846e+01   3.3551051364e+01    0.2324446    0.1971302  24.27 0.0002512548    1.234    0.189
        88  -9.4970    144.1428     60.3722   7.9405184837e+01   4.1241705932e+01     0.357579    0.1953482 -35.94   0.00141476    1.792    0.442
        89 -11.4131    161.8990     50.8093   7.2362889355e+01   3.8437394731e+01    0.9900389    0.8907785   9.61  0.004182203    1.136    0.120
        90 -10.1137    166.9222     41.0616   6.8116370857e+01   3.8574176020e+01    0.5188248    0.4242492  24.64  0.001079831    1.291    0.225
        91 -10.3962    128.9832     50.7903   7.9858081709e+01   4.6385999909e+01    0.2602166    0.2274496 -24.87 0.0002565979    1.113    0.101
        92  -8.1964    140.2878     47.0929   7.5817147932e+01   4.4347421857e+01     0.211666    0.1909835 -19.03 0.0005570382    1.086    0.079
        93  -9.3895    224.5450     33.5569   5.6986696904e+01   2.4581321501e+01    0.3677101    0.2443225 -17.90  0.001332009    1.524    0.344
        94  -7.6152    197.9312     26.7195   5.8379846270e+01   3.2236976453e+01    0.1834207    0.1277637  62.11 0.0006345124    1.417    0.294
        95  -9.1777    176.4630    210.4471   1.0526011743e+02   9.6368016995e+00    0.2154278    0.1733173  54.03 0.0006442947    1.260    0.206
        96 -10.0916    174.9991     23.6974   6.0803285071e+01   3.8674505759e+01    0.6443024    0.4004305 -77.80  0.002625168    2.283    0.562
        97  -9.3516    165.4786    246.3936   1.1144239799e+02   7.0601331446e+00     0.309292     0.201622  32.73  0.001185958    1.379    0.275
        98  -8.6017    199.1677     19.3666   5.5915132552e+01   3.2728817949e+01    0.2047222    0.1847396  -1.67 0.0005247627    1.152    0.132
