#   1 NUMBER                 Running object number                                     
#   2 MAG_AUTO               Kron-like elliptical aperture magnitude                    [mag]
#   3 X_IMAGE                Object position along x                                    [pixel]
#   4 Y_IMAGE                Object position along y                                    [pixel]
#   5 X_WORLD                Barycenter position along world x axis                     [deg]
#   6 Y_WORLD                Barycenter position along world y axis                     [deg]
#   7 A_WORLD                Profile RMS along major axis (world units)                 [deg]
#   8 B_WORLD                Profile RMS along minor axis (world units)                 [deg]
#   9 THETA_WORLD            Position angle (CCW/world-x)                               [deg]
#  10 FWHM_WORLD             FWHM assuming a gaussian core                              [deg]
#  11 ELONGATION             A_IMAGE/B_IMAGE                                           
#  12 ELLIPTICITY            1 - B_IMAGE/A_IMAGE                                       
         1 -14.9515    162.5108     42.9903   7.9677478078e+01   3.9719079673e+01     1.365021     1.114847 -10.85  0.003416136    1.379    0.275
         2 -14.8847    177.8641      9.6770   6.6686534093e+01   3.9730147050e+01     1.909221     1.002409  62.14  0.007110229    1.717    0.418
         3  -9.9297    133.4799    249.3640   1.3055528652e+02   7.3509704198e+00    0.1164648   0.08628863  49.04 0.0002341581    1.039    0.037
         4 -20.0433     75.8451    174.8839   1.3310757593e+02   3.0010930547e+01     16.86352     6.558861 -67.11   0.07218123    2.543    0.607
         5 -13.1469     11.3907    206.0504   1.4867354627e+02   3.1157822452e+01    0.3634564    0.2421064  37.20  0.002236114    1.787    0.440
         6 -13.1946    163.4912    202.6754   1.1879934446e+02   9.7300769951e+00    0.5781457    0.3863573 -75.02  0.002864397    2.373    0.579
         7 -11.8297    153.7740    194.9547   1.1948527849e+02   1.2842677815e+01    0.3059654    0.2248126  69.11  0.001121373    1.580    0.367
         8 -13.0177    156.4958    199.3856   1.1965254142e+02   1.1561635318e+01    0.5334556    0.3993099  73.08  0.002955114    1.624    0.384
         9 -11.3867    139.6396    200.4466   1.2318400305e+02   1.4392742783e+01    0.3131178    0.2190615  43.52 0.0007451491    1.275    0.216
        10 -13.4868    210.2028    187.6944   1.0727146596e+02   3.5763993759e+00    0.8086954    0.3463938 -52.26  0.002839372    4.378    0.772
        11 -11.7764    201.0759    163.5843   1.0421675531e+02   9.2256103379e+00     0.573368    0.3675642 -42.73  0.002813653    1.643    0.391
        12 -13.7121    206.4741    178.2719   1.0615580126e+02   5.7424469325e+00    0.6359311    0.4519504  32.96  0.003199802    1.332    0.249
        13 -12.7050    203.3825    172.2230   1.0554038822e+02   7.3191952295e+00    0.7037253    0.4125211 -32.62   0.00321972    1.815    0.449
        14 -13.4741    154.3133    185.8156   1.1785309921e+02   1.4410730085e+01    0.5197034     0.409612 -86.54  0.002845185    1.582    0.368
        15 -10.6738    146.0827    189.3183   1.2013432067e+02   1.5288295836e+01    0.2117977    0.1601403  28.02 0.0007001969    1.492    0.330
        16 -10.3015     24.9460    185.5464   1.4485756821e+02   3.3932462705e+01    0.1700702     0.122133 -75.89 0.0004746808    1.315    0.239
        17 -10.6409    121.0182    183.9001   1.2453688908e+02   2.0857670351e+01     0.271606    0.1914479  81.04 0.0007375653    1.652    0.395
        18 -10.9173    117.1804    180.8219   1.2488780099e+02   2.2153939465e+01    0.2805336    0.2064039  69.67 0.0008922285    1.377    0.274
        19 -10.6940    133.9222    245.1080   1.3001353758e+02   7.9153175646e+00    0.1529495    0.1305652  47.59 0.0003901994    1.138    0.121
        20 -10.8226     27.1710    180.1529   1.4400208256e+02   3.4836152171e+01    0.3043945    0.2039721 -34.45  0.001723835    2.876    0.652
        21 -12.3714    199.4398    179.2495   1.0767234530e+02   6.9237651095e+00    0.4412091    0.2842395 -63.23  0.001853239    2.586    0.613
        22 -13.4967    195.6778    169.5723   1.0648425190e+02   9.2760678463e+00    0.5352076    0.4607121 -48.83  0.001338769    1.299    0.230
        23 -12.5584    193.6013    164.7615   1.0590907266e+02   1.0523117987e+01    0.3777216     0.332213  32.67  0.001261475    1.077    0.071
        24 -12.5395    149.3144    173.8550   1.1679138235e+02   1.7643506888e+01    0.3231153    0.2507373  65.12  0.000951314    1.357    0.263
        25 -13.9547    143.9431    168.4795   1.1696483849e+02   1.9748895184e+01    0.6869563    0.4915854  89.67  0.002139511    1.889    0.471
        26 -11.6079     26.1859    173.7271   1.4368752924e+02   3.6305265501e+01     0.204042      0.16114 -86.43  0.000258372    1.137    0.120
        27 -11.9718    126.0776    172.0421   1.2151977202e+02   2.2382064941e+01    0.3258887    0.2468444 -51.23  0.001384953    1.422    0.297
        28 -12.7469    125.0951    242.7440   1.3131498292e+02   9.6517646892e+00    0.3759565    0.1574317 -55.36  0.001827836    2.926    0.658
        29 -12.2558    165.3094    171.6875   1.1301519089e+02   1.4932551824e+01    0.2982002    0.2292151  78.66  0.001387473    1.675    0.403
        30 -14.4275    138.4096    171.3306   1.1868889971e+02   2.0232178791e+01     1.033539    0.7217677  42.74  0.005313548    1.369    0.270
        31 -10.2375    150.9861    242.9086   1.2674292806e+02   5.5381734125e+00    0.1593424    0.1277713  16.85 0.0005118565    1.550    0.355
        32 -12.0694    230.1967    166.8705   9.9567522350e+01   3.0546845129e+00    0.2864433    0.1782776 -44.15  0.001438114    1.805    0.446
        33 -12.0503    122.4744    165.7426   1.2123790818e+02   2.4363783407e+01    0.4825699    0.2350533  59.90  0.001165561    2.673    0.626
        34  99.0000     12.9418    242.7681   1.5016196036e+02   2.4319739259e+01    0.2416143   0.09783122 -60.86  0.001380453    3.421    0.708
        35 -14.0178    162.3788    154.4108   1.1018200482e+02   1.8870421820e+01    0.6742511     0.497387 -70.63  0.002664864    1.713    0.416
        36  -9.7955     28.6984    240.9216   1.4760506394e+02   2.2965491533e+01    0.1263835    0.0687872  81.70 0.0003899812    1.502    0.334
        37 -11.4364    192.7013    157.8011   1.0463072463e+02   1.1936810094e+01    0.2807225    0.2172069   1.57  0.001417015    1.566    0.361
        38 -14.7372    134.1268    145.7063   1.1472062235e+02   2.6445885698e+01      1.96796     0.585731 -56.58  0.005261083    4.952    0.798
        39 -14.8635    143.6059    143.8262   1.1212126911e+02   2.4930212814e+01     1.217552    0.7044008 -66.63  0.004792871    2.416    0.586
        40 -10.6688     22.9631    156.1031   1.4285383795e+02   4.0470362486e+01    0.1772981    0.1383478  88.82 0.0004271652    1.029    0.028
        41 -12.4133    134.6403    109.6757   1.0617848798e+02   3.4178962636e+01      1.19946     0.170481 -46.35  0.002464501    7.070    0.859
        42 -11.1270     21.6925    239.3843   1.4864306067e+02   2.3990559288e+01    0.1173497   0.08531262 -88.03 0.0005751534    1.339    0.253
        43 -10.9827     18.0149    156.2352   1.4396965116e+02   4.0893940238e+01    0.3810131    0.1829271 -84.34  0.002074182    1.748    0.428
        44 -11.5851    138.9218    250.2941   1.2971111710e+02   6.3719205337e+00    0.2315349    0.1593118  38.49  0.001536175    1.288    0.224
        45 -12.5993    174.0673    148.6490   1.0645504761e+02   1.7545570352e+01    0.3767246    0.3281283 -51.76  0.001369045    1.202    0.168
        46 -11.1724    131.2242    236.7294   1.2955053756e+02   9.6309886541e+00    0.1938714    0.1426304 -64.47 0.0004976721    1.639    0.390
        47 -10.9587      7.5981    237.3991   1.5076369190e+02   2.5778563935e+01    0.1042606   0.06307381  68.80 0.0004138357    1.113    0.102
        48 -14.0298    135.7742    128.1351   1.1045579415e+02   2.9931458099e+01     2.084385    0.3792226 -50.55  0.004525308    6.732    0.851
        49 -10.8313    138.6639    243.7210   1.2902059561e+02   7.3781309325e+00    0.2721891    0.2069661 -54.13  0.001661603    1.659    0.397
        50 -10.6405     30.1797    232.6566   1.4692215017e+02   2.4251994443e+01    0.1648153   0.09212984  50.23 0.0007665441    1.451    0.311
        51 -11.2054      8.5761    137.9722   1.4452444806e+02   4.5738350877e+01    0.2605811    0.1785822 -59.97  0.001235599    1.455    0.313
        52 -11.6290    173.0130    139.3055   1.0458543097e+02   1.9596222153e+01    0.2179319    0.1936847  50.93  0.001149536    1.115    0.103
        53 -13.1016    160.7801    128.1041   1.0462344711e+02   2.4540929730e+01    0.5010743    0.3839665 -61.02  0.001900268    1.436    0.304
        54 -11.8504    140.4251    120.6647   1.0754161831e+02   3.0565302184e+01     0.362655    0.2583341  80.07  0.001020655    1.920    0.479
        55  -9.8666     13.5534    233.4677   1.4965923176e+02   2.5871436898e+01    0.1002183   0.07320092  75.03 0.0001243361    1.133    0.117
        56 -11.0502    167.6695    112.6997   9.9243218464e+01   2.6094054745e+01    0.3197149    0.2268892 -81.48  0.001324961    2.069    0.517
        57 -10.5853     16.3562    249.8840   1.4994210881e+02   2.2769714730e+01    0.1283306   0.07161798  88.17 0.0009498968    1.478    0.324
        58 -10.8377    205.3309    110.2249   9.1058157367e+01   1.7759796868e+01    0.3103333    0.2108791  45.48   0.00101005    1.527    0.345
        59 -10.5461    133.3963    229.4951   1.2830011004e+02   1.0440231906e+01    0.1732513    0.1274795  78.12 0.0007574093    1.551    0.355
        60  -9.6598    159.6830    247.7353   1.2579983553e+02   3.4709294164e+00    0.1108524   0.07862387  25.10 0.0003135458    1.549    0.354
        61 -10.7645     12.9556    100.9435   1.3918983966e+02   5.3829655214e+01    0.2797064    0.1286721  42.09  0.001477471    2.505    0.601
        62 -10.8406     16.7777    225.9988   1.4878282283e+02   2.6880402915e+01    0.1038551   0.06513541  86.21 0.0003393917    1.254    0.203
        63 -12.0405     22.4863    220.8464   1.4755788245e+02   2.7233676926e+01     0.209713    0.1312015 -73.07  0.001184353    1.622    0.383
        64 -11.4442     23.6199    215.3636   1.4705288610e+02   2.8142025074e+01    0.1512744    0.1012562 -83.59 0.0006460099    1.330    0.248
        65 -10.6521    143.9527     80.6773   9.5677332555e+01   3.8010751349e+01    0.2170965     0.202481  60.82 0.0004706371    1.093    0.085
        66 -14.4741    151.0615     57.6266   8.6763110883e+01   4.0390778491e+01      1.28088     1.141875  15.48 0.0009416852    1.228    0.186
        67 -10.7760    130.4043    212.7345   1.2674095412e+02   1.3778017665e+01    0.2436131    0.1662981 -89.36 0.0008656662    1.899    0.473
        68 -13.0579    166.3450     34.6750   7.6295239693e+01   3.9861291410e+01    0.4371427    0.3827735  -5.09 0.0008849782    1.274    0.215
        69 -11.1044     13.5399     59.9916   1.3160523232e+02   6.2887422553e+01      0.17919    0.1585157  63.46  0.000493952    1.431    0.301
        70 -10.3948    144.8521     34.0714   8.0090659601e+01   4.5446082709e+01    0.2144274    0.1901266 -73.32 0.0003124947    1.236    0.191
