#   1 NUMBER                 Running object number                                     
#   2 MAG_AUTO               Kron-like elliptical aperture magnitude                    [mag]
#   3 X_IMAGE                Object position along x                                    [pixel]
#   4 Y_IMAGE                Object position along y                                    [pixel]
#   5 X_WORLD                Barycenter position along world x axis                     [deg]
#   6 Y_WORLD                Barycenter position along world y axis                     [deg]
#   7 A_WORLD                Profile RMS along major axis (world units)                 [deg]
#   8 B_WORLD                Profile RMS along minor axis (world units)                 [deg]
#   9 THETA_WORLD            Position angle (CCW/world-x)                               [deg]
#  10 FWHM_WORLD             FWHM assuming a gaussian core                              [deg]
#  11 ELONGATION             A_IMAGE/B_IMAGE                                           
#  12 ELLIPTICITY            1 - B_IMAGE/A_IMAGE                                       
         1 -15.9611    187.5530    114.4685   2.9030396427e+02   5.3549133040e+00    0.1336665   0.07998715  68.16   0.01195773    2.592    0.614
         2 -15.6691    207.7549    104.9328   2.9001552156e+02   5.3529177702e+00    0.1366759   0.07273173  67.44    0.0103814    3.637    0.725
         3 -15.3552    194.3818    101.0713   2.9014705823e+02   5.4687041511e+00   0.09379625   0.04405258 -73.83  0.006436476    2.854    0.650
         4 -13.0852    241.6917     12.5527   2.8908419872e+02   6.2071235128e+00   0.03084601     0.024664  65.69  0.002412726    1.473    0.321
         5 -12.7598    249.3011     10.4503   2.8898424162e+02   6.1894034848e+00    0.0327405   0.01750153 -60.39  0.002152754    1.846    0.458
         6 -12.2214    249.0393      2.0038   2.8893776215e+02   6.2856242848e+00   0.04398463   0.01025184  28.67  0.002958388    3.766    0.734
         7 -13.7296    248.7731     24.3756   2.8907189706e+02   6.0359415583e+00   0.05464367   0.02527989 -68.08  0.004696416    2.453    0.592
         8 -14.7298    174.4660     30.0150   2.8996140759e+02   6.3754027583e+00   0.07211009    0.0403592 -37.48  0.005508578    1.968    0.492
         9 -12.9144    168.9873     20.8707   2.8997112563e+02   6.5078072635e+00   0.02915373   0.02213064  40.21  0.002116276    1.356    0.262
        10 -12.0811     19.7776     11.1652   2.9163866096e+02   7.4211165256e+00   0.02430022   0.02152069 -79.37  0.002384242    1.227    0.185
        11 -12.0465    188.4274      2.1516   2.8963726924e+02   6.6128105851e+00   0.02859354   0.01080087  26.63  0.002333191    2.565    0.610
        12 -13.1365    195.8323    194.2394   2.9067362111e+02   4.4124099102e+00   0.02800112   0.02277137   5.70  0.002025931    1.271    0.213
        13 -13.6902    247.3392    247.8653   2.9039327173e+02   3.5308252972e+00   0.03920327   0.03179936  31.40  0.004647491    1.232    0.188
        14 -13.9673    249.0091    233.4132   2.9028995334e+02   3.6843901534e+00   0.04190221   0.02053635 -58.87  0.002538168    1.972    0.493
        15 -12.8762    216.4066    237.2249   2.9068704058e+02   3.8175324100e+00   0.03300525   0.02839235 -75.09  0.002741074    1.251    0.201
        16 -13.7912    222.8357    246.9812   2.9066985074e+02   3.6730432109e+00   0.03308878   0.02852192  61.42  0.002760085    1.299    0.230
        17 -14.4402    228.2292    235.8706   2.9054318556e+02   3.7689545466e+00    0.0629575   0.02406201 -51.39  0.004353391    2.436    0.589
        18 -14.5605    219.8809    226.6445   2.9058551413e+02   3.9178474893e+00   0.04609387   0.03516318  27.31  0.003615948    1.298    0.230
        19 -14.4846    223.7154    215.9022   2.9047887327e+02   4.0180300587e+00   0.03988801   0.03589472 -80.05  0.002801734    1.203    0.169
        20 -16.4125    167.7654    243.3537   2.9128235740e+02   4.0108836088e+00    0.2804985   0.06663075  30.51   0.01932079    3.589    0.721
        21 -16.4451     87.1854    100.8618   2.9138238714e+02   6.0495758112e+00    0.1470265   0.09408484 -68.64     0.011525    1.680    0.405
        22 -12.1353     89.5359    196.9349   2.9191393504e+02   4.9548868592e+00   0.01307152   0.01086252  47.93 0.0003406685    1.287    0.223
        23 -15.5617     25.4268    118.9978   2.9220102674e+02   6.1772032368e+00   0.08050476   0.07160019 -54.55   0.00620144    1.118    0.106
        24 -12.6100     87.2551    190.8819   2.9190508812e+02   5.0353422229e+00   0.02563638   0.01982854  66.38  0.002880728    1.556    0.357
        25 -11.7200     93.0611    187.7974   2.9182023780e+02   5.0388648614e+00   0.04381449   0.01311859  34.21  0.003289423    3.026    0.670
        26 -13.6508    167.0859    185.9774   2.9095655736e+02   4.6605679760e+00   0.04756988   0.03021567 -72.22  0.003479086    1.774    0.436
        27 -11.6853    221.4865    183.0200   2.9031297707e+02   4.4001029871e+00   0.01452734   0.01146993 -88.51  0.001350007    1.497    0.332
        28 -10.7852     35.7018    183.9974   2.9245966726e+02   5.3897977242e+00  0.009770416  0.008723066  15.79  0.000402484    1.112    0.101
        29 -10.9423    113.9547    175.5455   2.9150815889e+02   5.0644259756e+00   0.02359968  0.009196712 -45.00  0.001890911    2.666    0.625
        30 -11.3083    108.7724    176.0928   2.9157108773e+02   5.0861635231e+00   0.01615746   0.01046701   0.48  0.001284761    1.850    0.459
        31 -12.4200    103.3616    173.9706   2.9162113915e+02   5.1391936024e+00   0.02238742   0.02035017  87.11  0.001957763    1.217    0.178
        32 -13.0348    122.0176    167.6188   2.9136910556e+02   5.1102750269e+00   0.03433114   0.01929865 -60.46  0.002506964    1.757    0.431
        33 -13.1854    116.9754    166.4051   2.9142017953e+02   5.1511049056e+00   0.03374515   0.02179623 -50.85  0.003134175    1.500    0.333
        34 -11.1054     95.6602    175.3589   2.9171801050e+02   5.1649992396e+00   0.01693863  0.008967735 -41.52  0.001093635    1.988    0.497
        35 -11.6930     97.7311    170.6659   2.9166685725e+02   5.2067198244e+00   0.02269321  0.009706051 -53.01  0.001019318    2.184    0.542
        36 -12.6166    112.5070    209.9377   2.9172467371e+02   4.6848315886e+00   0.02096308  0.009809932  16.76  0.001786379    2.448    0.591
        37 -14.3313    215.1359    162.9227   2.9026891855e+02   4.6605797910e+00   0.07430881   0.03620386  15.21  0.006343354    2.401    0.584
        38 -15.2894    209.5270    152.3764   2.9027199589e+02   4.8095740670e+00   0.08339049   0.06614403  43.08   0.00732981    1.319    0.242
        39 -14.7828    191.3643    135.0905   2.9038036930e+02   5.1022688050e+00   0.07939386   0.03717817  47.10  0.006748362    2.564    0.610
        40 -10.9927     19.2192    249.4474   2.9302852226e+02   4.7406057167e+00  0.009592355  0.006029343  31.29 0.0009876426    1.562    0.360
        41 -12.7254    190.0273    238.1616   2.9099597844e+02   3.9493134929e+00   0.03010173   0.02256405  54.59  0.002413189    1.522    0.343
        42 -14.6253    124.0377    148.1777   2.9123268607e+02   5.3183234737e+00     0.061215   0.03226834 -62.43  0.003886248    1.908    0.476
        43 -13.8637    138.1741    160.1641   2.9113946973e+02   5.1071504043e+00   0.04073938   0.03348766 -45.91  0.003101103    1.191    0.160
        44 -12.8423    137.2731    150.7114   2.9109482449e+02   5.2184464354e+00   0.03572319   0.02026135  52.48  0.002798263    2.202    0.546
        45  -9.9602    102.4358    162.0718   2.9156263947e+02   5.2781992851e+00  0.008981935  0.006252126 -59.72 0.0003420386    1.427    0.299
        46 -12.9988     15.0955    157.9576   2.9254643712e+02   5.7936904750e+00   0.02482253   0.01712296 -56.18  0.001408775    1.416    0.294
        47 -11.9504     10.0093    152.0316   2.9257077732e+02   5.8877126336e+00   0.02012004   0.01672346 -55.59  0.001315498    1.190    0.160
        48 -12.2819    179.6040    158.4748   2.9065218529e+02   4.9026188450e+00   0.02407564   0.01607802 -89.61  0.002409054    2.009    0.502
        49 -13.2576    173.7391    153.0044   2.9068788060e+02   4.9958647605e+00   0.02700528   0.02050078  16.40  0.003080259    1.337    0.252
        50 -10.7462    113.9847    157.5852   2.9140335962e+02   5.2665447330e+00    0.0135127  0.008107592 -44.51   0.00125748    1.666    0.400
        51 -12.3095     91.9096    156.6174   2.9165233195e+02   5.3962856662e+00   0.01646813   0.01140356 -27.88 0.0009482543    1.599    0.375
        52 -11.3611     24.4163    156.9796   2.9243319255e+02   5.7547473539e+00   0.02211786  0.009578895  31.27  0.001943126    2.194    0.544
        53 -12.7179     92.0793    203.5468   2.9192299622e+02   4.8667219560e+00    0.0229767   0.01388593 -82.23  0.002095241    2.214    0.548
        54 -11.5242    107.1280    206.1857   2.9176487452e+02   4.7560416323e+00   0.01004422  0.008469974 -23.01 0.0003870137    1.215    0.177
        55 -11.8978    161.7495    151.1669   2.9081533591e+02   5.0812745488e+00   0.03124797   0.01482399 -34.85  0.002578029    2.685    0.628
        56 -10.2975    245.3236    152.3102   2.8985958424e+02   4.6166951566e+00  0.006915042  0.004720105 -26.52 0.0004889449    1.653    0.395
        57 -13.6364    186.1220    147.1830   2.9051128122e+02   4.9945078250e+00   0.02389848   0.02248966  49.97    0.0022214    1.127    0.112
        58 -10.8005     17.3991    238.1981   2.9298447275e+02   4.8771241854e+00   0.01435984  0.005283602 -37.91 0.0009612163    3.903    0.744
        59  -9.5455     11.9615    204.9156   2.9285463584e+02   5.2813264095e+00    0.0156677  0.008893376 -50.21  0.001552389    1.699    0.411
        60 -10.2272      8.0412    143.4741   2.9254386405e+02   5.9946708128e+00  0.009909534  0.006393284  18.17  0.001021476    1.599    0.375
        61 -12.5939    173.1484    139.3320   2.9061499510e+02   5.1529506635e+00   0.02257879   0.01369592  11.38   0.00223071    1.854    0.461
        62 -13.6815    138.0304    134.1126   2.9098941632e+02   5.4012467600e+00   0.03675677   0.03250898  61.65  0.003595606    1.252    0.202
        63 -12.9827    129.2811    126.6335   2.9104674788e+02   5.5326322504e+00   0.03173498   0.02371982 -55.92  0.002483269    1.314    0.239
        64 -11.8674    124.3010    125.4313   2.9109718922e+02   5.5730176550e+00   0.02339711   0.01360183 -74.64  0.001865405    2.074    0.518
        65 -11.4847     11.5355    132.8721   2.9244200397e+02   6.0953894955e+00   0.01720693   0.01324024   8.83  0.001202506    1.356    0.262
        66 -11.4675    129.2559    161.2630   2.9124867628e+02   5.1428492612e+00   0.01987345   0.01135013  41.50  0.001273769    1.829    0.453
        67 -10.8363      7.1088    126.0053   2.9245326546e+02   6.1964620908e+00   0.01450004  0.008945059  32.15  0.001206462    1.592    0.372
        68 -13.8074    172.1118     97.4069   2.9038236852e+02   5.6303401220e+00   0.04985875   0.03129277 -54.15  0.005051885    1.540    0.351
        69 -14.5923    161.4443    113.7954   2.9060099412e+02   5.5035673087e+00   0.08371169   0.03862153 -72.76  0.005896402    2.828    0.646
        70 -13.6736    168.1406    110.7117   2.9050579983e+02   5.5020984096e+00    0.0368466   0.02781107  89.27  0.002956986    1.627    0.385
        71 -11.7137    223.7386     97.4343   2.8978760777e+02   5.3507240936e+00   0.01816562   0.01220633   4.11  0.001887487    1.701    0.412
        72 -15.1033    153.1584     82.2425   2.9051242923e+02   5.9033545364e+00   0.08895442   0.04297153 -46.06  0.007479078    2.066    0.516
        73 -13.9010    246.7527     80.2995   2.8942245272e+02   5.4186582729e+00   0.04592986   0.02723154 -75.05   0.00443223    2.036    0.509
        74 -12.6884    246.6621     74.1500   2.8938753051e+02   5.4882613852e+00   0.02016361   0.01674917 -50.94  0.002414438    1.181    0.153
        75 -14.9852     26.9135     89.1725   2.9201047602e+02   6.5050997072e+00    0.1017942   0.07511146 -30.10   0.01137139    1.436    0.303
        76 -19.6148     52.9081    150.6186   2.9206745576e+02   5.6735196708e+00     1.017492    0.2097738 -64.72   0.05560113    5.897    0.830
        77 -11.1601    175.5000     68.3672   2.9017370071e+02   5.9386614256e+00   0.01734354   0.01027007 -16.21  0.001579927    2.311    0.567
        78 -10.5825    211.9935     67.8224   2.8974982822e+02   5.7472660208e+00   0.01131877  0.006658465  49.74  0.001082664    1.991    0.498
        79 -11.6891      6.2456    196.7231   2.9287313429e+02   5.4042653534e+00   0.01410803   0.01357115  -4.19  0.001136887    1.018    0.018
        80 -13.2867    244.5541     48.3987   2.8926113243e+02   5.7890376202e+00   0.02301711   0.02234595 -37.59  0.002268411    1.031    0.030
        81 -10.4191     31.5528    223.3997   2.9273574943e+02   4.9680360232e+00   0.01335069  0.007369734  -6.77 0.0007004241    2.732    0.634
        82 -11.6948      4.5744    221.0711   2.9303326217e+02   5.1388182044e+00   0.01442579   0.01253986  56.00  0.001024188    1.260    0.206
        83 -13.2206    183.6575    216.4812   2.9094321768e+02   4.2277376431e+00   0.03255235   0.02279736  40.47  0.002378243    1.472    0.321
        84 -16.0203     99.6490    131.8626   2.9141904180e+02   5.6334226570e+00   0.09360281   0.07749518  11.98   0.01041784    1.221    0.181
        85 -13.0074    250.1324     54.3090   2.8923149560e+02   5.6923776793e+00   0.04483254   0.01571452 -62.24  0.003493156    2.850    0.649
        86 -12.5288    250.1196     40.1599   2.8914882174e+02   5.8513804594e+00   0.04101412   0.01310158 -62.25  0.003051474    3.123    0.680
        87 -12.0412    195.3534     58.3912   2.8988647328e+02   5.9433962448e+00   0.02573898   0.01746306  60.16  0.002654221    1.850    0.459
        88 -12.0684     73.5067     57.9837   2.9129048220e+02   6.6057862904e+00   0.01648831   0.01002123 -42.07  0.001656653    1.678    0.404
        89 -11.8651     77.2371     55.5907   2.9123342686e+02   6.6126339891e+00   0.01432804   0.01136888   0.90  0.001161337    1.333    0.250
        90 -12.3148    159.2523     48.6977   2.9024617954e+02   6.2476917702e+00   0.01498004   0.01414027  23.14   0.00095899    1.065    0.061
        91 -10.6827      9.2259    216.0653   2.9295068860e+02   5.1703250767e+00   0.01326657    0.0116575  42.55  0.001445621    1.186    0.157
        92 -11.4188    238.9946    214.4445   2.9029464185e+02   3.9518984290e+00   0.01323757   0.01167126 -27.87 0.0008580872    1.130    0.115
        93 -12.2139    184.6255     34.0580   2.8986786607e+02   6.2749742381e+00   0.01911715   0.01628315 -12.26  0.002012539    1.212    0.175
        94 -10.8707     12.4162     39.6147   2.9188961403e+02   7.1406262753e+00   0.01302281   0.01110687 -14.44  0.001324094    1.206    0.171
        95 -12.3731    236.3554     35.0154   2.8927721350e+02   5.9838505761e+00    0.0160195   0.01433204  81.02  0.001970286    1.255    0.203
        96 -12.4695    240.2779     30.6572   2.8920651753e+02   6.0115145427e+00   0.01801597   0.01225645  37.26  0.001948141    1.482    0.325
        97 -11.1267     23.2391     21.5122   2.9165895012e+02   7.2861946917e+00   0.01929822  0.009398188 -44.30  0.001743915    2.097    0.523
        98 -12.7035    185.3726     40.7375   2.8989832070e+02   6.1958631757e+00   0.02660779   0.01964666  26.89  0.001899075    1.339    0.253
        99 -14.1073    187.8394    199.7589   2.9079777294e+02   4.3934248998e+00   0.05717332   0.03795604 -69.39  0.005134478    1.626    0.385
