#   1 NUMBER                 Running object number                                     
#   2 MAG_AUTO               Kron-like elliptical aperture magnitude                    [mag]
#   3 X_IMAGE                Object position along x                                    [pixel]
#   4 Y_IMAGE                Object position along y                                    [pixel]
#   5 X_WORLD                Barycenter position along world x axis                     [deg]
#   6 Y_WORLD                Barycenter position along world y axis                     [deg]
#   7 A_WORLD                Profile RMS along major axis (world units)                 [deg]
#   8 B_WORLD                Profile RMS along minor axis (world units)                 [deg]
#   9 THETA_WORLD            Position angle (CCW/world-x)                               [deg]
#  10 FWHM_WORLD             FWHM assuming a gaussian core                              [deg]
#  11 ELONGATION             A_IMAGE/B_IMAGE                                           
#  12 ELLIPTICITY            1 - B_IMAGE/A_IMAGE                                       
         1 -14.5268    166.6999     54.4384   6.9955471945e+01   3.6444514765e+01     1.935125     1.350304  22.55  0.006808084    2.271    0.560
         2 -13.9799    180.8220     39.1881   6.4002068524e+01   3.5287884167e+01    0.8166013    0.6539724 -72.78  0.002696817    1.193    0.162
         3 -13.5654    185.4714     32.1868   6.1739100602e+01   3.5115608304e+01    0.5504091     0.473572  68.27  0.001811812    1.174    0.148
         4 -12.9690    189.8046     14.2696   5.7210581258e+01   3.6194555536e+01    0.3560665    0.3203571 -77.15  0.001372683    1.183    0.155
         5 -14.6339    201.8400      7.0972   5.4480322403e+01   3.4329858947e+01    0.9107947    0.7701304 -89.03  0.003900856    1.130    0.115
         6 -10.4396    112.3941      3.1757   6.5462059670e+01   5.4240104038e+01    0.1439517    0.1069676 -40.26 0.0003845028    1.643    0.391
         7 -11.6804    237.7578      2.2414   5.0641490124e+01   2.7454620677e+01    0.3172703   0.08162945  76.60  0.001308093    3.736    0.732
         8 -12.6012    152.5423    198.2793   1.0681769702e+02   9.8888879591e+00    0.4872685    0.3402026 -57.02  0.002138656    1.520    0.342
         9 -13.9465    247.0692    243.1513   9.5779588751e+01  -1.3378868700e+01     1.424625    0.5759698 -33.91  0.006950496    2.268    0.559
        10 -14.1239     71.9214    214.8444   1.2824753590e+02   1.9675695289e+01     1.546154    0.6177037 -43.10  0.004989178    4.573    0.781
        11 -17.0089     56.8220    236.6166   1.3395029393e+02   1.6839451879e+01     10.47338     8.474191 -76.46   0.06645422    1.221    0.181
        12 -11.2051    204.6390    176.3506   9.1174135723e+01   4.9047862178e+00     0.378431    0.3104391 -53.89  0.001128317    1.263    0.208
        13 -10.5693     47.8341    171.9555   1.2827227445e+02   3.3440793484e+01    0.2651954    0.1819586 -43.79 0.0007771952    1.618    0.382
        14 -11.4931     46.9721    167.1694   1.2780011439e+02   3.4749632503e+01    0.4092627    0.2384816 -61.00  0.001368534    1.493    0.330
        15 -10.8091    164.3603    170.6711   9.8573718911e+01   1.3845911476e+01    0.2638325    0.2242861 -58.60 0.0005845772    1.201    0.167
        16 -10.7196    192.5705    164.8133   9.1194056801e+01   9.5781260937e+00    0.2975389    0.2514963 -45.09 0.0006363083    1.114    0.102
        17 -10.4169    123.9619    161.1682   1.0633988166e+02   2.4057614172e+01    0.2380256    0.2058367  81.43 0.0005397478    1.274    0.215
        18 -18.9946     33.5502     99.4891   1.1944472054e+02   5.2589614354e+01     15.31983     1.046476 -58.43   0.02754648   12.625    0.921
        19 -10.8128    236.8019    158.3918   8.1578215133e+01   2.7510137891e+00    0.1741969    0.1301756  27.63  0.000460793    1.637    0.389
        20 -11.2259    189.1795    154.7435   8.9714386421e+01   1.2397855595e+01    0.4489116     0.364341  69.91  0.002243618    1.474    0.321
        21 -12.3194    133.9930    146.0702   1.0045295476e+02   2.5719896797e+01     1.413043    0.3519031 -54.64  0.003132392    5.900    0.831
        22 -10.8051    174.7704    148.8984   9.1474960001e+01   1.6614116158e+01    0.2756579    0.2471475 -77.38 0.0005788433    1.197    0.164
        23 -10.4645    161.4347    149.1545   9.4522110068e+01   1.9333335009e+01    0.2856675    0.2023011  88.11  0.001086917    2.149    0.535
        24 -11.2947    144.1330    146.5354   9.8033424631e+01   2.3534518115e+01    0.5773566    0.2516991 -62.00  0.001622257    3.962    0.748
        25 -11.3025    154.8838    187.1030   1.0412217740e+02   1.1959497795e+01    0.3047245    0.2332917  82.69 0.0008623364    1.777    0.437
        26 -12.6707    110.4936    138.5964   1.0491647593e+02   3.2127441980e+01    0.7131966    0.4882489 -20.09  0.002922893    2.106    0.525
        27 -12.9064     99.5688    137.8448   1.0776575692e+02   3.4315546151e+01    0.5792294    0.3946725  17.01  0.001115598    1.967    0.492
        28 -11.3168    141.9953    138.9742   9.6801265206e+01   2.5737948646e+01    0.3301119    0.2156355 -47.60 0.0007354759    1.486    0.327
        29 -11.3267    124.7957    152.6086   1.0427701258e+02   2.5980062034e+01    0.3385622    0.2424364  77.31  0.001344003    1.926    0.481
        30 -12.1863    105.9849    130.8157   1.0433955176e+02   3.4839340260e+01    0.5055146     0.391534 -71.74  0.001433951    1.472    0.321
        31 -11.3599    105.3479    124.8222   1.0307347963e+02   3.6372731828e+01    0.3010985    0.2445808 -27.25  0.000596567    1.345    0.256
        32 -11.5907    136.0000    129.4468   9.6015476623e+01   2.9183980775e+01    0.5481007    0.1546329 -48.40  0.001552976    3.509    0.715
        33 -11.3658    117.0457    129.0185   1.0086882750e+02   3.3142765463e+01    0.3383471    0.2830352 -17.82 0.0006724367    1.388    0.279
        34 -11.0935    160.4192    127.6023   8.9707414322e+01   2.4363927090e+01    0.4210698    0.2855019 -59.95  0.001464618    1.611    0.379
        35 -12.9166    149.3929    187.5481   1.0548721138e+02   1.2900752988e+01    0.5782562    0.4317534  89.79  0.001762175    1.858    0.462
        36 -10.6722    121.2996    123.2426   9.8304471177e+01   3.3629667380e+01    0.3512074    0.2403098 -21.05  0.001453827    2.022    0.505
        37 -10.5423    112.0496    118.2445   9.9563611574e+01   3.6605350714e+01    0.2475453    0.2400385   2.85 0.0004004124    1.063    0.059
        38 -11.1198    168.1702    113.1152   8.4472698457e+01   2.5730950443e+01    0.3820423    0.2849639 -80.75 0.0009186253    1.680    0.405
        39 -12.6399    141.1163    188.8823   1.0769692189e+02   1.4155056624e+01    0.4705241    0.3331513 -47.97  0.002214553    1.412    0.292
        40  -9.6683     26.2458    188.3156   1.3557761522e+02   3.1811343490e+01    0.1252377   0.08619443 -53.66 0.0003754782    1.517    0.341
        41 -10.8139    205.5120    110.1449   7.6599074404e+01   1.8148512823e+01    0.2982698     0.212587  45.47 0.0009260969    1.597    0.374
        42 -10.1046     78.3181    104.9569   1.0608667658e+02   4.5610768603e+01    0.2047222    0.1783858 -39.24 0.0004721211    1.071    0.067
        43 -10.6150     65.5796     98.8048   1.0855729994e+02   4.8888191025e+01    0.2715008    0.2395007   0.17  0.001056936    1.155    0.135
        44  -9.5744    127.4142     94.4973   8.9163685205e+01   3.8502530947e+01    0.1456977    0.1441625 -51.05 7.941991e-05    1.018    0.018
        45 -13.0417    172.2874     71.3853   7.3249457318e+01   3.2542757663e+01    0.8864604    0.4890071 -84.78  0.003025413    3.785    0.736
        46 -11.3664    157.8610    233.9315   1.1187824538e+02   1.4934780187e+00    0.3082055    0.1965317  16.97  0.001439336    1.970    0.492
        47 -11.0686    167.5047    231.9651   1.0949081640e+02   2.6172198623e-01    0.3011645    0.2382509  14.90 0.0007205335    1.307    0.235
        48 -10.4701    161.3953    200.2139   1.0517263894e+02   7.8342184042e+00    0.2116058    0.1824988 -53.10 0.0004554617    1.196    0.164
        49  -9.4648     78.9389     75.0265   9.7457759041e+01   5.1590940638e+01    0.1634742    0.1465161  14.30 0.0004767894    1.071    0.066
        50 -10.4150     13.5014     59.9577   1.1691424552e+02   6.2367020736e+01    0.1746851    0.1552916  17.61 0.0004001606    1.385    0.278
        51 -10.9957    159.5221    196.5305   1.0489454976e+02   8.9838336847e+00    0.2496887    0.2312797 -86.45 5.307745e-05    1.201    0.168
        52 -13.0074    198.1626     23.4042   5.8264697037e+01   3.3341514968e+01     0.396862    0.2958793  41.69  0.001929842    1.838    0.456
        53  99.0000     12.4146    205.9997   1.4029540699e+02   2.9001669655e+01    0.4395887    0.2110621  36.17  0.002315982    2.202    0.546
        54 -11.7535    193.2351    195.3066   9.7318762978e+01   3.0958641204e+00     1.005611    0.4992831 -65.09  0.002722421    6.010    0.834
