#   1 NUMBER                 Running object number                                     
#   2 MAG_AUTO               Kron-like elliptical aperture magnitude                    [mag]
#   3 X_IMAGE                Object position along x                                    [pixel]
#   4 Y_IMAGE                Object position along y                                    [pixel]
#   5 X_WORLD                Barycenter position along world x axis                     [deg]
#   6 Y_WORLD                Barycenter position along world y axis                     [deg]
#   7 A_WORLD                Profile RMS along major axis (world units)                 [deg]
#   8 B_WORLD                Profile RMS along minor axis (world units)                 [deg]
#   9 THETA_WORLD            Position angle (CCW/world-x)                               [deg]
#  10 FWHM_WORLD             FWHM assuming a gaussian core                              [deg]
#  11 ELONGATION             A_IMAGE/B_IMAGE                                           
#  12 ELLIPTICITY            1 - B_IMAGE/A_IMAGE                                       
         1 -14.8534     69.0595     56.6628   9.8199000883e+01   5.6907652175e+01     1.144882    0.7364565 -40.02  0.005536683    1.571    0.364
         2 -14.8315     81.2831     68.9344   9.8115890616e+01   5.2803125189e+01     1.656615     1.008047 -26.97  0.007321816    1.795    0.443
         3 -14.2245      5.7471     22.4162   1.1169574042e+02   6.9527198529e+01     1.136383    0.7337684 -21.13  0.006401776    1.187    0.157
         4 -13.0652     12.5445     14.7536   1.0537048256e+02   7.0013131049e+01    0.4526646    0.3643162  13.59  0.002532681    1.391    0.281
         5 -12.1095     83.5578     22.7878   8.1497308041e+01   5.8936933390e+01    0.3344962    0.3020479   3.35  0.002287791    1.159    0.138
         6 -11.4987     64.9676     17.8788   8.5386686262e+01   6.2767567395e+01    0.3756892     0.216492  26.55  0.001883082    1.629    0.386
         7 -11.9611     95.3044      3.6353   7.1561127205e+01   5.8371206530e+01       0.3227    0.1723426  45.94  0.001506627    1.500    0.333
         8 -12.9220     86.5873      3.3647   7.3560267788e+01   6.0125470437e+01    0.8088489    0.3837588  42.14  0.004398175    1.725    0.420
         9 -11.5029     79.0129      3.2269   7.5476900642e+01   6.1587837791e+01    0.3086668    0.2025475  -6.63  0.001505343    1.679    0.404
        10 -12.0196     75.6174     13.5269   8.0358987916e+01   6.1332643341e+01    0.3342989    0.2384064  44.25  0.001017519    1.238    0.192
        11 -11.7537     82.1914     13.8237   7.8581170373e+01   6.0084699123e+01    0.2738958    0.1948286  34.01 0.0007815771    1.178    0.151
        12 -12.6034     86.8891     11.6352   7.6500236907e+01   5.9382562829e+01    0.5246246    0.3109262  62.33  0.001773304    1.848    0.459
        13 -11.7605    123.8989     10.4361   6.7848142823e+01   5.1742050030e+01    0.2958942    0.1851165  50.15 0.0006273515    1.347    0.258
        14 -11.2725    137.7372      5.6078   6.4040227526e+01   4.9051819514e+01    0.3372676    0.1823388  66.16  0.001268806    1.531    0.347
        15 -11.2643    192.9148      7.0773   5.7334031101e+01   3.6289622108e+01    0.2963198    0.1212907 -38.18  0.001462659    2.502    0.600
        16 -11.1914    111.8035      4.7236   6.8388672041e+01   5.4847015073e+01     0.343421    0.1208718  55.75  0.001581075    2.136    0.532
        17 -10.7948     33.1365      4.1017   9.1407097417e+01   6.8928004628e+01    0.2584168     0.119349  28.84  0.001245492    1.903    0.475
        18 -11.5418     73.2705      1.4930   7.6392743310e+01   6.2786615734e+01    0.2171843    0.1170141  52.56 0.0004360248    1.627    0.385
        19 -12.0846    214.9357    142.5195   8.5032426143e+01   9.6155703075e+00    0.7408226    0.3784232  53.99   0.00306165    2.254    0.556
        20 -12.3592     75.9938    141.7595   1.1852452786e+02   3.7674740775e+01     0.416211     0.243989 -72.55  0.001741108    2.000    0.500
        21 -11.0376      3.5488    140.9034   1.3857560715e+02   4.5696346997e+01    0.2550473    0.1420392 -57.58  0.001438449    1.482    0.325
        22 -13.5455    201.2052    127.6061   8.4247991148e+01   1.5485402027e+01     1.753309     1.100971 -12.38  0.006260647    3.278    0.695
        23 -14.0270    216.0439    123.8820   8.0700384787e+01   1.3059505649e+01     1.267342     1.006838  39.97  0.006656501    1.455    0.313
        24 -12.1822     34.6512    136.0672   1.2934793451e+02   4.4268834665e+01    0.3564329    0.1735183  27.57  0.001668717    2.387    0.581
        25 -11.1571     21.5746    133.7287   1.3270367199e+02   4.6035891264e+01    0.2130428    0.1455355  57.76  0.001077667    1.726    0.421
        26 -10.6111     90.3689    145.7856   1.1530066973e+02   3.4379895443e+01    0.2264975    0.1296038 -47.64 0.0009525662    1.709    0.415
        27 -11.1697    122.1139    127.4032   1.0235600914e+02   3.2879581136e+01    0.3689695    0.3014826  34.72  0.001351173    1.292    0.226
        28 -11.4110     82.1470    133.9979   1.1513404736e+02   3.8625927025e+01    0.3099937    0.1737188 -55.58  0.001334705    1.667    0.400
        29 -10.6511    101.5256    114.4696   1.0485581121e+02   3.9886591530e+01    0.1495305    0.1451616 -52.09 0.0001498087    1.025    0.024
        30 -11.4978     32.8715    103.2925   1.2379647102e+02   5.2150304275e+01    0.3536614    0.1253924 -52.75 0.0009471641    2.210    0.547
        31 -10.6557    141.3369     97.7979   8.9691430897e+01   3.5149758935e+01    0.2760977    0.1986552 -32.43   0.00114044    1.523    0.343
        32 -11.0400    114.0598     96.8948   9.6570616071e+01   4.1240726235e+01    0.3515726    0.2214811 -48.67 0.0009565874    1.622    0.383
        33 -11.5318    188.2582     94.3858   7.8785946503e+01   2.4892204257e+01    0.3285336    0.2624296  81.79  0.001430206    1.318    0.241
        34 -11.6958     68.1484     90.8789   1.0895365254e+02   5.0637108258e+01    0.3596157    0.2062993 -37.65  0.001685955    1.706    0.414
        35 -13.6688     33.6030     86.1362   1.1963166001e+02   5.5825179365e+01    0.7056463    0.5857871 -66.07  0.004360761    1.336    0.252
        36 -13.2724     41.2093     82.7123   1.1604742654e+02   5.5763180336e+01     1.086143    0.4397038 -54.04  0.004764206    2.257    0.557
        37 -13.4776     33.9518     76.3092   1.1698352612e+02   5.7810664976e+01    0.8760695    0.4431408  -1.32  0.003785279    3.134    0.681
        38 -13.5877     34.2074     69.9239   1.1513038973e+02   5.9041207360e+01    0.5396249    0.4845473  16.42  0.003253877    1.273    0.214
        39 -12.4369     39.7312     34.0224   1.0107672663e+02   6.4483216049e+01    0.6162456    0.3605776 -12.86  0.002734272    1.820    0.451
        40 -14.2458     47.2922     66.8001   1.0930118444e+02   5.8184920474e+01     0.878428    0.7057512 -77.02  0.005104244    1.959    0.489
        41 -14.5874     60.8171     70.8610   1.0565139955e+02   5.5656879533e+01     1.036189      0.72096  21.96  0.003621901    1.475    0.322
        42  -9.8413    178.3069    184.6729   1.0153230200e+02   8.2103073192e+00    0.1487215    0.1200846  87.70 0.0006640945    1.653    0.395
        43 -14.2143     53.3729     45.2698   9.9891717745e+01   6.1037354929e+01    0.7375635    0.5264468  37.32  0.004514571    1.518    0.341
        44 -12.8693     34.5746     48.1421   1.0823258807e+02   6.2910875975e+01    0.4004698    0.3117267  14.20 0.0007157715    1.263    0.208
        45 -12.9695     42.2938     47.7139   1.0500705586e+02   6.2095968565e+01     0.399681    0.3039337  15.31 0.0009786887    1.248    0.198
        46 -13.3988     42.2103     42.3893   1.0316461747e+02   6.2942618907e+01    0.6354145    0.3290483  13.00  0.002651331    2.420    0.587
        47 -12.9417      5.2940     84.0313   1.2921950866e+02   5.8428931410e+01    0.6242432    0.2506966 -47.05   0.00320105    1.883    0.469
        48 -12.8429    134.8616     77.2581   8.5540588841e+01   4.0492058930e+01    0.3596843    0.2692096 -17.96   0.00174217    1.646    0.392
        49 -14.2148     94.9342     72.5316   9.4969465289e+01   4.9701211365e+01    0.9836744    0.6431527  21.93  0.001948378    1.816    0.449
        50 -11.4990    144.4083     73.9024   8.2355345282e+01   3.8883486764e+01    0.2735579    0.2006435  48.34 0.0004484659    1.316    0.240
        51  -9.7211    182.5273     72.3982   7.4363703539e+01   3.0111487172e+01    0.1438728    0.1297919  86.91 0.0001087135    1.021    0.021
        52 -12.8923    117.9586     68.5320   8.7229853669e+01   4.5729808326e+01     0.507215    0.2404509 -41.10  0.002102417    2.201    0.546
        53 -10.6150     18.3133     78.3305   1.2326985465e+02   5.8752847292e+01    0.1315624    0.0724175 -33.64 0.0003485524    1.676    0.403
        54 -10.5548    169.7794     63.0100   7.4230866619e+01   3.4657382832e+01     0.275567    0.1895355  58.49 0.0008396841    1.366    0.268
        55 -10.5325    214.7110     61.3016   6.6813095733e+01   2.4412062935e+01    0.2656336    0.1759018 -33.74  0.001372971    1.729    0.422
        56 -10.9492    144.4977    181.5045   1.0862450748e+02   1.5586546114e+01    0.1525521    0.1474498  73.27 -6.754618e-05    1.022    0.021
        57 -12.2939    124.7585     57.7612   8.2235440820e+01   4.5959433764e+01    0.4949066    0.2587766  47.66  0.001787408    1.768    0.434
        58 -10.2582    174.9360     56.3503   7.1600917701e+01   3.4438989437e+01     0.198714    0.1608943  69.75 0.0004773486    1.136    0.119
        59 -11.9586    133.7928     54.0905   7.9020388591e+01   4.4467352904e+01    0.4535611    0.2756032  68.96 0.0008508736    1.916    0.478
        60 -10.4331    209.8975     54.8316   6.6003770839e+01   2.6476055733e+01    0.1970539    0.1664061  53.51  0.001168048    1.388    0.279
        61 -11.2795     92.3596     53.0734   8.9491603996e+01   5.3390532693e+01     0.221834    0.1650406  30.58  0.001234408    1.272    0.214
        62 -11.4844    145.4710     50.9695   7.5614532131e+01   4.2210745435e+01    0.2710048    0.2578919 -43.02 0.0007712213    1.148    0.129
        63 -12.9023      3.1691     46.7261   1.2098700628e+02   6.5787394993e+01     0.781232    0.4135975 -59.19   0.00374314    2.002    0.500
        64 -10.8250     33.7892    177.4028   1.3532896385e+02   3.4243924311e+01    0.1623549    0.1314571  12.74 0.0009605458    1.693    0.409
        65 -12.0490    203.3813    171.9422   9.3613491966e+01   5.9683788367e+00    0.4019109    0.3037904  -3.84  0.001942092    1.680    0.405
        66 -13.3450     36.4978     55.6767   1.0994700412e+02   6.1423611801e+01    0.5050706     0.328811 -30.65  0.001473213    1.335    0.251
        67 -11.2288    157.0916     43.8582   7.1408830605e+01   4.0441726144e+01    0.2212851    0.1967322  68.62 0.0004940196    1.016    0.016
        68 -11.4368     28.8286     42.8492   1.0878189903e+02   6.4375087757e+01    0.1853927    0.1294856 -18.97 0.0006136226    1.212    0.175
        69 -10.9143    217.8419     38.5989   6.1483384431e+01   2.6971745778e+01     0.228642    0.1797781 -69.43 0.0006089854    1.103    0.094
        70 -12.7256     59.3793     38.2363   9.5127598266e+01   6.1187793607e+01    0.3455074    0.2844822  36.35  0.001402817    1.344    0.256
        71 -12.5090     53.9757     34.7490   9.5809932756e+01   6.2467750567e+01    0.3522175    0.3009106   8.45  0.001048622    1.108    0.097
        72 -11.4964     82.7307     33.7089   8.5701160827e+01   5.7842177972e+01    0.3223927    0.2419814  28.61 0.0008977302    1.182    0.154
        73 -12.1435     79.4632     30.0689   8.5381753381e+01   5.8879388753e+01    0.3208968    0.2594579   2.34  0.000531361    1.187    0.158
        74 -10.6687    176.6409     33.4702   6.5542808334e+01   3.7131353056e+01    0.2090272    0.1876257  78.13 0.0007098062    1.080    0.074
        75 -10.5121    242.3922     23.3991   5.6046662353e+01   2.3668653416e+01    0.2908438    0.1294222 -68.91  0.001385842    2.399    0.583
        76 -10.9281      2.3853    171.2008   1.4201234557e+02   3.8645119113e+01    0.1827116   0.09314882 -86.06 0.0009530429    1.705    0.413
        77 -12.6259    197.9984    167.0852   9.3676115442e+01   8.0144108127e+00    0.5293986    0.3258951 -44.88  0.002386743    1.560    0.359
        78 -11.6126    215.1267    162.2919   8.9271059289e+01   5.6432323317e+00    0.2307431    0.1860358  17.10  0.001199722    1.449    0.310
        79 -13.7377    202.4339    150.8921   8.9262377991e+01   1.0463981040e+01    0.9596508    0.4992859 -39.58  0.003938376    1.871    0.465
        80 -10.4948    218.6611    157.3144   8.7546570042e+01   5.9490407752e+00    0.1445955    0.1133189 -78.79  0.000673444    1.698    0.411
        81 -11.5996    189.9142    153.8396   9.2461006665e+01   1.2436388847e+01    0.3621136    0.2174664 -49.06   0.00155363    1.637    0.389
        82 -11.0604    232.8610    153.8610   8.4266601338e+01   3.9469493131e+00    0.2195063    0.1862634 -19.61  0.001238833    1.229    0.187
        83 -12.4086     19.1145    153.4438   1.3605930045e+02   4.1499287251e+01    0.3099826    0.2654707  17.37  0.002026057    1.496    0.331
        84 -10.8039    138.9720    152.0412   1.0376906185e+02   2.3608831377e+01    0.2472078    0.2410056 -72.14 0.0007768885    1.009    0.009
        85 -12.6393    247.8814    144.9459   7.9932221126e+01   2.8985841831e+00     1.034913     0.431931 -45.00  0.004361778    2.087    0.521
        86 -11.4875    240.4507    145.6407   8.1270080903e+01   4.1048084948e+00    0.2893344    0.2699814  61.77  0.001773014    1.230    0.187
        87 -10.0351     91.5040    151.5124   1.1615779432e+02   3.2767949765e+01    0.1514923    0.1413631 -77.63 0.0002497925    1.020    0.020
        88 -13.6611     50.0667    142.1987   1.2599148121e+02   4.1077113953e+01    0.9588568     0.583053  34.85  0.004787375    1.818    0.450
