#   1 NUMBER                 Running object number                                     
#   2 MAG_AUTO               Kron-like elliptical aperture magnitude                    [mag]
#   3 X_IMAGE                Object position along x                                    [pixel]
#   4 Y_IMAGE                Object position along y                                    [pixel]
#   5 X_WORLD                Barycenter position along world x axis                     [deg]
#   6 Y_WORLD                Barycenter position along world y axis                     [deg]
#   7 A_WORLD                Profile RMS along major axis (world units)                 [deg]
#   8 B_WORLD                Profile RMS along minor axis (world units)                 [deg]
#   9 THETA_WORLD            Position angle (CCW/world-x)                               [deg]
#  10 FWHM_WORLD             FWHM assuming a gaussian core                              [deg]
#  11 ELONGATION             A_IMAGE/B_IMAGE                                           
#  12 ELLIPTICITY            1 - B_IMAGE/A_IMAGE                                       
         1 -14.3169    140.2805    141.8106   7.9601690677e+01   2.5475340753e+01     2.891803     2.299169  57.86   0.01381634    1.395    0.283
         2 -14.9147    142.5210    184.4397   8.8002348733e+01   1.5537117101e+01     3.777715     3.082851 -69.15   0.01322111    1.448    0.309
         3 -14.1588      9.2898    126.1445   1.1480182119e+02   4.8219744873e+01     2.542352     1.337746 -79.20   0.00776292    1.697    0.411
         4 -13.0999    230.9444     64.5222   4.3339615188e+01   2.0096695481e+01     1.423673    0.9364535 -31.63  0.007666011    1.565    0.361
         5 -12.4751     13.7659     42.5983   9.5697542599e+01   6.6789513333e+01     1.033454    0.7660273  89.23  0.004701571    2.576    0.612
         6  -9.3437     13.7549     18.7621   8.6379978741e+01   7.0930179966e+01    0.7813224    0.3663133  19.85  0.004314824    2.139    0.533
         7 -12.8332     30.3750     27.3353   8.1557590670e+01   6.7850997120e+01     1.366152    0.7737996   9.42  0.006329267    1.931    0.482
         8 -13.4163     30.9594     12.6966   7.4416520300e+01   6.9870510512e+01     1.816469    0.9839311 -29.82   0.01054975    1.715    0.417
         9 -11.7616    226.1014     28.0564   3.5743907670e+01   2.6038598645e+01    0.5078396    0.3379253  29.95  0.001380744    2.700    0.630
        10 -11.3782    244.7484     11.4687   3.0826452159e+01   2.4071750504e+01    0.6000932    0.3790805 -61.60  0.003374072    1.293    0.227
        11 -11.9987    219.6754     33.9576   3.7674485287e+01   2.6711085646e+01    0.7319515     0.566933  84.08  0.004546522    1.215    0.177
        12 -14.5696    129.6873    240.4771   9.9739968734e+01   6.5831879015e+00     3.042236       1.3258  39.70   0.01053929    1.929    0.482
        13 -13.8366     97.0644    245.3468   1.0708445169e+02   1.0568821488e+01     2.628767     1.413519  52.87   0.01377714    1.754    0.430
        14 -14.0499     66.3707    235.0750   1.1235678748e+02   1.6797542095e+01     1.610596     1.313885 -86.48  0.009956199    1.229    0.186
        15 -14.3540     64.0089    221.9039   1.1159460974e+02   1.9819893224e+01     1.565614     1.137346  30.25  0.005646903    1.506    0.336
        16 -10.7721     47.6318    250.0018   1.1726852799e+02   1.6242586547e+01    0.4475047    0.1709107  37.98  0.002065978    2.195    0.544
        17 -12.3527     14.0729    248.0950   1.2330245224e+02   2.0321957992e+01     1.047278    0.4149933  36.53  0.005846595    2.251    0.556
        18 -11.6003     21.2561    244.0222   1.2179406448e+02   2.0360213865e+01     1.244738    0.1198926  41.86  0.004841617    4.046    0.753
        19  -8.7455      2.3245    249.8596   1.2542713930e+02   2.1143809701e+01    0.2739802   0.09720353  47.74  0.001558199    2.052    0.513
        20  -5.5442      1.3547    246.1649   1.2543608913e+02   2.1930292452e+01    0.1920748    0.0822115 -88.84  0.001103782    2.077    0.519
        21  -9.0369      1.7803    234.8701   1.2485749014e+02   2.4072988809e+01    0.1534229    0.1220449 -78.11 0.0008086265    1.375    0.273
        22 -12.9713    173.5382    231.7525   8.9344663124e+01   1.2277830400e+00     1.914717     1.038597 -15.42  0.007745669    3.361    0.703
        23 -11.6823    203.5452    199.4724   7.7601869140e+01   1.8694467693e+00    0.6347331    0.5022746 -23.37   0.00238821    1.190    0.159
        24 -12.5972     25.9157    193.7780   1.1738414946e+02   3.0523543761e+01      1.07258    0.5959426  61.29  0.003209803    1.712    0.416
        25 -11.6482     15.8287    187.7608   1.1916318956e+02   3.2876357732e+01    0.6805003    0.5331197  25.73  0.003837948    1.576    0.365
        26 -10.6619     93.0521    186.1271   1.0037233398e+02   2.3654177173e+01    0.4507633    0.3883598  -5.81  0.002472822    1.460    0.315
        27  -9.2246     51.6342    180.1024   1.0989217219e+02   3.0892172195e+01    0.2680991    0.1973694 -31.54  0.001424955    1.853    0.460
        28  -9.6066     91.3831    178.7452   9.9633712332e+01   2.5657432328e+01    0.3441673    0.2860221  19.10  0.001800651    1.388    0.279
        29  -9.7248     58.2792    174.0703   1.0744465117e+02   3.1526067437e+01    0.2601504    0.2107876 -44.60 0.0005628738    1.399    0.285
        30 -13.4555     25.4073    154.0977   1.1358751437e+02   4.0062620436e+01     1.617164    0.9671516 -73.62  0.005002475    1.433    0.302
        31 -11.3506    209.8307    195.2187   7.5555489126e+01   1.5695588860e+00    0.7161697    0.4261374 -34.88   0.00255306    1.607    0.378
        32 -11.2034    171.6335    167.3669   7.7860769861e+01   1.3648039082e+01    0.4959245    0.4921842 -86.89  0.001936078    1.138    0.122
        33 -10.4569    181.6461    204.7833   8.3060766007e+01   4.5818110911e+00    0.4807608     0.260463  20.63  0.002042726    2.305    0.566
        34  -8.6084     69.6631    164.0853   1.0300022916e+02   3.2463222294e+01    0.1931138    0.1659555 -64.60 0.0003922177    1.114    0.102
        35 -11.2001     55.6526    160.6663   1.0627110368e+02   3.5164798335e+01    0.4641178    0.2614397 -40.84   0.00136286    2.188    0.543
        36 -10.2181    209.7627    160.2051   6.8425906146e+01   7.8204951583e+00    0.2735439    0.2297757  -4.07   0.00151994    1.186    0.157
        37  -8.7904     76.9084    158.2896   1.0007754932e+02   3.2862234899e+01    0.1965325    0.1871676  37.72 0.0005719503    1.128    0.113
        38  -9.2185     69.7839    145.6084   9.9854928983e+01   3.7064803717e+01    0.2650155    0.2312995  44.34  0.001462492    1.202    0.168
        39  -9.3122     67.7833    142.5873   9.9887269438e+01   3.8104684959e+01    0.4065495    0.2306591  55.65  0.001490125    2.170    0.539
        40  -9.7284     94.8417    143.7034   9.2283616103e+01   3.3637489388e+01    0.3629864    0.3493831  47.68  0.001299655    1.069    0.064
        41 -12.2157    109.0169    137.9907   8.7044144285e+01   3.2509547496e+01     0.642715    0.4765646 -41.17  0.003021942    1.368    0.269
        42 -12.6463     98.1048    133.8270   8.9209717868e+01   3.5494495600e+01     1.672899     1.036065  37.62  0.006934198    1.665    0.399
        43 -11.1993     53.1470    131.0908   1.0217710689e+02   4.2904836455e+01    0.6657672    0.4864479 -57.36  0.002892737    1.227    0.185
        44 -11.3264     47.6906    129.0341   1.0349079067e+02   4.4062787087e+01    0.5980154    0.4875757   9.91  0.002328791    1.458    0.314
        45  -9.8936     81.2197    141.8011   9.5813184390e+01   3.6324196033e+01    0.2568017    0.2279139 -38.15 0.0003954382    1.172    0.147
        46 -12.7142    210.3160    121.4444   5.9610509493e+01   1.4902427147e+01     1.829951      1.15604  24.60  0.007915524    2.308    0.567
        47 -12.2033     41.0863    121.6742   1.0425024668e+02   4.6625667344e+01    0.9354811    0.4857969  41.74  0.003771479    2.159    0.537
        48 -10.2225     57.5801    119.9076   9.8605538277e+01   4.5146914674e+01    0.5572199    0.3244867  54.11  0.002194515    2.216    0.549
        49 -10.8840    104.6190    120.1857   8.4067198315e+01   3.7583564450e+01    0.2966102    0.2372532 -37.75  0.000628707    1.252    0.201
        50 -10.0621     40.9761    112.8541   1.0262825514e+02   4.8820111907e+01    0.2608757    0.1858662 -60.73 0.0008323775    1.232    0.188
        51 -11.6281    119.5933    205.8467   9.7042700457e+01   1.4952929340e+01    0.8911093    0.6710665  27.70  0.003451474    1.350    0.260
        52  -9.8018    163.9172    201.4079   8.6252898641e+01   8.2545260847e+00    0.3032386    0.2503921  24.79  0.001271404    1.130    0.115
        53 -11.7494    110.7998     84.8350   7.2394096944e+01   4.4146712383e+01    0.4452232    0.3583111 -64.93  0.002176763    1.508    0.337
        54 -13.3976    204.1166    217.5731   8.0808170370e+01  -1.2221410495e+00     1.332859     1.169624  36.46  0.005930421    1.349    0.259
        55 -11.3896     41.5554     54.6609   8.7062997452e+01   6.1765389850e+01    0.7011959    0.5084568   0.36  0.002840913    1.395    0.283
        56 -12.2286    189.9306    216.9632   8.3527458485e+01   1.1012416367e+00     1.027789    0.4824515 -35.14  0.004024042    2.275    0.560
        57 -11.2532      3.5717    225.9728   1.2409820672e+02   2.5690965914e+01    0.4046723     0.215039  63.83  0.001819144    1.530    0.346
        58 -12.2997     49.6889    237.3761   1.1592362997e+02   1.8447688330e+01    0.6464595    0.3333727  71.72  0.002297626    2.069    0.517
        59 -13.6493     44.1260    221.1105   1.1573634421e+02   2.2466173772e+01     1.056238    0.6248622  60.89  0.003551193    1.522    0.343
        60 -13.7195     35.1169    227.7177   1.1809468526e+02   2.2117353401e+01     1.319744    0.5552765  59.00  0.005657238    2.261    0.558
        61 -15.4137     10.2628    215.2934   1.2222392698e+02   2.7290977659e+01     2.393467    0.9669473  72.28   0.01141227    2.542    0.607
