#   1 NUMBER                 Running object number                                     
#   2 MAG_AUTO               Kron-like elliptical aperture magnitude                    [mag]
#   3 X_IMAGE                Object position along x                                    [pixel]
#   4 Y_IMAGE                Object position along y                                    [pixel]
#   5 X_WORLD                Barycenter position along world x axis                     [deg]
#   6 Y_WORLD                Barycenter position along world y axis                     [deg]
#   7 A_WORLD                Profile RMS along major axis (world units)                 [deg]
#   8 B_WORLD                Profile RMS along minor axis (world units)                 [deg]
#   9 THETA_WORLD            Position angle (CCW/world-x)                               [deg]
#  10 FWHM_WORLD             FWHM assuming a gaussian core                              [deg]
#  11 ELONGATION             A_IMAGE/B_IMAGE                                           
#  12 ELLIPTICITY            1 - B_IMAGE/A_IMAGE                                       
         1 -13.4222     54.7908    146.7825   1.0914394414e+02   3.8537559631e+01     5.525413     0.920093 -62.09   0.01592244    4.508    0.778
         2 -14.7577     68.6412    144.1760   1.0490830360e+02   3.7421092395e+01     5.275498     2.105943  58.40  0.007448995    5.684    0.824
         3 -14.3967    199.9576     38.6462   4.5293395688e+01   3.0717360540e+01     1.671437      1.43111  23.08   0.00528634    1.464    0.317
         4 -14.4595    211.1524     27.2116   4.1039720130e+01   2.9484856397e+01     1.297708     1.017055   3.19  0.003409751    1.795    0.443
         5 -12.4258      2.4484     21.9651   1.0021168520e+02   7.0906259937e+01    0.6410928     0.182803 -54.93  0.002861792    2.979    0.664
         6 -12.9652      2.9547      6.8892   9.3603814024e+01   7.3405773838e+01    0.9293806    0.4250128 -45.13  0.005471259    1.841    0.457
         7 -12.5774    237.7953      3.7056   3.3283238274e+01   2.6117275662e+01    0.5569647    0.3712783  58.19  0.003005332    1.712    0.416
         8 -12.3290    232.9911      3.0069   3.3478194278e+01   2.7224697808e+01    0.4225433     0.277439  87.36  0.001802941    1.373    0.272
         9  -9.7357    189.6538     14.9831   4.0329092474e+01   3.5996647134e+01    0.1806353    0.1629212 -55.22 0.0005915179    1.138    0.121
        10 -11.7825    139.6644    248.8223   1.0353770749e+02   4.4573606700e+00    0.3339233    0.2777541 -63.21  0.002260806    1.507    0.336
        11 -13.0042     70.8135    172.7376   1.0871127062e+02   3.0221654053e+01    0.9800386    0.4723717 -36.49  0.003446737    4.035    0.752
        12 -13.0056     13.4233    189.5454   1.2359464615e+02   3.2743019854e+01    0.3440811    0.2598425 -69.72  0.000531246    1.331    0.249
        13 -12.9290     28.0559    215.3958   1.2241018736e+02   2.5838326013e+01    0.9043701    0.3188284 -85.22  0.003990014    3.091    0.676
        14 -13.3151     24.9814    225.8235   1.2366089253e+02   2.4060755386e+01    0.7219963    0.3182687  54.07  0.003694491    1.856    0.461
        15 -13.8514     43.4358    201.5421   1.1821625197e+02   2.7085441649e+01    0.8541855    0.5435131 -83.69  0.002518208    1.434    0.303
        16 -14.4711     53.7564    189.7799   1.1482039482e+02   2.8474843970e+01     3.706303     1.965294 -86.47   0.01801944    2.034    0.508
        17 -11.5663    109.6230    201.5067   1.0357319755e+02   1.7946717344e+01    0.4885112    0.2954373  31.16  0.002387017    1.724    0.420
        18 -10.5171    111.5659    197.1823   1.0250342322e+02   1.8545295510e+01    0.3245224    0.2186462  -1.83  0.001400235    2.762    0.638
        19 -14.7566     10.4501    206.3221   1.2524874255e+02   2.9430236455e+01    0.7055321    0.5760144  28.03  0.002549948    1.614    0.381
        20  -9.0254     70.5926    184.7659   1.1034668589e+02   2.7456598071e+01    0.1701823    0.1179127 -84.83 0.0002557154    1.451    0.311
        21  -9.2229     92.0953    184.0889   1.0513811362e+02   2.4506645886e+01    0.1921418    0.1866597 -15.52 0.0005017151    1.219    0.179
        22  -9.2628     32.1648    203.1667   1.2070519687e+02   2.7970485312e+01    0.1692899    0.1108889  70.03 0.0005570663    1.317    0.241
        23 -10.8547    150.7093    179.2013   9.0391548320e+01   1.5469839193e+01    0.4350516    0.2886716 -74.98  0.001835358    2.437    0.590
        24 -11.5539    144.3013    179.2332   9.1882124945e+01   1.6652238146e+01    0.4679986    0.3428282 -73.93  0.002232539    1.820    0.450
        25 -10.4020     99.4096    180.6819   1.0286354266e+02   2.4136124726e+01    0.2397194     0.231334  43.22 0.0005815951    1.111    0.100
        26 -15.7797      2.7000    198.2020   1.2629190239e+02   3.1804396551e+01     8.954666          nan -71.36   0.01688227    8.979    0.889
        27  -9.8244     42.9810    179.9835   1.1626827097e+02   3.1958940040e+01    0.1828009    0.1636588 -88.53 0.0003176763    1.115    0.103
        28 -10.2622     46.1516    176.8686   1.1519678696e+02   3.2324528975e+01    0.2746759    0.2237588 -72.47 0.0009252366    1.163    0.140
        29  -9.9135    204.1419    175.7199   7.8138071149e+01   6.1479214367e+00    0.2391158     0.189088 -41.56 0.0007005884    1.346    0.257
        30  -9.9631    196.7784    175.5065   7.9585231388e+01   7.5378436818e+00      0.30663    0.2648776  68.54  0.001668988    1.567    0.362
        31 -10.0102    188.1763    174.5604   8.1178574524e+01   9.3179628614e+00    0.3395652     0.194934 -55.52  0.001409342    2.392    0.582
        32 -14.1900     57.7872    241.0089   1.1858838648e+02   1.7393609164e+01    0.7999113    0.5386756  78.30  0.005291034    1.367    0.269
        33 -13.6684     69.6365    156.7273   1.0667475612e+02   3.4216857875e+01    0.5819987     0.451582 -44.48  0.001219731    1.412    0.292
        34 -10.4402    113.4875    206.9726   1.0348111466e+02   1.6196118534e+01    0.2767503    0.1658234  52.90  0.001362937    1.653    0.395
        35  -9.6352     35.8999    166.9796   1.1658602994e+02   3.5746300640e+01    0.1857019    0.1567936  86.43 0.0003221012    1.024    0.023
        36  -9.7672    157.7776    160.4609   8.4971910300e+01   1.8039586514e+01    0.2741742    0.2357577  81.67  0.000721351    1.449    0.310
        37 -13.0184     81.6263    161.3830   1.0426883505e+02   3.1394537487e+01     1.141154    0.4824242  54.93 0.0002915557    3.270    0.694
        38 -12.3590     88.5802    154.3603   1.0124865407e+02   3.2033128937e+01    0.6408202    0.4591168 -25.59   0.00303095    1.912    0.477
        39 -10.1043    187.4940    151.9395   7.6457522060e+01   1.3800232914e+01     0.230621    0.1437187 -40.66  0.001027378    1.576    0.366
        40 -11.3148    133.6914    144.6620   8.7409372697e+01   2.6301082139e+01     1.170666    0.3093489 -54.22   0.00282736    5.375    0.814
        41  -9.0923    112.6567    150.3368   9.4085825209e+01   2.8955224890e+01    0.1588395    0.1166902  76.60 0.0007049725    1.768    0.434
        42 -10.4900    174.4797    148.8843   7.8598929416e+01   1.7069139793e+01    0.3067928    0.2772856 -80.09  0.001097612    1.338    0.253
        43  -9.4251     83.7180    143.0968   1.0051712199e+02   3.5520995781e+01    0.2023255    0.1743919 -62.04 0.0003264029    1.096    0.088
        44 -10.9494    102.4657    139.6940   9.4634637960e+01   3.3291225094e+01     0.549915    0.3468679 -26.82  0.002232417    2.295    0.564
        45 -12.4000     89.7252    139.5851   9.8158381076e+01   3.5441301819e+01    0.2882456    0.2516855 -44.67 0.0003634238    1.159    0.137
        46 -12.5199     44.1076    129.8658   1.0954753363e+02   4.3897155599e+01    0.5668211    0.3314609  51.49  0.002786255    1.961    0.490
        47 -10.5395    105.9854    130.7995   9.1713160384e+01   3.4799877594e+01     0.351107    0.3022307 -55.56   0.00127329    1.131    0.116
        48 -11.1830    135.7594    128.1339   8.3012515421e+01   2.9631439621e+01    0.5976549    0.1917305 -48.89   0.00179629    3.200    0.687
        49 -12.0653     29.1454    128.5071   1.1369205787e+02   4.5663942316e+01    0.4309939    0.2493753 -32.32  0.002119719    2.267    0.559
        50 -10.2781    160.8084    127.9260   7.6754934473e+01   2.4341796850e+01    0.3639138    0.2127973 -50.13  0.001474024    1.805    0.446
        51 -10.9935     98.8208    126.2256   9.2712928925e+01   3.7161342241e+01     0.326887     0.258934 -10.35  0.001575202    1.593    0.372
        52  -9.3643     93.3406    125.6426   9.4171649148e+01   3.8236010198e+01    0.2125475    0.1668019  77.77 0.0005125689    1.578    0.366
        53 -11.2620    119.0654    123.1224   8.6250833932e+01   3.4144920421e+01    0.6694262    0.4137539  -6.97  0.002167491    3.638    0.725
        54 -10.3499    111.6232    130.1483   8.9989457942e+01   3.3922598742e+01    0.3438605    0.2636372  -5.00   0.00111311    1.744    0.427
        55  -9.9188    107.9216    119.0195   8.8379025410e+01   3.7232857354e+01    0.2183362    0.2103757 -34.42 0.0003076707    1.021    0.020
        56 -11.3355    138.4648    170.3584   9.1571081969e+01   1.9638476951e+01    0.4317778    0.2939878  39.01  0.001614008    1.422    0.297
        57 -11.3548     45.1831    117.5394   1.0713762646e+02   4.6812484630e+01    0.2610958    0.1703182 -64.08 0.0006354263    1.336    0.251
        58 -10.6103    134.7193    106.5299   7.7686013070e+01   3.4628747649e+01    0.6172315    0.1422027 -45.59  0.001571667    4.370    0.771
        59  -9.5826    168.2666    113.1176   7.1255567768e+01   2.5757280287e+01    0.2951552    0.2131382  84.52  0.001217255    2.124    0.529
        60 -12.7521     21.4703    109.0368   1.1314884919e+02   5.0999711673e+01    0.6873854    0.4001732  -5.40  0.003489475    2.464    0.594
        61 -10.6190    117.0023    109.4198   8.3321327175e+01   3.7688217220e+01    0.4561819    0.2862462  44.31  0.001968213    1.645    0.392
        62 -10.2168    205.4144    110.1308   6.2907069452e+01   1.7990800526e+01    0.3141165    0.2238646  44.21 0.0009715951    1.493    0.330
        63 -11.6705     45.4015    105.6734   1.0480567065e+02   4.9675574007e+01     0.361225    0.2398195  40.21  0.001425883    1.717    0.418
        64 -11.2435     40.1665    103.1670   1.0603732719e+02   5.0811008073e+01    0.3080839    0.2140723 -68.95  0.001446805    1.343    0.256
        65 -10.6412    120.1009    103.8782   8.0944253920e+01   3.8295993412e+01    0.2405829    0.2205082 -86.65  0.001176626    1.246    0.198
        66 -10.6971    241.7706    101.6005   5.4920739931e+01   1.1836981803e+01    0.1780524    0.1345152  73.27 0.0006928719    1.657    0.396
        67 -10.2772     34.0441    100.4843   1.0756148992e+02   5.2027232198e+01    0.2080622    0.1562591 -60.07  0.000641512    1.122    0.109
        68 -16.7113      8.3185    242.6817   1.2747060955e+02   2.2515130768e+01     6.071316     3.420564 -77.69   0.04229106    1.669    0.401
        69 -16.3132     40.1425    249.0679   1.2234372171e+02   1.8008577017e+01     10.65789     3.344559  26.44   0.02548921   13.807    0.928
        70  -8.7879    128.6713     95.7165   7.6269113156e+01   3.8241121352e+01    0.1577803    0.1226183   5.66 0.0007005813    1.607    0.378
        71 -10.1858     52.7154     91.0230   9.9046593950e+01   5.2337754188e+01    0.2054881    0.1596608 -50.39 0.0005202058    1.126    0.112
        72  -8.6165    157.3579     89.6699   6.7327818255e+01   3.2922036001e+01    0.1632502    0.1240011 -79.29 0.0007043154    1.790    0.441
        73  -9.2249     14.9997     89.4593   1.1205415779e+02   5.6077612277e+01    0.1653266    0.1246869  14.48  0.001034739    1.609    0.379
        74  -8.7429    117.6413     85.7713   7.6402838524e+01   4.2662982981e+01    0.1529018    0.1160319  15.07 0.0002315155    1.574    0.365
        75 -10.0322    158.4715     81.9406   6.4842754001e+01   3.4106656366e+01    0.2445816     0.206838  51.49 0.0005769845    1.186    0.157
        76  -9.0695     55.8573     66.3329   9.1003196100e+01   5.7403997940e+01    0.1758524    0.1214264  12.88 0.0003619059    1.610    0.379
        77 -10.5632      1.6973     61.5217   1.1170026696e+02   6.3065513549e+01    0.2271776   0.08640011 -64.81  0.001089867    2.089    0.521
        78 -10.9304     13.4102     59.6949   1.0640759303e+02   6.2845345295e+01    0.2217675     0.189604 -54.31 0.0004560839    1.156    0.135
        79 -13.6497    190.3521     45.7246   4.8531404781e+01   3.2100996348e+01     1.231636    0.7893087  40.32  0.001014508    1.860    0.462
        80 -11.3541    124.7566    243.3650   1.0581242172e+02   7.6231747013e+00    0.3042966    0.1674452 -60.79  0.001632509    2.261    0.558
        81 -12.2519    196.0243    197.4344   8.4048458148e+01   3.8014428099e+00     1.209325    0.9663749  87.80  0.006198438    2.259    0.557
        82 -11.2442    143.3865     48.3378   5.7823801059e+01   4.3335966596e+01    0.5629525    0.3444782 -79.14  0.002075861    3.134    0.681
        83  -9.2735     66.7449     51.6060   8.1772952216e+01   5.8724506520e+01    0.1726703    0.1264037  41.15  0.000550025    1.543    0.352
        84 -10.5721      1.8646     50.4367   1.0911774246e+02   6.5409573318e+01    0.2121072    0.1055887 -55.18  0.001204502    1.486    0.327
        85 -10.4479    145.7696     42.4481   5.5402078921e+01   4.3586978464e+01     0.250058    0.2449569  63.91 0.0004216185    1.043    0.041
        86 -10.1368     14.8711     31.9056   9.7353729383e+01   6.8296744426e+01    0.1842575     0.124684 -26.72  0.000375437    1.200    0.166
        87 -11.0463     44.4221    230.1242   1.2029787075e+02   2.1078822450e+01    0.2685907    0.1948593  70.61  0.001339956    1.117    0.105
        88 -10.5520     33.8361    227.2890   1.2210167465e+02   2.2828960208e+01    0.1757387    0.1490703 -81.99 0.0003300472    1.297    0.229
        89  -9.5533    128.4592    195.2860   9.8344296649e+01   1.6116840785e+01    0.1829315    0.1364649 -72.44 0.0009397918    1.601    0.375
        90 -11.3667    207.7140    194.7222   8.1201652972e+01   2.2565242418e+00    0.4870018     0.192157 -33.88  0.001883838    2.706    0.630
