#   1 NUMBER                 Running object number                                     
#   2 MAG_AUTO               Kron-like elliptical aperture magnitude                    [mag]
#   3 X_IMAGE                Object position along x                                    [pixel]
#   4 Y_IMAGE                Object position along y                                    [pixel]
#   5 X_WORLD                Barycenter position along world x axis                     [deg]
#   6 Y_WORLD                Barycenter position along world y axis                     [deg]
#   7 A_WORLD                Profile RMS along major axis (world units)                 [deg]
#   8 B_WORLD                Profile RMS along minor axis (world units)                 [deg]
#   9 THETA_WORLD            Position angle (CCW/world-x)                               [deg]
#  10 FWHM_WORLD             FWHM assuming a gaussian core                              [deg]
#  11 ELONGATION             A_IMAGE/B_IMAGE                                           
#  12 ELLIPTICITY            1 - B_IMAGE/A_IMAGE                                       
         1 -11.5995      2.3231     20.6826   8.9722915623e+01   7.5771681585e+01    0.3270782    0.2737044  88.47  0.001187344    1.411    0.291
         2  -9.7323     79.6132     20.2301   4.3223993283e+01   6.2824590974e+01    0.2477611     0.164387  27.63 0.0006421556    1.739    0.425
         3 -10.2149     60.9830     15.9618   4.7561874593e+01   6.7741381300e+01    0.3006288    0.1941796 -49.41  0.001418578    1.878    0.467
         4 -11.0893     39.1430     16.1479   5.8663931271e+01   7.2149324888e+01    0.5057517    0.3098935 -28.11  0.001536977    1.660    0.398
         5 -11.4327     34.5099     12.1314   5.8781318471e+01   7.3634151266e+01    0.3997547    0.2886965  49.95  0.001407832    1.593    0.372
         6 -11.8710    125.4436     17.0437   3.1182406526e+01   5.1365769213e+01    0.2814616    0.2399169 -88.42 0.0001031821    1.175    0.149
         7 -12.2325    125.8526     10.9685   2.8631881905e+01   5.1853845078e+01      0.32682    0.3158181 -79.74 0.0004019612    1.021    0.021
         8 -11.2491    236.1539     14.2942   2.0065462314e+01   2.5365348386e+01    0.2245908    0.1749093  60.81  0.001246761    1.575    0.365
         9 -11.6742     29.4087      8.0949   5.9231339276e+01   7.5163382472e+01    0.4714959    0.3027245  21.56  0.002353182    1.732    0.423
        10 -10.9339    164.9487     12.0757   2.4438764314e+01   4.1570354411e+01    0.2358338    0.1951776 -16.28 0.0004066954    1.286    0.223
        11 -11.0113     13.9012     14.8451   7.6405067007e+01   7.6089999593e+01    0.4373586    0.2466033 -60.69    0.0010457    1.984    0.496
        12 -10.2918      9.1612      9.3985   7.7307608959e+01   7.7692413785e+01     0.370292    0.2119912  57.26  0.001475126    3.663    0.727
        13 -10.8119      3.5164      7.9671   8.2123813605e+01   7.8495508190e+01    0.3911873    0.2345585 -36.97  0.002161747    1.475    0.322
        14 -11.3701    207.4951     12.9606   2.1384013057e+01   3.1427793501e+01    0.3190953    0.1927616  74.09   0.00051954    1.769    0.435
        15 -11.1494    171.5708     10.8706   2.3451509273e+01   4.0029201170e+01    0.3450803     0.154889 -45.09  0.001509278    2.018    0.505
        16 -11.1494     45.8464      9.8051   5.0517860018e+01   7.1824192241e+01    0.3414945    0.2516245  25.95 0.0004378588    1.369    0.269
        17 -10.4705     42.2330      9.1702   5.1999349262e+01   7.2639645124e+01    0.2060536    0.1753444 -21.68 0.0002231155    1.147    0.128
        18 -10.0494     97.5121     10.5093   3.3448155831e+01   5.9400973162e+01    0.2280559    0.1984232  76.40 -1.35753e-05    1.143    0.125
        19  -9.3644     98.2119      7.0437   3.1583467817e+01   5.9544296527e+01    0.2885378    0.1950684   6.53 0.0002804936    1.738    0.425
        20 -11.1265     55.6423      9.4522   4.5640318819e+01   6.9780653108e+01    0.3377852    0.2545761 -46.45  0.001806176    1.535    0.349
        21 -10.6884     51.0208     10.5058   4.8440517590e+01   7.0649603863e+01    0.3357968    0.2420756  54.38  0.000816951    1.440    0.306
        22 -11.5597    192.7516      9.8403   2.1505044621e+01   3.5043596157e+01    0.4662086     0.173071  75.75  0.001674474    2.752    0.637
        23 -10.1488    116.7492      8.9976   2.9185468306e+01   5.4457832249e+01    0.2448914    0.1855699 -84.03 0.0007608026    1.376    0.273
        24 -12.3058     18.2995      3.3477   6.4134296973e+01   7.7690717707e+01    0.6083393    0.4490573   6.49  0.003033481    1.389    0.280
        25  -9.9297    247.1090      5.9186   1.7626899228e+01   2.4035632478e+01     0.172676    0.1131703 -47.42 0.0002923846    1.198    0.165
        26 -11.9002    197.3099      5.3162   1.9938241837e+01   3.4396715440e+01    0.4243332    0.2333052  82.44  0.001480085    1.877    0.467
        27 -11.3633    194.1620      4.8047   1.9986833614e+01   3.5162541453e+01    0.2938146    0.2179853  17.34  0.001028205    1.751    0.429
        28  -9.9098     88.7540      6.2504   3.3201348702e+01   6.2079940809e+01    0.1897844    0.1471298  37.65 0.0003111261    1.281    0.219
        29 -11.1860    157.3780      4.6882   2.2668200360e+01   4.4142323916e+01      0.34074    0.1599367  61.22  0.001501484    2.070    0.517
        30 -10.2956    104.7547      4.1411   2.8957036121e+01   5.8067939827e+01    0.2235045    0.1876037  69.21 0.0004624911    1.124    0.110
        31 -10.4794     59.8394      3.6868   4.0065757055e+01   6.9480084069e+01    0.3419809    0.2306744  88.63  0.001193166    2.117    0.528
        32 -10.8135    236.2335      3.5156   1.7522527483e+01   2.6314981482e+01    0.1935246    0.1604698  40.52  0.001343774    1.599    0.375
        33 -10.3813    123.4669      2.0331   2.5255372488e+01   5.3250475805e+01    0.3136391    0.1869324 -63.55  0.001316482    1.833    0.454
        34  -9.8665     43.6497      2.9291   4.6545739776e+01   7.3165007569e+01    0.2757735    0.1248304 -18.02  0.001116798    2.625    0.619
        35 -10.7019    148.6770      2.2809   2.2619452794e+01   4.6580376659e+01    0.2952684    0.1820586  88.24  0.001202063    1.602    0.376
        36 -11.1157     79.9958      1.5100   3.2635173931e+01   6.4741117344e+01     0.216717    0.1437804  61.65 0.0004093493    1.393    0.282
        37  -9.7543     29.2007      1.2257   5.3741516733e+01   7.6221592438e+01    0.2820793    0.1056554  49.27  0.000820689    2.827    0.646
        38  -9.9133      1.6700    171.1549   1.0826544737e+02   3.8201781115e+01    0.1619596   0.09556847 -75.59 0.0004050278    1.686    0.407
        39 -10.2606    110.0494    250.5685   8.9122776295e+01   1.2279700245e+01    0.1679802   0.08177235  30.34 0.0004915394    1.534    0.348
        40 -10.8000     28.3541    250.3476   1.0516093678e+02   2.0817207005e+01    0.2127297   0.09473433  32.38  0.001326104    1.640    0.390
        41 -12.4125      3.5524    233.5162   1.0955191665e+02   2.5727311487e+01    0.4187247    0.2593303  45.40  0.002389571    1.155    0.134
        42 -12.3911     11.0774    244.5659   1.0833303792e+02   2.3250579995e+01    0.5834984     0.238458 -80.47  0.003531323    2.757    0.637
        43 -12.3732      3.1088    247.3907   1.0992568919e+02   2.3434015113e+01    0.4511287    0.3967665  26.49  0.002567267    1.385    0.278
        44 -11.9554      4.9837    240.6611   1.0942577628e+02   2.4395965005e+01    0.4323547    0.2576587  12.20  0.002864528    2.095    0.523
        45 -10.6746      5.3077    154.3900   1.0659906557e+02   4.1785441404e+01    0.3217794    0.1559752  51.92  0.001645523    1.775    0.437
        46 -10.0852     23.4739    147.4873   1.0081269606e+02   4.2020792268e+01    0.1306349     0.114356  70.09 0.0008099679    1.006    0.006
        47 -10.9732      6.6032    145.3129   1.0576764432e+02   4.3861775728e+01    0.2346768    0.1865858  62.89 0.0002769762    1.087    0.080
        48  -9.8258     57.9647    143.4702   8.9798844025e+01   3.9324928226e+01    0.1973732    0.1310318  31.91 0.0004304396    1.468    0.319
        49  -9.3276    235.6974    138.3382   4.8440292402e+01   1.0813495892e+01    0.1125488   0.08661406 -45.39 0.0007038048    1.669    0.401
        50  -9.2525     25.4528    136.3866   9.9231652849e+01   4.4585408396e+01    0.1298255    0.1184442  73.43 0.0001621587    1.038    0.037
        51  -9.7211     95.8943    133.8724   7.6774027941e+01   3.6003001954e+01    0.1980882    0.1705092  73.11 0.0006112325    1.286    0.223
        52  -9.3598     50.5034    131.5128   9.0465363005e+01   4.3193196231e+01    0.1387622    0.1307237  78.57 -5.431358e-05    1.021    0.020
        53  -8.8333    234.3144    127.3183   4.6357701898e+01   1.2432535737e+01    0.1252495    0.0821617   1.11 0.0006114869    1.650    0.394
        54 -10.4459     41.1693    126.8646   9.2928869992e+01   4.5440997945e+01    0.1889182    0.1573352 -45.78  0.000273566    1.316    0.240
        55 -11.3402     25.5264    123.9776   9.7953764506e+01   4.7725563749e+01    0.3605671    0.2070774  86.37  0.001710758    1.772    0.436
        56 -10.7721     22.5239    121.4585   9.8733965786e+01   4.8631844300e+01    0.3281517     0.209175   8.17  0.001386414    1.921    0.480
        57  -9.3131     67.6845    125.7238   8.3884179935e+01   4.2364980089e+01    0.1412687    0.1118821 -22.09 0.0003385038    1.566    0.362
        58  -9.1607    226.3166    124.6542   4.6910959387e+01   1.4046952141e+01    0.1207667   0.09058608 -50.50 0.0007048313    1.721    0.419
        59 -11.9691     10.6626    120.2193   1.0279577019e+02   4.9848771415e+01    0.5385273     0.344438  10.68  0.001269396    1.844    0.458
        60 -10.5561     69.5518    116.7417   8.1535819247e+01   4.4314911292e+01     0.297153    0.2037096  27.95 0.0005177897    1.543    0.352
        61 -10.0451     86.1395    118.8450   7.6569114165e+01   4.1151153096e+01    0.2044536    0.1755235 -23.86 0.0004563357    1.320    0.242
        62 -11.5408      2.7490    112.7981   1.0507291233e+02   5.2241817895e+01     0.352979    0.2518521  88.53 0.0008726458    1.228    0.186
        63 -10.8563     24.3197    112.0476   9.7009367827e+01   5.0921362679e+01    0.1964164    0.1629753 -75.21 0.0006921733    1.112    0.101
        64 -11.0833     16.2184    112.0179   1.0003239323e+02   5.1577259746e+01    0.2264958    0.1920781  32.07 0.0005799072    1.261    0.207
        65  -9.8044     27.4983    108.0117   9.5279731876e+01   5.1696217139e+01    0.2148973    0.1281739 -77.16  0.000687564    1.573    0.364
        66  -9.7113     66.4861    104.5221   7.9981223614e+01   4.7828576446e+01    0.2478444    0.1491256  17.71  0.001018176    2.173    0.540
        67 -11.4782     13.2720    103.5113   1.0026488267e+02   5.4012285433e+01    0.2906537    0.1803982 -61.64  0.000650367    1.486    0.327
        68  -9.6985      1.2945    103.5569   1.0495805007e+02   5.4708732891e+01    0.2533177     0.103587 -79.97  0.001085691    2.114    0.527
        69  -9.2034    186.6552    102.7144   4.8020720431e+01   2.4409474523e+01    0.1413016    0.1029508  11.30 0.0007019248    1.646    0.393
        70 -10.4279    247.2354    101.5622   3.9225125742e+01   1.3638183237e+01    0.1461172    0.1072584  28.53 0.0009349945    1.578    0.366
        71 -10.0153     60.7046     99.3326   8.0919854955e+01   5.0002259203e+01    0.1527848    0.1119826  73.10 0.0007027133    1.640    0.390
        72 -12.0545     20.0981     93.4782   9.6206678307e+01   5.6156077308e+01    0.6123015    0.3534907 -54.08  0.002959457    1.633    0.387
        73  -9.3041    218.2521     98.6447   4.2185786677e+01   1.8954283740e+01    0.1299473   0.08757409 -47.64 0.0003194778    1.603    0.376
        74 -11.9407    197.0438     97.5693   4.5026982088e+01   2.3131153484e+01    0.2355465    0.1823751 -26.15 0.0001943044    1.153    0.133
        75 -10.1895     87.0149     95.4930   7.0536401741e+01   4.6533554550e+01    0.3265054    0.1899381 -20.11  0.001057899    3.565    0.719
        76 -10.2783     37.0443     96.0017   8.9543247801e+01   5.3899387799e+01       0.2132    0.1981736 -77.81  0.000340684    1.003    0.003
        77 -10.4249      7.1960     90.6828   1.0137511068e+02   5.7767150802e+01    0.2733718    0.1953621 -80.65 0.0005955187    1.232    0.188
        78 -10.5956      7.0408     95.2553   1.0192304945e+02   5.6572570402e+01    0.2242071    0.1697495 -83.01            0    1.162    0.140
        79 -11.0391     10.7938     93.5007   1.0015683881e+02   5.6809855309e+01    0.3058629    0.2035278 -58.02 0.0005676639    1.401    0.286
        80 -11.9869    125.2404     93.0767   5.8444129079e+01   3.9237212662e+01    0.2752521    0.2583933 -10.93 0.0002910884    1.088    0.081
        81 -10.1005     29.0278     93.5199   9.2431355230e+01   5.5368537895e+01    0.3681396    0.1871091 -65.23  0.001612491    1.751    0.429
        82 -10.4860    105.6551     91.6395   6.3505946681e+01   4.3719274190e+01    0.2950511      0.21955 -89.27 0.0006584842    1.949    0.487
        83 -11.7821     57.4411     91.1356   8.0218121590e+01   5.2553927057e+01    0.5156575     0.297558  37.00 0.0009991942    1.763    0.433
        84 -10.6285    159.9504     89.0523   4.9331212273e+01   3.2294474932e+01     0.216359    0.2046171 -36.87 0.0003086493    1.046    0.044
        85  -9.3879     30.1510     84.8355   9.0336087343e+01   5.7544626590e+01    0.1933646    0.1479046 -48.08 0.0003133593    1.281    0.220
        86 -10.3744      7.6208     83.9541   1.0040625033e+02   5.9516777976e+01    0.3423288    0.1891479 -33.27  0.001609236    2.097    0.523
        87 -11.7395     12.8443     76.5250   9.6904430225e+01   6.1157661835e+01    0.4011486    0.2379999 -17.71  0.001659828    2.112    0.527
        88 -11.4997      8.4264     79.3090   9.9431862381e+01   6.0695442258e+01    0.4522714    0.2000259  15.22  0.001863141    2.545    0.607
        89 -11.0693     65.2314     81.5471   7.4526339311e+01   5.3718853560e+01    0.3297884    0.2837136   3.45  0.001274386    1.332    0.249
        90  -9.9246    250.3967     80.7037   3.4319182096e+01   1.5625756273e+01    0.1649873   0.09560592 -21.18 0.0005716062    1.505    0.336
        91 -10.0293    159.0170     80.0666   4.6935993902e+01   3.4020836062e+01    0.2151867    0.2039457 -28.65 0.0003288664    1.002    0.002
        92 -10.4390     85.8762     78.8332   6.5960469877e+01   5.0580990428e+01    0.3455145    0.2934456  49.16 0.0006583502    1.214    0.176
        93  -9.3240     87.3804     75.2953   6.4275519483e+01   5.1064441741e+01      0.15847    0.1542543 -60.21 0.0008445219    1.036    0.035
        94  -9.0723     80.4506     79.5335   6.8117079672e+01   5.1477865137e+01    0.1507428    0.1470813 -51.43  0.000132866    1.009    0.008
        95 -10.1629     48.0512     78.9386   8.0983003824e+01   5.6966400485e+01    0.2131352    0.1998203 -47.22 0.0003620372    1.045    0.043
        96 -10.6679     53.0363     75.6394   7.7873439028e+01   5.7083349477e+01    0.3674451     0.273329  45.38  0.001069131    1.430    0.300
        97  -9.1698     74.5650     76.5318   6.9345916729e+01   5.3274703854e+01    0.1503569    0.1449923 -69.61  6.58916e-05    1.053    0.051
        98 -11.1635     75.7686     71.1174   6.7089676231e+01   5.4287209368e+01    0.4327933    0.2785172  16.97  0.001746241    2.280    0.561
        99 -10.1129     34.3104     74.0096   8.6000467380e+01   5.9924843920e+01    0.3386586    0.2118854 -50.37  0.001620544    1.490    0.329
       100 -10.9807      4.1283     74.2220   1.0082890629e+02   6.2259352227e+01    0.3454247     0.185865  29.18  0.001423792    1.997    0.499
       101 -10.1326    117.5604     71.4960   5.3716341865e+01   4.5207688082e+01    0.3752665    0.2287242  22.39   0.00137765    2.677    0.626
       102  -9.8353    105.8832     71.8760   5.7149576580e+01   4.7807367096e+01    0.2053416    0.1768187  73.12 0.0005073014    1.307    0.235
       103  -9.5213     91.8322     70.8041   6.1222130005e+01   5.1106500916e+01    0.2043399    0.1816687 -88.04 0.0007097847    1.287    0.223
       104  -9.9475    177.1453     76.1724   4.2566308601e+01   3.0545293032e+01    0.2215004    0.1937736   5.59 0.0009987967    1.238    0.192
       105 -11.9943      7.8462     69.6249   9.8300120113e+01   6.3271487131e+01    0.6453043    0.2645415  42.27  0.002510025    2.681    0.627
       106 -10.7412      6.4929     64.5054   9.8182726941e+01   6.4680546562e+01    0.2770922    0.2297347 -60.01  0.001657219    1.075    0.070
       107  -9.4814     70.0133     69.9718   6.8946576507e+01   5.5623885284e+01    0.1747808    0.1639421 -46.07 -0.003769674    1.034    0.032
       108 -12.3947    211.8598     67.4640   3.5346534015e+01   2.4352118091e+01     0.243639    0.2156424 -27.10 0.0003488542    1.044    0.042
       109 -11.6650     81.0960     66.9039   6.3611556482e+01   5.4169801567e+01    0.2982168    0.2491689 -24.88   0.00149651    1.284    0.221
       110  -9.8643     58.7362     66.7434   7.2564454001e+01   5.8341373288e+01    0.4291312    0.1772252 -48.35  0.001586629    2.289    0.563
       111 -11.9025     54.9856     61.1829   7.2302165577e+01   6.0258833478e+01    0.2807077    0.2463419 -41.02 0.0002366119    1.091    0.083
       112 -10.5743     63.2907     63.3893   6.9414810376e+01   5.8338638228e+01    0.3116351    0.2388878 -45.41 0.0007965879    1.256    0.204
       113  -9.7560    128.7436     62.8817   4.7951389009e+01   4.4104709607e+01    0.2295047    0.2030449  14.57  0.000559258    1.252    0.201
       114 -13.9903     20.2930     57.8269   8.9123076883e+01   6.5448897539e+01    0.7447528    0.5427607  80.20  0.001291015    1.613    0.380
       115 -12.1067     11.1877     58.3441   9.4415089731e+01   6.6001373276e+01    0.5070971    0.3375698 -79.52  0.002038697    1.443    0.307
       116  -9.8139    138.5364     61.0424   4.5131432771e+01   4.2023308677e+01    0.2272431    0.1445823 -34.33  0.000366618    1.525    0.344
       117  -9.8955     39.1138     60.8974   7.9903076418e+01   6.2649653254e+01    0.2076174    0.1615668 -32.14  0.001078008    1.331    0.249
       118  -9.8666     90.8926     59.5097   5.7401036203e+01   5.3622013870e+01    0.2241884    0.1995735 -41.82  0.000452023    1.111    0.100
       119 -10.3999    146.5799     58.9896   4.2808398533e+01   4.0379133733e+01    0.2968789     0.223747  60.74  0.001464272    1.374    0.272
       120 -11.0801     59.3152     58.9673   6.9523391719e+01   6.0038559387e+01    0.3439772    0.2159677  35.29 0.0007425291    1.667    0.400
       121  -9.4745    229.3695     56.7605   3.0811644534e+01   2.2210803560e+01    0.1780609    0.1057171 -19.57 0.0009400853    1.623    0.384
       122 -10.7288     71.9187     57.0568   6.3426476254e+01   5.8113946292e+01    0.2182122    0.2065495 -45.43 0.0003767991    1.052    0.049
       123  -9.7432     68.2881     56.2674   6.4599109566e+01   5.8989878030e+01    0.1909162    0.1658657 -67.00 0.0001915153    1.279    0.218
       124 -12.0919     67.0950     52.5361   6.3586322606e+01   6.0009716469e+01     0.495313    0.2541321  38.51  0.001283511    2.045    0.511
       125 -11.8001    119.8403     48.2037   4.4738336137e+01   4.8730466337e+01    0.5451016    0.2819444 -47.13  0.001703866    2.082    0.520
       126 -13.2350    114.5063     53.2004   4.7967881852e+01   4.9235772720e+01     0.385394    0.3327214  45.83 0.0005856132    1.171    0.146
       127 -13.0019    106.2878     50.3840   4.9086323941e+01   5.1720271443e+01    0.3983341    0.3483405  88.38 0.0004788276    1.285    0.222
       128 -11.5557     86.8152     54.1055   5.6662495613e+01   5.5581144346e+01    0.5464717    0.2802435  38.42  0.001447523    2.181    0.541
       129  -9.6345     33.1198     55.5894   8.1329060781e+01   6.4691404142e+01    0.1862081    0.1334286   0.67 0.0005198029    1.676    0.403
       130  -9.3376     36.3474     54.2974   7.9140712427e+01   6.4606776732e+01    0.2219881    0.1009143 -39.07 0.0008370373    2.485    0.598
       131  -9.6307     38.5271     51.5302   7.6965255826e+01   6.4978849636e+01    0.2174733    0.1216785 -45.29 0.0001205722    1.680    0.405
       132 -10.1743     96.8687     52.0523   5.2528634386e+01   5.3673313690e+01    0.3652185    0.2805493  10.72  0.001699571    1.653    0.395
       133  -9.8799    148.8579     52.1157   4.0093167130e+01   4.0856105642e+01    0.2247147    0.1912805 -62.89 0.0004936038    1.220    0.180
       134  -9.8577    129.0329     51.6606   4.3914259219e+01   4.5881625977e+01    0.2084762    0.1925589  60.28 0.0004238296    1.095    0.087
       135 -10.7009    137.7421     50.4256   4.1637214021e+01   4.3886193451e+01     0.408234    0.2306306  41.13   0.00108039    2.038    0.509
       136 -10.1145    136.2474     46.3048   4.0469004367e+01   4.4874026036e+01     0.333318    0.2248455 -90.00  0.001463132    1.904    0.475
       137  -9.1475      4.2717     51.6846   9.7119450502e+01   6.8097721612e+01    0.1298048   0.09395564  67.29 0.0002908617    1.558    0.358
       138  -9.2721    130.7021     57.2862   4.5551456817e+01   4.4563690903e+01    0.1515234    0.1160007 -68.91 0.0002627865    1.551    0.355
       139 -10.2734     53.4561     48.6210   6.8123409909e+01   6.3342089958e+01    0.3184696    0.2673938 -89.88 0.0007330186    1.540    0.351
       140 -10.8644     74.2204     47.4738   5.8522302656e+01   5.9588571884e+01    0.2688133    0.2599047  84.48 0.0005024576    1.131    0.116
       141 -10.0047      3.9679     46.9638   9.6321149828e+01   6.9310367786e+01    0.3205416    0.1474305  78.52  0.001001517    3.201    0.688
       142 -10.2864      1.4908     42.9659   9.7070778998e+01   7.0430213498e+01    0.2484918     0.178561  83.11  0.001083274    1.505    0.335
       143 -10.2815    155.2849     46.8931   3.7244107260e+01   3.9999265231e+01     0.262681    0.2053355  55.00 0.0005776196    1.323    0.244
       144 -11.2195     79.2206     45.5870   5.5786088845e+01   5.8870844503e+01    0.2663665    0.2523575 -66.55 0.0003044056    1.143    0.125
       145 -10.1556     68.9894     46.2827   6.0110060698e+01   6.0904185243e+01    0.2147675    0.1893534   7.64  0.001139706    1.206    0.171
       146 -10.2384     69.0106     41.5296   5.7938302972e+01   6.1814923931e+01    0.4445272    0.2601413 -64.30  0.001627315    3.028    0.670
       147 -10.9456     26.6765     44.3869   8.1118582397e+01   6.8130234640e+01    0.5055475    0.4094841   7.28  0.002858545    1.332    0.249
       148 -10.8032     16.9442     42.6358   8.6668918984e+01   6.9513054839e+01    0.5086528    0.2927609 -64.64  0.001595831    1.611    0.379
       149  -9.5295    221.0097     43.4659   2.8283396316e+01   2.5395579319e+01    0.1603042    0.1257936  74.28 -6.196793e-05    1.467    0.318
       150 -10.4384     44.9623     52.4042   7.3902996391e+01   6.3859290054e+01    0.2489692     0.187202 -41.38  0.001276908    1.267    0.211
       151 -11.9521    141.7569     41.1673   3.7593714250e+01   4.4195570083e+01    0.2660947    0.2387932 -88.87 0.0002837582    1.142    0.124
       152 -10.0520     36.4909     41.9975   7.4290856759e+01   6.7450770676e+01    0.2115392    0.1886987  14.68 0.0005561955    1.163    0.141
       153 -10.7300    184.3768     40.4361   3.1183796034e+01   3.3777167898e+01    0.3316821    0.2382772 -69.89  0.001745285    1.513    0.339
       154 -10.6925    170.0884     40.0717   3.2854403056e+01   3.7239314876e+01    0.3171374    0.2309704 -75.07 0.0008565072    1.525    0.344
       155 -12.7171    121.2557     37.7174   4.0333449391e+01   4.9937697821e+01    0.5431035    0.3730105  32.06 0.0007019569    1.724    0.420
       156  -9.5016     87.3032     40.3276   5.0600374784e+01   5.7965977577e+01    0.1538323    0.1158667  13.87  0.000204657    1.646    0.392
       157  -9.9234     43.7776     39.8073   6.9199742119e+01   6.6839620229e+01    0.1819637    0.1676277 -88.15 0.0003957417    1.309    0.236
       158  -9.9943      4.5215     38.9607   9.4007089156e+01   7.1280529616e+01    0.2076274   0.06574845 -49.40 0.0008096259    2.518    0.603
       159  -8.8398      8.9581     39.0000   9.0907857634e+01   7.1006961765e+01    0.1959235   0.07574122  15.62  0.000767078    2.868    0.651
       160  -9.2693    110.5783     41.5134   4.4368149981e+01   5.2098015824e+01    0.1470879     0.145771 -32.14 9.945229e-05    1.012    0.012
       161  -9.5658     76.8590     37.3894   5.2899552906e+01   6.0861668691e+01    0.2154824    0.1312597  39.02 0.0007125395    1.726    0.420
       162  -9.9188     81.9458     35.9987   5.0411003590e+01   5.9935267481e+01    0.1736932    0.1646812 -19.35 0.0009556089    1.048    0.046
       163 -10.3415     50.0143     33.8338   6.2943450739e+01   6.6992409837e+01    0.2670518    0.1959452 -48.64  0.000963497    1.406    0.289
       164  -9.7710     40.8486     34.5888   6.8330789685e+01   6.8399804944e+01    0.1895154    0.1351699  32.44 0.0004754297    1.454    0.312
       165 -10.3389     28.4655     33.2791   7.5304672859e+01   7.0456862670e+01    0.2807401    0.1822211 -25.00 0.0007931006    1.733    0.423
       166 -10.3157     19.7244     34.5418   8.1776165509e+01   7.1173012260e+01    0.1661349    0.1256714  36.32 0.0003467655    1.479    0.324
       167 -13.2566      9.2736     29.5658   8.7456170551e+01   7.3246864579e+01    0.3899799    0.3177308  24.81  0.001849594    1.364    0.267
       168  -9.7571     78.0027     32.5176   5.0112933991e+01   6.1412067465e+01    0.2863033    0.1693607 -66.26 0.0007994696    3.217    0.689
       169  -9.2635    145.3109     32.6912   3.3971442459e+01   4.4381659326e+01    0.1536774    0.1035211 -60.66 0.0001631558    1.622    0.383
       170 -11.3326    205.9818     32.2405   2.6677533875e+01   2.9813721681e+01    0.2371462    0.1730043 -34.53 0.0003361779    1.186    0.157
       171 -10.3567     89.8485     30.6280   4.5289301742e+01   5.8885409804e+01    0.3129312    0.2328259  73.68 0.0007407219    1.539    0.350
       172 -11.9115     91.3999     26.7903   4.2990495673e+01   5.9047628403e+01    0.3818798    0.2855407  55.56 0.0002742733    1.301    0.231
       173  -9.0998    187.6936     30.3411   2.7859798400e+01   3.4165030529e+01    0.1483822    0.0869386 -54.19 0.0007042186    1.685    0.406
       174 -11.3267    135.7236     29.1074   3.4218212824e+01   4.7304759537e+01    0.2434423    0.2189057  75.48 0.0002786787    1.101    0.092
       175  -9.3591     39.0226     30.0629   6.7064267036e+01   6.9610737180e+01    0.1633546    0.1506346  -8.19 0.0005289153    1.033    0.032
       176 -10.5615    144.9002     28.2354   3.2436321905e+01   4.5022061348e+01    0.2829433    0.2433441  41.35 0.0009061123    1.253    0.202
       177  -9.4087     54.4627     29.4717   5.8392894204e+01   6.6968010608e+01    0.1409784    0.1336256  -8.16   4.7402e-05    1.027    0.026
       178 -10.5575     32.9578     28.0915   6.9760071613e+01   7.0939582016e+01     0.205548    0.1794547 -23.09 0.0004309159    1.056    0.053
       179 -10.7784    217.6245     26.1197   2.4133061947e+01   2.7962937247e+01    0.3513532    0.1665437 -58.36  0.001078228    2.213    0.548
       180  -9.6141    102.8981     26.3617   3.9742962596e+01   5.6196932595e+01    0.2373151    0.1885515 -40.65  0.001212407    1.285    0.222
       181 -10.2538    102.9958     22.3147   3.7865107087e+01   5.6678611102e+01    0.3227099    0.2305457  42.11 0.0008487149    1.428    0.300
       182  -9.6371    106.5013     21.5492   3.6718925714e+01   5.5860010777e+01    0.1906243    0.1350673 -38.94  0.000521123    1.433    0.302
       183  -9.8917     80.9162     26.6960   4.6178893551e+01   6.1618481185e+01    0.1977566    0.1864376  57.40 0.0004151014    1.086    0.079
       184  -9.8356     69.1147     26.8724   5.0538639189e+01   6.4323714909e+01    0.2231201    0.2068822 -73.08   0.00125129    1.252    0.201
       185  -9.6614     45.6174     26.7574   6.1463407463e+01   6.9122683006e+01    0.1974624    0.1279196 -48.24 0.0009514329    1.634    0.388
       186  -9.0171    169.4964     26.5225   2.8637213267e+01   3.8970595799e+01    0.1387603     0.127716 -55.24 0.0008102562    1.001    0.001
       187  -9.3900     75.8412     26.3746   4.7756701187e+01   6.2863157821e+01    0.2044551    0.1255853  42.97 0.0007076469    1.623    0.384
       188  -9.5652     19.7961     16.6009   7.2546615264e+01   7.5047656998e+01    0.1642715    0.1533681 -64.18 0.0005509572    1.304    0.233
       189  -9.6444     18.5935     26.2897   7.8866877207e+01   7.3151494132e+01    0.1887363     0.108008 -45.15 0.0007655615    1.550    0.355
       190 -11.8320     17.5374     20.8743   7.6867928725e+01   7.4435036285e+01    0.6008437    0.3049958  29.79  0.002058946    2.064    0.515
       191  -9.3401    191.6790     25.3311   2.6027017708e+01   3.3776197878e+01    0.1469493   0.08422691 -54.58 0.0007049124    1.695    0.410
       192  -9.3082     51.5151     24.4766   5.7043453682e+01   6.8417554856e+01    0.1387434    0.1321552  -6.80 0.0002121413    1.055    0.052
       193 -10.0322    128.0746     23.2624   3.3251658087e+01   4.9995389587e+01    0.2042156    0.1798758  73.46 0.0003287189    1.112    0.101
       194 -11.8201     18.3119    247.8829   1.0702377925e+02   2.2097750160e+01    0.2918463    0.2139956  23.22  0.002267908    1.412    0.292
       195  -7.8234      7.2576     20.0038   8.5050975810e+01   7.5592102844e+01    0.2791076    0.1519305 -51.54  0.001430848    1.548    0.354
       196  -9.7984    200.0394     21.9732   2.4369318359e+01   3.2211513390e+01    0.1559084    0.1380676 -64.68 0.0004700081    1.087    0.080
       197  -9.3842    132.1846     20.6198   3.1534570796e+01   4.9205096138e+01    0.1935391    0.1257091  57.67 0.0002915019    1.498    0.333
       198  -9.9179    170.8343    246.8452   7.7355160869e+01   5.7135975827e+00    0.1696213    0.1136616   8.42 0.0009894226    1.277    0.217
       199 -10.1485     76.3279     18.3158   4.3251107341e+01   6.3866795416e+01    0.3592251     0.143634  61.01  0.001228275    2.596    0.615
       200  -9.8529    116.1217    246.8130   8.7591432549e+01   1.2104475361e+01      0.16114     0.122335  39.24  0.001191803    1.211    0.174
       201  -9.3142    184.3324     19.3007   2.4920356963e+01   3.6121118710e+01    0.1323476   0.09859528  34.89 0.0006347693    1.651    0.394
       202 -10.2920    188.4252    248.2107   7.4463150678e+01   3.5731418459e+00    0.1165053   0.09664603 -28.70 0.0005141398    1.645    0.392
       203 -10.0039     52.3878    244.3826   1.0013419804e+02   1.9482735138e+01    0.1473525     0.121822  -3.95  0.001028027    1.607    0.378
       204  -9.3500    140.0665     18.1936   2.9443595609e+01   4.7387052216e+01    0.1806348     0.107014  69.87            0    1.642    0.391
       205  -9.6010     39.6542    243.3297   1.0264101776e+02   2.0903030237e+01    0.1193361   0.05442715  50.91 0.0007050153    1.755    0.430
       206  -8.9361     60.7036    240.6960   9.8228362180e+01   1.9225814876e+01   0.09773371   0.07934558  -1.22 0.0002840598    1.582    0.368
       207  -9.2982     50.0000     17.8615   5.3790384400e+01   6.9797941706e+01    0.2139336   0.07654685 -35.11 0.0003103881    2.762    0.638
       208  -9.6340    230.1597    247.2155   6.7605211254e+01  -7.4500938667e-01    0.1232354   0.09183727  11.41 0.0004618691    1.292    0.226
       209 -10.9675    170.8840     16.1013   2.5172299521e+01   3.9705227146e+01    0.2302316    0.1938708 -62.14 0.0003371944    1.106    0.096
       210 -10.2403    154.0467     16.7397   2.7153032694e+01   4.3897972766e+01    0.2420282    0.1745315 -41.16 0.0005523667    1.312    0.238
       211  -9.5607      1.4578    158.3939   1.0785402312e+02   4.1112636914e+01    0.1226393   0.09987344  62.38 6.787594e-05    1.027    0.026
       212  -9.4597    204.1832    235.4182   7.0126816696e+01   3.2006366724e+00    0.1333507   0.08120681  30.79 0.0005800417    1.505    0.336
       213 -10.9703    159.9510     15.9838   2.6239135071e+01   4.2462084890e+01     0.259598    0.1901346  70.36 0.0003778122    1.360    0.264
       214 -12.0988     70.6456     18.6154   4.5385181230e+01   6.5174975648e+01    0.3254049    0.2651853  61.32 0.0001371764    1.280    0.219
       215  -9.4990     49.4894    235.5411   1.0023059975e+02   2.1231440191e+01    0.1117407   0.08454453  42.25 4.881683e-05    1.006    0.006
       216  -9.1194    238.7400    234.3177   6.4525614810e+01  -3.9784714349e-01   0.08310742   0.06888522  -1.14 0.0002849626    1.543    0.352
       217  -9.9679     32.1890    233.1640   1.0370172788e+02   2.3319301454e+01    0.1516652    0.1252443  36.20 0.0004650371    1.173    0.147
       218 -10.3704    245.1601    230.0553   6.2963729383e+01  -6.4608251418e-01    0.2845308    0.1049359  29.11  0.001677524    2.335    0.572
       219 -10.9249    140.3777    227.9238   8.0762517128e+01   1.1833723654e+01    0.2309975    0.1878231  63.23  0.001316313    1.811    0.448
       220  -8.9171    152.3046    227.3066   7.8356448239e+01   1.0417212988e+01    0.1148131   0.07540872   3.60 0.0007014736    1.604    0.376
       221 -10.1235     12.4905    226.9263   1.0755906513e+02   2.6160059997e+01    0.1405938   0.09438123  82.73 0.0003634407    1.497    0.332
       222 -10.2544    220.3242     11.2965   2.0184986794e+01   2.8834491742e+01    0.1133904   0.09104658  29.83 0.0002754835    1.624    0.384
       223 -11.0665      1.9962    224.9109   1.0967805397e+02   2.7367536255e+01    0.3595006   0.09597962  68.40  0.001212934    3.613    0.723
       224  -9.6656    223.4453    226.5100   6.5742842710e+01   2.0017667021e+00    0.1073483   0.07494191   4.71 9.012317e-05    1.015    0.014
       225  -9.1567     61.4536    224.5208   9.6984541407e+01   2.1875679400e+01     0.116091   0.09079248  42.35 0.0001573851    1.011    0.011
       226  -9.5635    131.0191    221.2178   8.1826717979e+01   1.4012113501e+01    0.1696252   0.07893953  31.37 0.0008852929    1.735    0.424
       227 -11.3394      8.5854    218.7667   1.0814002452e+02   2.7965013805e+01    0.3464451     0.132747 -63.98  0.001286046    3.147    0.682
       228  -9.6983    148.4803     10.4716   2.5570469968e+01   4.5934432160e+01    0.1393648    0.1283065 -68.98 -3.557086e-05    1.017    0.017
       229  -9.7787     86.4634     10.4366   3.5995062818e+01   6.2260770660e+01    0.1395172    0.1343316  58.83 4.135844e-05    1.038    0.036
       230  -9.1047     64.2601     10.3203   4.2763518402e+01   6.7714022012e+01    0.1415602     0.100181  20.80 0.0003081769    1.547    0.354
       231 -10.3666      1.9912    219.2690   1.0955138322e+02   2.8394484050e+01    0.2351722   0.07395864  61.75 0.0009841475    2.630    0.620
       232 -10.0701     28.3018    219.6049   1.0391804362e+02   2.6101363547e+01    0.1456662   0.09505934  22.61 0.0009367946    1.532    0.347
       233 -10.2926     85.9089    215.0256   9.0804217640e+01   2.0734664171e+01    0.1721362    0.1429861  36.46            0    1.019    0.019
       234  -9.4585    205.5135    211.5084   6.6418279035e+01   5.7619480262e+00    0.1148299    0.0842944   5.69 7.976417e-05    1.034    0.033
       235  -9.5051     20.2628    209.4446   1.0525218073e+02   2.8743289267e+01    0.1623533   0.07808103  40.22 0.0009302552    1.569    0.363
       236 -10.4738     39.4352    207.1264   1.0075715114e+02   2.7396380265e+01    0.2204096    0.1594639  44.29 0.0005662202    1.108    0.097
       237  -9.5316    123.9981    205.9753   8.1377526172e+01   1.7362321344e+01    0.1426412    0.1166271  26.24            0    1.017    0.016
       238  -8.9474     46.2751    202.6405   9.8865960460e+01   2.7576395261e+01    0.1276204   0.07205338  57.89 0.0003221641    1.657    0.396
       239  -9.5102    193.9994    201.4674   6.6835920249e+01   8.4749552445e+00     0.172997   0.09741323  29.77 0.0005243717    1.557    0.358
       240 -10.8159      4.5016    201.0604   1.0852640387e+02   3.1688946485e+01    0.1592856   0.09923639  88.48 0.0006216089    1.561    0.360
       241  -9.4174     18.6296    194.7611   1.0498859545e+02   3.1811467749e+01    0.1637865   0.09442223  78.07   0.00095247    1.665    0.399
       242  -9.6550     13.4641    180.4786   1.0560828997e+02   3.5260984247e+01    0.2150786   0.09143879  78.10 0.0007374036    2.380    0.580
       243  -9.0530     22.6616    179.6939   1.0321676931e+02   3.4651419385e+01     0.114621   0.09080616 -34.86 0.0003883351    1.677    0.404
       244  -8.9250      3.6604    177.6734   1.0798103200e+02   3.6625839221e+01    0.1123313   0.08533569 -43.57 0.0007051509    1.731    0.422
