#   1 NUMBER                 Running object number                                     
#   2 MAG_AUTO               Kron-like elliptical aperture magnitude                    [mag]
#   3 X_IMAGE                Object position along x                                    [pixel]
#   4 Y_IMAGE                Object position along y                                    [pixel]
#   5 X_WORLD                Barycenter position along world x axis                     [deg]
#   6 Y_WORLD                Barycenter position along world y axis                     [deg]
#   7 A_WORLD                Profile RMS along major axis (world units)                 [deg]
#   8 B_WORLD                Profile RMS along minor axis (world units)                 [deg]
#   9 THETA_WORLD            Position angle (CCW/world-x)                               [deg]
#  10 FWHM_WORLD             FWHM assuming a gaussian core                              [deg]
#  11 ELONGATION             A_IMAGE/B_IMAGE                                           
#  12 ELLIPTICITY            1 - B_IMAGE/A_IMAGE                                       
         1 -12.6471    171.0900     29.1363   1.3326118827e+01   3.8942682903e+01    0.7815738    0.5952988 -59.07  0.004552087    1.337    0.252
         2  -8.2171     96.5177      5.4635   2.0027029690e+01   5.8652194815e+01    0.1249532     0.103822  47.45 0.0008092105    1.019    0.019
         3  -8.4148    112.6042      3.4985   1.5761428459e+01   5.5293374831e+01    0.1234647     0.104746  55.65 0.0008011938    1.026    0.025
         4  -8.8082    143.3354    243.0949   6.6302586881e+01   3.5330794275e+00     0.164124    0.1590602  57.87 0.0003979834    1.174    0.148
         5  -9.4906    141.6958    249.7938   6.7541203141e+01   2.6128041612e+00    0.2223038    0.1790801  22.55  0.000969134    1.197    0.164
         6 -15.4123     68.4584    137.3142   6.8288808114e+01   3.9397928645e+01     4.721622     3.440004  56.11   0.02371172    1.506    0.336
         7 -11.6110    149.5096    178.0465   5.4306787696e+01   1.5525703587e+01    0.7363646    0.3130818 -54.65   0.00135219    2.679    0.627
         8 -10.9694    147.1163    184.7372   5.6134373549e+01   1.4512988311e+01     0.419327     0.320323  49.93  0.002105265    1.322    0.244
         9 -11.2953    139.5013    168.3363   5.4837921121e+01   1.9598508105e+01    0.4866479    0.3712657  -8.77  0.001362669    1.768    0.434
        10 -10.4256    200.0490    185.8309   4.4702351444e+01   4.6613702129e+00      0.38536    0.1864909  29.59  0.001112848    2.415    0.586
        11 -11.8179    170.0664    226.9650   5.8248070980e+01   2.1435179411e+00    0.4575578    0.3962787   7.29  0.002321695    1.116    0.104
        12  -9.6724    193.2655    183.9849   4.5731524381e+01   6.2026851775e+00    0.1967653     0.174584 -29.63 0.0004508394    1.105    0.095
        13 -11.3523    186.6805    167.7830   4.3880060805e+01   1.0598984961e+01     0.724822    0.3372963 -35.41  0.002774406    2.417    0.586
        14 -10.7618    191.5383    166.5420   4.2607782273e+01   9.9278974002e+00    0.4836643    0.3743186 -56.77  0.001818954    1.450    0.310
        15 -11.4340    181.9380    179.9515   4.7333628546e+01   9.0434164253e+00    0.5419936    0.3546454 -31.24  0.001325219    1.654    0.396
        16 -11.9509    179.9185    174.6526   4.6720051830e+01   1.0487048956e+01    0.6374582    0.4300314 -55.48  0.002456311    1.685    0.406
        17  -9.6497    216.0346    221.5029   4.8057632981e+01  -4.0690110684e+00    0.1984246    0.1517587 -26.90 0.0006690474    1.259    0.206
        18 -10.6124    204.1557    221.4854   5.0359407329e+01  -2.2906943309e+00    0.2308486     0.178099 -31.41 0.0008165705    1.308    0.235
        19  -9.6525     20.7624    180.5299   8.7076535439e+01   3.4206942425e+01    0.2539814    0.1800974 -77.07  0.000864928    1.226    0.184
        20  -9.9867    175.0588    179.1591   4.8675009502e+01   1.0478954701e+01    0.2623211    0.2103123 -40.03 0.0009646338    1.259    0.205
        21 -10.8515    208.0910    217.3348   4.8871508852e+01  -2.2067720591e+00    0.4296589    0.1781809 -38.90  0.001530344    2.437    0.590
        22 -12.1901    124.9227    172.1636   5.9223795665e+01   2.1457905255e+01     0.606434    0.4545124  64.05  0.002889991    1.515    0.340
        23 -11.5754    107.2467    156.6539   6.0893499852e+01   2.8365771034e+01    0.6784937    0.4434199 -30.65   0.00286365    2.050    0.512
        24 -11.2671    115.5204    155.9894   5.8537760763e+01   2.7024220136e+01    0.7343549    0.4631335 -33.43  0.002563896    2.027    0.507
        25 -11.1227    113.1404    145.0906   5.6940351410e+01   3.0086367669e+01    0.5587013    0.2714152 -47.30  0.001775614    2.085    0.520
        26 -11.0893    120.8592    164.8188   5.8868128675e+01   2.3932392774e+01    0.5312843     0.343301  67.34   0.00218269    2.119    0.528
        27 -10.9027    115.4886    162.0885   5.9744435236e+01   2.5568550204e+01    0.3412108    0.3011827 -85.00  0.000673581    1.198    0.165
        28 -10.1027    125.6196    160.4080   5.6768220770e+01   2.4082875861e+01    0.3256796    0.2767083  -9.31  0.001598512    1.424    0.298
        29  -9.5068      4.9917    218.1843   9.3160838000e+01   2.7186500729e+01    0.2326234    0.1291442 -72.53 0.0008203317    1.660    0.398
        30 -10.0514    120.7286    157.8941   5.7539816485e+01   2.5599562783e+01    0.3175296    0.2612143 -22.62 0.0008206324    1.454    0.312
        31 -11.7378    134.1692    148.0254   5.1978895259e+01   2.5318273533e+01     1.234566    0.2966795 -52.79  0.003104928    4.820    0.793
        32 -10.4520    131.9387    138.6984   5.0494028876e+01   2.7929201796e+01    0.5633731    0.3544435  78.46  0.001961257    3.036    0.671
        33 -10.4607    187.1666    152.3334   4.0535147149e+01   1.3635139633e+01    0.3569648    0.2734202  57.19  0.001105225    1.472    0.321
        34 -10.5473    151.7127    151.2167   4.8294990037e+01   2.1052335593e+01     0.292279    0.2409481 -84.55 0.0009455212    1.477    0.323
        35 -10.9696    111.0088    148.9523   5.8329539673e+01   2.9550700635e+01    0.4485946    0.3393849  82.50 0.0008875712    1.665    0.400
        36 -10.7637    156.3372    148.1006   4.6505368517e+01   2.0799265206e+01    0.3635077    0.2833333 -84.10 0.0009823455    1.682    0.406
        37 -11.3975    144.3821    146.1002   4.8973046607e+01   2.3698446718e+01    0.6918562    0.3924192 -71.38  0.002304124    3.239    0.691
        38 -11.1013     27.9548    146.1321   8.1573937685e+01   4.1884341485e+01    0.5193273    0.2490033 -57.04  0.002199488    1.838    0.456
        39 -10.9111    188.0476    213.2765   5.2199828166e+01   1.6598378859e+00    0.4387667    0.2811714   1.09  0.002060105    2.131    0.531
        40 -13.8611     54.3757    229.8553   8.3869770619e+01   1.9267797140e+01    0.3709334    0.3322664 -64.24 0.0009839131    1.359    0.264
        41 -10.9601     11.1922    206.7470   9.1211705960e+01   2.9093745081e+01    0.4642938    0.3011004  25.42  0.002152512    1.888    0.470
        42 -18.6674     77.8522    215.2525   7.7236184193e+01   1.9250652384e+01     5.145902     3.586231  48.35   0.01365553    1.275    0.215
        43 -10.6423    118.9861    132.5035   5.2557909414e+01   3.1961883443e+01     0.333951    0.2896611  23.57  0.001678482    1.246    0.197
        44 -10.4876      3.7941    132.1730   8.6826579911e+01   4.7134648114e+01    0.3117473    0.2415022 -45.55  0.001383355    1.339    0.253
        45 -10.4692      8.1297    128.6125   8.5170449162e+01   4.7711592494e+01    0.4559676    0.2280146 -24.35  0.002092949    2.954    0.661
        46 -10.6653     39.5558    131.2379   7.6041653967e+01   4.4436041400e+01    0.2703815    0.2042388 -34.66 0.0005825287    1.461    0.316
        47 -10.3102    182.5024    202.2866   5.1417275252e+01   4.6011763280e+00    0.2668447    0.2417893  32.14 0.0005615377    1.113    0.102
        48 -10.9882    159.5710    124.6993   4.0362774588e+01   2.5212435489e+01    0.5764734    0.3734793 -71.25  0.002168528    2.284    0.562
        49 -10.4515     34.7083    127.8899   7.7008938844e+01   4.5745993931e+01    0.2231415     0.206152  77.98 0.0001969837    1.131    0.116
        50  -9.3984    122.4122    125.7546   5.0038726640e+01   3.2851918682e+01    0.2195405    0.1456212 -39.08 0.0009432692    1.610    0.379
        51  -9.4860    241.2974    197.3546   3.9126264718e+01  -3.8930959722e+00    0.1322603   0.08613812  -9.29 0.0004739677    1.696    0.410
        52 -10.5304    139.2728    118.9471   4.3913827519e+01   3.0865749880e+01    0.5442618    0.3400502  69.95  0.001500558    2.458    0.593
        53  -8.9608    111.3255    120.9010   5.1979582430e+01   3.6172328019e+01    0.2145963    0.1919633 -45.72 0.0004119416    1.117    0.105
        54 -10.4692     20.9701    120.3372   8.0164568790e+01   4.8787505164e+01    0.3855199    0.2341349 -17.29   0.00133529    2.207    0.547
        55 -12.2346    143.3875    177.8819   5.5739465557e+01   1.6714497392e+01     0.838551    0.4976119 -56.21  0.002952431    1.838    0.456
        56  -9.7616    168.5092    113.9385   3.5739764234e+01   2.5486380497e+01    0.3535493    0.2557105 -74.19    0.0014967    1.793    0.442
        57  -8.1861    149.2849    115.6819   4.0607993243e+01   2.9392568514e+01    0.1553137    0.1225751 -85.05 0.0002827637    1.588    0.370
        58  -9.2636     13.8469    192.4513   8.9642773644e+01   3.2069177525e+01    0.2006124    0.1395769 -82.63  0.000259175    1.223    0.182
        59  -9.9772    103.5086    112.8970   5.2299458403e+01   3.9518949902e+01     0.276171    0.2130474  57.62  0.001243999    1.439    0.305
        60  -8.5274     91.4851    111.4878   5.5608073382e+01   4.2033626957e+01    0.1473266    0.1449652 -56.86 4.716097e-05    1.026    0.026
        61 -12.6054     64.4401    106.4677   6.3168692291e+01   4.7463668789e+01     1.010839    0.6404447 -33.01  0.004338996    1.773    0.436
        62  -8.3548    182.4747    107.5579   3.1270702227e+01   2.3636785642e+01    0.1470653    0.1424626 -72.36 3.354402e-05    1.018    0.017
        63  -9.7245    115.8104    102.8017   4.6106388988e+01   3.9349329150e+01    0.2103201    0.1827004  86.05 0.0005512094    1.343    0.255
        64  -9.2080     39.0527    102.4983   7.1027073180e+01   5.1443335811e+01     0.185977    0.1336429  18.39 0.0007977418    1.552    0.356
        65 -10.6667     65.7436     91.1011   5.8944779086e+01   5.0790111364e+01    0.4910684    0.2319971  31.93  0.001711213    2.206    0.547
        66  -8.9873      9.9852     84.8576   7.8128803636e+01   5.7813367115e+01     0.208477    0.1096003 -29.80  0.001075309    2.003    0.501
        67  -9.3970     82.1080     83.3016   5.1152226665e+01   4.9883895259e+01    0.1952927    0.1794312  29.93 0.0004583122    1.101    0.092
        68  -8.8706     24.8342     78.8582   7.1193673016e+01   5.8100967959e+01    0.1566449    0.1475013  75.53 0.0004387123    1.306    0.234
        69 -11.3896    147.1811     69.3717   2.8759074728e+01   3.8848129964e+01    0.4768794    0.3889123  86.29  0.001276486    1.365    0.267
        70  -8.1672    133.3196     65.7391   3.0929548604e+01   4.2691452266e+01    0.1424631     0.112627  88.61 0.0002150152    1.548    0.354
        71 -12.5434    157.4911     57.1754   2.3200493329e+01   3.8369077070e+01    0.8547718     0.792016  44.62  0.003106959    1.154    0.133
        72 -11.5492    162.1864     47.7602   1.9739665471e+01   3.8633372401e+01    0.4844446    0.4332093  53.22 0.0008044358    1.152    0.132
        73  -9.1522    172.0581     48.7034   1.8290176500e+01   3.6134313209e+01    0.1942402    0.1605519  66.32  0.001098562    1.124    0.110
        74  -9.0177    198.7568    246.8590   5.5542703164e+01  -5.4831001002e+00    0.1793634    0.1410161   5.07 0.0004051383    1.137    0.121
        75  -8.7295    210.9928     19.7540   6.2763219546e+00   3.0822036643e+01    0.1713885    0.1355318 -89.79 0.0001931632    1.066    0.062
        76  -9.0281     18.0292    190.0602   8.8513721102e+01   3.2232196741e+01    0.1831054    0.1504443  85.38  0.000301601    1.028    0.027
